#   1 NUMBER                 Running object number                                     
#   2 MAG_AUTO               Kron-like elliptical aperture magnitude                    [mag]
#   3 X_IMAGE                Object position along x                                    [pixel]
#   4 Y_IMAGE                Object position along y                                    [pixel]
#   5 X_WORLD                Barycenter position along world x axis                     [deg]
#   6 Y_WORLD                Barycenter position along world y axis                     [deg]
#   7 A_WORLD                Profile RMS along major axis (world units)                 [deg]
#   8 B_WORLD                Profile RMS along minor axis (world units)                 [deg]
#   9 THETA_WORLD            Position angle (CCW/world-x)                               [deg]
#  10 FWHM_WORLD             FWHM assuming a gaussian core                              [deg]
#  11 ELONGATION             A_IMAGE/B_IMAGE                                           
#  12 ELLIPTICITY            1 - B_IMAGE/A_IMAGE                                       
         1 -11.6237     78.8649     67.4306   1.0435134121e+02   5.3313825545e+01     1.802419    0.7208972 -41.81  0.007347797    2.402    0.584
         2 -12.2877     60.6379     44.7203   1.0303325228e+02   5.9945877444e+01    0.9492524    0.4445996 -38.64  0.004647024    2.035    0.509
         3 -11.7490    177.9876     22.1536   6.6687950759e+01   3.7795016550e+01    0.9005293    0.4957519  -5.60  0.003681986    3.481    0.713
         4 -11.9154    105.6630     32.9331   8.4439194667e+01   5.3562944416e+01    0.9750914    0.5111583   9.93  0.003298362    3.809    0.737
         5 -11.4266    105.9502     20.1135   7.9854311440e+01   5.4949334641e+01    0.3930648     0.251127 -24.42 0.0006544095    1.723    0.420
         6 -11.7217     26.3271     27.7372   1.1040617862e+02   6.6639393001e+01    0.4310008    0.3771134   7.84  0.002606469    1.371    0.271
         7 -11.7470     22.8386     11.0984   1.0521871729e+02   6.9277287453e+01    0.5326853    0.3036648  -9.07  0.002938864    1.640    0.390
         8 -12.7170     18.2144     22.4917   1.1198361139e+02   6.8155545557e+01    0.8651836    0.5840255  42.18  0.005547484    2.464    0.594
         9 -11.7905     16.6470     13.8088   1.0922401996e+02   6.9513424102e+01    0.3141202    0.1745344 -24.49  0.000396994    1.465    0.318
        10 -11.3246     13.0267      9.5234   1.0912649091e+02   7.0401214742e+01    0.3980313    0.2086325  20.52  0.002533905    1.832    0.454
        11 -10.8347    153.2840     25.0872   7.1435651444e+01   4.3538745022e+01    0.5634333    0.3290898   3.78  0.002402091    2.968    0.663
        12 -11.9265    244.4396     14.2743   5.7561797932e+01   2.3059665617e+01    0.3178021    0.2148151 -35.48  0.001445439    1.700    0.412
        13 -12.6029    238.2667     15.1688   5.8271559557e+01   2.4310313893e+01    0.4348738    0.3978484 -60.15  0.002487038    1.305    0.233
        14 -12.1701    234.1024     16.4974   5.8916690143e+01   2.5082837232e+01    0.4027472    0.3298102  48.72   0.00168251    1.619    0.382
        15 -12.4217    245.3850      6.3157   5.5938882427e+01   2.3773991766e+01     1.176512     0.456049  88.22  0.005075065    2.905    0.656
        16 -11.7788    239.9823      7.6944   5.6637212208e+01   2.4793629193e+01    0.3306193    0.1867888 -66.62  0.001158295    1.592    0.372
        17 -10.1997     86.7683      7.1814   8.0131324687e+01   6.0065414781e+01    0.5551118     0.283806  50.06  0.002763776    1.666    0.400
        18 -11.3428     90.7320     19.9276   8.3866564682e+01   5.8064434885e+01     0.508476    0.3993889 -16.60  0.002507873    1.338    0.252
        19 -11.4621     86.0458     14.2652   8.3063400195e+01   5.9547017362e+01     0.505203    0.2912113  -6.02  0.002316295    2.025    0.506
        20 -10.0742     31.9760     12.1264   1.0160480405e+02   6.8159511431e+01    0.2298874    0.1802908  45.18  0.001426691    2.106    0.525
        21 -10.9864     47.1361     18.3557   9.7990785557e+01   6.5498730354e+01    0.3671159    0.2654686   7.95  0.002461795    1.146    0.128
        22 -10.4006     38.8324     21.2244   1.0252940776e+02   6.6196671369e+01    0.3929665    0.1424033 -34.67  0.001910325    2.543    0.607
        23 -11.6484     35.8369     18.2669   1.0256146101e+02   6.6939187401e+01    0.4994206    0.2132182 -27.92   0.00228039    2.230    0.551
        24 -12.0882     49.3033     12.9744   9.4877870554e+01   6.5830370021e+01    0.6338151    0.2903165  41.47  0.003408497    2.186    0.543
        25 -12.1078     69.7679     17.9998   8.9601789387e+01   6.2091410422e+01    0.6518782    0.3545499  49.75  0.003485799    1.995    0.499
        26 -11.0217    165.4027     17.1581   6.7207701888e+01   4.1424503520e+01    0.3777994    0.2312461  43.39  0.001133383    1.728    0.421
        27 -12.0489    133.5668     15.2552   7.2111101675e+01   4.9260195187e+01     1.354261    0.2525738  58.98  0.004301199    3.849    0.740
        28 -11.3809    125.4495     11.1529   7.2402996686e+01   5.1512809576e+01    0.6666666    0.3654918  77.29  0.003059727    2.355    0.575
        29 -10.0087    193.9729      1.4459   5.9581100622e+01   3.6043534665e+01    0.1908999    0.1043553  74.17 0.0003715265    1.514    0.339
        30 -10.3957    186.4780     15.0303   6.3726945859e+01   3.6487915506e+01    0.2977951    0.1772014  58.76 0.0006527959    1.504    0.335
        31 -11.4925    192.1097      8.1004   6.1358153583e+01   3.5839019501e+01    0.4780333    0.3364252   6.02  0.001891258    2.305    0.566
        32 -12.1099    105.0368     13.0612   7.7577110924e+01   5.5833496664e+01    0.4175937    0.3553134  16.44  0.001936359    1.158    0.136
        33 -11.2837     42.3915     14.2359   9.8149984669e+01   6.6625589105e+01    0.3808091    0.1779662  32.43  0.001659112    1.979    0.495
        34 -11.9077    211.5697      9.7310   5.9641427924e+01   3.1034216535e+01    0.4404978    0.3511363   8.13  0.001943511    1.989    0.497
        35  -9.7459      4.5825     10.7146   1.1372392816e+02   7.0908783099e+01    0.2908133    0.1406366 -27.79   0.00185819    1.642    0.391
        36  -9.5956    157.4293      9.5686   6.6319903053e+01   4.4108577634e+01    0.3579215   0.05978895 -36.55  0.001135798    5.182    0.807
        37 -10.6549     66.3723     10.4440   8.7659376918e+01   6.3454304307e+01    0.3290777    0.1729594  39.30  0.001852602    1.626    0.385
        38 -10.1528    168.8601     10.0855   6.4797385006e+01   4.1285636486e+01    0.2984894    0.1497808  55.48  0.001454378    1.719    0.418
        39 -10.7384    163.0395      5.6894   6.4432855883e+01   4.3106579692e+01    0.4002343     0.221357 -12.15  0.001958179    2.592    0.614
        40  -9.6383    151.4517      8.0199   6.6806497632e+01   4.5689266356e+01    0.3779078    0.0808903  52.08  0.001038348    3.514    0.715
        41  -9.9629      1.2509      7.3599   1.1399587107e+02   7.1603460276e+01    0.1503321   0.06988557 -40.97 0.0001792529    1.809    0.447
        42 -10.7112    199.6303      6.1328   6.0066160584e+01   3.4235709210e+01    0.3214179     0.167927  80.10 0.0008909936    1.708    0.415
        43 -11.0669     77.5525      4.8755   8.1856672915e+01   6.2004940792e+01    0.4985929    0.2882467  -5.19  0.002829311    1.903    0.475
        44 -10.4678     63.1119      6.1126   8.6944456213e+01   6.4415265876e+01    0.2333425     0.165041   4.03 0.0009686737    1.275    0.216
        45 -10.6370     42.3895      3.5391   9.3450416675e+01   6.7801743421e+01    0.4598778    0.2233148   2.22  0.002246921    2.853    0.650
        46 -10.3896    173.7232      4.3581   6.2652044181e+01   4.0642714142e+01     0.450468    0.1640016  69.69  0.001890528    2.310    0.567
        47 -10.9675    218.6047      3.3626   5.7591076618e+01   3.0072610151e+01    0.3303616    0.2425331  81.19 0.0008076058    1.133    0.117
        48 -11.6768    223.6835      1.8878   5.6834125026e+01   2.9065320853e+01    0.5780895    0.2437911  86.51  0.002358217    2.400    0.583
        49 -10.4071    141.8275      3.7142   6.7099339523e+01   4.8348562664e+01    0.3247654    0.1985438  63.41  0.001784644    1.344    0.256
        50 -12.1869    133.9117      2.6079   6.8106690652e+01   5.0288934467e+01    0.3468046    0.2240217  56.50  0.000502867    1.251    0.201
        51 -11.1009    113.8054      2.2890   7.1842366274e+01   5.4857679538e+01    0.4840541     0.194208  62.60  0.001842463    2.227    0.551
        52 -10.6808     71.5030      3.2395   8.3022361191e+01   6.3237149831e+01    0.2587959    0.2059083  16.57  0.001803468    1.073    0.068
        53 -11.2538    205.4405      2.2660   5.8595700261e+01   3.3247618405e+01    0.4221017     0.197826  83.87  0.001149911    2.025    0.506
        54  -9.5423    157.7849      2.8073   6.4390646480e+01   4.4624812874e+01     0.180756    0.1374504 -84.80  0.001076037    1.354    0.262
        55 -11.0816      2.8760      1.8502   1.1079824116e+02   7.2212241288e+01    0.3500847    0.1505181  11.94   0.00206782    2.430    0.588
        56 -11.3178    106.3655      2.2622   7.3437494486e+01   5.6469695827e+01      0.57447    0.2510287  66.45  0.002170389    2.514    0.602
        57 -11.5563    104.9363    121.1413   1.1131273088e+02   3.7496599381e+01      0.51081    0.4902771  89.40  0.002182715    1.075    0.070
        58 -10.4921     45.7311    120.6497   1.2842327190e+02   4.6372097082e+01    0.2868721    0.2201811  89.29  0.001030057    1.468    0.319
        59 -10.7029     34.4436    119.2606   1.3145570692e+02   4.7839613866e+01    0.2485485     0.204206 -53.26 0.0008490481    1.088    0.081
        60  -9.2891     37.5070    115.5003   1.2988482127e+02   4.8412362185e+01     0.225337    0.1226273 -35.37  0.001077809    2.143    0.533
        61  -9.8151    114.0055    115.9722   1.0748930858e+02   3.6926506689e+01    0.2230394    0.2192063 -41.69 0.0003650829    1.007    0.007
        62  -8.9209     35.0219     92.8285   1.2609127567e+02   5.3725311216e+01     1.529603    0.7877563 -69.75  0.007166981    2.282    0.562
        63 -11.9582     37.2012     85.9552   1.2379181498e+02   5.4992647514e+01     1.379146    0.3856224  23.12  0.004928099    4.647    0.785
        64 -11.2325     44.6989     85.2680   1.2108067515e+02   5.4378774781e+01    0.8260756    0.5756478  75.63   0.00414023    2.544    0.607
        65 -12.2943      9.6733     97.4724   1.3510282555e+02   5.4655211125e+01    0.9362416    0.6777582  59.33  0.006017685    1.801    0.445
        66 -12.0851      7.3425     88.8511   1.3432031577e+02   5.6646768814e+01    0.4906445    0.3736943 -52.58  0.001141189    1.028    0.027
        67 -11.0268     21.6148    114.2673   1.3433390549e+02   5.0089633091e+01    0.3014292    0.2323265 -13.29 0.0009005365    1.607    0.378
        68 -11.4626     28.4742    113.1166   1.3212924275e+02   4.9787185284e+01    0.4226789    0.2920837  26.64   0.00211152    1.728    0.421
        69 -12.6383     25.8798    107.2966   1.3187073760e+02   5.1321496802e+01     1.113195    0.5659212 -29.70   0.00529184    2.578    0.612
        70 -12.6302     18.7975    106.2530   1.3382476459e+02   5.2105898857e+01    0.3829862    0.2427397 -43.62 0.0003791782    1.443    0.307
        71 -13.1142     19.5834     95.7036   1.3167622241e+02   5.4374499520e+01    0.4838035    0.4008218  24.99 0.0005873686    1.466    0.318
        72 -12.3235     18.4490     90.3567   1.3100327172e+02   5.5611831991e+01    0.5923858    0.2666886 -44.99 0.0005484726    1.852    0.460
        73 -10.1219      7.2348    114.5400   1.3848089586e+02   5.1042114526e+01    0.2257054    0.1990752  83.51  0.001076487    1.247    0.198
        74 -11.6532      2.4590    112.0897   1.3947605598e+02   5.1874374862e+01    0.4321118    0.2129205 -64.82 0.0008752423    1.514    0.340
        75 -10.9988      5.7209    108.6455   1.3805742993e+02   5.2444620709e+01    0.2375963    0.1552679 -47.36 0.0007013009    1.362    0.266
        76 -11.7100      3.1095    104.8609   1.3825353982e+02   5.3428803797e+01    0.3811356    0.2836711   1.40  0.001624389    1.724    0.420
        77  -9.7526     87.3318    114.3138   1.1473141367e+02   4.2168673095e+01    0.2962239    0.1629157  56.38  0.001161266    2.557    0.609
        78 -10.6925     67.0770    111.9814   1.2025450005e+02   4.5765754393e+01    0.4644117    0.2892797 -62.48  0.002034489    1.608    0.378
        79 -10.6446    107.8418    112.3767   1.0830048249e+02   3.8939043911e+01    0.3295318    0.2294325  78.85  0.001360201    2.272    0.560
        80  -9.8289     48.9387    112.3428   1.2584339490e+02   4.7940862332e+01    0.2267341    0.1742257 -70.83  0.001194028    1.291    0.226
        81 -10.6247    170.4831    110.2224   9.1750302021e+01   2.5531619639e+01    0.3913159    0.3592541 -38.61  0.001704307    1.116    0.104
        82 -10.3946    175.1301    107.3004   8.9971442587e+01   2.5005734818e+01     0.357991     0.274537  11.43  0.001221449    1.813    0.448
        83  -9.4873     93.3019    110.6512   1.1206797844e+02   4.1990157818e+01    0.1489061    0.1169046  88.27 0.0007039189    1.692    0.409
        84 -10.9001     79.1228    108.5205   1.1578062162e+02   4.4799351012e+01    0.5406542    0.3570961  44.53  0.002462251    1.665    0.399
        85  -9.2656    130.3320    107.6628   1.0087441920e+02   3.5349083497e+01    0.1616754    0.1252413 -89.04 0.0007052043    1.739    0.425
        86  -9.9564    157.9760    105.7410   9.3439524124e+01   2.9428351326e+01    0.2637755    0.2310251 -43.32 0.0006311818    1.158    0.137
        87 -10.0830    143.4932    105.8505   9.6990149976e+01   3.2787528769e+01    0.3017938    0.2634675  74.75  0.001361196    1.254    0.203
        88 -11.0904     86.2335    105.2298   1.1280392353e+02   4.4402329893e+01    0.4411869    0.3236447  11.48   0.00185993    1.702    0.412
        89 -10.1883     48.0019    103.0603   1.2416654861e+02   5.0151271875e+01    0.2002355    0.1860666  -8.23 0.0003590499    1.175    0.149
        90 -10.3305     51.5726     99.9436   1.2233350938e+02   5.0442517084e+01    0.3635029    0.1604896 -40.98 0.0009644135    2.266    0.559
        91  -9.0383     82.2708    102.6865   1.1335981331e+02   4.5609527769e+01    0.1365666    0.1126712 -88.62 0.0004588304    1.553    0.356
        92 -10.1027    146.0482     99.6492   9.4669192466e+01   3.3474055834e+01    0.3680855    0.2686245 -15.74  0.001596834    1.809    0.447
        93 -10.5785     66.7187     99.4126   1.1738333291e+02   4.8644083282e+01    0.3981567    0.2623907  55.01   0.00191042    2.024    0.506
        94 -10.8255     68.3841     95.8405   1.1595159325e+02   4.9193760017e+01    0.3308663    0.2773963 -13.84 0.0008897025    1.253    0.202
        95 -10.4331     57.7477     97.8837   1.1987066378e+02   5.0156188162e+01    0.2406366    0.1800086 -70.76 0.0007948873    1.527    0.345
        96  -9.5061     77.9767     97.2549   1.1328141564e+02   4.7472960530e+01    0.1835254    0.1772373 -13.44 0.0002944375    1.065    0.061
        97  -9.4425    140.4458     96.4801   9.5193363728e+01   3.5409324803e+01    0.1539253     0.150816  23.80 0.0001082505    1.029    0.028
        98 -10.4244     42.9877     95.0467   1.2398276403e+02   5.2461160529e+01    0.2729443    0.2606158  25.12  0.001834869    1.221    0.181
        99 -10.3731    126.2930     93.2527   9.7975532522e+01   3.9230375751e+01    0.3341766    0.2861194  35.10 0.0007353818    1.171    0.146
       100 -10.6264    122.1414     93.8632   9.9275265267e+01   4.0002265604e+01    0.2721248    0.2511327 -89.96  0.001054723    1.224    0.183
       101 -11.1453     81.3626     92.9044   1.1105391287e+02   4.7873440806e+01    0.6027581    0.4395551  55.96  0.002373135    1.730    0.422
       102 -11.1143     89.2827     90.0186   1.0778075078e+02   4.7161860149e+01    0.4123198    0.2902093 -38.79  0.001072455    1.366    0.268
       103 -10.0283     92.8905     85.7316   1.0543829282e+02   4.7405281328e+01    0.2565379    0.2079652   2.36 0.0009535316    1.361    0.265
       104 -11.7769     79.5958     82.6064   1.0872002886e+02   5.0284122356e+01     1.198022    0.8408037  88.89  0.005099695    2.957    0.662
       105 -10.9745     66.9308     81.7519   1.1263264901e+02   5.2360227530e+01    0.4654813    0.3530176 -12.15  0.002576201    1.422    0.297
       106  -9.6258    152.5700     92.3125   9.1067833920e+01   3.3391636133e+01    0.2877566    0.1493425 -44.60  0.001111912    1.980    0.495
       107 -10.2670    117.3097     92.9883   1.0036285116e+02   4.1199205134e+01    0.3461112     0.203844  35.55  0.001455699    1.817    0.449
       108 -10.4740    101.9049     91.0188   1.0423822880e+02   4.4670292917e+01    0.3750251    0.2940296  80.02  0.001557235    1.827    0.453
       109 -10.9854    113.3339     84.9606   9.9156890074e+01   4.3624067327e+01    0.5907813    0.2784848 -36.64  0.001473428    2.254    0.556
       110 -11.1444    143.9434     83.1207   9.0541992296e+01   3.7182816369e+01    0.4520305    0.3454381 -11.76  0.002103478    1.648    0.393
       111  -9.3066    212.2298     87.5594   7.7874062087e+01   1.9769464109e+01    0.2001064    0.1361002  47.64 0.0006748654    1.588    0.370
       112 -10.1954    165.5507     83.0824   8.5578110551e+01   3.1975861266e+01     0.358723    0.2762507 -58.99  0.001464193    1.419    0.295
       113  -9.7020    127.4753     83.4987   9.4840597866e+01   4.0881413750e+01    0.1511317    0.1443618  18.50 0.0001018666    1.033    0.032
       114 -10.3343    108.6363     80.8292   9.9275395980e+01   4.5378326932e+01    0.3373024    0.2709656 -11.83  0.001183619    1.378    0.274
       115 -11.0040     58.3299     78.1351   1.1452211217e+02   5.4247984111e+01    0.3421454     0.293624 -62.63  0.001009791    1.366    0.268
       116 -10.1780     53.5604     80.5184   1.1681689469e+02   5.4358193482e+01    0.2840254    0.1984243 -41.00 0.0007329299    1.250    0.200
       117 -11.3111     52.9973     76.0354   1.1577523716e+02   5.5332328015e+01    0.4671259    0.3255406 -44.61  0.002672016    1.273    0.214
       118 -11.9384     13.9202     74.5353   1.2921789778e+02   5.9226251397e+01    0.4032794    0.3444456 -46.65  0.002141765    1.107    0.097
       119 -10.2247     13.8277     54.1574   1.2421903045e+02   6.3201028079e+01    0.4851629    0.2319491 -15.46  0.002332901    2.616    0.618
       120 -11.9001      2.0191     71.4739   1.3275683217e+02   6.0527947762e+01    0.6385852    0.1365071 -60.04  0.002580002    3.097    0.677
       121 -11.3340     11.3876     62.4598   1.2731357876e+02   6.1784470806e+01    0.3989829    0.1956488  13.67  0.002051692    2.386    0.581
       122 -11.4177     13.9957     66.4802   1.2732352736e+02   6.0833261648e+01     0.438413    0.2942046 -81.21 0.0007288289    2.161    0.537
       123  -9.8508    104.4885     76.4208   9.9151447868e+01   4.7037149533e+01    0.3135409    0.1403742 -40.73  0.001231062    2.238    0.553
       124 -10.5215     94.0161     76.4812   1.0233186487e+02   4.9012699980e+01    0.4359809    0.2836495  37.22  0.001460219    1.544    0.352
       125 -11.7806     85.6589     73.6582   1.0409132024e+02   5.1024847940e+01    0.6221161    0.5836144 -14.72  0.003442402    1.064    0.061
       126  -9.8487     50.9920    250.0000   1.4294584012e+02   1.6777363827e+01     0.184193   0.05587007  39.98 0.0008075364    2.978    0.664
       127 -11.7104     74.4821     49.4739   9.9839380153e+01   5.7083441442e+01    0.6459578    0.4215636  42.30  0.001628844    1.623    0.384
       128 -10.3838     72.3833     46.1988   9.9403067501e+01   5.7932914309e+01     0.296911    0.2195505 -42.44  0.001721357    1.528    0.346
       129 -11.6011    186.6853     70.6752   7.8049784268e+01   2.8884136570e+01    0.6802541    0.5777038  -9.17  0.003276971    1.482    0.325
       130 -11.2078     32.8888     71.9463   1.2180443684e+02   5.8275021988e+01    0.4886506    0.2499898  26.38  0.002602014    2.187    0.543
       131 -10.2107     38.4794     73.5092   1.2021035596e+02   5.7431247679e+01    0.2150854    0.1739608 -13.89 0.0006418539    1.209    0.173
       132 -11.2429     41.7918     70.5124   1.1820298328e+02   5.7687648656e+01    0.3856692    0.2713372 -43.90  0.001519987    1.220    0.180
       133 -11.5938      6.4901     62.5306   1.2916514794e+02   6.2060049788e+01     0.705973     0.125398 -50.71  0.002924832    3.064    0.674
       134  -9.9405    161.5061     70.2396   8.2859920008e+01   3.5213978194e+01     0.293659    0.2053798  58.16  0.001381526    1.367    0.269
       135 -11.4404    122.5133     68.4351   9.1615142487e+01   4.4704695814e+01    0.5724713    0.3561904  47.69  0.002072247    1.542    0.352
       136  -9.7710    207.9951     68.3543   7.3878552232e+01   2.4022319509e+01    0.2908559    0.1668045  48.69  0.001286305    1.886    0.470
       137 -10.0998    171.9827     67.7360   8.0028433216e+01   3.3030534779e+01    0.3014897    0.2208999 -49.05  0.001466571    1.425    0.298
       138 -11.3148    219.7776     66.3511   7.1635139727e+01   2.1523460822e+01    0.5765048    0.2977641  63.55  0.002433373    1.917    0.478
       139 -10.3143     71.5420     55.9940   1.0308172312e+02   5.6486045363e+01    0.6192655     0.401182   6.61  0.003138617    1.865    0.464
       140 -10.2355     71.4939     80.5477   1.1077211284e+02   5.1944626662e+01    0.2670729    0.2184696 -12.93 0.0006240633    1.225    0.184
       141  -9.2770     25.7140     65.0315   1.2260637220e+02   6.0254879218e+01    0.1703242    0.1172436 -43.39 0.0004241083    1.169    0.145
       142 -10.3565     20.9513     65.1297   1.2440780511e+02   6.0609518595e+01    0.1792897    0.1385234 -35.64 0.0007833447    1.039    0.038
       143 -10.3355    204.2591     63.9146   7.3370018079e+01   2.5637783797e+01    0.2439648    0.2089229  41.15 0.0002551902    1.365    0.268
       144 -10.4254     97.9014     62.7061   9.6790333134e+01   5.0764039316e+01     0.414215    0.2625596   8.35   0.00180202    2.293    0.564
       145 -10.9770     92.0282     62.2685   9.8452147686e+01   5.1941669231e+01    0.3588459    0.3175568  31.87  0.001121163    1.136    0.120
       146 -10.8276     91.0615     57.9755   9.7336110483e+01   5.2839997676e+01    0.3453059    0.2929713  14.57  0.001119437    1.105    0.095
       147 -10.5341     87.6084     56.9285   9.8075099686e+01   5.3639118914e+01    0.3899074    0.2126161 -37.62  0.001320359    1.830    0.454
       148 -10.9268     58.2227     61.7772   1.0966281809e+02   5.7393073834e+01     0.418327    0.2974713 -49.68  0.001627022    1.512    0.339
       149  -9.9167    177.5258    247.5244   1.1842320007e+02  -3.0916035786e+00    0.1309945    0.1081724  33.16 0.0001191912    1.019    0.018
       150 -10.9108     60.5087     36.7024   1.0014996016e+02   6.1170783354e+01    0.3020387    0.1969974 -29.41  0.001043938    1.441    0.306
       151  -9.4963    167.3455     63.0255   7.9637582265e+01   3.4943634535e+01    0.1913849    0.1820941 -60.70 0.0001820314    1.095    0.087
       152 -10.4729    159.5159     61.6455   8.0832632658e+01   3.7101763917e+01    0.4314722    0.2366452  45.06  0.001821888    1.832    0.454
       153 -10.1712    113.3054     61.0192   9.1777523034e+01   4.7934177080e+01     0.342564    0.2222978 -37.71  0.001591039    1.603    0.376
       154  -9.9135     51.9783     47.8006   1.0732563338e+02   6.0624893126e+01    0.2617504    0.1903798 -23.74  0.001614715    1.200    0.167
       155 -12.2107     49.3250     59.9807   1.1233030367e+02   5.8839675779e+01    0.7451029    0.5393228  64.54  0.003876288    2.681    0.627
       156 -11.2482     33.9381     43.9055   1.1301959583e+02   6.3334819135e+01    0.5873824    0.4318256 -30.09  0.002877938    1.125    0.111
       157 -11.9582     46.2422     48.6719   1.0980257372e+02   6.1186717063e+01    0.5218642    0.3354345 -27.46  0.001211532    1.384    0.277
       158 -12.0693     41.7766     45.4758   1.1044275461e+02   6.2236591110e+01    0.3335334    0.2541567  21.82 0.0003218783    1.368    0.269
       159 -10.1536     32.6963     53.3304   1.1656493192e+02   6.1823612941e+01    0.2263965    0.1880545  11.07  0.001110175    1.286    0.222
       160  -8.6766     25.7260     59.8575   1.2118531282e+02   6.1243182413e+01    0.8073682     0.384245  45.86  0.003617358    3.870    0.742
       161 -11.3500     25.3879     55.1611   1.1996962309e+02   6.2145317929e+01    0.5394252    0.3003359   5.94   0.00275002    2.086    0.521
       162 -10.0553     29.2971     52.6587   1.1768852445e+02   6.2259760423e+01    0.1690975    0.1593828   7.10 0.0006923448    1.342    0.255
       163 -10.9880    122.3082     58.8058   8.8648278319e+01   4.6338592691e+01    0.3935673    0.3297031  58.24  0.001524142    1.243    0.196
       164 -10.6880    117.7322     56.0081   8.8959353762e+01   4.7781766021e+01     0.524808    0.2981528  54.72  0.002355593    1.805    0.446
       165 -10.5746    136.7719     56.0516   8.4196836622e+01   4.3459691467e+01    0.6255611    0.3819417  26.07  0.002644326    2.208    0.547
       166  -9.7979    145.3202     52.1345   8.1062148811e+01   4.2009556228e+01    0.3396547    0.2471238  35.54  0.001697237    1.445    0.308
       167 -11.1428    145.9674     46.2372   7.9145421630e+01   4.2690941628e+01    0.4939781     0.302578 -26.15  0.002067933    1.882    0.469
       168 -11.1152    157.4356     55.2225   7.9412834071e+01   3.8600222730e+01     0.546278     0.372904 -48.22  0.002642384    1.601    0.375
       169  -9.8371    155.2129     49.9934   7.8345764320e+01   3.9911197456e+01    0.2476295    0.2045997 -13.13 0.0006172271    1.431    0.301
       170  -9.4506     34.8229     56.9278   1.1684509540e+02   6.0967187558e+01    0.1496128    0.1371754 -45.08  0.001048527    1.314    0.239
       171  -9.2395      1.8055     56.3614   1.2946886857e+02   6.3492303890e+01    0.1376255   0.08914322 -15.54 0.0004380841    1.564    0.361
       172  -9.7815     67.1610     54.9238   1.0424248888e+02   5.7334010594e+01    0.1851781    0.1717747 -29.64 0.0006452155    1.244    0.196
       173 -10.9863    249.1715     52.9031   6.4949981765e+01   1.6906211996e+01    0.3275904     0.219337 -79.87  0.001479961    1.485    0.326
       174  -8.7550     98.0000     52.9727   9.3532471509e+01   5.2327341385e+01    0.2171773   0.07666241 -36.31  0.000797589    2.909    0.656
       175 -11.3342    240.0083     50.6232   6.5494633927e+01   1.9253028594e+01    0.2954583    0.2609222 -75.72 0.0008958247    1.082    0.075
       176 -10.9321    112.9244     50.2155   8.8357695684e+01   4.9694076126e+01    0.8950586     0.745917 -26.64  0.005089018    1.257    0.204
       177 -12.7267    117.2341     42.0743   8.4521923536e+01   4.9908114772e+01    0.8932843    0.5922621  73.50  0.003539781    2.135    0.532
       178 -12.9436    120.5624     39.3358   8.2778905541e+01   4.9533562851e+01     0.751628    0.6297988 -61.71   0.00217223    1.509    0.338
       179 -10.5888    173.6364     48.2047   7.4362470327e+01   3.5592601065e+01    0.4397856    0.2840326  73.66  0.002081147    1.583    0.368
       180  -9.7302      2.5780     48.7964   1.2725483219e+02   6.4860520113e+01    0.2254866    0.1533712   6.69  0.001594707    1.628    0.386
       181 -10.2920      3.8666     44.3384   1.2551528783e+02   6.5595194599e+01    0.4517804    0.1751992 -23.66  0.002166254    3.042    0.671
       182 -10.6120    201.9566     46.7317   6.9477476635e+01   2.8766518566e+01    0.3734465    0.2242302 -47.74  0.001810538    1.665    0.399
       183  -9.7489     90.4680     48.0835   9.4153171787e+01   5.4508329158e+01    0.1941614    0.1836869  58.26  0.000596842    1.325    0.245
       184 -10.6361     26.0126     48.0205   1.1755482591e+02   6.3373708950e+01    0.3024762    0.1667932  -5.14            0    2.158    0.537
       185 -10.9910     21.0747     47.2254   1.1930312752e+02   6.3924401495e+01    0.2814398    0.2485437 -28.10  0.001333758    1.222    0.182
       186 -10.0849     17.9643     42.1138   1.1898265136e+02   6.5055062474e+01    0.2729515    0.1380131 -11.43  0.001448789    2.370    0.578
       187  -9.3868    193.5625     45.8236   7.0485579954e+01   3.0961739769e+01    0.1938048    0.1223359 -50.90 0.0009340092    1.629    0.386
       188  -9.5242     54.8947     51.1768   1.0739396706e+02   5.9685021474e+01    0.1674236    0.1237355  -3.95  0.000467093    1.300    0.231
       189  -9.7123    139.2525     43.7922   7.9848417938e+01   4.4632609673e+01    0.2763709    0.1401374  47.90  0.001198709    1.789    0.441
       190 -10.4290    100.2370     43.0819   8.9487527205e+01   5.3343857887e+01    0.3069911    0.2491788 -56.37  0.001418475    1.650    0.394
       191 -11.1282     93.9977     41.2834   9.0692919293e+01   5.4820755835e+01    0.5292771     0.260591  43.39  0.001840199    1.870    0.465
       192  -9.3565    161.8493     43.4305   7.5164248846e+01   3.9183638315e+01    0.3337863    0.1371313  68.60  0.001164513    2.897    0.655
       193 -11.2935    156.1820     41.8064   7.5769313512e+01   4.0798908267e+01     0.342169    0.2966942  48.83 0.0007831716    1.105    0.095
       194 -11.1283     40.2095     56.0611   1.1451913233e+02   6.0576033159e+01    0.4091162     0.323808 -74.39    0.0015278    2.027    0.507
       195  -9.2139    188.9620     42.0137   7.0211253747e+01   3.2625316699e+01    0.1620015    0.1486005 -71.43 0.0003084723    1.103    0.094
       196 -11.0125     81.4615     39.5370   9.3973630286e+01   5.7380601584e+01    0.4447809    0.3087809  48.14  0.001774674    1.578    0.366
       197 -11.0253     77.6273     34.1092   9.3226926621e+01   5.8791019901e+01    0.3798534    0.2348146  31.34  0.001176297    1.497    0.332
       198 -11.1749     82.2797     31.3849   9.0707986366e+01   5.8321626209e+01    0.5145474    0.3131614  49.85  0.002509475    1.745    0.427
       199 -11.0504    231.5894     39.4110   6.4023501607e+01   2.2737449754e+01    0.3292254    0.2167011 -61.73  0.001196971    1.412    0.292
       200 -11.2266      4.5741     35.8981   1.2272546958e+02   6.7020964923e+01    0.3614891    0.1967774 -30.21 0.0008331541    1.471    0.320
       201  -9.2920      6.0589     30.8959   1.2047000207e+02   6.7761258331e+01    0.2852995    0.1335023  -0.63  0.001594876    2.495    0.599
       202 -10.7770    176.6817     36.8975   7.0789235848e+01   3.6353089635e+01    0.3460653    0.2581506 -44.34  0.001872779    1.431    0.301
       203 -10.3619    172.3495     33.0416   7.0447713575e+01   3.7913906832e+01    0.3000702    0.2175681 -79.62  0.001013605    1.533    0.348
       204  -9.8240    198.7881    244.6013   1.1379034207e+02  -6.2544029787e+00    0.1851476    0.1053276  45.28 0.0009504522    1.673    0.402
       205 -11.8991    182.4234     25.4110   6.6900611692e+01   3.6330473911e+01     0.587251    0.2615914  50.85 0.0006578933    2.206    0.547
       206  -9.8714    133.4351     37.3645   7.9125100206e+01   4.6842273633e+01     0.357979    0.2174618 -66.19  0.001482197    2.845    0.649
       207 -10.8980     22.6370     36.4981   1.1515621710e+02   6.5611930539e+01    0.3266518    0.2231762  38.46  0.001534368    2.063    0.515
       208  -9.7403    206.9582     36.9958   6.6440348778e+01   2.8875992950e+01    0.2246327    0.1454132 -71.15  0.001125457    1.631    0.387
       209 -10.2281    153.2805     36.0257   7.4635309628e+01   4.2252943226e+01    0.2480399    0.1872412  67.68 0.0003093901    1.238    0.192
       210 -11.3900    127.2255    241.9019   1.2766942331e+02   6.6093428179e+00    0.3149045    0.2351133 -60.59  0.001845452    1.551    0.355
       211  -9.0008     15.3317    233.3567   1.4793437797e+02   2.4270623915e+01    0.1001786   0.07766846 -58.49 0.0007043569    1.791    0.442
       212 -11.6119    115.5305     24.5046   7.9029954576e+01   5.2417341211e+01    0.4518956    0.2212539  48.48  0.001217657    1.728    0.421
       213 -11.4078    110.2188     23.4112   7.9944665153e+01   5.3691411741e+01     0.328417     0.256646  44.25  0.001128589    1.104    0.094
       214 -11.1551     69.8600     32.5299   9.5249418379e+01   6.0305039276e+01    0.4315424    0.2500838  34.41 0.0008195783    1.597    0.374
       215 -11.0499    240.7845     31.7550   6.1427294226e+01   2.1685634574e+01    0.2912072     0.242007  74.27  0.001671486    1.245    0.197
       216  -9.9767    160.6358     33.2958   7.2498298944e+01   4.0782730704e+01    0.3511501    0.1643222  65.58  0.001476652    2.009    0.502
       217 -10.0586    159.5366     29.9068   7.1726028905e+01   4.1458915273e+01    0.2930109    0.2037754 -24.95  0.001160977    1.691    0.409
       218 -11.3001    164.4272     27.5615   7.0235194132e+01   4.0527582181e+01    0.3557243    0.3159015 -62.05  0.001269364    1.213    0.176
       219 -10.3678    139.7078     31.6873   7.6008974065e+01   4.6055734868e+01    0.4021612    0.2434713   8.22  0.001745804    2.634    0.620
       220 -10.3516    189.5167     27.2779   6.6387348064e+01   3.4362742818e+01    0.3413572    0.2438686  36.93  0.001216109    1.771    0.435
       221 -11.0916     56.2701     30.8845   9.9506302704e+01   6.2602879620e+01    0.3769324    0.2150298  39.21  0.001575948    1.822    0.451
       222 -11.9891     48.0702     30.2560   1.0240303191e+02   6.3809067523e+01    0.6321739    0.2686427  27.94  0.002539074    2.435    0.589
       223 -10.5289    146.7861    237.9272   1.2316766079e+02   3.9112990739e+00    0.3800216    0.2194648 -75.66  0.001613136    3.167    0.684
       224  -9.2451      9.0253    227.4678   1.4864481145e+02   2.6094283190e+01    0.1450807   0.09473208  47.75 0.0003568379    1.524    0.344
       225  -9.5112    234.4709    222.5285   1.0310241023e+02  -8.8314522358e+00    0.1301204    0.1075709   7.49 0.0003095164    1.022    0.022
       226  -9.2610    120.3421    220.2856   1.2614147642e+02   1.1985106286e+01    0.1292261    0.1085175   9.31 0.0003488163    1.640    0.390
       227  -9.8962      9.7680    217.9530   1.4791495875e+02   2.7942821673e+01    0.1497277   0.07389438 -78.94 0.0008819179    1.650    0.394
       228 -10.0234    199.6024     24.7998   6.4462117507e+01   3.2191465732e+01    0.2732184    0.2073394 -87.59 0.0005303661    1.198    0.166
       229 -12.0124    125.0457     27.3732   7.7784880915e+01   4.9969386175e+01    0.6050571    0.4010208  53.65  0.002561114    1.318    0.241
       230  -9.6630    100.1036     30.1676   8.4977685465e+01   5.5044007692e+01    0.2116025    0.1584096  25.33  0.001114289    1.249    0.200
       231 -10.2370    230.4750     26.9713   6.1462520994e+01   2.4625172135e+01    0.1836485    0.1193075 -41.24  0.001023839    1.567    0.362
       232  -9.3645    165.3352    211.6646   1.1509077483e+02   5.3651443743e+00    0.1451887    0.1091191  73.08 0.0007052045    1.742    0.426
       233  -9.9542    156.8234     25.1499   7.0835861499e+01   4.2668252207e+01    0.2884463    0.1804902  64.24 0.0005152414    1.397    0.284
       234 -10.8538    250.4215     24.4407   5.9046501200e+01   2.0520821291e+01    0.3525006    0.1078229 -42.12  0.001204964    2.746    0.636
       235 -11.7262    246.2467     20.6455   5.8664209661e+01   2.1896898973e+01    0.3415383    0.2336538 -79.76  0.001469468    1.245    0.197
       236  -9.6070    152.5099    207.4982   1.1714751412e+02   8.6348602016e+00    0.1447394    0.1309832  48.09 0.0008106024    1.007    0.007
       237 -10.2773      4.4982    204.6095   1.4797961531e+02   3.1217197992e+01    0.2320167   0.08634873 -75.56  0.001197181    2.135    0.532
       238  -9.3753    233.5292    197.0112   9.8419898411e+01  -4.6757136864e+00    0.2002947    0.1254289 -35.33 0.0005892569    1.558    0.358
       239 -11.0208     17.1304    192.5040   1.4464038939e+02   3.2620729381e+01    0.2110994    0.1515608 -86.43 0.0002805702    1.091    0.083
       240 -12.4059      5.0672    184.9816   1.4644378620e+02   3.5375853771e+01    0.6950439    0.4028936  81.78  0.003879751    1.473    0.321
       241 -11.3508    215.0045     23.6471   6.2383147947e+01   2.8635014350e+01    0.3681589    0.3008748 -47.78  0.001051597    1.299    0.230
       242 -10.3555    144.3820     24.9150   7.3015477750e+01   4.5709552142e+01    0.4413644    0.2123122  71.24  0.001834151    2.336    0.572
       243 -11.0793    138.0187     21.4899   7.3191073410e+01   4.7590901435e+01    0.4165669    0.1697766  53.70  0.001389257    2.004    0.501
       244 -10.0290    141.8033     19.6180   7.1894327472e+01   4.6886604758e+01    0.3370692    0.1762374  61.45  0.001417788    1.646    0.392
       245  -9.6591     59.8973     24.2974   9.5577835194e+01   6.2933381515e+01     0.195169    0.1416063 -28.36 0.0005767729    1.414    0.293
       246  -9.9192    169.7592    191.3015   1.1038115605e+02   8.5152908595e+00    0.4050795    0.1697586  33.89  0.001271905    2.827    0.646
       247 -10.0705     81.3811     19.1611   8.6339333234e+01   5.9917255611e+01    0.3065884    0.1458243  44.93 0.0009400283    1.838    0.456
       248  -9.2882    167.2563    181.9784   1.0910078645e+02   1.0944373859e+01    0.1904741    0.1316616 -47.20 0.0005297123    1.522    0.343
       249 -11.9155      9.1331    166.4537   1.4400685968e+02   3.9148056893e+01    0.4869856     0.350022 -73.39  0.003268318    1.145    0.127
       250 -12.0088     13.0670    157.2339   1.4220750566e+02   4.0915201406e+01    0.5194093     0.362641 -86.09  0.001349375    1.185    0.156
       251  -9.6716    198.1052    167.7037   9.9388746118e+01   7.4370044747e+00    0.2097196    0.1911021  21.41 0.0007108181    1.091    0.083
       252 -10.2103     18.6592    165.3251   1.4177513314e+02   3.8581509780e+01    0.2351736     0.186569 -70.35  0.001228907    1.157    0.136
       253 -10.1451    205.1862    163.3622   9.6981910131e+01   6.8184641998e+00    0.2639307    0.2406534 -39.85 0.0006948594    1.104    0.095
       254  -9.6556    188.7890    164.1658   1.0059602136e+02   1.0113642644e+01    0.2138861    0.1805779  -5.68 0.0007549034    1.345    0.256
       255  -9.6917    223.5043     22.4512   6.1208115148e+01   2.6789178977e+01     0.226512    0.1648238 -89.08 0.0006885453    1.185    0.156
       256 -10.0907    221.0141     19.0163   6.0718135484e+01   2.7778186489e+01    0.1925688    0.1593843 -88.81            0    1.039    0.038
       257 -10.3173     66.1506     21.8671   9.2382812679e+01   6.2248273084e+01    0.1967075    0.1488747  24.18  0.001270354    1.133    0.118
       258  -9.8917     80.2835    160.1272   1.2606901416e+02   3.2369663503e+01    0.3504666    0.1996197  40.06  0.001612752    1.812    0.448
       259  -9.4794      1.6177     20.7921   1.1901941901e+02   6.9634633861e+01      0.14392   0.09837537 -19.49 0.0007272864    1.121    0.108
       260  -9.1461    158.4751     20.4509   6.9218338961e+01   4.2774487454e+01    0.1364174    0.1156745  62.06 0.0001822596    1.035    0.034
       261 -10.6173    104.6269    152.9999   1.1844687683e+02   3.0015013809e+01    0.4918446    0.2966401 -66.79   0.00209435    1.842    0.457
       262  -9.5116    225.6468     17.3325   5.9892272270e+01   2.6905472721e+01    0.1408299   0.07900102 -70.22 0.0007045806    1.784    0.439
       263  -9.7370    191.7300     16.6159   6.3459825843e+01   3.5038378073e+01     0.218831    0.1719257  -7.35   0.00126435    1.789    0.441
       264  -9.1737    170.7534     17.5892   6.6527887702e+01   4.0068273077e+01    0.1743511    0.1139414  78.61 0.0002407082    1.434    0.303
       265 -10.2358    145.5406     16.1235   7.0163331597e+01   4.6344977201e+01    0.2687441     0.180736  65.26  0.001465322    1.297    0.229
       266 -10.5118     31.3123    153.9778   1.3748180113e+02   4.0015777668e+01    0.3768274    0.2491235  74.41  0.002128807    1.596    0.374
       267 -10.7005     30.4924    149.0217   1.3704186038e+02   4.1258588440e+01    0.2762157    0.1910747  67.58 0.0005879108    1.545    0.353
       268 -12.1365     22.8902    149.3119   1.3896525582e+02   4.1897848215e+01    0.5449803    0.2999913 -33.24   0.00264947    2.783    0.641
       269 -11.1421     15.9661    148.0813   1.4051010688e+02   4.2775445102e+01    0.3223727    0.1943063  37.09  0.001743265    1.903    0.474
       270 -12.3950      4.9476    147.5289   1.4308866758e+02   4.3749150849e+01    0.6082248    0.3351177 -59.90  0.002756868    1.525    0.344
       271 -11.5754      2.9196    141.8783   1.4297640552e+02   4.5168071098e+01    0.3356632    0.2954113 -77.70  0.002062017    1.161    0.138
       272 -11.4287      3.9969    136.4976   1.4212137819e+02   4.6310473360e+01    0.2433948     0.185907 -67.17 0.0004700976    1.092    0.084
       273 -10.1453    218.7776     12.8632   5.9607744760e+01   2.9005767111e+01    0.3414614    0.1096019  56.09  0.001360279    3.107    0.678
       274 -10.7613     62.0837    150.0060   1.2907009439e+02   3.7415793961e+01     0.453811    0.3270769 -81.08  0.001975528    1.378    0.274
       275  -9.5269     41.9718    148.5016   1.3405796662e+02   4.0200406352e+01    0.2282266    0.1923148 -24.31  0.001397786    1.523    0.344
       276 -10.5318     47.2893    151.3524   1.3311420747e+02   3.8924918168e+01    0.4267482    0.2215503  36.63  0.002091016    2.093    0.522
       277 -11.0289     47.0359    146.3627   1.3242653145e+02   4.0144078250e+01    0.4894085    0.2973144 -68.81  0.001791735    1.448    0.309
       278  -9.6478    108.8763    146.0964   1.1590840969e+02   3.0885529532e+01    0.2175042     0.195858  84.65            0    1.133    0.117
       279  -8.7200     74.3023    145.6836   1.2507146656e+02   3.6755829430e+01    0.1447763    0.1049355  78.65 0.0007023093    1.620    0.383
       280 -10.7143     33.1177    144.4040   1.3574814220e+02   4.2087428387e+01    0.2433513    0.2190986 -89.40  0.000824687    1.113    0.102
       281  -9.7162    133.4818    140.9917   1.0836605951e+02   2.7193884364e+01    0.2425803    0.1543516 -47.96 0.0006798966    1.575    0.365
       282 -11.5239     14.2946    140.0070   1.3996111893e+02   4.4765838825e+01    0.2254154    0.2117046 -26.75  0.001648528    1.353    0.261
       283 -11.8205     29.8897    132.9386   1.3493911986e+02   4.5083624719e+01    0.5947328    0.3285324 -77.13 0.0005414972    1.745    0.427
       284  -9.9600     26.4781    140.0292   1.3685543517e+02   4.3738599827e+01    0.2457539    0.1151914 -47.02 0.0009507812    2.198    0.545
       285 -12.0200     22.8187    135.6705   1.3721056720e+02   4.5073326752e+01    0.5629818    0.3998945  62.93  0.003427978    1.575    0.365
       286 -10.4262     81.8316    135.0143   1.2093420121e+02   3.8185268922e+01    0.4518741    0.3063749   0.39  0.001664187    2.460    0.593
       287 -10.7424     71.4261    134.0903   1.2365574057e+02   3.9960759442e+01     0.532466    0.3100694  19.01  0.002303491    2.458    0.593
       288 -10.4160     47.5566    134.2250   1.3032525435e+02   4.2974490788e+01    0.2589903    0.1916923 -61.87 0.0006574775    1.163    0.140
       289 -11.0898     14.3491    133.5604   1.3913774576e+02   4.6240847044e+01    0.2914892    0.1764313 -89.67  0.001639971    1.671    0.402
       290 -10.8666     10.8469    127.0405   1.3920613267e+02   4.7984601938e+01    0.4211143      0.14782 -52.57  0.001545602    2.342    0.573
       291 -10.0154     92.7747    128.9088   1.1655492470e+02   3.7853544438e+01    0.3173792    0.2108396  45.18  0.001395401    1.581    0.367
       292 -10.1091     78.7414    128.3155   1.2040562637e+02   4.0259094071e+01    0.2840026    0.1707067 -49.65  0.000864498    1.552    0.356
       293 -10.6650      2.9954    123.9330   1.4088510078e+02   4.9203887069e+01    0.4663933    0.1897025 -53.71  0.002414569    1.985    0.496
       294 -10.7896     18.3131    125.2808   1.3695402319e+02   4.7835091204e+01    0.3792262    0.1464529 -59.23  0.001091535    1.957    0.489
       295 -11.0371     55.4412    123.1574   1.2607357290e+02   4.4668333602e+01    0.4970784    0.3359205  18.04   0.00168401    1.859    0.462
       296 -11.0952    198.4917     28.8220   6.5573956034e+01   3.1976085036e+01    0.3929786    0.2430151  55.17  0.001723027    1.586    0.369
