#   1 NUMBER                 Running object number                                     
#   2 MAG_AUTO               Kron-like elliptical aperture magnitude                    [mag]
#   3 X_IMAGE                Object position along x                                    [pixel]
#   4 Y_IMAGE                Object position along y                                    [pixel]
#   5 X_WORLD                Barycenter position along world x axis                     [deg]
#   6 Y_WORLD                Barycenter position along world y axis                     [deg]
#   7 A_WORLD                Profile RMS along major axis (world units)                 [deg]
#   8 B_WORLD                Profile RMS along minor axis (world units)                 [deg]
#   9 THETA_WORLD            Position angle (CCW/world-x)                               [deg]
#  10 FWHM_WORLD             FWHM assuming a gaussian core                              [deg]
#  11 ELONGATION             A_IMAGE/B_IMAGE                                           
#  12 ELLIPTICITY            1 - B_IMAGE/A_IMAGE                                       
         1 -11.9612     67.7663    145.5298   1.2873714814e+02   3.7511444804e+01     1.015318    0.5928583 -85.00  0.003599906    2.188    0.543
         2 -13.9964      3.0576    179.7208   1.4747772068e+02   3.6631240149e+01     6.778339    0.9971124 -70.01   0.02489004    4.165    0.760
         3 -12.3057    198.6264     24.6786   6.7107225431e+01   3.2779073099e+01    0.9308884    0.7422153 -15.13  0.005343221    1.610    0.379
         4 -12.0683    205.1832     20.8459   6.5354253659e+01   3.1643077532e+01    0.9624693    0.6865199 -63.90  0.004503998    1.377    0.274
         5 -11.8037    210.8083     14.0561   6.3099186081e+01   3.1071903110e+01    0.7028158    0.5515947  88.36  0.003234602    1.097    0.088
         6  -8.7621    232.2041     13.2406   6.0777110182e+01   2.6182302652e+01    0.2642066    0.1549435 -41.98 0.0008620165    1.654    0.395
         7  -8.6783      9.6955      9.6917   1.1233199441e+02   7.0382352381e+01    0.1096664   0.06004663 -16.99 0.0002462673    1.607    0.378
         8  -9.6031      3.5935      6.1900   1.1372483054e+02   7.1323240385e+01    0.1497982   0.06886722 -32.31 0.0009483421    1.656    0.396
         9  -7.9457    176.0197      1.2217   6.3932058073e+01   4.0713185474e+01    0.1665891   0.09043903  69.44 0.0008414466    1.555    0.357
        10 -12.6600     96.9934    228.2077   1.3400333875e+02   1.4688540800e+01      4.32458    0.6353477  49.79  0.009814586    8.797    0.886
        11  -9.2713    249.7669    249.8168   1.0839556654e+02  -1.4113283481e+01    0.2294892    0.1445599  39.86  0.001430372    1.602    0.376
        12 -10.1405    239.4930    249.3161   1.1010307705e+02  -1.2565481802e+01    0.2910486    0.1726074  48.16  0.001640616    2.069    0.517
        13  -9.7637     27.5819    249.4698   1.4808113597e+02   2.0094979778e+01    0.1933922    0.1471933  76.69 0.0007160656    1.148    0.129
        14 -11.2904     12.3036    242.3399   1.5004563905e+02   2.3101024339e+01    0.8179432    0.2604679  68.34  0.003713946    3.443    0.710
        15 -11.6085      5.8964    248.6698   1.5136187681e+02   2.2606963261e+01    0.9232327     0.429068  56.03  0.006191032    1.655    0.396
        16 -10.5739      6.4533    242.2400   1.5094194651e+02   2.3727110646e+01     0.356988    0.1428282 -83.97   0.00209052    2.072    0.517
        17  -8.6990     25.3568    231.2381   1.4725001623e+02   2.3794900353e+01    0.1729121    0.1365037 -89.46 0.0004657758    1.232    0.188
        18  -9.3267     55.9722    219.7613   1.4090348521e+02   2.2368657341e+01    0.1660544    0.1270545  72.07  0.001101369    1.055    0.052
        19  -9.2266     25.8193    215.2225   1.4601201224e+02   2.6941510764e+01    0.1481949    0.1178088 -76.53 0.0008645053    1.330    0.248
        20 -12.0761      9.4947    207.6741   1.4834685418e+02   3.0171614781e+01    0.5949825    0.5342839  33.51   0.00276966    1.688    0.408
        21  -8.6872     26.1221    204.1829   1.4508093893e+02   2.9200651495e+01    0.1627858    0.1056678  72.20  0.000452298    1.285    0.222
        22 -11.7026     37.4271    225.1604   1.4473275100e+02   2.3600101405e+01    0.3318025    0.2519704 -70.50 0.0007577876    1.437    0.304
        23  -7.3422    138.9797    198.9776   1.2124969900e+02   1.3339884888e+01    0.1606028    0.1450344  59.51 0.0009181845    1.014    0.013
        24 -13.5425     45.0195    215.7196   1.4256763447e+02   2.4601071658e+01     3.412015     1.341895  89.60   0.01341868    3.717    0.731
        25 -10.6198     63.5350    192.8652   1.3653987935e+02   2.7114471706e+01     0.330666    0.2424164 -48.79  0.001264023    1.700    0.412
        26  -8.0682    239.8166    191.4323   9.9490823058e+01  -4.3835653280e+00    0.1799238    0.1172572  26.60 0.0004876145    1.587    0.370
        27  -9.8775    171.0053    206.3210   1.1578164368e+02   5.8063617822e+00    0.2142958    0.1995364 -52.40 0.0002130602    1.177    0.151
        28  -8.1092    223.0260    188.0227   1.0191420891e+02  -8.0244430918e-01    0.1589828    0.1433032 -11.00            0    1.050    0.048
        29 -10.7445     69.0807    185.6399   1.3445402936e+02   2.7969281199e+01    0.2947127    0.2263325 -62.84 0.0004109637    1.301    0.231
        30 -10.0524     78.6338    173.9817   1.3068878469e+02   2.9260232771e+01    0.2516386     0.216894 -73.63 0.0003984113    1.100    0.091
        31  -8.1674    227.7547    174.0116   9.8143494511e+01   7.4029905457e-01    0.1835367    0.1137899 -37.44 0.0005893809    1.559    0.359
        32 -12.2928     65.8522    171.2606   1.3322112719e+02   3.1717054723e+01     0.510322    0.2754152 -46.72  0.001876732    2.212    0.548
        33 -11.6278     85.9414    165.5530   1.2765457857e+02   3.0111585518e+01     1.287087    0.6212217  58.26  0.002946731    2.613    0.617
        34  -8.1531     91.4802    248.5395   1.3722996874e+02   1.1704118891e+01    0.1223006   0.09466428  65.44  0.000151069    1.008    0.007
        35  -8.8450    117.8850    150.9956   1.1717028043e+02   2.8009263281e+01    0.2121571    0.2018548 -75.66 0.0003216734    1.031    0.030
        36  -9.1780     98.6638    149.7305   1.2169770423e+02   3.1766006891e+01     0.284007    0.2651503 -63.76 0.0009251164    1.080    0.074
        37  -8.4931    101.3214    146.0823   1.2030546590e+02   3.2169928327e+01    0.2617701    0.1915687 -46.25 0.0004527915    1.392    0.282
        38 -11.0511     87.2845    148.9097   1.2440365145e+02   3.3831592892e+01     0.289102    0.2505387 -48.91 0.0005340009    1.208    0.172
        39  -8.5989     38.8506    147.8127   1.3628614446e+02   4.0461623765e+01    0.1899544      0.15441 -58.92 0.0005759764    1.206    0.171
        40  -7.9962    183.0436    143.4698   1.0031517976e+02   1.5946932300e+01    0.2100313    0.1522254  47.80 4.263895e-05    1.391    0.281
        41  -7.8180     46.5277    167.4884   1.3710830786e+02   3.5041961109e+01     0.129971    0.1052804 -86.08 4.700501e-05    1.020    0.020
        42  -8.6938    109.9817    136.0350   1.1596916808e+02   3.2978087002e+01     0.323348    0.1901215 -32.21 0.0009889457    2.371    0.578
        43  -8.7965    115.5102    135.8240   1.1450118930e+02   3.1991047887e+01    0.2467675    0.2040349  46.00  0.000281557    1.250    0.200
        44  -9.5721     97.1723    132.8294   1.1861319296e+02   3.6006124796e+01    0.2548749    0.2193224 -35.44 0.0004179987    1.263    0.208
        45 -10.3734    229.2985    136.6862   8.9681532675e+01   7.2024864728e+00    0.2549163    0.2387505 -49.05 0.0003169003    1.072    0.067
        46  -8.2433    106.9347    123.2599   1.1385126787e+02   3.6499595068e+01    0.1911806    0.1851452  44.82 0.0002709011    1.095    0.087
        47  -7.6540    176.2395    120.7206   9.6278476576e+01   2.2221538526e+01    0.1490237    0.1202743 -74.36  0.000188721    1.446    0.308
        48  -9.4226    247.3998    118.0289   8.2438326425e+01   6.8226112085e+00    0.2377343    0.2052902  48.85  0.000187916    1.287    0.223
        49  -8.8941     53.5929    114.5850   1.2677997015e+02   4.6555678789e+01    0.2866342   0.07405342 -48.48  0.000959732    3.441    0.709
        50  -9.8885    167.5765    113.1982   9.6268383403e+01   2.5793504340e+01    0.3966738    0.3172987  89.62  0.001058355    1.526    0.345
        51  -9.8345     52.8349    229.1151   1.4232664549e+02   2.0889792212e+01    0.2438251    0.1601771  81.32 0.0003722823    1.281    0.219
        52 -13.1685     51.9549    208.3074   1.4055651200e+02   2.5283627509e+01     2.451638     0.875509  61.04  0.009456805    3.626    0.724
        53 -10.3236    245.1092    246.6952   1.0868315633e+02  -1.3066850959e+01    0.2486258    0.1526258  36.84  0.001520104    1.492    0.330
        54  -8.3853    157.5098     78.5175   8.9063949043e+01   3.4931360100e+01     0.150342    0.1472651  43.79 0.0003230583    1.031    0.031
        55  -7.6715    148.0354     75.9563   9.0463834785e+01   3.7636382597e+01    0.1697256    0.1687762 -40.35 0.0009363149    1.022    0.021
        56  -8.5721    185.6217     73.7900   8.2049708540e+01   2.8893920918e+01     0.227604    0.1964702  48.14 0.0006428967    1.199    0.166
        57  -9.7175    241.1496     61.9514   7.0598605144e+01   1.7556165941e+01    0.2295389    0.1856944  67.83 0.0002887157    1.281    0.220
        58  -8.6814    126.9897     60.0836   9.0700943196e+01   4.5144064124e+01    0.2062169    0.1964016  19.96  0.001186253    1.005    0.005
        59 -11.6251    191.0621     37.9630   7.1562650310e+01   3.2965983597e+01     1.478361    0.6547287  49.96  0.006056274    2.320    0.569
        60  -8.5902    107.0106    243.9879   1.3392236745e+02   1.0111228754e+01    0.1983594    0.1253529  71.62 0.0005500543    1.643    0.391
        61 -10.3060     18.5839    242.5411   1.4907449673e+02   2.2388675520e+01    0.2233405    0.1534571  88.31  0.000454008    1.161    0.138
        62 -10.3306    137.6921     36.9913   8.0834939996e+01   4.6068828725e+01    0.2341139    0.2165516  42.84 0.0002387273    1.009    0.009
        63  -8.0765    155.2978     39.3370   7.7988235349e+01   4.1585102640e+01    0.1445396    0.1036467  27.77 0.0007032439    1.655    0.396
        64  -8.1512     15.1227     18.1261   1.1330756616e+02   6.8758142491e+01    0.1286799    0.1076639 -18.06            0    1.264    0.209
        65  -9.8365     21.4115    237.5786   1.4831671116e+02   2.3013205832e+01    0.2253037    0.1786128  29.93  0.001652485    2.003    0.501
        66  -8.8039     29.9596    242.0312   1.4722118332e+02   2.1201593028e+01    0.1332137   0.09426078  73.68 0.0003337106    1.025    0.024
        67  -9.3878     53.6406    239.1574   1.4303499616e+02   1.8824432154e+01    0.2433062    0.2014272  89.75  0.001132484    1.242    0.195
        68 -10.3638     37.8989    244.0215   1.4606056164e+02   1.9884796066e+01    0.2456318    0.1541718  77.43 0.0007227132    1.244    0.196
