#   1 NUMBER                 Running object number                                     
#   2 MAG_AUTO               Kron-like elliptical aperture magnitude                    [mag]
#   3 X_IMAGE                Object position along x                                    [pixel]
#   4 Y_IMAGE                Object position along y                                    [pixel]
#   5 X_WORLD                Barycenter position along world x axis                     [deg]
#   6 Y_WORLD                Barycenter position along world y axis                     [deg]
#   7 A_WORLD                Profile RMS along major axis (world units)                 [deg]
#   8 B_WORLD                Profile RMS along minor axis (world units)                 [deg]
#   9 THETA_WORLD            Position angle (CCW/world-x)                               [deg]
#  10 FWHM_WORLD             FWHM assuming a gaussian core                              [deg]
#  11 ELONGATION             A_IMAGE/B_IMAGE                                           
#  12 ELLIPTICITY            1 - B_IMAGE/A_IMAGE                                       
         1 -13.7122    224.1663      2.9315   3.9673508868e+01   2.8324223945e+01     2.174248    0.8307323  60.09  0.006413576    2.523    0.604
         2 -14.0760    192.8055     36.9707   5.2398718178e+01   3.2227012789e+01     1.454971     1.143333 -23.99  0.003178043    1.373    0.272
         3 -14.7555    201.4347     26.9141   4.8352577342e+01   3.1293088563e+01     1.929458     1.470334  30.74  0.001470083    1.639    0.390
         4 -11.1333     48.8041     10.7919   7.8638615671e+01   6.7815122065e+01     0.214572    0.1138954   2.50 0.0009547942    2.837    0.647
         5  -9.7089     75.3200    231.6954   1.1948062670e+02   1.7855745792e+01    0.1473946   0.09497055  42.98 0.0004572754    1.459    0.314
         6 -16.3745     71.4898    149.0036   1.1078861368e+02   3.5732553026e+01     13.64579     6.369897  81.77   0.03744427    6.246    0.840
         7 -11.3721    203.8708    198.2812   9.0169841551e+01   2.1391095461e+00    0.2216823    0.1864089 -44.15  0.001343765    1.428    0.300
         8 -15.7097     54.0568    204.6255   1.2110430539e+02   2.5824652715e+01     3.329219      2.16486  68.40   0.01963595    1.280    0.219
         9 -11.0473    208.5037    196.8620   8.9038761358e+01   1.5261345038e+00    0.2281983    0.2047038  60.33 0.0006361137    1.422    0.297
        10 -10.5089     82.2823    195.0476   1.1448045992e+02   2.3943479976e+01    0.3627464    0.2077048  57.53  0.001896755    1.601    0.375
        11 -11.7111    149.6823    188.2238   9.9246732786e+01   1.3918113423e+01    0.4342241    0.3144513 -77.36  0.002109362    1.838    0.456
        12 -10.4279     96.9213    192.3608   1.1108266181e+02   2.2269265445e+01    0.2937877    0.2392395  -9.37  0.001268229    2.058    0.514
        13 -10.9088     96.8164    200.6183   1.1214570331e+02   2.0607843040e+01    0.3237062     0.260911 -34.22  0.001131836    1.841    0.457
        14 -16.5534     62.3130    247.7123   1.2296414791e+02   1.6801783401e+01     7.111601     2.339415  32.77   0.02589804    5.799    0.828
        15 -10.5516    130.5345    212.8958   1.0692015133e+02   1.2758032434e+01    0.2328488    0.1882898  87.35 0.0004450934    1.367    0.268
        16 -10.5830     99.3343    180.6778   1.0896795409e+02   2.4340471772e+01    0.2494461    0.2136548  47.08 0.0005689863    1.201    0.167
        17 -12.2570     75.4420    176.1138   1.1365011970e+02   2.8986306350e+01    0.3753434     0.273736 -40.32  0.002067398    1.928    0.481
        18 -12.2772     79.1566    171.1252   1.1215939273e+02   2.9555861468e+01    0.3544449    0.2739677 -50.09  0.001007883    1.523    0.343
        19 -11.6019     58.0913    176.5415   1.1752184733e+02   3.1240840850e+01     0.285836     0.258841  47.38  0.001539405    1.334    0.251
        20 -10.3637    219.0144    177.4765   8.3344048016e+01   2.5975066419e+00     0.201078    0.1246913  39.17 0.0003715561    1.529    0.346
        21 -11.4264    142.7511    172.3889   9.7956108455e+01   1.8349228746e+01    0.3550679    0.2861896 -78.99   0.00188472    1.431    0.301
        22 -11.7692     45.7873    172.8126   1.1980254467e+02   3.3568028393e+01    0.4042093     0.267216  46.61  0.002450604    1.498    0.333
        23 -10.3320    203.5093    167.9276   8.4339437024e+01   7.1293141675e+00    0.5889552    0.2538452  32.50  0.002130508    2.910    0.656
        24  -9.7792    163.1231    168.6401   9.2791064578e+01   1.5094333080e+01    0.2332526     0.198671 -65.41  0.000764941    1.330    0.248
        25 -10.3668    230.0000    165.9598   7.8970371215e+01   2.3566815123e+00     0.220466   0.07379562 -35.74 0.0004895549    2.922    0.658
        26 -10.3101    192.5450    165.0248   8.5908280012e+01   9.8275286692e+00    0.2915212    0.2513509 -29.77 0.0007557446    1.188    0.158
        27 -12.0718    193.1509    194.9301   9.1615960143e+01   4.6109429028e+00    0.9172738    0.4887922 -63.08  0.003026637    5.308    0.812
        28  -9.6682    157.4756    161.0492   9.2506605504e+01   1.7742721370e+01    0.2122676    0.1461369 -47.37 0.0004215553    1.523    0.343
        29 -12.4247     93.2017    154.8473   1.0638876051e+02   3.1088503485e+01     0.656621    0.4511716 -30.42   0.00307648    2.238    0.553
        30 -10.4992    188.5867    154.9758   8.4569034737e+01   1.2478523062e+01    0.5353485    0.2083781  44.73  0.001940718    2.495    0.599
        31 -11.3405    133.6461    144.3768   9.4537509498e+01   2.6109149530e+01     1.146476    0.2760821 -54.45  0.002711911    5.952    0.832
        32 -10.4619    174.6163    149.2137   8.6240358546e+01   1.6535613066e+01    0.2854736     0.206954  46.17 0.0007348505    1.350    0.259
        33 -10.8065    144.1046    146.3089   9.2468530417e+01   2.3563522432e+01    0.4193313    0.2226724 -66.36  0.001448638    3.062    0.673
        34 -11.2652    105.7075    139.9670   1.0054680052e+02   3.2412568960e+01    0.5504776    0.3398089 -37.72  0.002405497    2.036    0.509
        35  -9.3954    110.5211    140.0456   9.9342406781e+01   3.1527396081e+01    0.2497916    0.1733626  86.40  0.001115486    1.888    0.470
        36 -12.4178     93.3569    140.1223   1.0373484122e+02   3.4491852198e+01    0.2822281    0.2500876 -56.66 0.0004574696    1.153    0.133
        37  -9.9625     72.2429    230.4273   1.1992524413e+02   1.8504306789e+01    0.2606753    0.1095802  50.18  0.001387529    1.880    0.468
        38 -10.9533    105.9894    130.4111   9.8499710443e+01   3.4588245796e+01    0.4168392    0.2963234 -61.67  0.002025658    1.381    0.276
        39 -10.8714    113.7565    130.4183   9.6478730978e+01   3.3151280843e+01    0.3354611    0.2968726   6.99 0.0008265126    1.394    0.283
        40 -11.0877    135.6793    127.8689   9.0336144329e+01   2.9355967176e+01    0.6067694    0.1410154 -48.49   0.00158881    4.366    0.771
        41 -11.0394    101.0849    126.5896   9.8974895574e+01   3.6358662340e+01    0.2853327    0.2395517 -19.97 0.0006819613    1.510    0.338
        42 -11.0785    119.4489    123.8176   9.3501616314e+01   3.3571572592e+01    0.5923539    0.3685772 -15.70  0.001989415    3.620    0.724
        43 -10.1252    161.2605    128.0879   8.4291444788e+01   2.3754669997e+01    0.3987312    0.2737262  71.20  0.001663638    1.977    0.494
        44 -10.2412    109.3463    119.2847   9.5109966698e+01   3.6559864260e+01    0.2345805    0.2245549  43.57 0.0002604653    1.113    0.102
        45 -10.1240    167.7074    112.5156   7.8884307786e+01   2.5492504889e+01    0.3816896    0.2662304 -82.32  0.001508998    2.264    0.558
        46 -10.2848    135.0000    112.5387   8.6706327463e+01   3.2892828566e+01     0.349021   0.08758685 -45.42 0.0009320406    3.913    0.744
        47 -11.6523    118.5617    110.2767   9.0416627477e+01   3.6830665176e+01    0.6018285    0.4372633  65.86  0.002752441    1.656    0.396
        48 -10.0799    205.5706    110.1341   7.0499892715e+01   1.7067113022e+01    0.2767412    0.2183219  42.64 0.0005860579    1.318    0.241
        49  -9.5845    134.6137    106.1566   8.5119125684e+01   3.4371765008e+01     0.229952    0.1454394 -34.80 0.0009513469    1.715    0.417
        50 -10.5371     66.0512    104.4836   1.0410196085e+02   4.7078477480e+01    0.1944281    0.1396755  34.45 0.0008534577    1.582    0.368
        51  -9.9652     64.0321     99.7105   1.0365544540e+02   4.8473189340e+01    0.1890043    0.1768989 -60.44 0.0006140542    1.070    0.066
        52 -11.3464     41.9557     91.5489   1.0884932632e+02   5.2966020175e+01    0.2604688    0.2276311 -37.26 0.0007651617    1.208    0.172
        53 -11.0891     52.4136     90.5196   1.0523543580e+02   5.2063920522e+01    0.3002027    0.1963319 -41.37  0.001587518    1.498    0.332
        54 -19.0903      6.8624    161.7686   1.2719060142e+02   3.9842760157e+01     17.39032     2.167654 -77.73   0.04393509    8.634    0.884
        55  -9.4034    184.8329     77.3415   6.5538518131e+01   2.8010743562e+01    0.2320683    0.1358012  46.34 0.0009424887    1.785    0.440
        56  -9.9461     64.6402     70.2263   9.5748720124e+01   5.5050503204e+01    0.2264954     0.185003  27.68 0.0004113798    1.368    0.269
        57 -10.9747    157.4430     59.5215   6.5671714075e+01   3.8016478730e+01    0.3185724    0.2572493 -78.98 0.0005560839    1.476    0.323
        58 -10.6948     58.9028    227.8295   1.2209922058e+02   2.0740238848e+01    0.1943017    0.1346794  61.05 0.0005446129    1.110    0.099
        59 -13.7540    182.0716     45.7364   5.6681758560e+01   3.3798409150e+01     1.152057    0.9669052   6.85 0.0008938532    1.422    0.297
        60 -11.2484    107.1900    210.4681   1.1125135882e+02   1.7051152725e+01    0.3628197    0.1763165  42.87  0.001703518    1.799    0.444
        61  -9.0377     87.6609    202.6884   1.1425628399e+02   2.1591298504e+01    0.1120162    0.1015242 -13.50 0.0004228177    1.692    0.409
        62 -10.3812    159.8627     53.5042   6.3234306414e+01   3.8374988827e+01    0.2673307    0.2213173 -66.85 0.0004945552    1.349    0.259
        63 -10.7198     61.6082    220.5401   1.2103014436e+02   2.1749566690e+01     0.290713    0.1835456 -58.58  0.001812553    1.935    0.483
        64 -10.6863    111.6429    217.7183   1.1124709714e+02   1.4992594796e+01    0.2261219    0.1746298  63.34    0.0003012    1.128    0.113
        65 -10.3242    189.7865     14.8624   4.6370457792e+01   3.5691337149e+01    0.2081506    0.1871324  47.85 0.0006726014    1.199    0.166
        66 -10.9314     74.7122     13.0192   6.9849788834e+01   6.3264653694e+01    0.3281225    0.1916877  61.10  0.001569164    2.499    0.600
