#   1 NUMBER                 Running object number                                     
#   2 MAG_AUTO               Kron-like elliptical aperture magnitude                    [mag]
#   3 X_IMAGE                Object position along x                                    [pixel]
#   4 Y_IMAGE                Object position along y                                    [pixel]
#   5 X_WORLD                Barycenter position along world x axis                     [deg]
#   6 Y_WORLD                Barycenter position along world y axis                     [deg]
#   7 A_WORLD                Profile RMS along major axis (world units)                 [deg]
#   8 B_WORLD                Profile RMS along minor axis (world units)                 [deg]
#   9 THETA_WORLD            Position angle (CCW/world-x)                               [deg]
#  10 FWHM_WORLD             FWHM assuming a gaussian core                              [deg]
#  11 ELONGATION             A_IMAGE/B_IMAGE                                           
#  12 ELLIPTICITY            1 - B_IMAGE/A_IMAGE                                       
         1 -13.9014    172.1671     51.1513   6.4403987856e+01   3.5301623005e+01     1.840692     1.222259  26.20  0.005258494    1.917    0.478
         2 -13.4274    191.0244     30.1443   5.4748626201e+01   3.3173811129e+01    0.7654696    0.6087177  42.87  0.001123815    1.324    0.245
         3 -14.6128    209.1207      5.6626   4.5374897017e+01   3.1113196174e+01     2.123055     1.524779  13.80  0.006137965    1.789    0.441
         4 -13.4810    190.3640     14.7808   5.0102219069e+01   3.5095251747e+01    0.9308254    0.7126802 -35.45  0.003425542    1.305    0.234
         5 -12.3463     59.7926      3.1268   7.4436019823e+01   6.7580401043e+01    0.5515819    0.2121161  39.57  0.002409669    2.642    0.621
         6 -14.0910    186.1184     36.9634   5.7576849702e+01   3.3611003438e+01     1.108795      1.04367  18.83    0.0038302    1.126    0.112
         7 -10.7761    153.5856    201.2622   1.0306157601e+02   1.3096711085e+01    0.2144931      0.12351 -54.61  0.001151639    2.201    0.546
         8 -11.4989    249.0457    248.9741   9.3719066309e+01  -7.3548420899e+00    0.2622831    0.1665338  -0.46  0.001947609    1.539    0.350
         9 -18.3546     47.9170    245.4476   1.2617472986e+02   2.1271329539e+01     6.500008     4.460133  39.22   0.05096092    1.583    0.368
        10 -12.6517     64.0037    199.5511   1.2023650025e+02   2.7055902111e+01    0.3443009    0.2314325 -47.16  0.001538703    2.254    0.556
        11 -10.6881    159.6264    197.3779   1.0134195785e+02   1.2656795062e+01    0.2671427    0.1845469  27.17 0.0001851651    1.531    0.347
        12 -10.8179     82.0230    195.6668   1.1635817297e+02   2.5367842601e+01    0.2840022    0.2757909 -80.65   0.00192197    1.376    0.274
        13 -10.9893     76.5230    206.4491   1.1845757004e+02   2.4171923092e+01    0.2494486    0.1588142  87.54  0.000812474    1.609    0.378
        14 -11.2927    207.6288    194.1899   9.1995577222e+01   4.7223812159e+00    0.2032263    0.1520015 -12.66 0.0007220704    1.455    0.313
        15 -10.5724     87.7287    202.9347   1.1598125037e+02   2.3248834789e+01    0.3223268    0.2151639 -64.53  0.002070409    1.674    0.403
        16 -12.6190    149.7941    188.6355   1.0192366310e+02   1.5772492528e+01     0.410214    0.3339719  80.25  0.001649383    1.477    0.323
        17 -11.8640     96.0721    187.9717   1.1268424476e+02   2.4758227798e+01    0.5205507    0.3081307  61.40  0.001958093    1.634    0.388
        18 -10.1340     31.0218    204.9420   1.2677191831e+02   2.9900107646e+01    0.1475074    0.1023505  65.14            0    1.062    0.059
        19  -9.0262     58.5912    187.9230   1.2028224566e+02   2.9923051129e+01    0.2803445    0.2131705 -32.14   0.00173987    2.350    0.574
        20 -11.1234    149.1365    180.1175   1.0071551528e+02   1.7321234519e+01    0.2174174    0.1878505  86.28 0.0007729625    1.341    0.254
        21 -11.0827     99.2882    180.7935   1.1113334313e+02   2.5623516044e+01     0.250276    0.1923781  43.11 0.0006443383    1.258    0.205
        22 -10.8028    204.5928    176.3746   8.9372682511e+01   7.6748428519e+00    0.4148955    0.2114894 -51.26  0.001783036    3.154    0.683
        23  -9.2249    169.2806    178.3049   9.6397608261e+01   1.3932750800e+01    0.1275854    0.0976072  12.83  0.000191979    1.554    0.356
        24 -12.4531    142.0977    175.4822   1.0140345532e+02   1.9398787322e+01     0.480917     0.246763  35.93  0.001586534    1.979    0.495
        25 -10.3137      6.7322    215.0000   1.3145500329e+02   3.0514251938e+01    0.1360989   0.04628298  35.82 0.0007736465    2.746    0.636
        26 -12.0242    133.3980    171.6212   1.0259627379e+02   2.1658411805e+01    0.4705373    0.2318131  35.23  0.002080864    2.172    0.539
        27 -10.6475    139.0680    167.4456   1.0070466088e+02   2.1402973025e+01    0.2564128     0.189185 -51.33 0.0003008209    1.506    0.336
        28 -10.5190    164.2359    170.4661   9.6022983106e+01   1.6169217015e+01    0.2200198    0.2018214 -84.86 0.0004381652    1.285    0.222
        29 -12.0595    193.9152    196.2836   9.4793146421e+01   6.8233609254e+00     1.062276    0.5907359 -63.37  0.003792518    5.856    0.829
        30 -11.3898    230.2631    166.9491   8.3065229980e+01   4.2804725634e+00    0.3518229    0.1590761 -43.43  0.001528158    2.901    0.655
        31  -9.9073    200.8444    168.2101   8.8518460146e+01   9.5515582372e+00    0.2296712    0.1911408 -54.42 0.0007387563    1.566    0.361
        32  -9.8066    205.0330    166.8277   8.7481352852e+01   8.9611824411e+00    0.3009259    0.1650358  32.41  0.001290026    1.813    0.448
        33  -9.9786     72.4360    166.9781   1.1520861823e+02   3.2290048592e+01    0.1799171    0.1114884 -69.31 0.0004843028    1.580    0.367
        34 -11.0899    192.7447    164.9767   8.9411484595e+01   1.1587570650e+01    0.2963485    0.2731287 -46.35 0.0007974995    1.288    0.224
        35 -11.9353    203.9784    199.7091   9.3562890158e+01   4.6356166318e+00     0.370717    0.1963556  35.60  0.001959605    1.609    0.378
        36 -10.0335      2.8299    161.6920   1.2972813686e+02   4.0818919155e+01     0.139653    0.1010598  64.79 0.0004516635    1.167    0.143
        37 -11.0755    189.1081    154.6717   8.8063464669e+01   1.3926426828e+01    0.4817818    0.3113686  45.32  0.002438058    1.439    0.305
        38 -12.5335     98.7795    152.8930   1.0727882972e+02   3.1288817029e+01     0.579399    0.4553608 -26.44  0.003192305    1.863    0.463
        39 -11.6371    133.9131    145.3105   9.7824331289e+01   2.6607671076e+01     1.069495    0.2871022 -54.95  0.002905836    5.557    0.820
        40  -9.9346    113.2785    151.2645   1.0364822478e+02   2.9186483484e+01    0.2729452    0.1615409 -80.76  0.001163439    2.562    0.610
        41 -12.5655     72.0626    210.7704   1.1967056491e+02   2.4002862575e+01      0.34326    0.2173687  34.55 0.0007199655    1.750    0.428
        42 -10.4741    174.3766    148.8229   8.9793700143e+01   1.7880757919e+01    0.2836317      0.24419  78.04 0.0007672352    1.412    0.292
        43 -10.0116    160.1343    147.2981   9.2447819532e+01   2.1046569292e+01    0.2563087    0.1842243 -77.04 0.0007709016    2.070    0.517
        44 -11.0281    143.7178    146.9015   9.5934779617e+01   2.4395371990e+01     0.397365    0.1886743 -56.77   0.00156629    2.663    0.625
        45 -11.8115    108.8625    139.3689   1.0257237962e+02   3.2436061257e+01    0.5408962     0.308558 -35.80   0.00230253    2.575    0.612
        46 -12.5650     97.6473    138.5850   1.0516342290e+02   3.4511022859e+01    0.2650211    0.2392011  65.52 0.0004848967    1.053    0.050
        47 -11.4325    105.9370    130.8254   1.0167005393e+02   3.4774589596e+01    0.3954046    0.3015598 -71.61  0.001218993    1.363    0.266
        48 -11.4587    103.5906    125.5844   1.0122391326e+02   3.6321227288e+01    0.2705022    0.2389904   5.58 0.0007241765    1.447    0.309
        49 -10.8251    115.8158    129.6302   9.8981128795e+01   3.3248491936e+01    0.3106418    0.2733806  -6.27  0.000837552    1.451    0.311
        50 -10.9631    135.7609    128.0714   9.3838821352e+01   2.9706517128e+01    0.4937251     0.162293 -52.36  0.001562834    3.607    0.723
        51 -10.2178    160.7795    127.8945   8.8113659535e+01   2.4515835315e+01    0.2745734    0.2081981 -63.18  0.001243252    1.592    0.372
        52  -9.9736    120.3870    123.8232   9.6627815987e+01   3.3616253712e+01    0.2046037    0.1321189 -39.24 0.0006926684    1.754    0.430
        53 -10.2047    110.9358    118.8568   9.7930167109e+01   3.6458977988e+01    0.2066017     0.199361  79.74 0.0004225479    1.034    0.033
        54 -10.2731    168.0842    112.8532   8.2928116055e+01   2.5713561952e+01    0.3464753     0.252945 -74.61  0.001515703    1.967    0.492
        55 -11.2879    118.6136    110.1679   9.3964895151e+01   3.6858203624e+01    0.5790452    0.3285312  63.47  0.002280169    2.460    0.593
        56 -10.4265    205.4944    110.1388   7.4859087623e+01   1.7678848040e+01    0.3179267    0.2037929  41.17  0.000973116    1.569    0.363
        57 -10.2957    134.6252    105.0590   8.8657771398e+01   3.4637138714e+01    0.3487169    0.1425061 -44.46  0.001251898    2.464    0.594
        58  -9.4183     72.6015    102.7656   1.0497821411e+02   4.6395982195e+01    0.1807862    0.1212836 -69.84 0.0003183993    1.478    0.323
        59  -9.2173     53.3138     91.2922   1.0842774951e+02   5.1555706125e+01    0.1285717   0.09356213 -35.46 0.0003163122    1.594    0.372
        60  -8.9879     79.6217     75.2611   9.6058373205e+01   5.1457002155e+01    0.1379431    0.1071574  76.68 0.0004077725    1.669    0.401
        61  -9.0770     73.4712     73.4204   9.7534351560e+01   5.2820877993e+01    0.1359905    0.1252237 -49.60  0.000110528    1.011    0.011
        62 -12.0160    166.9375     66.8619   7.0335040245e+01   3.4175469479e+01     1.114741    0.6260387 -67.33  0.002380969    3.464    0.711
        63 -12.7312    141.1216    199.9748   1.0526711019e+02   1.5412422294e+01    0.4026456    0.2838888 -44.15  0.002442536    1.749    0.428
        64 -11.4885    158.1822    235.7266   1.0672931918e+02   7.4595243125e+00    0.3297847    0.2233344  47.23  0.001757476    1.186    0.157
        65  -9.4456     95.9940     63.4453   8.7252009372e+01   5.1026094709e+01    0.2051651    0.1423058  44.45 0.0004501475    1.518    0.341
        66 -10.0741    168.8905    234.7225   1.0476493998e+02   5.9216045605e+00    0.1603274     0.137438  21.63 0.0004010319    1.236    0.191
        67 -10.3221     63.9498    223.6086   1.2213676690e+02   2.2848104843e+01    0.2059447     0.108414  63.95 0.0006762239    1.633    0.387
        68 -19.1384     22.0094    100.9858   1.1966393260e+02   5.2438910118e+01     16.49455     1.481072 -70.58    0.0359134   10.123    0.901
