#   1 NUMBER                 Running object number                                     
#   2 MAG_AUTO               Kron-like elliptical aperture magnitude                    [mag]
#   3 X_IMAGE                Object position along x                                    [pixel]
#   4 Y_IMAGE                Object position along y                                    [pixel]
#   5 X_WORLD                Barycenter position along world x axis                     [deg]
#   6 Y_WORLD                Barycenter position along world y axis                     [deg]
#   7 A_WORLD                Profile RMS along major axis (world units)                 [deg]
#   8 B_WORLD                Profile RMS along minor axis (world units)                 [deg]
#   9 THETA_WORLD            Position angle (CCW/world-x)                               [deg]
#  10 FWHM_WORLD             FWHM assuming a gaussian core                              [deg]
#  11 ELONGATION             A_IMAGE/B_IMAGE                                           
#  12 ELLIPTICITY            1 - B_IMAGE/A_IMAGE                                       
         1 -11.0379     19.4230     31.8026   1.1655382184e+02   6.6319305022e+01    0.4206319    0.2121957  -7.58  0.002234435    2.570    0.611
         2 -10.9653    114.1354     25.5605   8.2383811726e+01   5.2707563077e+01    0.3210489    0.2107928 -20.68  0.001222872    1.637    0.389
         3 -11.9144     76.6361     25.3008   9.2708148568e+01   5.9972437466e+01    0.3528213    0.2597421 -10.78 0.0004194384    1.278    0.218
         4  -9.5557     88.4897      7.0531   8.2087890251e+01   5.9770140874e+01    0.2333804    0.1146292 -20.76 0.0006742972    2.149    0.535
         5 -11.5420     90.2369     16.1058   8.5109383736e+01   5.8560783816e+01    0.3047455    0.2068971 -14.72 0.0003642027    1.502    0.334
         6 -10.9937     87.2673     11.8791   8.4302911862e+01   5.9547969598e+01    0.2881522    0.2187265  19.26  0.001053393    1.170    0.146
         7 -10.5815     13.1810     20.8533   1.1521747391e+02   6.8515087177e+01    0.3258303    0.2529189  -9.45  0.001562605    1.155    0.134
         8 -10.5182     12.5351     16.0190   1.1362372009e+02   6.9272416346e+01    0.2911604    0.1752105  19.77  0.001164521    1.732    0.423
         9 -11.2196     41.9317     18.3066   1.0216576341e+02   6.5959189406e+01    0.4990065    0.2605841  16.58  0.002732041    2.148    0.534
        10  -9.5305    108.3696     16.6967   8.0641365891e+01   5.4876497967e+01    0.1551743     0.115857  -3.07 0.0003335384    1.420    0.296
        11 -10.8823     38.8119      2.4241   9.6468782253e+01   6.8211906479e+01    0.3540641    0.2664992 -29.55  0.002341186    1.564    0.361
        12  -9.9686     46.6871      4.7269   9.4473486263e+01   6.6917523321e+01    0.2747163   0.06795196  39.48  0.001141167    3.689    0.729
        13 -11.5618     30.0768      7.2698   1.0223495623e+02   6.8725643667e+01     0.312501    0.2431667  -6.73  0.001210703    1.113    0.101
        14 -11.5990     34.9041     13.0730   1.0276940647e+02   6.7466353110e+01    0.3745157    0.2319834 -33.89  0.001875025    1.570    0.363
        15 -11.7057     39.6859     10.4426   9.9704845769e+01   6.7207919520e+01    0.3514384    0.2090008 -19.98 0.0009349255    1.468    0.319
        16 -10.7387    156.4881     13.7648   7.0180998088e+01   4.4235075813e+01    0.2593661    0.2237194  61.94  0.000832756    1.018    0.018
        17 -10.2016     69.1830     11.9048   8.9734171509e+01   6.2745847281e+01    0.2431324    0.1767303 -33.95 0.0008031971    1.618    0.382
        18 -10.4153    212.1612     11.8803   6.2448528768e+01   3.0992094215e+01    0.2026177    0.1528038 -74.14 0.0005637419    1.209    0.173
        19  -9.8893    118.9874     11.7584   7.6497925359e+01   5.3081292854e+01    0.1828234    0.1493474  49.19  0.000383031    1.076    0.071
        20 -10.8325     93.0148      9.2378   8.1732134058e+01   5.8699151485e+01    0.2261293    0.1583031  30.62 0.0004172556    1.250    0.200
        21 -11.0782     22.1559      9.4012   1.0658398639e+02   6.9303511274e+01     0.282926    0.1680472  -2.98 0.0009978614    1.587    0.370
        22 -11.7479      4.1367      8.8567   1.1458262574e+02   7.0919477463e+01    0.3198475    0.2957552  -5.64  0.001527423    1.619    0.382
        23 -10.6019      1.9558      3.0369   1.1316001802e+02   7.1862812275e+01    0.1700959    0.1107779  -7.75  0.001236415    1.241    0.194
        24 -10.6460     11.8456      7.6947   1.1048946790e+02   7.0472539079e+01    0.3268235    0.2765503  20.17  0.002671558    1.632    0.387
        25 -10.7437      8.0287      5.3511   1.1125658265e+02   7.1094800700e+01    0.1749743     0.145533  -1.70 0.0009190091    1.369    0.270
        26 -11.5897    150.9534      7.7974   6.9305169067e+01   4.6119895969e+01    0.3417198    0.2932584  29.17  0.002158556    1.260    0.206
        27 -11.9299     56.2005      6.3753   9.1751595428e+01   6.5369999039e+01    0.4679166    0.4094724   7.83  0.002063442    1.247    0.198
        28  -9.6348     61.0007      3.2150   8.8740731717e+01   6.4934612096e+01    0.1783186     0.125474  18.06  0.000366402    1.179    0.152
        29 -10.3963    210.2533      7.6415   6.1664579247e+01   3.1899448989e+01    0.2266654    0.1369711 -46.61  0.001240335    1.638    0.389
        30 -11.7312     69.0729      6.5363   8.7538640457e+01   6.3301246130e+01    0.6233348    0.2530451  45.53  0.001115255    2.198    0.545
        31 -11.8260     79.9428      2.0974   8.2464933206e+01   6.1796209740e+01    0.5098224    0.1895992  39.21  0.002390743    2.345    0.574
        32 -11.1291    145.2163      5.3147   6.9486498372e+01   4.7691385944e+01    0.3350861    0.2072512   8.13  0.001707254    2.215    0.548
        33  -9.5321     92.7362      4.4529   7.9970626942e+01   5.9178024701e+01    0.2398099    0.1264772 -34.65  0.001268672    2.218    0.549
        34 -10.9913    194.7065      3.5540   6.2342223908e+01   3.6012199448e+01    0.2268987    0.1569487 -48.81  0.001319809    1.491    0.330
        35 -11.5620    130.3110      3.6393   7.1540888040e+01   5.1268286014e+01    0.2975286    0.2056757  70.14  0.001709832    1.409    0.290
        36  -9.7024    120.7550      4.0496   7.3500985329e+01   5.3368472023e+01    0.1683663    0.1487738  31.90 0.0004391515    1.091    0.083
        37 -10.2649    160.5981      3.2163   6.6522454971e+01   4.4232245410e+01    0.1672819    0.1240633   3.38  0.000959744    1.740    0.425
        38 -10.2557     20.0506      2.0090   1.0420884553e+02   7.0418405027e+01    0.2061042    0.1354712  -2.87   0.00105463    1.219    0.180
        39  -9.1510    204.3018      1.2998   6.0794861214e+01   3.3950923579e+01    0.1216062   0.08765347  48.56 0.0001992524    1.584    0.369
        40  -9.4992    176.6741      1.6860   6.3973045425e+01   4.0514398897e+01    0.1319477   0.08507654  44.37 0.0007042618    1.666    0.400
        41  -9.2679     16.6851      3.2826   1.0631384387e+02   7.0596621402e+01    0.1094165   0.07704788  -9.41 0.0002519402    1.032    0.031
        42  -9.3287     67.3327      1.2673   8.5859689388e+01   6.4076811931e+01    0.1212504   0.07038435  23.54 0.0002255375    1.584    0.369
        43  -9.6271     10.1758      1.4787   1.0851773530e+02   7.1408466207e+01    0.1369333   0.08569815  15.41  0.000697494    1.504    0.335
        44 -10.4980    244.2382      1.6633   5.7355472786e+01   2.4796908572e+01    0.2094219    0.1403313  63.12 0.0007471013    1.576    0.366
        45 -10.1854    249.0277    111.9810   8.0831531421e+01   7.5464348893e+00    0.1750292    0.1561627 -46.09  0.001011763    1.002    0.002
        46 -12.0697      5.3945    240.6313   1.5101830572e+02   2.4133080024e+01    0.4262657    0.1957061  53.58  0.002566588    1.747    0.428
        47 -10.8069      1.7041    248.6919   1.5198566735e+02   2.3029206115e+01    0.3767675    0.1398858 -79.87   0.00223847    2.205    0.546
        48 -11.4734      6.0902    246.8580   1.5123971006e+02   2.2916209260e+01    0.3533109    0.1851179 -82.80  0.002399484    1.542    0.352
        49 -12.4246     10.6291    245.1017   1.5045748422e+02   2.2766513245e+01    0.4349313     0.200867  79.14  0.002696833    1.792    0.442
        50 -11.6737      5.2764    108.8998   1.3938775620e+02   5.2098430216e+01    0.2853254    0.2314044  -9.39  0.002060272    1.609    0.378
        51 -10.7576     58.3681    107.4767   1.2389990634e+02   4.7599568443e+01    0.2774319    0.1869888 -24.91 0.0009029562    1.865    0.464
        52 -10.9447     12.1631    107.9150   1.3733832725e+02   5.1867405776e+01     0.181407    0.1412803 -84.35 0.0007874005    1.266    0.210
        53  -9.4814     79.2811    106.9946   1.1766559293e+02   4.4842981709e+01    0.2031358    0.1732598 -50.45 0.0004712021    1.062    0.058
        54  -9.4349     34.3114    107.3142   1.3091522112e+02   5.0225237851e+01    0.1299085   0.08069829 -39.26 0.0002330602    1.634    0.388
        55  -9.9749     66.8515    102.1043   1.2015432142e+02   4.7710076963e+01    0.2511782    0.1492643 -60.46 0.0008842851    1.651    0.394
        56  -9.6775    113.5066    102.5060   1.0682763043e+02   3.9879828370e+01    0.1490793    0.1429924 -35.68 -4.378354e-05    1.014    0.014
        57 -10.5382     57.7815    101.2720   1.2268138765e+02   4.9060064953e+01    0.2148868    0.1703291  35.14  0.001093378    1.445    0.308
        58  -9.9147     62.4174     99.2100   1.2079773886e+02   4.8933812383e+01     0.196562     0.119945 -64.96 0.0009496181    1.757    0.431
        59  -9.1574    129.4973     97.5151   1.0121194551e+02   3.7650147775e+01    0.1506616    0.1480527 -36.56 3.072865e-05    1.002    0.002
        60 -10.3647     38.6963     97.0380   1.2754374191e+02   5.2087822992e+01    0.2620246    0.1757522 -82.61 0.0003518446    1.887    0.470
        61  -8.9406     38.4713     92.4506   1.2661651119e+02   5.3107783131e+01    0.2457747    0.1104696 -41.21 0.0008318437    2.135    0.532
        62 -11.8921     17.9558     94.3769   1.3333744334e+02   5.4418298140e+01    0.5425571    0.2259099 -38.55  0.002569383    2.572    0.611
        63 -11.5844     11.2970     88.1041   1.3420462039e+02   5.6211588593e+01    0.5592043    0.1987897 -63.04   0.00236751    2.175    0.540
        64 -10.1796     17.0638     88.7141   1.3252905605e+02   5.5695101503e+01    0.3760471    0.1886336 -25.14   0.00188322    2.686    0.628
        65 -10.5790     78.9161     94.9757   1.1474701797e+02   4.7539867648e+01    0.2079398    0.1856379 -36.85 0.0003345702    1.031    0.030
        66 -10.1803      2.9884     95.1731   1.3793753174e+02   5.5205226801e+01      0.16988    0.1341266 -83.54 0.0006233349    1.293    0.227
        67  -9.3228     99.8133     94.3626   1.0843472501e+02   4.4190453450e+01    0.1861865    0.1361643  26.75 0.0009093332    1.541    0.351
        68 -10.6769     84.1269     93.9551   1.1291538069e+02   4.6946336988e+01    0.2929962    0.2060866  29.04   0.00123574    1.582    0.368
        69 -11.2193     27.4310     90.8720   1.2972821473e+02   5.4439669704e+01    0.5033064    0.3234932  58.90  0.002786478    2.291    0.564
        70 -10.4863     57.9080     91.7697   1.2037370439e+02   5.1119967068e+01    0.2690994    0.1831811 -19.45  0.001406922    1.799    0.444
        71 -10.5942     76.3679     89.2177   1.1398611053e+02   4.9147685127e+01    0.2426533    0.2213389 -30.06 0.0004545727    1.031    0.030
        72 -10.0282     25.4709     84.9842   1.2909828789e+02   5.5852310555e+01    0.2529774    0.1731392 -71.17 0.0008660998    1.511    0.338
        73 -10.5071      1.7782     89.6928   1.3739418894e+02   5.6435945377e+01    0.2059685    0.1169023 -62.45 0.0002050253    1.309    0.236
        74  -9.9169     43.9781     89.4939   1.2420802803e+02   5.3190110676e+01    0.2459471    0.1151848  36.19  0.001182219    2.478    0.596
        75  -9.7635    124.0115     86.7697   9.9592589645e+01   4.0983107115e+01    0.2064343    0.1975121  34.84 0.0004965572    1.056    0.053
        76 -10.7823     54.6233     84.6534   1.1961192061e+02   5.3026048672e+01    0.3256748    0.1942628 -48.58   0.00125273    1.431    0.301
        77  -9.1910     78.4653     83.4112   1.1173070237e+02   5.0031381104e+01    0.1347007    0.1249084 -34.54 9.800888e-05    1.054    0.052
        78 -10.5431      3.9653     82.7943   1.3550680238e+02   5.7762047820e+01    0.2140312    0.1308415 -60.49 0.0009164583    1.236    0.191
        79 -11.7994     63.7744     80.7282   1.1561709874e+02   5.2683173569e+01    0.4647643    0.3647363 -48.64  0.002739416    1.182    0.154
        80  -9.6425     65.9707     75.0197   1.1328805574e+02   5.3531575316e+01    0.1858584    0.1618295 -27.37  0.001145483    1.019    0.018
        81  -9.8312    250.3791     80.8056   7.3650461062e+01   1.2538291484e+01    0.1896296     0.124208 -30.84 0.0004807365    1.626    0.385
        82 -10.1109     89.2858     80.3564   1.0753624672e+02   4.8896203664e+01     0.274716    0.1812712 -52.70 0.0007972408    1.598    0.374
        83  -9.6417     24.0257     79.0322   1.2824891909e+02   5.7209146435e+01    0.1996213    0.1144792 -34.12  0.001129039    1.698    0.411
        84  -9.6350     19.6934     79.7485   1.2983488329e+02   5.7389084738e+01    0.1588274   0.08717637  37.65 0.0008871524    2.325    0.570
        85 -10.0406    176.8410     77.1139   8.4631540174e+01   3.0482096791e+01    0.2826016     0.227012  44.23  0.001406523    1.294    0.227
        86 -11.1270     55.5935     75.6053   1.1686327215e+02   5.4760717444e+01     0.293027    0.2369363  -3.27 0.0005093329    1.317    0.240
        87 -10.6459     15.2518     75.9657   1.3047695048e+02   5.8479710337e+01    0.1821317    0.1596212 -19.72 0.0008646513    1.251    0.201
        88  -9.5412     74.9659     75.5462   1.1055008504e+02   5.2134421226e+01    0.1782485    0.1319278  32.15 1.065432e-05    1.447    0.309
        89  -9.2580     70.2936     75.3428   1.1198385321e+02   5.2860875326e+01    0.1394813   0.09498098 -19.77 0.0002964855    1.659    0.397
        90 -11.4391     32.2399     73.0531   1.2405119054e+02   5.7739815993e+01    0.3686619     0.202409  36.50 0.0001959197    2.239    0.553
        91 -11.0014     36.0000     71.9721   1.2248693195e+02   5.7609940857e+01    0.4409531    0.1917591 -50.75  0.001810272    1.850    0.460
        92  -9.6970    224.0204     74.2611   7.5805957328e+01   1.9528636334e+01    0.1929901    0.1729604 -89.37 0.0002622305    1.081    0.075
        93  -9.9242    136.6791     74.0859   9.2611511576e+01   4.0589374013e+01    0.2052213    0.1873458 -22.54 0.0004346013    1.119    0.106
        94  -8.8993     26.2952     74.6739   1.2647164240e+02   5.7920468869e+01    0.1100707   0.08980516 -88.61 0.0002433461    1.625    0.385
        95 -11.1428      3.6375     73.7413   1.3386775773e+02   5.9638258219e+01    0.2741972    0.1932146  12.84  0.001126055    1.773    0.436
        96  -9.3302     95.7181     73.3341   1.0348992270e+02   4.9125311181e+01    0.1343972    0.1122748 -75.55 0.0005862341    1.615    0.381
        97 -10.2492     81.1942     72.5688   1.0768870891e+02   5.1742956917e+01    0.2659709    0.1773748 -60.62 0.0009731598    1.962    0.490
        98  -9.0642    216.7285     72.3256   7.6431216064e+01   2.1567129431e+01    0.1499525    0.1033761 -66.30 0.0003262361    1.578    0.366
        99 -10.2368    105.9109     71.4202   9.9932757498e+01   4.7571078455e+01    0.2463636    0.1975662 -27.79 0.0005266946    1.226    0.184
       100  -9.1567     92.4795     72.4802   1.0419432141e+02   4.9862400892e+01    0.1382573    0.1291057 -19.78  4.10869e-05    1.040    0.038
       101  -9.3542    124.3886     79.2076   9.7264159138e+01   4.2356902832e+01    0.2028224     0.135805 -50.87 0.0005518312    1.622    0.383
       102 -10.3208     46.0796     69.2271   1.1827972129e+02   5.7123037025e+01    0.2694057     0.198579  31.78  0.001308135    1.569    0.363
       103  -9.9677     10.1456     69.0036   1.3066214939e+02   6.0214803685e+01    0.2245948    0.1243114 -51.41  0.001376177    1.340    0.254
       104  -8.8531     57.3265     67.6464   1.1398344072e+02   5.6102245598e+01    0.1214948    0.1023745 -86.42 0.0007046909    1.768    0.434
       105  -9.3535    114.4542     66.5107   9.6013906696e+01   4.6737531472e+01    0.1405844    0.1362753  -3.24 4.723492e-05    1.049    0.046
       106 -11.8385     34.2592     65.1365   1.2125286722e+02   5.9117645373e+01    0.2545382    0.1953924 -31.64 0.0004043963    1.108    0.098
       107 -11.5381     39.5775     62.1606   1.1852314009e+02   5.9167972530e+01    0.6355521    0.2300052 -36.86  0.002456893    2.814    0.645
       108 -11.0217     16.8549     64.1870   1.2717643113e+02   6.0723827953e+01    0.2969828    0.2487388  -3.36  0.002188475    1.332    0.249
       109 -11.1082     10.7651     48.7552   1.2535729837e+02   6.4044169184e+01    0.5515968    0.2756395  18.73  0.003313325    2.326    0.570
       110 -11.2421     16.5740     44.6537   1.2190424967e+02   6.4377307894e+01     0.324907    0.2966714 -32.04  0.002553893    1.287    0.223
       111 -10.7807     20.3748     51.0615   1.2234252621e+02   6.2942911458e+01    0.3550354    0.1536232 -44.76  0.001013973    1.758    0.431
       112  -9.5516     23.9854     61.9976   1.2406141735e+02   6.0613120013e+01     0.242475    0.1547948 -31.20 0.0004103601    1.401    0.286
       113 -12.5770     20.6968     57.3272   1.2399299989e+02   6.1758154286e+01    0.3355649    0.3141802 -54.27  0.001300841    1.321    0.243
       114 -10.7038    131.2906     64.3932   9.0980585512e+01   4.3479356739e+01    0.4271101    0.2893784  62.07  0.001098897    1.664    0.399
       115  -9.3747     73.0000     63.9560   1.0762456273e+02   5.4620450475e+01    0.2194247   0.06930889 -44.13 0.0005627644    2.933    0.659
       116 -10.6950      2.6706     60.2121   1.3128179344e+02   6.2367145642e+01    0.2583118    0.1891816  70.06  0.001701315    2.191    0.544
       117 -11.3486      8.0586     60.9978   1.2953631202e+02   6.1912745674e+01    0.4864695    0.1605878 -48.23  0.002455774    2.094    0.522
       118 -10.5358      7.6817     56.0144   1.2844723992e+02   6.2887965104e+01    0.2177502    0.1773584  -4.38  0.001139868    1.367    0.269
       119 -10.5720     62.8843     62.2247   1.1043616368e+02   5.6386498290e+01    0.2534738    0.1655024 -33.73 0.0008913268    1.378    0.274
       120  -9.5851    100.8610     61.8332   9.8330562416e+01   5.0235806665e+01     0.183252     0.169052 -71.19 0.0006265073    1.350    0.259
       121 -10.1978     52.7900     61.3726   1.1363365382e+02   5.7842468932e+01    0.3172086    0.2333627  82.50  0.001576179    2.945    0.660
       122 -10.9391     54.2306     57.3775   1.1187404396e+02   5.8392575075e+01    0.4991983    0.3586502 -57.24  0.002276417    1.707    0.414
       123 -11.6063     83.5431     56.9186   1.0194129949e+02   5.4175771012e+01    0.3189963     0.234254 -27.59  0.001784992    1.285    0.222
       124 -11.6331     87.4824     54.0000   9.9730376949e+01   5.3986163876e+01    0.4050617    0.2781119  39.67  0.001161468    1.478    0.323
       125  -9.5503     66.9525     60.5153   1.0852193693e+02   5.6128860979e+01    0.1802797    0.1245693  29.09 0.0006362192    1.521    0.343
       126  -9.4548     71.4424     57.7122   1.0611259955e+02   5.5966551465e+01    0.1712298    0.1122559 -28.96 0.0002934688    1.440    0.306
       127 -10.2767     60.3631     57.5917   1.0981339966e+02   5.7561679311e+01      0.22122    0.2085923 -38.00 0.0008372454    1.262    0.208
       128  -9.6141    158.0109     56.2160   8.2469734466e+01   3.8526716585e+01    0.2369472    0.1647497 -85.44 0.0006309494    1.986    0.497
       129 -11.0005    114.9424     53.9026   9.1814388653e+01   4.8715801168e+01    0.3308206    0.2690962  33.51  0.001525268    1.184    0.156
       130 -10.2965    106.5672     53.4761   9.3949707288e+01   5.0494639129e+01    0.3391662    0.2299092 -63.17  0.001551283    2.365    0.577
       131 -10.1610    163.4884     54.2905   8.0811910431e+01   3.7483122372e+01    0.3998286    0.1006712  52.65   0.00121565    3.472    0.712
       132  -9.8930     34.6136     53.1737   1.1763073971e+02   6.1321348924e+01    0.2390015    0.1362876 -27.63 0.0009435982    1.684    0.406
       133 -10.5653      2.6472     53.7534   1.2974626008e+02   6.3598364095e+01    0.3095376    0.1277675 -34.66  0.001682454    2.178    0.541
       134  -9.1413    176.2985     52.2803   7.7849393165e+01   3.4624077382e+01    0.1419325    0.1092833  31.71 0.0001517204    1.541    0.351
       135 -12.0886     66.5730     52.4735   1.0599093594e+02   5.7582556753e+01    0.6053298     0.233739  34.43  0.002518077    2.776    0.640
       136  -9.5796    147.3529     49.3647   8.2633623775e+01   4.2108434220e+01    0.2851063    0.1563161 -53.86    0.0008308    2.416    0.586
       137  -9.3728     46.3096     50.3233   1.1241274943e+02   6.0585205622e+01     0.218679    0.1207337 -28.90  0.000604835    1.733    0.423
       138  -8.9863     47.3117     47.3173   1.1103997528e+02   6.0981970016e+01    0.1272212   0.08073728 -15.88 0.0003873211    1.642    0.391
       139 -10.9760     77.7022     46.5399   1.0024045967e+02   5.6829643443e+01    0.4163643    0.2740068  -2.83  0.002160048    1.812    0.448
       140  -9.7610     38.1412     49.0129   1.1500036603e+02   6.1705814884e+01    0.1866772    0.1288608 -22.74 0.0008642058    1.292    0.226
       141  -8.9877    212.0032     48.7893   7.1320679104e+01   2.6340732904e+01    0.1773391    0.1067144  66.57 0.0003247126    1.598    0.374
       142  -9.8901     53.9271     48.0710   1.0889929268e+02   6.0043788866e+01    0.1914719    0.1257221 -15.98 0.0003374875    1.554    0.357
       143  -9.9580    105.0924     47.1520   9.2223277062e+01   5.1754712461e+01    0.1764926    0.1628092  72.20 0.0005093263    1.338    0.253
       144 -10.1027     68.5974     46.8285   1.0335452529e+02   5.8210664934e+01    0.2035547    0.1590162  22.01 0.0002376147    1.256    0.204
       145  -9.5467     64.6879     46.2795   1.0449486110e+02   5.8873931121e+01    0.1875188    0.1230334  36.47 0.0004897574    1.615    0.381
       146  -9.8400     30.5910     46.9501   1.1718847907e+02   6.2807119911e+01    0.2569645    0.1648947 -28.28 0.0006951762    1.333    0.250
       147  -9.6881     91.1005     44.6644   9.5398417358e+01   5.4796759858e+01    0.1831242    0.1549595  20.22 0.0004459055    1.096    0.087
       148 -10.1449    195.3192    249.6914   1.1815311472e+02  -5.6619939826e+00    0.1167348   0.09166376  62.70  0.000496633    1.639    0.390
       149 -10.6280     22.7819     38.6003   1.1751236688e+02   6.4926152937e+01    0.1981463    0.1740614  17.21 0.0008015968    1.423    0.297
       150 -11.1902     26.4152     35.3644   1.1494726003e+02   6.5138301949e+01    0.3508463    0.1885361 -26.36  0.001432559    1.698    0.411
       151 -10.7446    182.2461     40.7084   7.3654719174e+01   3.4780505209e+01    0.3241179    0.2732858  53.34 0.0008103213    1.183    0.155
       152 -10.4623     70.4043     41.5463   1.0085920522e+02   5.8756239222e+01    0.3284162    0.2035125 -28.02  0.001809176    1.516    0.340
       153 -11.0819    139.6004     40.3669   8.1495368007e+01   4.5184052402e+01    0.3456384    0.2192447 -40.11   0.00141957    1.698    0.411
       154  -9.9839      2.1629     42.3150   1.2691863381e+02   6.5716052370e+01    0.1637411    0.1156604  -4.97 0.0007389789    1.493    0.330
       155 -10.0459     36.1335     40.5969   1.1294003656e+02   6.3338288199e+01    0.3494426    0.1488907 -34.71  0.001749735    2.091    0.522
       156  -9.3388     51.2721     40.0122   1.0702772337e+02   6.1687255776e+01     0.151091   0.09285916 -35.40 0.0007511014    1.443    0.307
       157 -10.1747    130.9536     37.3049   8.2418137210e+01   4.7575768651e+01    0.2590142    0.2205582  18.19 0.0006615882    1.211    0.174
       158 -11.0989    134.2731     33.9713   8.0603671783e+01   4.7239578280e+01    0.2295038    0.1729676  44.40 0.0003175825    1.221    0.181
       159 -12.0467    121.3691     36.6678   8.4440178826e+01   4.9795669675e+01    0.4970994    0.4266074  89.32  0.002863561    1.474    0.322
       160  -9.2017    163.6177     37.2104   7.5821310192e+01   3.9835985794e+01    0.1767346     0.136381  -9.64 0.0004470856    1.591    0.371
       161 -11.7654    145.0581     33.0360   7.8066817349e+01   4.4837410443e+01    0.2539686    0.2378484 -45.32  0.001539781    1.168    0.144
       162 -10.3315    140.6744     27.4676   7.7195699393e+01   4.6531346646e+01    0.4414872    0.3673017  61.54  0.002586656    1.130    0.115
       163 -10.2697     69.9765     35.3356   9.8714456064e+01   5.9732063099e+01    0.3503188    0.1780474 -19.36  0.001623579    2.370    0.578
       164 -10.5593      1.8108     35.8592   1.2518757277e+02   6.6862619716e+01    0.2155316    0.1511465 -28.75  0.001611595    1.135    0.119
       165  -8.6038     63.6576     35.6935   1.0100630737e+02   6.0641024770e+01    0.1299523   0.08471746   1.40 0.0006488051    1.688    0.408
       166 -10.9296     50.2751     33.8887   1.0513894687e+02   6.2749054295e+01    0.2324048    0.1848942  -7.66 0.0005174404    1.039    0.038
       167  -9.7631    166.7396     32.1266   7.3811738661e+01   3.9710820970e+01    0.3736543    0.1255019 -44.35  0.001309601    3.389    0.705
       168 -11.0798     25.4738     43.0942   1.1792487535e+02   6.3934287195e+01    0.3076601    0.2140799 -57.13  0.001171984    1.710    0.415
       169  -9.5222    205.5164     30.9984   6.7797465984e+01   3.0326632504e+01    0.1981841    0.1301478 -37.48 0.0006556522    1.583    0.368
       170 -11.5518     44.0228     29.1973   1.0571378499e+02   6.4214607455e+01    0.4472555    0.2714727 -23.80  0.001846291    1.457    0.314
       171  -9.8033    103.6689     29.7402   8.6511231803e+01   5.4391639150e+01    0.3360257    0.1612305  30.90  0.001418991    2.506    0.601
       172  -9.4485    187.5371     29.4873   6.9845521923e+01   3.4914113953e+01    0.2583064    0.1012847  54.71   0.00103217    2.326    0.570
       173  -9.6432    151.2299     29.5883   7.5818135568e+01   4.3781832536e+01     0.203112    0.1126094  51.27 0.0005818525    1.622    0.384
       174 -10.6373     69.4872     28.0186   9.6089619277e+01   6.0804643871e+01    0.2785588    0.2468914 -31.08   0.00122774    1.364    0.267
       175  -9.5350     65.6862    110.3580   1.2239856251e+02   4.6011400458e+01    0.1384477    0.1032966  86.07 0.0007043678    1.745    0.427
       176  -9.8897      7.5826     28.0377   1.2024448851e+02   6.7808371252e+01    0.1736775    0.1363457  23.37 0.0008925592    1.632    0.387
       177 -10.7283     33.8311    247.3286   1.4694870904e+02   1.9756908379e+01    0.1723599    0.1234551  50.06 0.0006032722    1.440    0.306
       178 -10.5229     74.6899     21.6886   9.1914809967e+01   6.0737380034e+01    0.2603666    0.1767799  -9.84 0.0007311872    1.438    0.305
       179  -9.8939    218.9989     25.8111   6.4939266149e+01   2.7745035429e+01    0.2021241     0.122267 -57.98 0.0006445042    1.620    0.383
       180 -10.2906    154.6606     25.9490   7.4097663876e+01   4.3379644338e+01    0.3978463    0.1907094  71.49  0.001545122    2.334    0.571
       181 -10.2153     58.7639     24.5170   9.8408494458e+01   6.2891933863e+01    0.2780504     0.171682   9.22  0.001572738    1.743    0.426
       182 -10.3084     51.0258     23.0262   1.0062506539e+02   6.4170115580e+01    0.2719229    0.2432935 -20.07  0.001596574    1.355    0.262
       183 -10.0529    192.9761     23.9860   6.7666793062e+01   3.4239718642e+01    0.1999386    0.1761944  88.89            0    1.021    0.020
       184 -10.5345     89.3034     22.3402   8.7748036834e+01   5.8058632469e+01    0.4021277    0.1568455 -28.14  0.001775981    2.632    0.620
       185  -9.7645    217.5209    245.0000   1.1333111129e+02  -8.6278071986e+00    0.2770627   0.05988539  41.12 0.0009410052    3.985    0.749
       186 -10.8404     37.6102    241.7291   1.4594567025e+02   2.0351670580e+01    0.3475733    0.1115827  64.95  0.001382087    3.985    0.749
       187  -9.6205    202.5024    240.1141   1.1531222917e+02  -5.4797115799e+00    0.1659756    0.1235605 -34.09 0.0006530113    1.520    0.342
       188  -9.2011     60.0317    241.0000   1.4208075623e+02   1.7623804859e+01    0.1855154   0.05702917  40.87 0.0008092811    2.990    0.666
       189 -11.2118     14.8700    239.0835   1.4945505187e+02   2.3438108835e+01    0.1782395    0.1016308  73.15 0.0006721678    1.323    0.244
       190 -10.2825    124.9717     21.2605   7.8435533332e+01   5.0811867893e+01     0.204567    0.1842277 -10.50 0.0003605463    1.194    0.163
       191  -9.9132      1.5607     21.3001   1.2053866516e+02   6.9260050834e+01    0.1928222   0.08753228 -52.44  0.001127007    2.139    0.533
       192  -9.5400     84.8195     21.3564   8.8677341135e+01   5.8998243027e+01    0.1803665   0.09794196  37.59 0.0005683259    1.676    0.403
       193 -10.2572     31.0308     20.1922   1.0733138611e+02   6.6961006837e+01     0.209987    0.1346091 -34.61 0.0007281005    1.419    0.295
       194 -10.6618     26.4081     16.5011   1.0775808031e+02   6.7944970479e+01    0.2253926    0.1896657  18.05  0.001470707    1.451    0.311
       195 -10.1373    175.2232     20.2119   6.9137494990e+01   3.9016592679e+01    0.1867611     0.146368 -81.12   0.00071071    1.313    0.238
       196  -9.4530    131.2744     20.6076   7.6890863720e+01   4.9459059018e+01    0.1991532    0.1042224  49.37 0.0009486378    1.662    0.398
       197 -10.6305    100.3789     19.2159   8.3554464249e+01   5.6253142407e+01    0.2779268    0.2385429  89.66  0.001321312    1.641    0.391
       198 -12.6325     25.7331    235.9777   1.4750803783e+02   2.2836543801e+01    0.3803224    0.3036672  59.55  0.002603937    1.338    0.252
       199  -9.7338    204.3011     19.3082   6.5085240557e+01   3.2033788380e+01    0.1275157   0.09610619  42.63 0.0004490863    1.600    0.375
       200  -9.4292    148.5911     18.7693   7.3007485649e+01   4.5614075309e+01    0.1657571    0.1226702 -42.59 0.0002567465    1.511    0.338
       201 -10.4437    199.7006     16.9978   6.5065953146e+01   3.3405784491e+01    0.2454964    0.1731148  86.89 0.0007345558    1.314    0.239
       202 -12.0430      4.1920    232.6196   1.5076963093e+02   2.5759882952e+01    0.3448413     0.173301  75.49 0.0006802044    1.558    0.358
       203 -13.2333      9.7097    229.3304   1.4970006166e+02   2.5836755242e+01    0.6545089     0.351089 -87.00  0.003353931    1.455    0.313
       204  -9.7353    249.1826    234.1349   1.0581700266e+02  -1.2083592054e+01     0.180789    0.1344594   9.68 0.0005224511    1.157    0.136
       205  -9.6910    140.2416    227.2249   1.2538426014e+02   7.5806200883e+00    0.1878022    0.1395754  66.25  0.000690814    1.380    0.275
       206 -10.0752     32.8462    225.1577   1.4553376913e+02   2.4139747676e+01    0.2487044    0.1148165  53.16  0.001419248    1.844    0.458
       207 -10.1031     25.5257    225.0298   1.4678728779e+02   2.4997101957e+01    0.1676064   0.08899011 -78.34  0.001028086    1.583    0.368
       208  -9.8484     75.9760     14.7915   8.8767647023e+01   6.1290839748e+01    0.1877928    0.1316047  21.07 0.0005528677    1.275    0.216
       209 -10.0325    190.5961     14.1832   6.5471886464e+01   3.5918944173e+01    0.1604596     0.130963  -8.65 0.0006200483    1.599    0.375
       210 -11.7510      7.6967    217.6452   1.4931327117e+02   2.8331267313e+01    0.3054008    0.2074908  78.35  0.001601036    1.069    0.065
       211  -9.9769    144.1204     14.4880   7.2486762893e+01   4.7102953026e+01    0.1963824    0.1165077  62.39 0.0004673187    1.489    0.328
       212 -10.7681      4.3494    212.6365   1.4956184587e+02   2.9655822825e+01    0.2504638    0.1327217  67.98  0.001342757    1.559    0.358
       213  -9.7756    246.4839    216.5269   1.0311864229e+02  -9.2835446647e+00    0.1274832    0.1045632   4.98 0.0008095889    1.036    0.035
       214 -10.8262     15.8961    211.8501   1.4751586056e+02   2.8681282394e+01    0.1644471    0.1312347 -83.65  0.000870954    1.253    0.202
       215 -10.8605     19.8620     16.8223   1.1070740629e+02   6.8530514844e+01    0.2356394    0.1447756  12.37  0.001312974    1.585    0.369
       216  -9.4418    209.5255    211.5258   1.0903685384e+02  -2.2746616740e+00    0.1345672    0.1189015  17.65 0.0003170445    1.016    0.015
       217  -9.9172    246.8576    206.9160   1.0124685842e+02  -7.9508656033e+00    0.2008468    0.1519395  -5.20 0.0009359532    1.254    0.202
       218  -9.4409    197.0451    204.0132   1.1008762622e+02   1.2867581197e+00    0.1687462    0.1521248  26.80 0.0006477111    1.016    0.016
       219 -10.9376      9.4979    203.3446   1.4804391629e+02   3.1063071539e+01    0.2177517    0.1473049  79.22 0.0007605674    1.126    0.112
       220  -8.9532    181.5144    199.4896   1.1238259049e+02   5.0646704790e+00    0.1405383    0.1309507  42.27 3.975252e-05    1.042    0.040
       221  -9.5399     23.0662    197.4887   1.4509640764e+02   3.0943347187e+01    0.1563924    0.1061746  45.63 0.0005398683    1.576    0.365
       222  -9.5676      6.5256    191.4843   1.4772183740e+02   3.3821623933e+01    0.1161989   0.08198706  84.98 3.601454e-05    1.058    0.055
       223  -9.8103     15.3950    185.5527   1.4556012798e+02   3.4272838619e+01    0.2183616   0.09032621 -80.17  0.001098882    2.046    0.511
       224  -9.2946      1.2029    183.1105   1.4809282735e+02   3.6060977763e+01    0.1490416   0.06728216 -75.37 0.0006108294    1.679    0.404
       225  -8.9344    250.3155    183.3339   9.6000724601e+01  -4.8961186332e+00    0.1384621   0.09514046  -0.32 0.0007046942    1.689    0.408
       226 -10.7865      4.6609    167.4630   1.4614235512e+02   3.9159525224e+01    0.2882243    0.1567348  57.61  0.001402434    1.859    0.462
       227  -9.2415    111.7952    162.6235   1.2094806840e+02   2.6430380863e+01    0.1929902    0.1319511  53.73 0.0002516808    1.484    0.326
       228  -9.1895     41.6126    157.8650   1.3699107035e+02   3.7828185511e+01    0.1860568    0.1035572 -80.22 0.0009400858    1.699    0.411
       229  -9.0822    247.4702    155.5414   9.0690019282e+01   2.3685909111e-01    0.1384202     0.124293 -21.66 0.0001294072    1.005    0.005
       230  -9.7897      2.3195    153.6496   1.4537409534e+02   4.2380558669e+01    0.1215493   0.06929535  75.33 0.0007048087    1.741    0.425
       231  -9.8007     14.7181    150.9373   1.4234629081e+02   4.2013453701e+01    0.1755376    0.1244787 -78.10 0.0007848081    1.088    0.081
       232 -10.2270     21.9286    143.3230   1.3976964362e+02   4.3126910103e+01    0.2231766    0.1394478 -80.67  0.001309627    1.369    0.270
       233  -8.9908    236.3315    139.3336   8.9047039181e+01   5.2720579070e+00    0.1477576    0.1108575   1.75 0.0007052186    1.728    0.421
       234 -10.1474      2.1910    138.3760   1.4385478690e+02   4.5775113886e+01    0.1742806    0.1363939  56.63 0.0006880952    1.450    0.310
       235 -10.8625     12.4512    130.3750   1.4044079531e+02   4.6832962893e+01     0.409376    0.2023547  63.87  0.001465331    2.754    0.637
       236  -9.6871     21.2271    126.1844   1.3764000786e+02   4.7093964717e+01     0.175787    0.1283919 -68.94 0.0004289959    1.079    0.073
       237 -11.9465     23.8563    121.8372   1.3630333360e+02   4.7863384851e+01     0.513824    0.2701502 -89.84 0.0006694472    2.483    0.597
       238 -10.4279      3.2119    118.8794   1.4130110946e+02   5.0031138980e+01    0.1771651    0.1311968 -87.53 0.0006769962    1.256    0.204
       239 -10.8861      4.1661    113.8144   1.4037806842e+02   5.1088084023e+01    0.2793382    0.1348561  -1.00  0.001372419    3.711    0.731
