#   1 NUMBER                 Running object number                                     
#   2 MAG_AUTO               Kron-like elliptical aperture magnitude                    [mag]
#   3 X_IMAGE                Object position along x                                    [pixel]
#   4 Y_IMAGE                Object position along y                                    [pixel]
#   5 X_WORLD                Barycenter position along world x axis                     [deg]
#   6 Y_WORLD                Barycenter position along world y axis                     [deg]
#   7 A_WORLD                Profile RMS along major axis (world units)                 [deg]
#   8 B_WORLD                Profile RMS along minor axis (world units)                 [deg]
#   9 THETA_WORLD            Position angle (CCW/world-x)                               [deg]
#  10 FWHM_WORLD             FWHM assuming a gaussian core                              [deg]
#  11 ELONGATION             A_IMAGE/B_IMAGE                                           
#  12 ELLIPTICITY            1 - B_IMAGE/A_IMAGE                                       
         1 -15.8171    236.6456     59.0010   3.4429027354e+01   2.0005766504e+01     4.797252     2.228776 -31.65   0.02256119    2.074    0.518
         2 -14.8386    138.4276     63.2021   5.0567896624e+01   4.1766462595e+01     2.012761    0.7983899 -46.87  0.007094555    2.698    0.629
         3 -13.8594    115.0797     81.8985   6.2206037285e+01   4.3640050991e+01     2.898659    0.9513341 -55.95  0.005375197    9.866    0.899
         4 -14.3557    127.6292     65.5208   5.3814995866e+01   4.3925611361e+01     1.851561    0.6368927 -32.51  0.005632586    3.705    0.730
         5 -11.7230     95.6179     88.5660   6.9948815467e+01   4.6270658247e+01    0.2911843    0.2689573 -84.12  0.001013171    1.151    0.131
         6  -9.3855    163.7783    151.5889   6.7781284015e+01   1.8681113626e+01    0.2026558    0.1359401  53.43 0.0009418207    1.668    0.400
         7  -9.6814    178.3164    147.6518   6.3882203724e+01   1.6674512720e+01    0.1432083    0.1147092 -81.34 0.0007047838    1.727    0.421
         8  -9.7896    172.6540    138.3015   6.3004182715e+01   1.9603396855e+01    0.1457279    0.1168337 -88.16 0.0005590703    1.685    0.406
         9  -9.7303    155.7944    135.9899   6.6142219831e+01   2.3459457454e+01    0.2429581    0.1740508 -74.21  0.001072259    1.940    0.484
        10  -9.5610    178.6901    132.2991   6.0415369587e+01   1.9571647436e+01    0.1424269     0.115252 -80.30 0.0003851877    1.599    0.375
        11  -9.2159    165.3127    128.6689   6.2359550290e+01   2.3017258173e+01    0.1507399    0.1181291 -81.40 0.0005141987    1.676    0.403
        12 -10.5939    181.6973    126.3421   5.8450132818e+01   2.0110338432e+01    0.2280161    0.1756259 -78.18   0.00101818    1.744    0.427
        13 -10.4100    157.8851    120.8008   6.2110972291e+01   2.6177051318e+01    0.2970327    0.1968106 -68.75  0.001235616    2.099    0.524
        14  -9.4816     59.4856    120.5015   8.9510258369e+01   4.4587399044e+01    0.1450622    0.1330207 -83.43 0.0001819822    1.033    0.032
        15  -9.7359    162.5908    118.7965   6.0593097731e+01   2.5584752383e+01    0.2227935    0.1360156 -53.60 0.0009475995    1.750    0.429
        16  -9.3139    170.3267    114.6563   5.7950736713e+01   2.4754671054e+01    0.1550119    0.1164928 -76.94 0.0007050851    1.742    0.426
        17  -9.9575    146.2558    112.9640   6.2828567085e+01   3.0300702839e+01    0.2085107     0.129185 -45.40 0.0008923011    1.578    0.366
        18 -10.4934     95.7079    111.0299   7.5942403342e+01   4.1078276640e+01    0.2245468    0.2007695 -53.43  0.001173884    1.091    0.083
        19 -10.9105     85.1201    109.7057   7.8894236675e+01   4.3295315446e+01    0.3558176    0.2208113 -71.95  0.001476007    2.009    0.502
        20 -10.6746     77.4117    108.3073   8.1033584670e+01   4.4936436924e+01    0.2643883     0.176156  57.36  0.001132354    1.752    0.429
        21  -9.0071     49.3229    108.3297   9.0540217782e+01   4.8985358016e+01    0.1484631    0.1017689 -34.28 0.0007049523    1.697    0.411
        22 -10.5394    142.1812    106.2193   6.2060138866e+01   3.2603899905e+01    0.2178683     0.183104 -82.81 0.0008988644    1.362    0.266
        23  -9.8879     65.0084    105.9618   8.4622232003e+01   4.7447327657e+01    0.1812563    0.1665231 -63.82 0.0009531973    1.022    0.021
        24 -10.3076     93.4236    105.2005   7.5175412971e+01   4.2880897397e+01    0.2205796    0.1437069 -64.21 0.0009517265    1.698    0.411
        25 -10.5101    123.9848    206.0249   8.6383497789e+01   1.4638575762e+01     0.188275    0.1681014  39.38  0.001160779    1.006    0.006
        26 -11.6110     94.4647     98.6409   7.3128404388e+01   4.4214902031e+01    0.3276163    0.2622294  74.29  0.001525516    1.490    0.329
        27 -11.1816    135.8326     98.1207   6.1437765104e+01   3.5696571673e+01    0.2475251    0.2120521 -80.55  0.001236502    1.295    0.228
        28 -12.0945    109.0651     82.6940   6.4150850854e+01   4.4775741957e+01    0.3973709    0.3329414  85.30  0.001777275    1.406    0.289
        29 -12.8384    107.9272     77.1572   6.2778873154e+01   4.6156830468e+01    0.6585301    0.2927293 -37.54  0.002393664    2.454    0.592
        30 -12.8201    104.9136     70.4399   6.1518346451e+01   4.8143655132e+01     0.527072    0.3613562 -42.52  0.002485671    1.455    0.313
        31 -11.9321    109.5187     91.5279   6.6621698973e+01   4.2801446343e+01     0.418308     0.234278 -54.35   0.00161308    1.911    0.477
        32 -11.0500    101.3166     96.9696   7.0574164706e+01   4.3267149501e+01    0.2244159    0.1980741 -49.52 0.0007679086    1.109    0.098
        33 -10.9071     74.8532     96.3573   7.8917229615e+01   4.8239858642e+01    0.2657242    0.2007675 -66.60 0.0009835938    1.380    0.276
        34 -10.7480    113.0121    102.0440   6.8546418810e+01   3.9759305596e+01     0.252391    0.1930841  88.18  0.001141091    1.704    0.413
        35 -11.5783    144.1403     91.7206   5.7681234913e+01   3.5124829550e+01    0.2812756    0.2058561 -54.51  0.001148127    1.402    0.287
        36 -11.0868     71.0951     91.3893   7.8904627762e+01   5.0030100395e+01    0.2991818    0.2128517 -61.10  0.001235721    1.413    0.292
        37 -11.5182     88.0042     90.4933   7.2933621116e+01   4.7293383412e+01    0.2946905    0.2115641 -65.82  0.001230383    1.571    0.364
        38 -11.4462    104.8225     92.5152   6.8278213957e+01   4.3555709729e+01    0.3819103    0.2117063 -64.42  0.001392796    2.579    0.612
        39 -14.5325    121.0158     78.2325   5.9479144824e+01   4.3057975091e+01     1.426027     0.720922 -50.10  0.005559088    2.108    0.526
        40  -9.2371    101.0043    175.9717   8.7313294780e+01   2.4683605730e+01    0.1610753     0.148058  56.11            0    1.019    0.018
        41 -11.4616    104.0407     80.0223   6.4811474140e+01   4.6394701065e+01    0.2886771    0.2309949 -61.00  0.001105441    1.343    0.256
        42 -12.1274    112.5741     96.2269   6.7076447130e+01   4.1137962342e+01    0.4219439    0.3292815  76.74   0.00167698    1.573    0.364
        43  -9.3766    208.3248    161.6628   6.1051673660e+01   8.7183522132e+00    0.1273074    0.1064672 -73.73 0.0007051308    1.720    0.419
        44 -15.1397    121.7200     65.3510   5.5238230645e+01   4.5334274731e+01     1.559182     1.167312 -60.13  0.007559281    1.493    0.330
        45 -10.9039     88.5088     84.4892   7.1029272415e+01   4.8543435267e+01    0.3165688    0.1438826 -48.49  0.001204925    2.144    0.534
        46 -11.3137     98.9469     79.2987   6.6133486635e+01   4.7601894405e+01    0.2860861    0.2078254 -35.84 0.0009476606    1.433    0.302
        47 -11.7925     92.6847     81.0433   6.8639352624e+01   4.8488352153e+01    0.3658169    0.2629949 -55.76  0.001170985    1.446    0.308
        48 -11.5663     83.0838     81.1761   7.1845174998e+01   5.0286974742e+01    0.3323386    0.2111624 -52.58  0.001345612    1.569    0.363
        49 -11.9955    133.8828     84.2032   5.7984452870e+01   3.8957281014e+01    0.3615502    0.2091991 -55.61  0.001458392    1.979    0.495
        50 -12.3313     96.2208     74.1486   6.5360874649e+01   4.9227540303e+01     0.526506    0.2640342 -35.43  0.002033084    2.271    0.560
        51 -10.5546    197.2291    160.3937   6.2832947553e+01   1.0849088291e+01    0.1837613    0.1285524  51.62  0.000866178    1.681    0.405
        52  -9.2304     73.5354     74.4966   7.3133353117e+01   5.3454532082e+01    0.1441793    0.1366661 -29.23 0.0004023423    1.024    0.024
        53  -9.9170     79.3794     71.8171   7.0200841209e+01   5.2985340739e+01    0.2126597    0.1303646 -37.22 0.0008682397    1.698    0.411
        54 -10.6217    101.0594    102.2117   7.2069676818e+01   4.2123259435e+01    0.2566628    0.1750912  68.89  0.001082021    1.973    0.493
        55 -11.0906     93.9889     68.7531   6.4308394554e+01   5.0773988299e+01    0.2756424    0.1881691 -29.61  0.001270559    1.641    0.391
        56 -11.6560     76.7123     88.1099   7.6048163723e+01   4.9857632589e+01     0.351615    0.2380234 -76.13  0.001539409    2.004    0.501
        57 -10.4944    162.4005    102.1591   5.6449792339e+01   2.8938093426e+01    0.2215112    0.1346571 -51.49 0.0009450503    1.689    0.408
        58  -9.1178     87.3345     64.3093   6.4977077393e+01   5.2994612459e+01    0.1488672    0.1142865   2.33 0.0007042845    1.676    0.403
        59 -12.2009    123.5105     51.7873   5.0299795082e+01   4.7235378289e+01    0.4003634     0.277243  30.91  0.001858851    1.773    0.436
        60 -10.2776     85.6261    100.8299   7.6509233577e+01   4.5329275681e+01    0.2195379     0.139706 -63.64 0.0008550359    1.715    0.417
        61 -12.0795    102.1726     84.7232   6.6798732100e+01   4.5790747161e+01    0.4848565    0.2237648 -44.94  0.001784202    2.137    0.532
