#   1 NUMBER                 Running object number                                     
#   2 MAG_AUTO               Kron-like elliptical aperture magnitude                    [mag]
#   3 X_IMAGE                Object position along x                                    [pixel]
#   4 Y_IMAGE                Object position along y                                    [pixel]
#   5 X_WORLD                Barycenter position along world x axis                     [deg]
#   6 Y_WORLD                Barycenter position along world y axis                     [deg]
#   7 A_WORLD                Profile RMS along major axis (world units)                 [deg]
#   8 B_WORLD                Profile RMS along minor axis (world units)                 [deg]
#   9 THETA_WORLD            Position angle (CCW/world-x)                               [deg]
#  10 FWHM_WORLD             FWHM assuming a gaussian core                              [deg]
#  11 ELONGATION             A_IMAGE/B_IMAGE                                           
#  12 ELLIPTICITY            1 - B_IMAGE/A_IMAGE                                       
         1 -14.1582    170.0073     43.4601   7.4709387825e+01   3.7347897195e+01     1.568375    0.8518986  33.78  0.005137419    2.697    0.629
         2 -14.5403    186.9368     23.1264   6.6654960323e+01   3.5718095021e+01     1.079002    0.8561324  -0.88   0.00159786    1.728    0.421
         3 -10.1972     88.0142     13.0210   8.2417069201e+01   5.9245689567e+01    0.1525673    0.1219017  33.87 0.0004177097    1.069    0.064
         4 -14.5426     68.7940    204.9277   1.3566656278e+02   2.3696414096e+01     2.387713     2.076065 -81.31  0.008353965    1.172    0.147
         5 -16.1606     71.2395    149.7847   1.2712476179e+02   3.6197772826e+01     4.163984     2.497366  74.11    0.0181311    2.341    0.573
         6 -11.0383     58.7460    201.6348   1.3736067788e+02   2.5816521185e+01    0.2336421    0.1729811  69.43  0.001201195    1.188    0.158
         7 -12.4766     11.8803    206.6505   1.4693947284e+02   3.0168309190e+01    0.4244971    0.3392852  59.06  0.003168649    1.327    0.246
         8 -13.0632    195.7886    195.9123   1.0710549690e+02   2.7794251136e+00     1.093211    0.7972379 -89.91   0.00485382    2.424    0.587
         9 -10.7007     92.9185    197.9617   1.2963155104e+02   2.1565235247e+01    0.2371037    0.1744517  66.11 0.0004556801    1.290    0.225
        10 -16.5100    114.0571    245.5654   1.3153212169e+02   8.3913062419e+00      6.08634     2.543192  39.84    0.0278046    2.215    0.549
        11 -10.5571    180.9474    194.4427   1.0987295933e+02   5.9399777200e+00    0.2885908    0.1856566 -83.59  0.001038375    3.564    0.719
        12 -10.6350     90.2659    193.4632   1.2956765426e+02   2.3003959781e+01    0.2381877    0.1555557  85.25  0.001020503    1.734    0.423
        13 -10.6550    157.8267    193.0911   1.1454431852e+02   1.0765484955e+01    0.2151211    0.1911121  79.29 0.0002964675    1.212    0.175
        14 -11.6292     99.9613    186.6916   1.2636891157e+02   2.2946128409e+01    0.2679642    0.2157219  64.13 0.0009230271    1.176    0.149
        15 -10.7387     10.5116    232.5385   1.4890833107e+02   2.5044443619e+01    0.1036551   0.08266973 -81.49  5.92704e-05    1.369    0.269
        16 -11.5201    207.9453    185.5771   1.0260296446e+02   2.3393507357e+00    0.3439255    0.2662285  11.39  0.001117041    1.447    0.309
        17 -11.7422    212.4570    181.5624   1.0088991977e+02   2.2044413602e+00    0.3434763     0.258413   0.11  0.001393935    1.580    0.367
        18 -10.3418    147.2199    185.9194   1.1553345820e+02   1.4366497825e+01    0.1889908    0.1211944 -53.19 0.0004288907    1.627    0.385
        19  -9.8755     91.9931    185.2406   1.2795350925e+02   2.4602374211e+01    0.1901113    0.1662763  64.39 0.0003300754    1.098    0.089
        20 -12.4208     85.9963    179.4076   1.2842788830e+02   2.6918158398e+01    0.5211184    0.2951405 -47.97  0.002394374    1.974    0.493
        21 -12.1367     89.0228    174.0489   1.2686758968e+02   2.7692601877e+01    0.3061597    0.2674179 -53.93  0.001750555    1.241    0.194
        22 -11.4185     99.1524    180.7337   1.2559323308e+02   2.4454782652e+01    0.2958538    0.2504922  29.50  0.001063255    1.417    0.294
        23 -10.7881    198.2499    177.0600   1.0278515280e+02   5.8574871848e+00    0.3330733    0.2561108 -56.66  0.001164603    1.487    0.328
        24 -12.1837    119.0757    173.6796   1.1969621239e+02   2.2536439444e+01    0.4204474    0.2617219  65.23  0.001800571    1.969    0.492
        25 -11.8361    125.6470    172.3474   1.1789779174e+02   2.1598877012e+01    0.3366482    0.2657356  63.67 0.0009579885    1.296    0.229
        26 -11.4418    137.1435    170.8508   1.1491228839e+02   1.9690751716e+01    0.2384447    0.2067154  82.90 0.0007162684    1.209    0.173
        27  -9.3567    120.6757    164.2729   1.1751362892e+02   2.4415750699e+01    0.1525357    0.1133797  76.27 0.0002833187    1.578    0.366
        28 -12.6758    100.1441    157.2500   1.2118557388e+02   2.9821210151e+01    0.6713631    0.3950432 -37.93  0.002814635    2.189    0.543
        29 -19.2928     29.0283    138.6451   1.3616306563e+02   4.3839380008e+01     19.81271     2.323696 -67.15   0.04297988    9.112    0.890
        30  -9.3785    120.6758    156.3211   1.1590829183e+02   2.6274489848e+01     0.158294    0.1167024  82.14 0.0003412345    1.679    0.404
        31 -11.5729    133.7914    144.7281   1.1016345334e+02   2.6353853046e+01     1.102356    0.2560795 -53.91  0.002421078    6.233    0.840
        32 -10.9069    174.8709    149.1166   1.0158667386e+02   1.6516106539e+01    0.2433362     0.216549 -87.68  0.000635278    1.249    0.200
        33 -11.6275    145.0264    145.9982   1.0772485822e+02   2.3706014144e+01    0.3750325    0.2598287  61.79  0.001637214    1.648    0.393
        34 -12.0189    110.0993    141.1922   1.1535631205e+02   3.1848741918e+01    0.5192651    0.3100383 -35.57  0.002126603    2.088    0.521
        35 -12.3821     99.0280    141.8986   1.1838560965e+02   3.3680846713e+01    0.2812273    0.2742525 -37.77 0.0004274247    1.128    0.114
        36 -11.2628    116.5524    131.3478   1.1144117419e+02   3.2924755303e+01    0.3390661    0.2697696 -20.06 0.0008010715    1.578    0.366
        37 -11.7920    105.1822    129.0280   1.1390524894e+02   3.5620626975e+01    0.5175572    0.3294899 -65.88  0.001811811    1.781    0.439
        38 -11.3237    160.1299    128.0471   9.9864492832e+01   2.4363907290e+01    0.3970431    0.2115223 -41.80  0.001535434    1.880    0.468
        39 -10.2192    125.6633    127.3292   1.0811442656e+02   3.2025459318e+01    0.1617521      0.12257  88.05 0.0007051995    1.730    0.422
        40 -10.8080    135.1956    121.9739   1.0435414375e+02   3.1230418153e+01    0.4411069    0.1132296 -51.91   0.00103131    5.244    0.809
        41 -10.2265    111.4582    120.0266   1.1005383557e+02   3.6519500958e+01    0.2154237    0.2054091  50.91 4.583805e-05    1.093    0.085
        42 -10.2131    165.6439    208.4040   1.1565475383e+02   6.2091048498e+00    0.2571264    0.1654108  43.80 0.0008806851    1.431    0.301
        43 -11.3102    168.6008    113.4186   9.4229493856e+01   2.5501510731e+01    0.3654392    0.2674351 -70.42 0.0008722568    1.693    0.409
        44 -11.8849      3.8244    111.9045   1.3899042206e+02   5.1894461042e+01    0.3046387    0.2023447  -7.34  0.001920978    2.101    0.524
        45 -10.4430    205.3934    110.1139   8.5944533069e+01   1.7500890977e+01    0.2563298    0.2103294  43.77 0.0006813816    1.316    0.240
        46 -10.9287     13.7608     59.9453   1.2551493396e+02   6.2136934050e+01    0.1791303    0.1479076 -23.78 0.0005294775    1.162    0.140
        47 -10.8968     93.7528    206.3349   1.3061633691e+02   1.9584846040e+01    0.5047246    0.2825298 -40.79  0.002197801    2.777    0.640
        48 -13.9096    182.2416     30.5824   6.9252689370e+01   3.5986986184e+01    0.7603345    0.6799809  -9.91  0.003935793    1.374    0.272
        49 -12.2222    106.9135    206.6711   1.2786458261e+02   1.7326043518e+01    0.3063888     0.204589  26.78  0.001120621    2.007    0.502
        50 -10.2433     10.9871     37.0064   1.1983885755e+02   6.6440409582e+01    0.1979931     0.133209   9.29 0.0009132248    1.570    0.363
