#   1 NUMBER                 Running object number                                     
#   2 MAG_AUTO               Kron-like elliptical aperture magnitude                    [mag]
#   3 X_IMAGE                Object position along x                                    [pixel]
#   4 Y_IMAGE                Object position along y                                    [pixel]
#   5 X_WORLD                Barycenter position along world x axis                     [deg]
#   6 Y_WORLD                Barycenter position along world y axis                     [deg]
#   7 A_WORLD                Profile RMS along major axis (world units)                 [deg]
#   8 B_WORLD                Profile RMS along minor axis (world units)                 [deg]
#   9 THETA_WORLD            Position angle (CCW/world-x)                               [deg]
#  10 FWHM_WORLD             FWHM assuming a gaussian core                              [deg]
#  11 ELONGATION             A_IMAGE/B_IMAGE                                           
#  12 ELLIPTICITY            1 - B_IMAGE/A_IMAGE                                       
         1 -12.9942    196.1417     32.0591   6.5533813061e+01   3.2489335034e+01    0.9691741    0.7413503  46.48  0.005549671    1.519    0.342
         2 -13.8296    210.4483     14.8443   5.9899573568e+01   3.1200489246e+01     1.180757    0.9241906  34.84  0.007163345    1.843    0.457
         3 -12.5092      2.0867      4.6021   1.0982150029e+02   7.1798079565e+01    0.8291695     0.396751 -34.27  0.005507582    1.670    0.401
         4 -10.1582    193.9897    245.1688   1.1298124197e+02  -5.7574159730e+00    0.1982297    0.1760645 -16.15 0.0003586999    1.205    0.170
         5 -10.2081    184.1758    250.3755   1.1570920509e+02  -4.9601869560e+00    0.2113735    0.1444001  29.27  0.001215464    1.312    0.238
         6 -10.3929    169.8957    248.4629   1.1821972586e+02  -2.2816159435e+00    0.3641732    0.2403844  -0.56  0.001035203    2.474    0.596
         7 -11.2271    149.5679    248.2237   1.2221245761e+02   1.1941783028e+00    0.3881309    0.2906881 -70.49  0.002268462    1.692    0.409
         8 -10.4108    143.4973    249.5139   1.2359377887e+02   1.9958210311e+00    0.2198678     0.187887 -82.10 0.0007886028    1.370    0.270
         9 -10.4575    136.0791    248.6499   1.2494650470e+02   3.3968847857e+00    0.2264736     0.194096 -52.16 0.0007689635    1.383    0.277
        10 -10.4230    132.0857    249.0417   1.2578781067e+02   3.9963195555e+00    0.3076809     0.197155  60.55  0.001658711    1.610    0.379
        11 -10.2100    122.9831    249.6786   1.2766170536e+02   5.3939502503e+00    0.3723602    0.2220471  58.06  0.001966821    1.636    0.389
        12 -10.1472    127.1417    248.9333   1.2674970805e+02   4.8403973177e+00    0.4256718    0.2508111 -72.75  0.002145242    2.285    0.562
        13 -10.6942    121.4585    244.9925   1.2737437224e+02   6.5100146638e+00    0.4067865    0.2558959  54.61  0.001882092    1.431    0.301
        14 -12.4848    125.0184    240.5714   1.2608928069e+02   6.7445347707e+00     0.928963    0.4641464  31.71   0.00411725    2.338    0.572
        15 -11.0604     99.1242    247.4698   1.3205622004e+02   9.6612476257e+00    0.4715634    0.2998205  62.42  0.002209466    1.453    0.312
        16 -10.0596    102.8093    247.2372   1.3131495079e+02   9.1225533147e+00    0.2395727    0.1936136  76.83 0.0008962476    1.162    0.139
        17 -10.8737    115.5053    250.3872   1.2921083824e+02   6.4899101930e+00    0.4599995     0.267121  39.42 0.0008568874    1.568    0.362
        18 -11.4797    109.6971    246.9057   1.2993152831e+02   8.0805063067e+00    0.5038805    0.3628471 -76.10  0.002127583    1.532    0.347
        19 -11.1865     87.6096    248.3900   1.3436535498e+02   1.1265951106e+01    0.4613889    0.2981347  55.06  0.001052342    1.282    0.220
        20 -14.4314      8.3956    147.8937   1.4043623624e+02   4.3282293490e+01     3.942258     1.113241 -74.68   0.01513098    3.195    0.687
        21 -10.6807     96.9635    239.5506   1.3158056449e+02   1.1540778478e+01    0.3912548    0.2882052 -37.74  0.002194499    2.050    0.512
        22 -10.5612     85.0708    234.6376   1.3338296907e+02   1.4377665877e+01    0.4377197    0.2406526  56.69  0.001694304    1.647    0.393
        23 -10.6888     91.0460    241.6816   1.3298522809e+02   1.2045618378e+01    0.4064064    0.2407135  64.90  0.001799106    1.658    0.397
        24 -10.8224     89.9399    238.0673   1.3280114572e+02   1.2935462326e+01    0.2821557    0.2127152 -64.74  0.000833834    1.446    0.308
        25  -9.9459    157.9063    242.5128   1.1972411611e+02   7.6325479263e-01    0.2200279    0.1981864 -50.03 0.0006216285    1.287    0.223
        26 -11.4465    135.7694    241.1872   1.2400077969e+02   4.8033339899e+00    0.6212328    0.4161104 -15.07  0.002808808    3.035    0.670
        27 -10.8997    134.7764    237.0237   1.2362429493e+02   5.7508060596e+00    0.2482369    0.2215564  44.81 0.0005273033    1.083    0.077
        28 -12.3347    134.4401    232.9466   1.2311602883e+02   6.5852677200e+00    0.5431529    0.4474054 -55.41  0.002277557    1.369    0.270
        29 -10.6151    166.3635    242.1374   1.1796989249e+02  -6.2373937532e-01     0.333263    0.1545107  41.87  0.001532482    1.864    0.464
        30 -10.4678     84.2781    240.6402   1.3419102149e+02   1.3288158614e+01    0.4317725    0.2743353  81.06  0.002396047    1.650    0.394
        31 -10.9749    116.6823    238.3598   1.2748509907e+02   8.5666199052e+00    0.4293183    0.2796353 -35.43  0.001523163    2.380    0.580
        32 -10.2473     84.7778    229.4167   1.3285380364e+02   1.5498302384e+01    0.2211543    0.2024169 -59.83 0.0001110826    1.372    0.271
        33 -11.3671    122.3827    233.7678   1.2571631802e+02   8.5006954568e+00    0.3721388    0.2508163  46.54  0.001344214    1.295    0.228
        34 -14.2107     10.8264    208.8177   1.4542436229e+02   2.9317451525e+01     2.613023     1.188144 -77.36   0.01444558    1.783    0.439
        35  -9.5752    172.9943    235.9849   1.1567733193e+02  -7.0999227508e-01    0.1919415    0.1738459  36.44 0.0003111696    1.049    0.047
        36  -9.6377    165.5641    234.4960   1.1694956568e+02   8.4507688634e-01    0.1332279    0.1182114  37.32 -0.0002040154    1.008    0.008
        37 -11.2442     99.0538    223.4583   1.2919497633e+02   1.4492362162e+01    0.4232984    0.2641306  46.71  0.001424075    1.438    0.305
        38 -11.3598    105.7275    228.1658   1.2841244453e+02   1.2420337275e+01    0.5801111    0.3485717  59.89   0.00292808    1.641    0.391
        39  -9.9765     62.9449    232.9949   1.3754449454e+02   1.7946068606e+01    0.1798871    0.1488995  76.13 0.0003125154    1.073    0.068
        40 -10.4706    142.1193    229.6641   1.2104177517e+02   5.8704989319e+00    0.4181402    0.2463876 -37.27  0.001963212    2.270    0.560
        41 -11.1452    176.4198    242.6543   1.1604144380e+02  -2.4254541338e+00    0.3754764    0.2398302  56.45  0.001510656    1.869    0.465
        42 -12.2369    247.4359    239.6362   1.0203946252e+02  -1.3102497426e+01    0.6157962    0.3834983  -1.14  0.003536803    1.724    0.420
        43 -10.5576     79.3831    225.7029   1.3352405443e+02   1.7096362926e+01    0.4338684    0.2731245 -74.30  0.001278206    1.579    0.367
        44  -9.5447     77.1999    220.7965   1.3341091097e+02   1.8470967876e+01    0.1994459    0.1511609  73.57 0.0004375427    1.163    0.140
        45 -10.9848    104.7601    238.1435   1.2985966942e+02   1.0570321699e+01    0.4876021    0.2803189  23.46  0.002123475    2.925    0.658
        46 -10.2194     91.4834    225.5368   1.3102743457e+02   1.5267508017e+01    0.5412723    0.1694196  50.11  0.001850273    3.094    0.677
        47 -10.2047    117.4072    224.2226   1.2543900957e+02   1.1265184824e+01    0.2441573     0.217117  57.38 0.0006595898    1.051    0.048
        48  -9.6804     65.0001    224.3891   1.3627827800e+02   1.9467194887e+01    0.2332074    0.1678024 -64.94 0.0008433685    1.455    0.313
        49 -10.2737    160.6171    223.7036   1.1624067304e+02   3.6991898860e+00    0.2585104    0.2029977  15.00  0.000746544    1.483    0.326
        50 -10.9583    142.2509    221.6526   1.1978836516e+02   7.4102942706e+00    0.4066247    0.2410868  38.16  0.001017063    1.585    0.369
        51 -10.6300    156.7524    231.7623   1.1832850503e+02   2.8890766063e+00    0.2476163    0.2309885 -30.23 0.0004027489    1.218    0.179
        52 -11.0900    246.1996    219.6174   9.8683781322e+01  -1.0066864800e+01    0.3424111    0.1702539 -22.36  0.001589865    2.360    0.576
        53 -10.5731     69.8126    217.4988   1.3455899552e+02   2.0269177276e+01    0.7049977    0.3232713 -81.21  0.002977036    2.709    0.631
        54  -8.9611    104.6255    218.7818   1.2740039409e+02   1.4565738825e+01    0.1738814    0.1227729 -79.31 0.0002420298    1.512    0.339
        55 -11.2581    113.2079    230.5677   1.2717894957e+02   1.0687151237e+01     0.435565    0.3777869 -28.67  0.001719957    1.577    0.366
        56  -8.9400     89.2065    218.4086   1.3062144623e+02   1.7145884223e+01     0.197081    0.1795115 -87.87 0.0004820682    1.154    0.134
        57  -9.6620     88.3605    213.2477   1.3014498614e+02   1.8404131441e+01    0.3622696    0.2036284 -82.94  0.001521347    2.153    0.535
        58 -10.2157    137.8107    214.1290   1.1955169239e+02   9.7350829510e+00    0.3591596    0.2903973  25.12  0.001226349    1.391    0.281
        59  -9.3435    160.0894    213.7790   1.1469200141e+02   5.7062677167e+00     0.199494    0.1803565  59.76 0.0005165763    1.123    0.110
        60  -9.1575    100.6349    211.2571   1.2722523250e+02   1.6856412954e+01    0.1453312   0.09334511  65.47 0.0006279586    1.633    0.387
        61  -9.9074    107.2348    209.4059   1.2551723620e+02   1.6153264731e+01    0.2368533    0.2075199 -12.15 0.0009319836    1.597    0.374
        62 -10.0039     96.7038    206.6788   1.2744655199e+02   1.8518746453e+01    0.5063199    0.2482084 -76.14  0.001994588    2.771    0.639
        63 -10.2593     91.4085    204.4270   1.2830252501e+02   1.9884498983e+01    0.4077878     0.352452  26.85  0.001343035    1.437    0.304
        64  -9.9157     73.6651    209.4576   1.3281497307e+02   2.1484904951e+01    0.3917792    0.2615275  11.24  0.001780877    2.980    0.664
        65  -9.7997    112.6663    208.3425   1.2416311163e+02   1.5452341445e+01    0.2578117    0.2190505  64.82  0.000788131    1.074    0.068
        66  -9.0370     29.1887    208.6651   1.4188371966e+02   2.7422468816e+01      0.19648    0.1200501  63.49  0.001161972    1.456    0.313
        67  -8.7723    134.5890    208.1971   1.1929647491e+02   1.1562670204e+01    0.1894048     0.133763 -42.26 0.0004354229    1.635    0.388
        68  -9.3797     32.8739    206.9504   1.4100094032e+02   2.7383301562e+01    0.1703421    0.1393081 -72.30 0.0003559431    1.286    0.222
        69 -10.7844    246.7842    206.2816   9.6087793961e+01  -8.1071185459e+00    0.3451694      0.16748  28.29  0.001590374    2.339    0.572
        70  -9.7649    103.1589    202.9391   1.2547199785e+02   1.8280969315e+01    0.3420139    0.2338369  58.20  0.001359993    1.413    0.292
        71  -9.4549     74.7637    203.7361   1.3187094893e+02   2.2612649961e+01    0.2793345    0.2128216  10.60 0.0007302396    2.119    0.528
        72 -10.4828    250.0066    201.7477   9.4652079790e+01  -7.8868302855e+00    0.3334506    0.1442282 -29.01  0.001424366    2.492    0.599
        73 -10.9077     84.2261    201.5958   1.2950734504e+02   2.1663314691e+01    0.3415498    0.2369495 -44.61            0    1.814    0.449
        74  -9.0955     85.9828    195.7481   1.2830177391e+02   2.2732331493e+01    0.1880707     0.169577  68.90 0.0003230394    1.085    0.078
        75 -11.5433     98.7374    232.4115   1.3037892240e+02   1.2690425862e+01     0.620696    0.2936602 -71.00  0.002080283    2.557    0.609
        76  -8.5294    183.1858    200.3845   1.0735773192e+02   3.9911867285e+00    0.1893016    0.1293047  49.81 0.0002592508    1.514    0.339
        77  -9.3830    127.9559    199.6893   1.1936980845e+02   1.4617978799e+01    0.1972022    0.1730724  54.63 0.0003990694    1.064    0.060
        78  -8.6075    115.2351    200.6164   1.2239712172e+02   1.6710002881e+01     0.145101    0.1040387  85.22 0.0006912669    1.632    0.387
        79  -9.2090    119.9726    199.4777   1.2114179097e+02   1.6117893166e+01    0.2107733    0.1336198  44.71 0.0003559245    1.488    0.328
        80 -10.1244     55.9890    198.3140   1.3529801680e+02   2.6485933819e+01    0.5015738    0.2388377  42.85  0.002418297    2.031    0.508
        81 -11.6450     60.8767    194.3941   1.3376084792e+02   2.6735458177e+01    0.4925671    0.3283305  46.49  0.001128565    1.484    0.326
        82  -9.7194    102.4773    196.1843   1.2460555289e+02   1.9929100222e+01    0.3618772    0.2558008 -18.93  0.001462664    2.588    0.614
        83  -9.4146     97.4961    196.2772   1.2575776008e+02   2.0745447866e+01    0.3386536     0.180489  39.00 0.0005969033    1.884    0.469
        84  -8.4255    153.6092    196.4712   1.1304057201e+02   1.0465371064e+01    0.1424908    0.1381909  54.76 7.672353e-05    1.024    0.024
        85  -9.0904     38.6980    196.0587   1.3875245663e+02   2.9157479663e+01    0.2239627    0.1184578  79.60  0.001085821    2.035    0.509
        86  -9.6433     38.6102    192.2319   1.3837320508e+02   3.0044211100e+01    0.2685661    0.1560958 -56.67  0.001157285    1.769    0.435
        87  -9.7105     41.2154    189.0366   1.3746522008e+02   3.0477152372e+01    0.2860565    0.1814484  76.15  0.001227745    1.529    0.346
        88 -10.6393    249.5376    194.0972   9.3255673666e+01  -6.5832024691e+00    0.3201658    0.2571422   5.56  0.001954354    1.216    0.178
        89  -9.0994     31.6631    195.4274   1.4016608763e+02   3.0103240407e+01    0.2466185   0.06498437  47.51 0.0009499812    3.522    0.716
        90  -8.7499    120.4223    194.4852   1.2021463475e+02   1.7155842868e+01    0.3419835   0.09506107  51.89 0.0008083116    5.977    0.833
        91  -9.0979     72.5102    193.0226   1.3097995622e+02   2.5412926961e+01    0.1899189    0.1662958  66.05 -7.179271e-05    1.109    0.099
        92  -9.4437     25.7587    192.4312   1.4110945970e+02   3.1421772599e+01    0.2195916    0.1529069  74.78 0.0007542702    1.255    0.203
        93  -9.8301    191.4910    191.4727   1.0389093520e+02   4.1423861044e+00    0.2454011    0.2351622   2.47 0.0006090401    1.017    0.016
        94  -9.3178    112.8298    192.1120   1.2157173289e+02   1.9061412545e+01    0.1879386    0.1706376 -34.22 0.0004443204    1.324    0.245
        95  -9.6037     19.9613    191.0307   1.4218172593e+02   3.2334484830e+01    0.1918428    0.1450976 -84.48  0.001268093    1.065    0.061
        96  -9.1454     44.8632    198.8106   1.3773546608e+02   2.7790597581e+01     0.254999    0.1618589  44.04  0.001447636    1.595    0.373
        97  -9.7255     31.9935    189.7758   1.3953537788e+02   3.1356690902e+01    0.3287906    0.2186722  34.43  0.001944269    1.771    0.435
        98 -13.6645      5.4532    245.1404   1.4865818949e+02   2.2438840861e+01     1.235542    0.7077149  84.85  0.008432082    1.331    0.248
        99 -10.5665    249.8928    187.7321   9.1945066793e+01  -5.5924010003e+00    0.3884233    0.2105149 -27.77  0.001867626    1.856    0.461
       100  -9.8236     76.7170    188.8454   1.2944574259e+02   2.5769691081e+01    0.2523836    0.2217482  24.07   0.00070829    1.447    0.309
       101 -11.6428     67.3616    187.2520   1.3138007350e+02   2.7508289561e+01    0.3080915    0.2430128 -52.09 0.0005296221    1.420    0.296
       102  -9.1088     83.5300    186.9451   1.2758925205e+02   2.5176128520e+01    0.2000362    0.1298186 -67.71 0.0004120831    1.473    0.321
       103 -10.2003     28.6431    184.4164   1.3970992445e+02   3.2951701260e+01    0.2917097    0.2488879   6.85  0.001399779    1.750    0.429
       104  -9.3218     24.1734    184.1855   1.4065018319e+02   3.3468415110e+01    0.1812639      0.16655  53.12 0.0005538961    1.339    0.253
       105  -9.2100     37.2142    183.7141   1.3775794604e+02   3.2177120693e+01    0.2302448    0.1670871  72.02 0.0009901165    1.272    0.214
       106  -9.1801    140.1251    183.1610   1.1362758149e+02   1.5992218908e+01    0.2076857     0.201057  10.44  0.000308718    1.139    0.122
       107 -12.7089    248.3271    173.5545   8.9377782844e+01  -2.9291644133e+00     1.081548    0.6266904 -34.44  0.005409051    1.567    0.362
       108 -13.3744    245.4208    158.6627   8.6811095531e+01   2.0003213626e-01     2.309444    0.8560355 -49.71  0.008132924    3.242    0.692
       109 -12.8240    247.7043    101.1099   7.4193953732e+01   1.0096526786e+01    0.9048178    0.6018911 -48.83   0.00477034    1.316    0.240
       110 -13.0332    248.4104    114.3574   7.6930554427e+01   7.6223851780e+00      1.32112    0.6870553 -34.69   0.00592181    1.919    0.479
       111 -11.7811    247.8047    142.5752   8.3037461649e+01   2.6622858388e+00    0.6300589    0.5809773 -62.05  0.003713108    1.162    0.139
       112 -12.4070    248.6821    133.7695   8.1031647559e+01   4.0874057488e+00     1.127581    0.5935975 -39.60  0.005220886    1.681    0.405
       113  -8.3671    127.2544    182.3121   1.1648470380e+02   1.8662548760e+01    0.1406471    0.1180043 -21.18  0.000177722    1.523    0.343
       114  -9.2070    107.8800    182.3407   1.2109221525e+02   2.2208680360e+01    0.1964865    0.1777527  55.76 0.0003584292    1.097    0.088
       115  -8.7051     65.7470    181.9895   1.3103769177e+02   2.8983159503e+01    0.1840806    0.1547601 -86.28 0.0002139333    1.035    0.034
       116  -9.5641    115.7147    178.2659   1.1849726644e+02   2.1756340746e+01    0.3313494    0.1951107 -44.39  0.001145255    1.890    0.471
       117  -9.0645     47.5874    179.7031   1.3494915562e+02   3.1901194369e+01    0.2002267    0.1158948  36.75 0.0007424811    1.890    0.471
       118  -9.5476     20.0071    179.0608   1.4104438201e+02   3.5060215142e+01    0.1822165    0.1437222 -83.47            0    1.045    0.043
       119  -8.8119     92.6051    178.2375   1.2407166694e+02   2.5792788764e+01    0.1845012    0.1288589 -53.16 9.024655e-05    1.452    0.311
       120 -10.9838     77.3488    175.0437   1.2725627696e+02   2.8966614551e+01    0.2872875     0.244498 -59.21 0.0004026292    1.200    0.167
       121  -9.0662     68.6833    175.5298   1.2942225424e+02   3.0116868930e+01    0.2709242    0.1268791 -69.38 0.0006572932    2.113    0.527
       122 -11.8405     64.1538    173.3299   1.3019178747e+02   3.1279395647e+01    0.3969643     0.244455 -51.23 0.0005065451    1.684    0.406
       123 -10.2073     68.5112    166.5667   1.2810731032e+02   3.2309822342e+01    0.2534756    0.2236215 -69.41  0.001490251    1.092    0.084
       124 -11.7810    107.7784    172.8682   1.1944696063e+02   2.4472085949e+01    0.2747998    0.2617008 -89.60 0.0002774329    1.049    0.047
       125 -10.1418     44.9336    164.8831   1.3366353810e+02   3.5755052237e+01    0.2290315     0.158404 -67.59 0.0003566213    1.244    0.196
       126 -10.3869     46.0047    172.3180   1.3438648114e+02   3.3848114784e+01    0.2949432    0.1799269 -52.90 0.0002801724    1.671    0.402
       127 -10.8614     43.8001    169.1851   1.3450456448e+02   3.4855945526e+01    0.3976581    0.3127361 -61.20  0.001198544    1.235    0.191
       128  -9.8912     28.5261    170.6291   1.3825262957e+02   3.6177176851e+01    0.3524763     0.207369 -67.82  0.001266716    1.413    0.292
       129  -8.6087     52.5813    171.1376   1.3266624895e+02   3.3327241644e+01    0.1753774    0.1101237 -58.76 0.0003380128    1.476    0.322
       130  -8.3601    166.7542    170.6513   1.0500774410e+02   1.3395807990e+01    0.1506165    0.1192161 -15.18 0.0001671393    1.580    0.367
       131  -8.3182    150.7402    170.2874   1.0860493242e+02   1.6771215557e+01    0.1478449    0.1192048  86.57 0.0001591563    1.487    0.328
       132 -11.9338     85.2056    166.6652   1.2395360182e+02   2.9782630388e+01    0.6001105    0.5260406  35.38  0.003366987    1.286    0.222
       133  -8.7649    118.5488    162.5820   1.1482156808e+02   2.4945968801e+01    0.1504805    0.1437921  86.50 7.946253e-05    1.014    0.014
       134  -8.4144     36.7081    162.3921   1.3532886474e+02   3.7273152113e+01    0.1395756   0.08584597  77.86 0.0007007363    1.777    0.437
       135 -10.2943     89.7887    160.1149   1.2163614845e+02   3.0639795970e+01    0.2344251    0.2046439  52.32 0.0003236371    1.176    0.149
       136  -9.2221     73.5192    159.5184   1.2569989037e+02   3.3307747989e+01     0.143103      0.12714 -81.55 0.0001052304    1.012    0.012
       137  -8.4141     52.2971    158.3279   1.3090983438e+02   3.6455792407e+01    0.1348726   0.09563674 -42.12   0.00070262    1.633    0.388
       138  -8.7086     47.3602    158.3102   1.3214848234e+02   3.7054423215e+01     0.134278   0.09529039 -38.26 0.0007041502    1.742    0.426
       139 -12.6487     61.8530    245.7643   1.3893564563e+02   1.5516981264e+01     1.636488    0.7306071  40.87  0.008061267    2.075    0.518
       140 -10.6199     23.6159    149.4314   1.3688140175e+02   4.1654140147e+01    0.3396823    0.1739035 -43.29  0.001183727    2.304    0.566
       141 -10.9729     31.8381    155.7975   1.3566373426e+02   3.9354317329e+01    0.3477773    0.2219892 -54.29 0.0008782552    1.487    0.327
       142 -10.5216     84.0761    155.4886   1.2226593990e+02   3.2687692936e+01    0.4019341    0.2403115  21.61 0.0008620418    2.412    0.585
       143  -9.2545     71.7303    156.3072   1.2561509265e+02   3.4352364633e+01    0.2683725    0.1806579   1.92  0.001168297    2.635    0.621
       144  -8.8865    228.3892    155.3164   8.9087478552e+01   3.9786078975e+00    0.1966071     0.126384 -47.42 0.0005517469    1.515    0.340
       145  -9.2630    104.8420    153.5347   1.1649176735e+02   2.9656141019e+01    0.2317042    0.1922975  87.50 0.0002905665    1.288    0.224
       146  -9.7530    114.0510    150.4814   1.1348133843e+02   2.8695215256e+01    0.3219282    0.2116456 -58.91 0.0003230109    1.516    0.340
       147 -10.3415     97.8240    150.9379   1.1780018204e+02   3.1523638391e+01    0.3774464    0.3219416 -42.58  0.001987453    1.244    0.196
       148  -9.3964    101.1604    146.4749   1.1601238755e+02   3.2022604272e+01     0.333547    0.1718877 -38.74  0.001247799    2.444    0.591
       149  -9.5731     59.4960    150.1808   1.2777227383e+02   3.7526070424e+01    0.4783207    0.2317652  69.30  0.001547865    4.378    0.772
       150  -9.1605     86.4274    149.9359   1.2060842682e+02   3.3669966683e+01    0.2225864    0.1352827 -60.10 0.0003704029    1.547    0.354
       151  -9.2318     55.4904    150.4716   1.2886944598e+02   3.7966853159e+01    0.1384791    0.1191831 -80.45 0.0002124527    1.046    0.044
       152 -11.4499     23.6948    154.9351   1.3754908884e+02   4.0347132126e+01    0.4673252      0.20609  37.92  0.002304991    2.453    0.592
       153 -12.2863     68.3605    144.3590   1.2439638992e+02   3.7749559355e+01    0.6873848    0.4895671  84.06  0.002249602    1.655    0.396
       154 -10.3618    236.3545    146.0256   8.5683097744e+01   4.1864463484e+00    0.2676539    0.2165372  43.65 0.0008043203    1.362    0.266
       155  -8.7863     52.9770    146.4737   1.2888059288e+02   3.9248718528e+01     0.180088    0.1346454  37.89 0.0003285336    1.498    0.333
       156 -10.2879    133.3394    141.3194   1.0652613352e+02   2.7041574394e+01    0.5872315    0.2644416 -53.40  0.002087486    2.305    0.566
       157  -8.4711    104.7199    142.7391   1.1427904380e+02   3.2286603146e+01    0.1414687    0.1188223 -17.70 0.0001986077    1.477    0.323
       158 -12.7867     14.0917    238.7989   1.4686086604e+02   2.2771542614e+01    0.5981433    0.4450151  63.15  0.003483032    1.203    0.169
       159 -10.8040     19.5201    141.5330   1.3689531010e+02   4.3873839421e+01    0.2702537    0.1902839  59.80  0.000834281    1.576    0.365
       160 -11.6442     16.2274    138.7347   1.3737577210e+02   4.4800480269e+01    0.3336111    0.2241219  40.81  0.001550684    1.729    0.421
       161 -10.5888     32.8225    140.6613   1.3331129436e+02   4.2865687032e+01    0.2769953    0.1857457  82.72  0.001281981    1.645    0.392
       162 -13.4176     28.7410    247.0504   1.4490946904e+02   1.9497536671e+01     1.316261    0.7096151  58.31  0.007098646    1.482    0.325
       163  -9.3429     37.1779    140.2035   1.3208629975e+02   4.2536778242e+01    0.1800029    0.1405986  79.56   0.00094087    1.339    0.253
       164  -9.2946     55.9997    138.7160   1.2674470401e+02   4.0755313313e+01    0.1765997    0.1688994  79.89 0.0003088754    1.129    0.114
       165 -11.2113     60.4543    136.6678   1.2514678184e+02   4.0683619392e+01    0.3626513     0.263851 -84.48  0.001896626    1.489    0.329
       166 -10.3139     46.2668    138.3324   1.2933778352e+02   4.2004313944e+01    0.2458097    0.1914686 -49.21  0.001212412    1.252    0.201
       167  -9.9090    109.6044    136.1229   1.1151703415e+02   3.2968960639e+01    0.3489476      0.23864 -28.25  0.001188096    1.911    0.477
       168  -9.7910     32.3429    145.3477   1.3411556695e+02   4.1795974201e+01    0.2052805    0.1330128 -42.54  0.001113868    1.716    0.417
       169 -13.4889     40.7392    243.0053   1.4252836744e+02   1.8840352789e+01     1.204313    0.7611585  63.48  0.005636805    1.265    0.210
       170 -11.4217     33.1529    130.7927   1.3170088894e+02   4.5176264596e+01    0.5301214    0.1648531 -63.62  0.001125399    2.599    0.615
       171  -9.1903    115.3225    129.3280   1.0841031425e+02   3.3476926861e+01    0.1568781    0.1229299 -12.93 0.0002861413    1.692    0.409
       172  -8.6770     80.2881    129.3329   1.1811120813e+02   3.9630950603e+01    0.1473676    0.1077561 -29.84 0.0003601291    1.625    0.385
       173 -11.5027     67.2754    128.4013   1.2162241290e+02   4.1759133078e+01    0.4234355     0.298505  53.60  0.002165449    1.627    0.385
       174 -11.2954     44.7281    131.1751   1.2854301618e+02   4.3890386286e+01     0.399405    0.3036499 -69.79  0.002314477    1.167    0.143
       175 -10.3527     59.4439    128.1815   1.2381901719e+02   4.2854088303e+01    0.2135195    0.1955591  31.57 0.0002834713    1.241    0.194
       176 -10.5375     23.4181    126.8016   1.3376755433e+02   4.6994977876e+01    0.3121883     0.140862 -72.57  0.001203223    2.061    0.515
       177 -10.2824    209.9840    125.7514   8.5867222076e+01   1.3497426741e+01    0.3071629    0.2061008 -43.96 0.0005041804    1.404    0.288
       178  -8.4480     87.7120    125.2537   1.1510333326e+02   3.9417572615e+01    0.1390209    0.1121721  78.55            0    1.479    0.324
       179  -9.3579    238.5018    122.0093   8.0107758369e+01   8.2111392763e+00    0.2235815    0.1282606 -39.56  0.001028009    1.589    0.370
       180 -11.6956     21.8975    121.4285   1.3335610821e+02   4.8369523657e+01    0.3018364    0.2344133 -12.07  0.001899107    1.636    0.389
       181  -9.9246     54.5228    120.7213   1.2376696109e+02   4.5237728707e+01    0.2672727    0.2052173  14.10  0.001392548    1.594    0.372
       182 -11.5762     39.6469    230.4229   1.4172569769e+02   2.1534926927e+01    0.3390689    0.2382714 -80.04 0.0009185585    1.280    0.219
       183 -11.3835     29.6715    119.2373   1.3076551275e+02   4.8208933418e+01    0.3262772    0.2070031  23.41  0.001830283    1.920    0.479
       184  -9.9712    231.9993    116.3345   7.9898659375e+01   1.0588427523e+01    0.1976318    0.1834559 -62.83 0.0005674025    1.046    0.044
       185 -10.4242     66.3300    115.5231   1.1915904142e+02   4.4929763354e+01    0.2940983    0.2087975  70.25 0.0007852176    1.937    0.484
       186 -12.8689     34.3795    227.6732   1.4247903939e+02   2.2745574932e+01    0.4536205     0.304995 -61.66 0.0008129722    1.676    0.403
       187 -10.3907    168.0231    113.1965   9.1336192299e+01   2.5593574220e+01    0.3649393    0.2924483 -81.14 0.0008647765    1.472    0.321
       188  -9.1043    203.5081    111.4984   8.3712994599e+01   1.7727149782e+01    0.1501069    0.1427232 -59.08  0.000810466    1.029    0.028
       189  -8.8454     44.5176    105.4124   1.2362124130e+02   4.9919381707e+01    0.1307639    0.1136728 -50.29 7.250291e-05    1.016    0.016
       190 -11.2564     14.2417    104.1981   1.3275525493e+02   5.2862720706e+01    0.2198953    0.1891488 -73.79  0.001525887    1.161    0.139
       191  -9.2463     29.1338     94.3905   1.2617369853e+02   5.3864769064e+01    0.1582602    0.1126416  39.55 0.0006974409    1.714    0.417
       192 -14.4156     41.1515    218.6532   1.4042633734e+02   2.3842177463e+01     1.808286     1.503912  11.82   0.01161831    1.963    0.490
       193 -11.0297    249.5413    151.0514   8.4535802959e+01   8.2408681408e-01       0.5283    0.3148695 -42.44  0.002628823    1.491    0.329
       194 -10.2828     81.6440    246.8403   1.3533950827e+02   1.2463352022e+01    0.3919559    0.2187298 -84.81  0.002051176    2.054    0.513
       195 -11.4893    199.4737    246.6638   1.1215890172e+02  -6.8758003676e+00    0.4312845     0.249935  45.30  0.002289131    1.710    0.415
