#   1 NUMBER                 Running object number                                     
#   2 MAG_AUTO               Kron-like elliptical aperture magnitude                    [mag]
#   3 X_IMAGE                Object position along x                                    [pixel]
#   4 Y_IMAGE                Object position along y                                    [pixel]
#   5 X_WORLD                Barycenter position along world x axis                     [deg]
#   6 Y_WORLD                Barycenter position along world y axis                     [deg]
#   7 A_WORLD                Profile RMS along major axis (world units)                 [deg]
#   8 B_WORLD                Profile RMS along minor axis (world units)                 [deg]
#   9 THETA_WORLD            Position angle (CCW/world-x)                               [deg]
#  10 FWHM_WORLD             FWHM assuming a gaussian core                              [deg]
#  11 ELONGATION             A_IMAGE/B_IMAGE                                           
#  12 ELLIPTICITY            1 - B_IMAGE/A_IMAGE                                       
         1 -10.8936      2.0378     22.0523   1.0405031580e+02   7.0757476844e+01    0.2818271     0.146366 -59.65  0.001058659    1.878    0.468
         2 -11.1572     13.6153     16.1055   9.5591816940e+01   7.1025798252e+01     0.225982    0.1749135  15.17 0.0009111407    1.462    0.316
         3 -10.3841     76.0925     15.3871   6.7821924867e+01   6.2654027838e+01    0.2817364    0.1890141 -38.04 0.0006889856    1.705    0.413
         4 -11.6046     85.8827     19.0711   6.6297886460e+01   6.0322310352e+01    0.3452673     0.282109  -2.64 0.0004423278    1.137    0.121
         5 -11.2012     42.4285     19.0246   8.2791962627e+01   6.7543010302e+01    0.5246481    0.2782355  -7.48   0.00240981    2.704    0.630
         6 -11.7480    234.5843     14.8549   3.9510396110e+01   2.4867152791e+01    0.2820312    0.2046183 -68.17 5.602602e-05    1.235    0.190
         7 -10.5760     22.9348      8.9150   8.7305845789e+01   7.1311526088e+01     0.343708    0.1920386  -3.13  0.001936839    2.019    0.505
         8 -10.4875     36.7399      6.2377   7.9055469717e+01   7.0070324625e+01    0.4385248    0.2404857 -48.03  0.002180459    3.009    0.668
         9 -11.7832     34.8975     12.8353   8.3296869565e+01   6.9398339546e+01     0.322152    0.2421456 -23.65 0.0008227297    1.149    0.130
        10 -11.8020     29.7385      6.2356   8.2454496755e+01   7.0940791827e+01    0.5016027    0.4068059 -42.19   0.00346968    1.698    0.411
        11 -10.9199     89.7421     13.4155   6.2634483377e+01   6.0189696411e+01    0.5203282     0.331773  66.40  0.002605168    2.063    0.515
        12 -10.3667     92.4335     10.1121   6.0408457960e+01   5.9975059679e+01    0.2507671    0.1481848  37.77 0.0004603601    1.538    0.350
        13 -10.1026     63.8621     11.0841   7.0117693090e+01   6.5359421519e+01    0.2343526    0.1970416 -65.82 0.0007822873    2.050    0.512
        14  -9.9760     99.1221     11.4897   5.9189564427e+01   5.8402188036e+01    0.2888061    0.2030109  68.83  0.001130535    1.710    0.415
        15 -10.8020    126.5305     10.6974   5.2553220780e+01   5.2156879776e+01    0.3702251     0.172425  43.55  0.001107396    2.032    0.508
        16  -9.8190     15.1337      8.9363   9.1472230078e+01   7.2052301129e+01    0.1790546    0.1004689 -19.68 0.0004100153    1.619    0.382
        17 -10.4142    224.0468      7.6977   3.8712587770e+01   2.8116406374e+01    0.1829853    0.1519941 -83.47 0.0005348001    1.064    0.060
        18  -9.8626     88.6322      7.1726   6.0171640319e+01   6.1061484423e+01    0.2333756    0.1143896 -25.57   0.00111674    2.066    0.516
        19  -9.9351    204.4691      6.4968   4.0204998885e+01   3.2968448584e+01    0.2393041   0.09545676 -40.49 0.0007625663    2.310    0.567
        20  -9.1012    156.2817      7.7226   4.6374961382e+01   4.5025238105e+01    0.1333499   0.09892597 -68.25 0.0006916316    1.506    0.336
        21 -10.8681     71.2073      5.9730   6.5017131772e+01   6.4611016773e+01    0.3004449    0.2794104 -29.31  0.002035181    1.384    0.277
        22  -9.8399     64.9177      7.1844   6.7814556989e+01   6.5619686164e+01    0.1768628    0.1621298  -0.08 0.0006372213    1.248    0.199
        23 -10.2752      8.8247      5.6586   9.3383456278e+01   7.3084486691e+01    0.3066023    0.1858556  41.70  0.001781444    2.858    0.650
        24  -9.7393     41.4520      5.9169   7.6708211083e+01   6.9475558439e+01    0.1806007    0.1000246 -26.32  0.001029012    1.602    0.376
        25  -9.7064      2.4275      6.5139   9.7477226114e+01   7.3411207322e+01    0.1939645   0.09797369  14.09  0.001056728    2.132    0.531
        26 -10.4059    107.7808      4.9868   5.4329727375e+01   5.7087095281e+01    0.2104646    0.1656528  48.27 0.0002137628    1.129    0.114
        27 -11.3489    101.5773      2.2863   5.4651276791e+01   5.8716699116e+01    0.3494624     0.270876  76.35 0.0001616555    1.546    0.353
        28  -9.8604    130.1434      3.2102   4.9084822645e+01   5.1950414878e+01    0.1787966    0.1540251 -78.21 0.0005099692    1.325    0.245
        29  -9.3862    112.5635      3.2601   5.2565470080e+01   5.6136197281e+01    0.1315188   0.09872278 -77.33            0    1.810    0.447
        30 -11.4425     20.7151      1.8547   8.4794058453e+01   7.2544709458e+01    0.2098501    0.1452982   6.03 0.0006329626    1.289    0.224
        31 -10.3210    151.1781      6.1344   4.6620137293e+01   4.6463653258e+01    0.1827392    0.1514125 -66.86 0.0002775223    1.314    0.239
        32 -10.0996    244.1410      1.7981   3.5800553657e+01   2.4143652303e+01    0.1607241    0.1415204  63.41  0.001078094    1.361    0.265
        33  -9.4593    176.5658      2.2059   4.2002822603e+01   4.0373459286e+01    0.1752269    0.1307905   4.24 0.0009472033    1.712    0.416
        34 -11.6346     80.2058      1.6747   6.0089095234e+01   6.3291027421e+01    0.2895896    0.1557413  49.49 0.0006701321    1.673    0.402
        35  -9.1024     67.2560      1.3533   6.4079160575e+01   6.5799800756e+01    0.1289594   0.07946996  14.55 0.0006963748    1.606    0.377
        36 -11.7864     57.1068      3.1676   6.8701745988e+01   6.7392830254e+01     0.414746    0.2772599   8.44  0.002500467    1.384    0.278
        37  -9.0736    187.0239      1.0000   4.0497894513e+01   3.7844415915e+01    0.2061883   0.06859331  72.26            0    2.701    0.630
        38  -8.9805    153.9811      1.0000   4.4523384385e+01   4.6202031189e+01    0.2196029   0.06939062  68.99 0.0005521185    2.814    0.645
        39  -9.4968     41.0241    158.0111   1.1760468576e+02   3.7311426775e+01    0.2018047    0.1263021  74.42 0.0005848623    1.588    0.370
        40 -11.7040     13.9994    238.6682   1.2894314857e+02   2.3372325282e+01    0.2734385    0.1323473  73.81 0.0005833029    1.639    0.390
        41 -11.3238      2.9749    249.0908   1.3109987732e+02   2.2636847603e+01    0.3910321    0.1918844  53.66   0.00281568    1.474    0.322
        42 -12.0164      8.7385    245.3737   1.3006962837e+02   2.2714317548e+01    0.3769004    0.2206384  28.71  0.002524379    2.521    0.603
        43 -12.9133      5.9785    240.0761   1.3028204497e+02   2.3918381335e+01    0.5486375    0.5003632 -14.81   0.00458535    2.175    0.540
        44  -8.9183    247.4814    155.4830   7.0996217066e+01   9.3739967215e-01    0.1363435    0.1168299 -11.91 0.0002206861    1.006    0.006
        45 -10.4016      2.4965    153.5082   1.2610286367e+02   4.1827590233e+01    0.2012198     0.112672  28.82  0.001218126    2.190    0.543
        46  -9.3007    237.7276    149.6840   7.1388450977e+01   3.6357134572e+00    0.1397595    0.1000038  -1.49 0.0002494166    1.560    0.359
        47  -9.7279     24.6063    139.1572   1.1948408219e+02   4.3366517877e+01     0.183246   0.08906444 -62.22 0.0009359158    1.711    0.415
        48 -10.2813    212.6246    133.9227   7.2308898806e+01   1.1350956544e+01    0.2627189    0.2180248  58.16 0.0006142279    1.380    0.276
        49  -9.4267     96.0310    133.9603   9.9590185264e+01   3.5508218005e+01    0.1777213    0.1640102 -73.68 0.0005314166    1.012    0.012
        50 -10.3934      2.2271    133.1597   1.2448291354e+02   4.6477617257e+01     0.242431    0.1581571  49.51  0.001562424    1.658    0.397
        51  -9.0553     35.2919    131.2764   1.1570212173e+02   4.4252235985e+01    0.1230028   0.08725531 -46.78  0.000263756    1.522    0.343
        52 -10.9681     11.8572    129.7231   1.2170638018e+02   4.6610990532e+01    0.2343577    0.1811861  71.19 0.0008962994    1.279    0.218
        53 -10.4994    248.5033    129.4892   6.5081932800e+01   4.8819233037e+00    0.1398699    0.1216704 -21.96 -2.105395e-05    1.003    0.003
        54  -9.2167     28.6763    128.2641   1.1708023431e+02   4.5592800020e+01    0.1249457   0.08425323  71.00 0.0002205138    1.561    0.359
        55  -8.9721     20.2975    125.2927   1.1896419603e+02   4.7010253283e+01    0.1221078   0.07951016 -49.70 0.0001646086    1.562    0.360
        56 -11.3350      8.1694    121.4828   1.2178236980e+02   4.8794549508e+01     0.293455    0.1758203  71.70 0.0007433837    1.753    0.430
        57  -8.8978     68.2511    122.6906   1.0506682600e+02   4.2494412934e+01     0.137079    0.1019259  86.39 0.0001682244    1.513    0.339
        58 -11.7931     23.6741    120.9118   1.1747276290e+02   4.7777071764e+01    0.4392158    0.2472915  77.57  0.001065359    2.074    0.518
        59  -9.7464     41.8394    116.8929   1.1167665705e+02   4.7063740403e+01    0.1808467    0.1390968  86.84 0.0004147469    1.323    0.244
        60 -10.8993     65.6257    110.6922   1.0340040531e+02   4.5754463802e+01    0.2989683    0.2285765 -88.78 0.0008230862    1.479    0.324
        61  -9.2463    102.9565    109.0530   9.1942402136e+01   4.0192043581e+01    0.1788051    0.1636553 -53.67 0.0003250596    1.035    0.034
        62 -11.7176      3.7746    108.7808   1.2154425368e+02   5.2027280310e+01    0.3504562    0.2244209  -0.03  0.002131267    2.258    0.557
        63 -11.3664     58.0708    107.2628   1.0498369221e+02   4.7552795848e+01    0.3488231    0.2365169 -28.19  0.001031362    1.864    0.464
        64 -10.0666    186.9423    103.0782   6.9566162078e+01   2.2909779130e+01    0.2306224    0.2247194 -60.91 0.0005129509    1.048    0.046
        65  -8.9047    161.6651    102.3143   7.4812527525e+01   2.9067077538e+01    0.1632314    0.1268184 -80.47 0.0005558574    1.689    0.408
        66  -9.6812     88.6097    106.2035   9.5430143734e+01   4.3375340520e+01    0.2195849    0.1267907 -44.42 0.0009504675    1.672    0.402
        67 -10.2547     18.9226     86.5689   1.1353377875e+02   5.6227168844e+01    0.3382842    0.1751602 -56.37  0.001189187    1.486    0.327
        68 -12.4382     20.8335     92.7697   1.1401261565e+02   5.4652146718e+01    0.3267193    0.2445633 -41.38 0.0004633109    1.334    0.250
        69 -10.5588     24.1372     88.5802   1.1215808757e+02   5.5378616014e+01    0.3129478    0.1939562 -68.49 0.0008140349    1.370    0.270
        70 -10.4514      3.4220     94.8331   1.1986973785e+02   5.5272631829e+01     0.280504    0.1607747  68.20  0.001542372    2.162    0.537
        71 -11.3323    125.1639     93.2952   8.1383332138e+01   3.9269553090e+01    0.2631527    0.2476272 -44.47 0.0002269029    1.040    0.038
        72  -9.9586     78.8754     93.9816   9.5304076973e+01   4.7791245730e+01    0.2166527    0.1763426 -30.18 0.0004210498    1.273    0.215
        73 -10.0976     29.4384     92.5037   1.1114655135e+02   5.4036757565e+01    0.2250842    0.1853852 -60.87  0.000700571    1.014    0.014
        74 -10.9670     57.8449     91.8030   1.0157662837e+02   5.1244213107e+01    0.2670411    0.2044982 -32.28 0.0006031808    1.360    0.265
        75 -10.3211     44.2083     90.4359   1.0580250329e+02   5.3126664388e+01    0.3543543    0.2366975 -70.81  0.001895534    1.483    0.326
        76 -11.4755     10.3814     91.3834   1.1716529660e+02   5.5671907200e+01    0.3815884    0.1999473 -48.21  0.001515952    1.679    0.404
        77 -10.1597     11.3746     85.1878   1.1582547617e+02   5.7036905282e+01    0.2220672    0.1321328 -76.43 0.0005092177    1.509    0.337
        78 -10.0752     76.2647     89.3328   9.4897633597e+01   4.9258578747e+01    0.2321895    0.1964124 -29.45 0.0004323906    1.190    0.160
        79  -9.6708     64.5591     88.5101   9.8524016054e+01   5.1133702166e+01    0.1406734    0.1235165 -49.55 3.569797e-05    1.014    0.014
        80 -10.7055     55.2199     85.6369   1.0093289404e+02   5.2992843984e+01    0.2315807    0.2100922 -67.92 0.0003138914    1.145    0.127
        81  -9.4570    113.5991     85.6010   8.2330573133e+01   4.3344486941e+01    0.1527756    0.1403107 -12.20 0.0007908303    1.116    0.104
        82 -10.9290      3.5412     82.6372   1.1803085514e+02   5.8053522996e+01    0.2894074    0.1900025 -65.53  0.001845059    1.148    0.129
        83 -11.0908      4.8489     77.2986   1.1670159481e+02   5.9192165229e+01     0.288869    0.1580136 -37.04 0.0006829885    1.845    0.458
        84  -9.4893    124.5069     82.5549   7.8342685458e+01   4.1652791420e+01    0.2320853    0.1476946 -31.21 5.778984e-05    1.677    0.404
        85  -9.8122    124.4221     79.2643   7.7342554784e+01   4.2334968208e+01    0.2306559    0.1496336 -41.77 0.0005714668    1.507    0.336
        86  -9.1907     42.0245     81.9777   1.0459350274e+02   5.5306155204e+01    0.1526775    0.1290343 -50.72 -0.003769674    1.013    0.012
        87  -9.8670    250.3769     80.8218   5.3475527524e+01   1.2287597817e+01    0.1927717    0.1217392 -25.82  0.000466913    1.612    0.380
        88  -9.6938     88.4858     80.0467   8.8274688139e+01   4.9319394276e+01     0.462474    0.2617133  59.42  0.001779578    2.865    0.651
        89 -10.7894     64.7029     80.0828   9.6202356888e+01   5.3021696647e+01    0.2871631    0.2709516 -33.94  0.001726992    1.078    0.072
        90  -9.5462     24.4833     78.5157   1.1001018164e+02   5.7663181631e+01    0.2028909    0.1231705 -40.98  0.001134494    1.522    0.343
        91 -10.3929     28.0771     77.0760   1.0840808784e+02   5.7703843640e+01    0.1855059    0.1516475 -52.45 0.0003654094    1.018    0.018
        92  -9.7185    176.8449     76.8405   6.4275916118e+01   3.0221310542e+01    0.2197496    0.1866695 -79.66 0.0009938525    1.323    0.244
        93 -10.7122     55.1498     75.5688   9.8281463959e+01   5.5270425047e+01    0.3090294    0.2290477 -45.39 0.0008537119    1.159    0.137
        94  -9.8200     41.8760     75.8615   1.0313081216e+02   5.6705210633e+01    0.1704544    0.1475274 -78.02   0.00037102    1.300    0.231
        95  -9.2459     29.6411     71.3151   1.0648527916e+02   5.8864913146e+01    0.1218671   0.09406207  76.17 0.0007043516    1.752    0.429
        96 -10.1820     37.2088     75.4061   1.0470836367e+02   5.7269819863e+01    0.2317286    0.1856186 -52.33  0.000759763    1.042    0.040
        97 -10.6332     34.4844     72.7757   1.0505074910e+02   5.8112844066e+01     0.546519    0.2925396  -9.03  0.002421962    3.053    0.672
        98 -11.0320     20.4119     73.1373   1.1031876101e+02   5.9177286064e+01    0.3823916    0.1670926 -46.29   0.00126736    1.888    0.470
        99 -10.7301     14.8082     75.1938   1.1278402650e+02   5.9093775648e+01    0.2361203    0.1969394  55.50 0.0009997205    1.510    0.338
       100  -9.7443     70.2222     75.5543   9.2991160363e+01   5.3231079570e+01    0.1794944    0.1348341  12.95 0.0007955789    1.560    0.359
       101 -11.2434     10.2248     79.1798   1.1516333311e+02   5.8473323823e+01     0.312162     0.204512 -72.88  0.001264564    1.321    0.243
       102  -9.2093     81.2461     72.9657   8.8451669444e+01   5.2056276956e+01    0.1944576    0.1137771 -46.39 0.0008812455    1.581    0.368
       103  -9.6746    216.9701     72.2629   5.6014993887e+01   2.1134707327e+01    0.1906393    0.1844261 -68.76 0.0003663278    1.052    0.049
       104 -10.6208    106.0328     72.0576   8.0289244961e+01   4.7669375593e+01    0.2336832    0.2130537  31.60 0.0004309159    1.125    0.111
       105  -9.6022     91.2524     69.6210   8.4084386517e+01   5.1002659315e+01    0.2128114    0.1731845 -79.06 0.0006795616    1.700    0.412
       106 -10.0609    100.0384     70.6451   8.1648888644e+01   4.9140153973e+01    0.2229375    0.1891553 -46.69 0.0005572332    1.191    0.160
       107 -11.0865     46.5550     69.2361   9.9628259342e+01   5.7668017578e+01    0.2495715    0.2113452  -0.98 0.0005204278    1.294    0.227
       108 -13.6166     20.4304     57.9239   1.0666073205e+02   6.2500601402e+01    0.5435366    0.2692584 -49.25  0.001222924    1.539    0.350
       109 -12.4886      8.9245     66.3071   1.1313671587e+02   6.1419417855e+01    0.6056497    0.5285884  13.98  0.003832264    1.439    0.305
       110 -10.3971      1.4078     66.8170   1.1605436807e+02   6.1688202106e+01    0.1929514    0.1127443 -70.23  0.001077191    1.415    0.293
       111 -11.7526     10.8865     60.0585   1.1100512314e+02   6.2667256254e+01    0.3663588    0.2475533  45.24  0.001645807    2.007    0.502
       112 -10.1308     79.6714     67.8688   8.7343535118e+01   5.3373712075e+01    0.2771964    0.2024267  29.73  0.001436171    1.473    0.321
       113  -9.0432     30.5756     68.4540   1.0542173967e+02   5.9417149415e+01    0.1279808    0.1031376 -49.14 0.0002075362    1.013    0.013
       114 -11.0418     63.0038     63.4109   9.1767563086e+01   5.6836309018e+01    0.5177029    0.2975979 -39.83  0.002529383    1.561    0.359
       115 -10.0902     34.6231     64.7024   1.0288325517e+02   5.9871006865e+01    0.2558008    0.1370374 -56.23  0.001314714    1.579    0.367
       116  -9.7381     96.9515     64.2398   8.0460042710e+01   5.0993907911e+01    0.1962739    0.1793808  20.95 0.0003048529    1.106    0.096
       117 -10.5710    101.2576     60.9786   7.7993317444e+01   5.0763316016e+01    0.3096581    0.2469905 -61.86  0.001509218    1.566    0.361
       118 -10.5323     39.7299     61.0871   9.9867958796e+01   6.0143514318e+01    0.3544352    0.2289082 -32.16  0.001968784    1.469    0.319
       119 -10.5150     49.1246     59.5143   9.5731619939e+01   5.9434502585e+01    0.2804426    0.2220867 -87.14 0.0008181483    1.907    0.476
       120 -10.0543    193.7530     58.8988   5.6034617997e+01   2.8947481420e+01    0.2883106    0.2097652  71.48  0.001345558    1.439    0.305
       121 -10.0847      8.7402     56.4293   1.1101451090e+02   6.3566818391e+01    0.2208704    0.1176539  12.01 0.0008186346    2.325    0.570
       122  -9.9344     91.5852     55.4494   7.9080118924e+01   5.3664954870e+01    0.2252043    0.2200435 -74.84 5.781325e-05    1.235    0.190
       123 -10.7340     83.7985     56.5257   8.2048838370e+01   5.4891852018e+01    0.2975285      0.26793 -54.75  0.001274905    1.292    0.226
       124 -11.3494     87.6576     53.0590   7.9496864544e+01   5.4831289657e+01    0.4170259    0.3107014  12.74  0.002149394    1.496    0.332
       125  -9.4718     71.6276     56.7443   8.6376002579e+01   5.6884818333e+01    0.1856669    0.1220056 -49.42 0.0008282782    1.553    0.356
       126 -10.0430     32.1296     56.2255   1.0144845082e+02   6.1900052097e+01    0.3715057    0.2121707 -21.21   0.00190165    2.083    0.520
       127 -11.5448    114.4951     53.8491   7.1581093283e+01   4.9242845018e+01     0.337097    0.2903307  32.44 0.0006329505    1.143    0.125
       128  -9.5035    106.1589     53.1112   7.3713726272e+01   5.1163723292e+01    0.1917338    0.1776358 -89.43  0.000616051    1.334    0.250
       129 -12.1779     65.0971     52.4498   8.7237535551e+01   5.8706547437e+01    0.4753663    0.2453592  39.42  0.001830523    2.140    0.533
       130 -10.2175    149.5917     51.9666   6.2249688807e+01   4.1231725068e+01     0.312737    0.2032327  66.95 0.0008231055    1.694    0.410
       131 -10.8287      4.4516     40.8103   1.0883309948e+02   6.7029992497e+01    0.4413071    0.1467068 -40.83  0.002127582    2.365    0.577
       132 -11.5205      4.8372     34.7634   1.0688642907e+02   6.8206497754e+01    0.4853037    0.3226625  -7.32  0.003262779    1.624    0.384
       133 -10.8070     12.6508     39.1383   1.0461226281e+02   6.6884214962e+01    0.4974613    0.2325824 -60.59  0.002261677    2.001    0.500
       134 -10.1290     20.0117     44.7502   1.0306702160e+02   6.5253724950e+01     0.223922    0.1620177 -40.43 0.0007979739    1.074    0.069
       135 -10.9882     16.1994     44.5601   1.0468361912e+02   6.5567106477e+01     0.376639    0.1340805 -54.75  0.001783672    2.133    0.531
       136 -10.9903      5.5370     50.8322   1.1098497731e+02   6.4919314952e+01    0.2802421    0.1837665 -26.96 0.0006815142    1.508    0.337
       137 -10.5263     13.8020     48.7703   1.0694090474e+02   6.4869686352e+01    0.2419523    0.1690386 -69.28 0.0007750248    1.524    0.344
       138 -10.8464      9.2601     46.6336   1.0831086255e+02   6.5585536693e+01    0.4055173    0.2851632 -85.64  0.002483603    1.946    0.486
       139 -10.3096     76.4795     48.5068   8.1632612695e+01   5.7624680461e+01    0.3030794    0.1505065 -34.92  0.001334905    1.921    0.479
       140 -11.0336     78.1651     45.6286   7.9939010327e+01   5.7841613545e+01    0.3915325    0.2169987  47.01  0.001816483    2.059    0.514
       141 -11.4769     56.7773     46.5134   8.8248699860e+01   6.1011494460e+01    0.3854784    0.3211778 -15.92 0.0007790846    1.071    0.067
       142  -9.4827     38.5487     48.5005   9.6354231695e+01   6.2838921149e+01    0.1291026    0.1036658 -32.97 4.430721e-05    1.014    0.013
       143  -9.7354    154.5477     47.5317   5.9753237013e+01   4.0660912307e+01    0.1473975    0.1443131  73.72 5.406529e-05    1.025    0.024
       144  -9.4412     90.3490     46.7633   7.6254757441e+01   5.5423511451e+01    0.1947248    0.1229764 -24.32 0.0002994655    1.635    0.388
       145  -9.5468    135.5655     46.4313   6.3540762811e+01   4.5539093384e+01    0.1451978    0.1418306  35.61 0.0001347175    1.031    0.030
       146  -9.9222     67.1678     46.6676   8.4323425429e+01   5.9464316050e+01    0.3737021    0.1234456  37.17  0.001391035    3.259    0.693
       147  -9.9330     46.6575     44.8201   9.1695277364e+01   6.2634568832e+01     0.273403    0.1454389 -58.48   0.00103055    2.516    0.603
       148 -10.1538     30.9847     45.9706   9.8699121175e+01   6.4087487342e+01    0.2135071     0.165702 -57.89 0.0007126222    1.380    0.275
       149 -10.6523     26.5136     44.2488   1.0006198483e+02   6.4828341464e+01    0.3820077    0.2158497 -41.89  0.002172518    1.405    0.288
       150 -11.1052     69.4252     42.2062   8.1756413271e+01   5.9894060870e+01    0.2359649    0.2252599   0.42 0.0006380507    1.204    0.169
       151 -10.7828    140.3746     40.8726   6.0521352877e+01   4.5175486676e+01    0.2857425    0.2365736 -70.12  0.000697939    1.434    0.303
       152  -9.9468    116.3533     40.2819   6.6115731600e+01   5.0976463260e+01    0.2807548    0.1548481 -49.58  0.000956134    2.339    0.572
       153 -10.2119     42.7707     40.6069   9.1753554529e+01   6.3881093908e+01    0.2197568    0.1509976 -39.74 0.0006044049    1.244    0.196
       154  -9.9139     35.4187     41.4849   9.5231395914e+01   6.4521788004e+01    0.3657605    0.2025559 -27.77  0.001917012    1.795    0.443
       155 -10.1217     39.1034     35.4059   9.1333484196e+01   6.5246475042e+01     0.335606    0.1627935  18.05  0.001592797    2.590    0.614
       156 -11.1352     38.7788     30.9598   8.9688442376e+01   6.6064950120e+01    0.3220487      0.21768 -28.23 0.0008275051    1.240    0.194
       157 -10.3590    128.1198     38.7770   6.2594806038e+01   4.8450469275e+01    0.2010163    0.1945282  86.07 0.0003875448    1.141    0.123
       158  -9.2207    119.5395     29.6005   6.1276211950e+01   5.1711777786e+01    0.2144224    0.1860633 -32.98 0.0005100349    1.226    0.185
       159 -11.7683    121.6054     37.5872   6.3758219338e+01   5.0155352586e+01    0.3690437     0.333353  22.82 0.0008704529    1.057    0.054
       160  -9.6165    118.6961     33.2959   6.2885358439e+01   5.1422577781e+01    0.2161441    0.2020912  79.63 0.0005469206    1.229    0.187
       161  -8.9666    152.6649     38.7200   5.7232066348e+01   4.2395411536e+01    0.1531725    0.1072862  32.05 0.0003748938    1.614    0.380
       162 -11.0775     19.3037     31.9337   9.9066971881e+01   6.7782450252e+01    0.5435142    0.2395891   3.91   0.00236483    3.493    0.714
       163 -10.1349     22.3348     38.0857   9.9844882315e+01   6.6377805169e+01    0.1830088    0.1609471  22.92 0.0005173644    1.428    0.300
       164 -11.1918     26.9192     34.7197   9.6542175128e+01   6.6615024153e+01    0.3663771    0.2231911 -21.81  0.001271009    1.606    0.377
       165 -10.5769     97.0061     34.7944   6.9471064300e+01   5.5976729003e+01    0.2754746    0.1844803 -27.10            0    1.472    0.321
       166  -9.7338    133.9983     34.3339   5.9636781276e+01   4.7639423475e+01    0.2006745     0.114879  44.53 0.0004408324    1.692    0.409
       167 -10.1942     72.8890     32.3904   7.6474293732e+01   6.0913364605e+01    0.2525373     0.174166  11.52 0.0006685637    1.565    0.361
       168  -9.0958    144.5363     32.5066   5.6756301493e+01   4.5269042801e+01    0.1442883    0.1362979 -83.99 0.0001595222    1.128    0.113
       169  -8.9893    166.4839     31.4490   5.2360749865e+01   3.9813550772e+01    0.1447461    0.1348076  89.75 0.0001051502    1.060    0.056
       170  -9.7541    128.9817     30.7995   5.9490663990e+01   4.9317405705e+01    0.1969077    0.1858466  46.42 0.0005558762    1.048    0.046
       171 -10.2449     77.5421     30.9061   7.4193150140e+01   6.0315387897e+01    0.2336019     0.179982  40.40  0.000611468    1.353    0.261
       172  -9.8435     43.5347     30.5112   8.7403827890e+01   6.5574170583e+01    0.2128978    0.1986552 -10.66  0.000898469    1.286    0.222
       173 -10.9268     44.5179     26.5390   8.5270841778e+01   6.6105581531e+01    0.3948942    0.2591339  32.18  0.002339078    1.653    0.395
       174 -10.7709      7.8271     28.6118   1.0343739522e+02   6.9210030708e+01    0.3235815    0.2396506  58.49  0.001961468    2.384    0.581
       175 -11.1998    113.9488     25.6334   6.1137481965e+01   5.3501941555e+01    0.3693183    0.2990715 -15.30  0.001628978    1.260    0.206
       176  -9.9943     69.2533     27.4748   7.5690124539e+01   6.2270691235e+01    0.3379925     0.183861 -47.09  0.001560464    2.410    0.585
       177  -9.8136    146.9862     26.5958   5.4249038463e+01   4.5385129433e+01    0.1971945    0.1709845  60.14  0.001089232    1.088    0.080
       178  -9.9471     77.2267     26.3299   7.2336623920e+01   6.1029563656e+01    0.3238751    0.1506101 -17.07  0.001254958    2.996    0.666
       179  -9.9234      1.2909     26.4012   1.0594033381e+02   6.9992653004e+01    0.2157596    0.1027736 -39.85 0.0007049231    1.566    0.361
       180 -11.6134     18.1460    248.8384   1.2875110208e+02   2.1152321493e+01      0.23179     0.197194  -1.30  0.001761748    2.519    0.603
       181 -10.5247    100.9901     26.5069   6.4949098860e+01   5.6270505260e+01    0.2142154    0.1285091  49.79  0.001036385    1.601    0.375
       182 -10.9549     13.1607    249.1882   1.2954399924e+02   2.1607355961e+01    0.2144997    0.1072883  50.00 0.0008210794    1.527    0.345
       183  -9.1531     18.4782     26.0314   9.7226156731e+01   6.8921985710e+01    0.1758174   0.08089434 -39.45 0.0009448835    1.696    0.411
       184 -11.2635     14.2496     21.0591   9.7353917182e+01   7.0131797672e+01     0.418537    0.2389933  38.07  0.002442045    2.523    0.604
       185 -10.2441     58.5812     23.9721   7.8231192654e+01   6.4512649127e+01    0.3155672    0.1890759  -0.39  0.001556729    2.084    0.520
       186  -9.2070     80.6568     23.6696   7.0008337420e+01   6.0753460755e+01    0.1436404    0.0922538  13.71 0.0007050947    1.750    0.429
       187  -9.5226     91.2760     22.5926   6.6161775068e+01   5.8801987219e+01    0.1910633    0.1143527  39.69 0.0009479611    1.564    0.361
       188 -11.0478     75.7817     21.3397   7.0632670040e+01   6.1968026752e+01    0.3200828    0.2234015  15.37  0.000687148    1.429    0.300
       189  -9.6395    229.6751    248.0042   9.1315902182e+01  -8.8349057727e+00    0.1530555    0.1223912   6.67 0.0006713122    1.132    0.117
       190  -9.3233     35.0324     22.0322   8.7562689458e+01   6.7980565955e+01    0.1468814    0.1117672 -22.60 0.0003570611    1.053    0.051
       191 -10.6220     30.4211     21.0650   8.9313336570e+01   6.8646236591e+01    0.2371329    0.1842245  -0.70    0.0010121    1.191    0.160
       192  -9.3337    165.0000     20.9555   4.9287918846e+01   4.1441386549e+01    0.2148931   0.08135743 -25.56 0.0006336586    2.839    0.648
       193  -9.4155     58.2663    248.3366   1.2214933757e+02   1.6610193914e+01    0.0890272   0.08389655 -69.20 0.0005238214    1.590    0.371
       194  -9.7543    225.1543    246.8130   9.1913315807e+01  -8.0524184510e+00    0.1655615    0.1098323  13.55  0.001067459    1.346    0.257
       195  -9.5158     61.0386    241.1714   1.2115725491e+02   1.7516620865e+01    0.1487171   0.06922954  41.52 0.0008033494    1.857    0.461
       196  -9.6453     58.4768     19.5263   7.6230015549e+01   6.5162843937e+01    0.1262238    0.1068352  -4.43 0.0008087159    1.068    0.064
       197 -10.0740    141.0224     18.1314   5.2442854226e+01   4.7840162366e+01    0.2150461    0.1725153  39.88 0.0004695308    1.209    0.173
       198  -9.2663     71.4424     18.5002   7.0866362594e+01   6.3120230066e+01    0.1329502    0.1078103   6.50 0.0001314473    1.068    0.064
       199  -9.1670    199.6635     17.3181   4.3592453665e+01   3.3007820572e+01    0.1487203   0.09241186 -65.13 0.0007048905    1.702    0.412
       200  -9.8945    114.9789     17.4314   5.7665998771e+01   5.4211356244e+01    0.2026926    0.1258971  56.70 0.0003150627    1.515    0.340
       201 -10.1010     20.3579     17.0206   9.2491025177e+01   7.0300033709e+01    0.1975501    0.1257086 -15.67 0.0006407065    1.429    0.300
       202  -9.6888    108.4954     16.1116   5.8710348598e+01   5.5838732933e+01    0.1838148    0.1314001 -18.37 0.0003747641    1.449    0.310
       203  -9.2403     35.6975    241.3203   1.2551521962e+02   2.0557924391e+01    0.1157002   0.05750055  65.70 0.0007027062    1.628    0.386
       204  -9.5852    202.3944    240.2513   9.4946843246e+01  -3.8390064304e+00    0.1362191    0.1149156 -38.65 0.0009346082    1.526    0.345
       205 -10.1434     30.7303     16.0550   8.6861663964e+01   6.9403785380e+01    0.1768483    0.1364977   5.28 0.0008042366    1.214    0.176
       206  -9.2624     49.6676    240.6422   1.2309834252e+02   1.9032419683e+01   0.09382911   0.08559935 -45.36 0.0007042454    1.796    0.443
       207  -9.0770    148.5194    238.5111   1.0472310619e+02   5.0320334746e+00    0.1239265    0.1009659  41.76 0.0002029194    1.014    0.014
       208  -9.7666    154.3178     15.0736   4.9085565950e+01   4.4804624299e+01    0.1799338     0.179255 -40.88 0.0003846197    1.091    0.083
       209  -9.5705     91.3076    236.9006   1.1532286570e+02   1.4150334192e+01     0.150686   0.09967013 -57.12 0.0009299496    1.839    0.456
       210 -11.8760     26.2417    235.7577   1.2678469438e+02   2.2615093305e+01    0.2568847    0.2229893  83.65  0.001220809    1.377    0.274
       211 -10.3514     71.6703     13.0159   6.8232503352e+01   6.3750476052e+01    0.3606426    0.1483234  41.55  0.001468847    2.257    0.557
       212  -9.3715    204.5023    235.4459   9.3825523986e+01  -3.5387553780e+00    0.1225372   0.09779292  24.63 0.0003098542    1.020    0.019
       213  -9.9094    249.4225    233.9964   8.5700491248e+01  -1.0024916055e+01     0.173135    0.1226353  20.75 0.0004452995    1.135    0.119
       214 -12.0743      4.0804    232.6576   1.3027404157e+02   2.5435728207e+01    0.2478698    0.1390157  63.92  0.001790356    1.281    0.219
       215 -12.4173      9.7123    227.9933   1.2914604103e+02   2.5751220571e+01     0.377994    0.2486823  75.69  0.001717207    1.083    0.077
       216 -11.0088      1.7495    225.8018   1.3036096657e+02   2.6917537361e+01    0.2468578    0.1243201  80.33  0.001169479    1.525    0.344
       217  -9.7262    209.5068    229.5287   9.1973274212e+01  -3.5401039099e+00    0.1241866   0.09984945  21.12 1.658157e-05    1.005    0.005
       218  -9.7299    140.6953    228.7939   1.0495496330e+02   7.8801400817e+00     0.222213    0.1078713 -43.45  0.001014392    2.643    0.622
       219  -9.9211    223.1838    226.8072   8.9052373097e+01  -5.3171293811e+00    0.1739158    0.1194419  11.91 0.0004349805    1.358    0.264
       220 -10.6022      2.2660    220.0143   1.3002164482e+02   2.7958181671e+01    0.2551547    0.1047957  73.66  0.001471193    2.027    0.507
       221 -10.2923      9.1547    218.2553   1.2876835572e+02   2.7647814873e+01    0.1905275    0.1732017 -10.85   0.00149828    1.997    0.499
       222  -9.1127    249.3140    211.3486   8.1776315396e+01  -7.2964975674e+00     0.129717   0.07885312   4.33 0.0007046852    1.721    0.419
       223  -9.2687    209.6613    211.2938   8.8870185693e+01  -1.0149392352e+00    0.1176806    0.1008601  62.53 0.0007028213    1.650    0.394
       224  -9.9364      3.4852    211.5109   1.2941686851e+02   2.9485323521e+01     0.109888   0.07588064  75.54 -2.500888e-05    1.019    0.019
       225  -9.9507     20.1753    209.8287   1.2635067015e+02   2.8213794697e+01    0.1780601    0.1083877  67.06 0.0007786126    1.288    0.223
       226 -10.0103     10.1608    203.3901   1.2780221092e+02   3.0483755866e+01    0.1514019   0.07578701  51.73 0.0004351483    1.679    0.404
       227  -9.1501    193.4823    201.5476   9.0242464027e+01   3.2738134641e+00    0.1347526    0.1167226  21.33 3.249998e-05    1.011    0.011
       228  -8.9673    123.2755    198.6492   1.0430105304e+02   1.6344041694e+01     0.136889   0.09788785  75.32 0.0007004617    1.638    0.390
       229 -10.0726     23.3247    197.0277   1.2492642334e+02   3.0509024533e+01    0.1730903     0.152573 -63.25 0.0009282202    1.506    0.336
       230 -10.8960     13.9012    192.7241   1.2646016684e+02   3.2327311522e+01    0.2062319    0.1337401  73.51 0.0005638407    1.210    0.173
       231 -10.2138      6.3214    191.6225   1.2784340105e+02   3.3245257319e+01    0.1903485    0.1223837  72.27  0.001304734    1.207    0.172
       232  -9.4621     20.6300    189.2115   1.2490513246e+02   3.2425281156e+01    0.1538567   0.08678335 -71.22 0.0003981129    1.577    0.366
       233  -9.5857     22.5114    179.9702   1.2383105442e+02   3.4236661608e+01    0.1707179    0.0948649 -77.65 0.0003961594    1.491    0.329
       234 -10.3880      5.3066    167.7502   1.2652560183e+02   3.8444712584e+01    0.2370033    0.1313505  75.05  0.001423383    1.552    0.356
       235  -9.6493    226.7028    164.0254   7.6460793151e+01   3.3474491827e+00    0.1982732    0.1659899 -16.54 0.0006552547    1.095    0.087
       236  -9.6861     14.6668    163.6593   1.2420343911e+02   3.8576304723e+01    0.1163514   0.07720904 -52.90 0.0007051342    1.751    0.429
