#   1 NUMBER                 Running object number                                     
#   2 MAG_AUTO               Kron-like elliptical aperture magnitude                    [mag]
#   3 X_IMAGE                Object position along x                                    [pixel]
#   4 Y_IMAGE                Object position along y                                    [pixel]
#   5 X_WORLD                Barycenter position along world x axis                     [deg]
#   6 Y_WORLD                Barycenter position along world y axis                     [deg]
#   7 A_WORLD                Profile RMS along major axis (world units)                 [deg]
#   8 B_WORLD                Profile RMS along minor axis (world units)                 [deg]
#   9 THETA_WORLD            Position angle (CCW/world-x)                               [deg]
#  10 FWHM_WORLD             FWHM assuming a gaussian core                              [deg]
#  11 ELONGATION             A_IMAGE/B_IMAGE                                           
#  12 ELLIPTICITY            1 - B_IMAGE/A_IMAGE                                       
         1 -14.5765     68.7329    144.2168   9.9641331101e+01   3.7537600175e+01     4.853005     2.372082  67.43  0.007021207    4.485    0.777
         2 -13.1844    199.0513     42.3048   4.2031741584e+01   3.0377028655e+01     1.061452    0.9406766 -67.32  0.003242525    1.056    0.053
         3 -13.7184    208.6309     33.0643   3.8691642533e+01   2.9381348623e+01     1.324755    0.9342813 -14.84  0.001383881    2.035    0.509
         4 -12.0659    233.2876     10.0123   3.1448719208e+01   2.6722136596e+01     0.693395    0.3224571  81.98  0.003559589    2.038    0.509
         5 -12.4290    233.4688      3.5278   3.0119770311e+01   2.7386933657e+01    0.8478075    0.4898584  86.04   0.00514321    1.538    0.350
         6 -10.4444     42.9945      7.4907   6.5903740811e+01   6.8983403114e+01    0.1792571    0.1020822  39.29  0.001037548    1.604    0.377
         7 -11.1264    134.8764    210.6850   9.4027034109e+01   1.0965633947e+01    0.3925172    0.2538246  59.41  0.001859967    1.865    0.464
         8 -11.0705    139.2609    249.5247   9.8650203383e+01   3.0124065597e+00    0.4031094    0.2745455  28.32  0.002351976    1.351    0.260
         9 -11.8600    114.5701    246.2213   1.0329484693e+02   7.3427775131e+00    0.7239194    0.4894677 -88.14  0.003989963    2.028    0.507
        10 -11.5305    124.7805    245.5760   1.0111326786e+02   5.9093692944e+00    0.5619178    0.3118716 -43.05  0.002884143    2.270    0.560
        11 -10.7631    119.8632    245.7229   1.0214508954e+02   6.6321371375e+00     0.310159    0.1859249  38.64   0.00101071    1.406    0.289
        12 -10.2988    106.8113    249.8463   1.0529484307e+02   7.8418996849e+00    0.2371849    0.1923662  75.43  0.001116802    1.316    0.240
        13 -13.9037     44.1426    196.9921   1.1329346043e+02   2.7651986368e+01     3.437105     1.410848  67.62  0.007996118    3.538    0.717
        14 -17.4491     13.7619    242.5131   1.2287256201e+02   2.1182809899e+01     9.588429     5.480732 -83.68   0.02849716    1.570    0.363
        15  -8.8798     96.2540    201.9720   1.0164270523e+02   1.9220240879e+01     0.175164    0.1183018 -64.79 0.0006451298    1.538    0.350
        16 -11.2748    107.3361    203.8855   9.9313003155e+01   1.7013483547e+01    0.4152007    0.2736117  69.99  0.001958366    1.880    0.468
        17 -11.1261    121.8726    198.0786   9.4999917754e+01   1.5855542378e+01    0.4617285     0.297247 -79.85   0.00203372    2.210    0.548
        18 -14.4841     10.3580    206.3714   1.2146482625e+02   2.9103654618e+01    0.8497106    0.6967748  19.87  0.002503778    1.679    0.404
        19 -15.2950      2.1777    205.6219   1.2309868497e+02   3.0015496491e+01     8.117211          nan -71.25    0.0127508   12.482    0.920
        20 -10.2793    103.7111    210.0274   1.0103100289e+02   1.6254542403e+01    0.3121228    0.1445617  56.67  0.001192336    2.742    0.635
        21 -10.2599     43.5320    178.1106   1.1143115271e+02   3.2248332844e+01    0.4738211    0.3131932 -19.42  0.001270285    2.662    0.624
        22 -12.7676     55.9116    185.7894   1.0926401065e+02   2.8858747284e+01    0.8302318    0.7701957  57.60  0.004083809    1.158    0.137
        23  -9.3230     89.1078    210.9073   1.0449893910e+02   1.8332656478e+01    0.2022171    0.1760131  71.21 0.0005447075    1.061    0.057
        24 -10.0865     59.9919    197.5362   1.0965287358e+02   2.5530594773e+01    0.2285885    0.1766987 -81.06 0.0002448408    1.210    0.173
        25 -10.5084    147.6492    187.6842   8.7152763536e+01   1.3523172524e+01    0.4967697    0.3335139 -78.70  0.002099236    2.399    0.583
        26 -10.2636    120.2928    186.0433   9.3359156802e+01   1.8822906901e+01    0.2044973    0.1917462 -72.40 0.0004216197    1.093    0.085
        27  -9.8849     49.1232    180.4978   1.1031395552e+02   3.0996633394e+01    0.2772967    0.2156847  63.29 0.0006250507    1.207    0.171
        28  -8.4559     33.1838    210.3164   1.1693075497e+02   2.5870191262e+01    0.1108386   0.08042041 -64.39 0.0006605462    1.467    0.318
        29  -9.1548     79.6950    182.7214   1.0292798686e+02   2.6285519465e+01    0.2836538    0.1831515 -76.46  0.001055869    1.625    0.384
        30 -10.1685     99.3646    180.8733   9.7674934942e+01   2.3620497458e+01    0.2746648    0.2577169 -73.76 0.0006170998    1.073    0.068
        31 -10.4478    186.9031    175.4281   7.6057114961e+01   8.7581472370e+00     0.375608    0.3090508 -41.72   0.00123995    1.216    0.177
        32  -9.6161     63.9919    156.6917   1.0311575702e+02   3.5023754685e+01      0.28252    0.2012431 -68.13 0.0005949807    1.301    0.232
        33 -11.8129     82.3021    158.9033   9.8430023818e+01   3.1778672744e+01    0.8291956    0.5961302  78.40   0.00154346    1.628    0.386
        34 -13.0421     70.7678    153.7027   1.0072989474e+02   3.4829740359e+01    0.7069776    0.5772359 -67.44  0.001376602    1.141    0.123
        35 -10.1266     92.9522    249.1055   1.0802416716e+02   9.9967295784e+00    0.2298698     0.149576  35.81  0.001335677    1.404    0.288
        36 -11.2993     74.0047    167.0224   1.0202780500e+02   3.0997522701e+01    0.3710544    0.3080285 -61.39 0.0009521474    1.176    0.149
        37  -8.9516    147.8271    174.1880   8.4513254459e+01   1.6418530759e+01    0.2009558    0.1746804  -6.39 0.0002911878    1.284    0.221
        38 -11.4212     69.6958    171.7113   1.0388317645e+02   3.0449964501e+01    0.4535296    0.3216301 -27.73  0.002162548    2.024    0.506
        39  -8.3969     84.2814    173.6633   1.0037215468e+02   2.7795778341e+01    0.1508667     0.106391  75.25 0.0002206094    1.620    0.383
        40  -9.7995    142.5059    208.9270   9.2033094114e+01   1.0021429720e+01    0.2049155    0.1393943 -50.64  0.001033755    1.592    0.372
        41 -10.1498    240.0687    169.4744   6.4831814147e+01   6.2800797764e-01    0.1804785    0.1284995  35.88 0.0004571033    1.558    0.358
        42 -10.0127    240.4977    176.5285   6.6166906999e+01  -6.1085016522e-01    0.1317739    0.1102221 -19.09 0.0001807037    1.004    0.004
        43  -9.3654    110.8293    168.0515   9.2489389522e+01   2.4724764350e+01    0.2370899    0.2013946  80.27 0.0005206439    1.268    0.212
        44  -8.4954    184.6400    167.3114   7.4842104348e+01   1.0794638005e+01    0.1459278    0.1192174  86.97  0.000473215    1.744    0.427
        45  -8.3555    120.5973    165.2690   8.9442146876e+01   2.3613026171e+01    0.1611731    0.1147205  67.88 0.0005018475    1.745    0.427
        46 -11.0692    192.7920    194.5452   7.8626114672e+01   4.0805079713e+00    0.9891576    0.5201267 -62.66  0.003200789    4.844    0.794
        47 -11.4097    110.9044    203.1423   9.8367464113e+01   1.6591304712e+01     0.424511    0.2856712  72.77  0.001543641    1.892    0.471
        48  -9.7845     32.0930    156.5080   1.1185587837e+02   3.8866325192e+01    0.2349408    0.1224077  34.93  0.001131577    2.027    0.507
        49 -11.4959     89.4248    151.8677   9.5168319617e+01   3.2403934403e+01    0.6992772    0.4744448 -24.34  0.002984069    2.157    0.536
        50 -10.6906    133.6351    144.7470   8.1740521624e+01   2.5937731866e+01     1.294949    0.3301371 -54.85  0.002855709    6.139    0.837
        51 -11.1665     55.4477    147.0521   1.0398213081e+02   3.8607084759e+01    0.7545772    0.5796236 -50.39  0.004045506    1.302    0.232
        52 -10.3865     38.7653    146.2441   1.0865183786e+02   4.0764588180e+01    0.3258733    0.2429753  67.74 0.0008245663    1.399    0.285
        53  -9.0837    174.7246    148.6415   7.2881639349e+01   1.6604402401e+01    0.2667058    0.1833854 -61.60  0.000771647    1.777    0.437
        54 -10.2175    103.0169    138.1834   8.8516073204e+01   3.3453906429e+01     0.569695    0.3671832 -18.47  0.002141592    2.648    0.622
        55 -10.1319    105.9072    130.8935   8.6035938660e+01   3.4705116431e+01    0.3964581    0.3288836 -61.69  0.001279266    1.204    0.169
        56 -11.6178     90.4075    137.7269   9.2033434872e+01   3.5790612420e+01    0.3005457    0.2658423 -37.46 0.0006227018    1.189    0.159
        57 -11.0847     43.5399    129.7148   1.0465011779e+02   4.4447428131e+01    0.3947169    0.2582835  59.91  0.001371334    1.802    0.445
        58  -9.8202    111.9911    129.1186   8.3894663109e+01   3.3969911559e+01    0.3490297      0.28611   2.98  0.001045941    1.525    0.344
        59  -8.8771    161.0297    128.3204   7.1149502817e+01   2.3852820633e+01    0.2796142    0.1700597 -75.15 0.0009099612    3.329    0.700
        60 -10.7640    118.2275    124.0657   8.0921700248e+01   3.3935560501e+01    0.6667155    0.4150017 -22.65  0.002465213    2.524    0.604
        61 -10.3060     99.1460    124.9315   8.6584275622e+01   3.7414493637e+01    0.3250232    0.2658014  -9.83 0.0007003297    1.513    0.339
        62  -9.2369     90.1857    123.3684   8.8886562003e+01   3.9396376217e+01    0.4312416    0.2289304  61.32  0.001449714    3.210    0.688
        63 -10.2554    135.5381    127.6293   7.7186194758e+01   2.9514600290e+01    0.5925309    0.1526858 -50.84  0.001491273    4.440    0.775
        64  -9.1221    108.1303    118.2079   8.2303347179e+01   3.7328058748e+01    0.2197175    0.2051152 -17.12   0.00031085    1.135    0.119
        65  -9.8457    231.3208    113.7076   5.4383200560e+01   1.1878397758e+01     0.263339    0.2309314 -50.68 0.0007766592    1.061    0.057
        66 -12.3067     48.4155    107.6266   9.8787104986e+01   4.9418587545e+01     1.030868    0.4754988  46.25  0.004157525    2.706    0.630
        67  -9.3049    205.5770    110.1140   5.7717470064e+01   1.7778760743e+01    0.2609305    0.2152313  43.68 0.0007508732    1.348    0.258
        68  -8.3983    139.0220    105.9545   7.0654986892e+01   3.3571864831e+01    0.1858702    0.1813228 -54.13 0.0004179547    1.007    0.007
        69  -9.1636    134.6167    105.8173   7.1739843733e+01   3.4583796687e+01    0.2320557    0.1452542 -53.62  0.000638604    1.698    0.411
        70  -9.1711    134.7065    112.8684   7.3614841707e+01   3.3022454642e+01    0.3311268    0.1372234 -39.35  0.001091187    2.591    0.614
        71 -11.0604    115.2826    109.2082   7.7897441362e+01   3.7980519064e+01    0.5557373    0.2544414 -41.98  0.002005552    2.220    0.550
        72 -10.7802     33.1543     99.6326   1.0241895874e+02   5.2996046556e+01    0.3263974    0.2658863 -65.60   0.00167628    1.138    0.121
        73  -9.7430     29.5010     98.5607   1.0350539828e+02   5.3593984548e+01    0.2118006    0.1913815 -53.62 0.0009416848    1.060    0.056
        74  -9.6986    240.4972    102.4967   5.0596021511e+01   1.2032079754e+01    0.1357266    0.1162076 -44.36 -0.0001610199    1.034    0.033
        75  -9.1061    127.4499     94.7960   7.0525178267e+01   3.8516345011e+01    0.3089599    0.2050989  66.14 0.0009467732    1.939    0.484
        76  -9.4701    155.8331     88.0264   6.1709351178e+01   3.3317627219e+01    0.3761708    0.2406798 -70.59  0.001346832    2.302    0.566
        77  -8.7935    115.7336     84.9743   7.0826998781e+01   4.3104975701e+01    0.2072504    0.2055212  51.52 0.0009083598    1.035    0.034
        78  -8.7446    158.4111     82.8286   5.9693800129e+01   3.3678645843e+01    0.2054875    0.1467828 -26.28 0.0004812652    1.603    0.376
        79  -8.3656    184.6771     77.2671   5.3130387494e+01   2.8410426110e+01    0.1481997    0.1087615 -76.15 0.0004572005    1.565    0.361
        80  -9.5060     57.6710     67.0739   8.4422741294e+01   5.7401648246e+01    0.2323099    0.1892247  15.03  0.000327911    1.248    0.199
        81 -12.8474    188.0607     50.7291   4.5645201321e+01   3.1794240419e+01    0.9377385    0.8380558  42.70 0.0008444476    1.319    0.242
        82 -10.7291    139.8010    242.8913   9.7663929534e+01   4.0691440997e+00    0.2619133    0.1833864 -64.92  0.001486486    1.850    0.459
        83  -8.6518    158.2923    235.6424   9.2809054190e+01   2.4304187013e+00    0.1250823   0.09878967  66.75 0.0002911692    1.691    0.408
        84  -9.1752     68.4325     52.4982   7.5215704502e+01   5.8460822738e+01    0.2389615     0.182859  33.99 0.0008002082    1.302    0.232
        85 -11.1913     22.3652     34.1651   8.8104198870e+01   6.7843191114e+01    0.3082572    0.2135048  27.77  0.001125756    1.595    0.373
        86  -9.0032    198.0506     23.7072   3.7585862119e+01   3.2961119149e+01    0.1782015    0.1536044 -86.13  0.000544639    1.048    0.046
        87  -9.0580    189.4960     14.9372   3.6336485214e+01   3.5945686118e+01    0.1760246    0.1227011 -35.41 0.0006638761    1.534    0.348
        88 -11.0344    184.7914    211.6501   8.3408452335e+01   2.3454246461e+00    0.3895838    0.2289397  -8.63  0.001619114    2.790    0.642
        89  -9.8418    164.4119    212.1071   8.7764951754e+01   5.6654072350e+00    0.3036946    0.1343684 -56.91  0.001133522    3.316    0.698
        90 -10.0730     18.5074     10.5081   7.9507784420e+01   7.1914675991e+01    0.1156134   0.08822007  -6.43 4.697896e-05    1.012    0.012
