#   1 NUMBER                 Running object number                                     
#   2 MAG_AUTO               Kron-like elliptical aperture magnitude                    [mag]
#   3 X_IMAGE                Object position along x                                    [pixel]
#   4 Y_IMAGE                Object position along y                                    [pixel]
#   5 X_WORLD                Barycenter position along world x axis                     [deg]
#   6 Y_WORLD                Barycenter position along world y axis                     [deg]
#   7 A_WORLD                Profile RMS along major axis (world units)                 [deg]
#   8 B_WORLD                Profile RMS along minor axis (world units)                 [deg]
#   9 THETA_WORLD            Position angle (CCW/world-x)                               [deg]
#  10 FWHM_WORLD             FWHM assuming a gaussian core                              [deg]
#  11 ELONGATION             A_IMAGE/B_IMAGE                                           
#  12 ELLIPTICITY            1 - B_IMAGE/A_IMAGE                                       
         1 -12.2114    173.6426     41.6562   6.9041520169e+01   3.6588007687e+01     1.311026     0.951144  17.19  0.005022543    1.743    0.426
         2 -11.7007    189.1028     12.4507   5.8119216156e+01   3.6170287842e+01    0.9525386    0.6733928 -89.41  0.004971927    1.492    0.330
         3 -11.3351    193.3848      6.3955   5.5893540694e+01   3.5704167804e+01     0.791723    0.4967568 -75.20  0.003857954    1.863    0.463
         4  -9.0286    120.1398      9.1076   6.9289049240e+01   5.3157987144e+01    0.3161939    0.2391951  32.81  0.001023268    1.185    0.156
         5  -7.6340    171.5291     14.3999   6.1281447631e+01   4.0410155204e+01    0.1396377    0.1218299  59.15 7.003707e-05    1.028    0.027
         6  -8.3419    168.0258    249.7620   1.1568423065e+02   1.3994029923e+00    0.1760067    0.1671566 -84.26 0.0008912474    1.315    0.239
         7 -10.2121    135.5651    249.0150   1.2115271245e+02   6.9379699712e+00    0.6121982    0.2808727  40.36  0.001895766    1.990    0.498
         8 -13.7018     75.3896    249.0000   1.3104163369e+02   1.6067118810e+01    0.3251859    0.2427306 -77.90  0.002476195    1.430    0.301
         9 -18.2840     48.3702    239.9963   1.3458287366e+02   2.1081787323e+01     3.813369     3.020239  88.39    0.0130334    1.271    0.213
        10  -9.2337    155.0373    229.3187   1.1527959122e+02   6.6515843546e+00    0.3337878    0.2058088 -75.23  0.001696577    2.583    0.613
        11  -9.6192    135.0563    195.0994   1.1414048811e+02   1.6163583591e+01    0.4288266    0.2601463 -78.11  0.001988342    2.373    0.579
        12  -9.5061    156.0069    191.4263   1.0934090046e+02   1.2920921110e+01    0.5909073    0.3330749 -71.70  0.002366565    3.156    0.683
        13  -8.6242    185.9179    228.5254   1.0955429665e+02   1.2592081023e+00    0.3320601    0.1633846 -53.03  0.001581373    2.892    0.654
        14  -8.9751    114.1465    250.1631   1.2487174797e+02   1.0188449127e+01     0.199478    0.1301585  51.38 0.0008729207    1.203    0.169
        15 -10.2219    184.4396    213.6869   1.0750231210e+02   3.7444281268e+00    0.5813308    0.3112759 -49.04  0.002863376    2.299    0.565
        16  -8.5904    114.5287    187.6449   1.1716688875e+02   2.1236614780e+01    0.2580788    0.1480037  49.38 0.0009119824    1.586    0.370
        17  -8.6687    125.8127    186.7998   1.1473058175e+02   1.9429329207e+01    0.2356274    0.1952785 -89.33 0.0004448622    1.217    0.178
        18  -7.8936    195.9955    184.9911   1.0023059656e+02   6.1358610993e+00    0.1614545    0.1544337   5.61 0.0004314527    1.100    0.091
        19 -10.5499    190.2418    210.0069   1.0580646538e+02   3.2262871202e+00     0.537459    0.2439726  29.98  0.002063938    3.095    0.677
        20  -9.1715     17.7027    180.8381   1.3530222897e+02   3.5436190089e+01    0.2076029    0.1407204 -67.75 0.0008280938    1.419    0.295
        21  -8.6820    222.3484    179.9064   9.4210904684e+01   1.7106029301e+00    0.1938194    0.1735199  -4.79 0.0008336004    1.111    0.100
        22  -9.0122    162.8597    178.5685   1.0567817913e+02   1.3956914820e+01    0.3986969    0.2776879 -85.61  0.001838718    2.169    0.539
        23  -9.2294    205.0859    176.9669   9.6900920874e+01   5.6399868077e+00     0.364038    0.2829078  38.63   0.00135698    1.177    0.151
        24  -7.8980    145.7523    178.5501   1.0922888740e+02   1.7331537107e+01    0.2032296    0.1212872  55.84 0.0009427163    1.667    0.400
        25  -9.6348      7.1492    173.9108   1.3667672358e+02   3.7746959862e+01    0.2456913    0.1662872 -57.27 0.0004367924    1.708    0.414
        26  -8.3427     11.0369    169.5857   1.3562424861e+02   3.8278298940e+01     0.198409    0.1611027  22.39  0.001529927    1.866    0.464
        27  -7.7285    135.5233    175.5273   1.1085518151e+02   1.9881179224e+01    0.1407588    0.1245202  69.19 2.268627e-06    1.049    0.047
        28  -9.9733    104.4766    173.5475   1.1713875302e+02   2.5801995580e+01    0.4216042    0.2783058 -35.52   0.00206446    2.288    0.563
        29  -9.7366    102.6702    171.3068   1.1717881070e+02   2.6568242639e+01    0.2968876    0.2673308  81.21  0.001861784    1.042    0.040
        30  -9.6682    173.8573    213.6305   1.0948366710e+02   5.7260625504e+00    0.4425722    0.2015618  39.09  0.001989311    2.032    0.508
        31  -9.3783    111.6114    170.1328   1.1506771433e+02   2.5308500856e+01    0.3482997    0.2499045  71.97  0.001250019    1.471    0.320
        32  -9.6673    192.5216    165.0725   9.6966747708e+01   1.0306070619e+01    0.5359257    0.3720542 -69.61  0.002096638    2.186    0.542
        33  -9.1350    114.7592    165.6798   1.1364286340e+02   2.5693107056e+01     0.296689     0.199891 -69.71  0.001180264    1.578    0.366
        34  -7.9636    125.9032    163.7064   1.1085060314e+02   2.4093977198e+01    0.2298961    0.1450515  68.35  0.001041389    1.947    0.486
        35  -7.6098      4.4561    166.3947   1.3659668506e+02   3.9462928612e+01    0.1042802   0.07800233 -85.43 0.0001993011    1.076    0.070
        36  -9.2439    248.4810    162.9972   8.6025259739e+01  -7.8296123002e-01    0.2859759    0.2040313  48.09 0.0008658167    1.480    0.324
        37  -9.2297    248.9420    158.0089   8.4888353200e+01  -1.1680729172e-01    0.2383492     0.221458  13.02 0.0003129012    1.079    0.073
        38  -9.2382    134.5032    158.2364   1.0793562626e+02   2.3603758126e+01    0.5077047     0.292746  74.01  0.001879913    3.083    0.676
        39  -9.0629    189.7953    155.9336   9.5595209194e+01   1.2550434265e+01    0.3976046    0.3195579  88.13  0.001974502    1.647    0.393
        40  -8.5554    145.1455    156.6171   1.0526229910e+02   2.1837603862e+01     0.442667    0.2375504  69.40  0.001480958    3.582    0.721
        41  -8.9230     48.9068    156.2505   1.2665693825e+02   3.7295468732e+01    0.2557037    0.1693036 -57.33  0.001164764    1.485    0.327
        42  -8.3297    170.3944    156.0846   9.9673560867e+01   1.6695809231e+01    0.2302341    0.1936384  37.36 0.0004158903    1.174    0.148
        43 -10.1126    120.4958    202.7861   1.1813525604e+02   1.7287523121e+01    0.4082061    0.2731717 -88.72 0.0008769769    1.788    0.441
        44  -9.3649     10.2952    153.1060   1.3435191433e+02   4.1685952945e+01    0.3261959    0.2069448   2.87  0.001968808    3.150    0.683
        45  -8.6839    249.0162    153.0401   8.3809288223e+01   6.2962065326e-01    0.2041585    0.1841396   9.23 0.0003189463    1.028    0.028
        46  -9.5528    134.8339    148.9206   1.0603257255e+02   2.5486873117e+01     0.622063    0.3307292 -61.30  0.002534562    2.268    0.559
        47  -9.1466    133.2011    142.0140   1.0498795899e+02   2.7266777469e+01    0.5407246    0.1780806 -55.35  0.001651697    3.802    0.737
        48 -10.1009    217.0462    151.3073   8.9208275418e+01   7.4907281011e+00    0.2616078    0.2476337  58.92 0.0003581411    1.159    0.137
        49  -8.4234    120.9971    198.2706   1.1740548203e+02   1.8055259109e+01     0.179266    0.1606212  71.98 0.0003321967    1.072    0.067
        50  -8.6263    144.2428    147.1965   1.0354611156e+02   2.3962001012e+01    0.2898158     0.205034 -70.21  0.001352498    1.714    0.417
        51 -10.8854      5.2790    138.8352   1.3403937704e+02   4.5007809464e+01    0.4319452     0.235099 -86.83  0.002722131    1.564    0.361
        52 -11.1195     31.1178    143.1320   1.2892433356e+02   4.1956112035e+01    0.4753153    0.3305103   7.19  0.002915055    2.412    0.585
        53  -8.4674     17.4959    142.5437   1.3181795981e+02   4.3290159096e+01    0.1530078   0.09337021  51.63 0.0002075775    1.755    0.430
        54  -9.0056     14.6865    142.3138   1.3239379691e+02   4.3567869599e+01    0.1805315    0.1153801  87.36 0.0006985893    1.380    0.275
        55  -8.2600    155.6210    203.8771   1.1144376817e+02   1.0767302630e+01    0.3828868    0.1459419  46.10  0.001476923    2.272    0.560
        56  -8.8784     93.2508    140.2795   1.1408151546e+02   3.4780036929e+01    0.2933851    0.2111399  57.85 0.0007947767    1.447    0.309
        57  -9.2921     86.9663    140.8385   1.1568055787e+02   3.5630417359e+01    0.2774515    0.1895371  28.12  0.001440599    1.861    0.463
        58 -10.4421      8.3457    145.8770   1.3407582953e+02   4.3326477367e+01    0.3834235    0.1895185  75.69  0.002166322    2.201    0.546
        59  -9.8232    103.4228    137.4902   1.1111447099e+02   3.3724741005e+01    0.2630178    0.2334766  78.18 0.0001940056    1.111    0.100
        60  -7.7525    127.3206    137.6618   1.0544736083e+02   2.9343241626e+01    0.1516523    0.1122409  85.66 0.0007050099    1.712    0.416
        61 -10.2107     38.0860    136.6632   1.2653595917e+02   4.2665303894e+01    0.3308398    0.1997406  80.81  0.001859987    1.861    0.463
        62  -8.7506    236.0525    133.2976   8.1671442319e+01   6.4517021562e+00    0.2406263      0.19697 -38.29 0.0002530224    1.223    0.182
        63  -8.1062    164.5447    133.6871   9.6013533009e+01   2.2400508764e+01    0.1956354    0.1465598 -56.09  0.000413902    1.448    0.309
        64 -10.9915      3.7606    126.4585   1.3310988773e+02   4.7674996195e+01    0.5867409    0.1952393 -78.52  0.002710428    2.807    0.644
        65  -8.9775    119.5644    129.0281   1.0545198179e+02   3.2680479643e+01    0.2792138    0.2475896  22.00   0.00151972    1.304    0.233
        66  -8.7977     90.2746    128.9015   1.1264870778e+02   3.7751679623e+01    0.2332269    0.1771854  56.76 0.0005466419    1.394    0.282
        67  -7.3330    168.7215    128.6987   9.3922507266e+01   2.2464728944e+01    0.1489118    0.1211886   6.13 0.0001790126    1.543    0.352
        68  -8.0212    160.6301    128.3178   9.5633278103e+01   2.4349400550e+01    0.1601073    0.1207089  87.69 0.0007035558    1.789    0.441
        69  -8.7971    107.2006    125.2130   1.0767102154e+02   3.5757224279e+01    0.2644297     0.199252 -29.64  0.001336565    1.629    0.386
        70  -7.5115    113.2318    118.9885   1.0478017953e+02   3.6024822376e+01     0.185706    0.1157083 -50.91 0.0003485741    1.552    0.356
        71 -10.3541     44.3205    117.8178   1.2223293105e+02   4.6118766178e+01    0.2969869    0.2094161  24.48  0.001215661    1.814    0.449
        72 -10.5507      7.8387    115.8589   1.3096024934e+02   4.9607531088e+01    0.3465682    0.2199765  24.67  0.002363766    2.089    0.521
        73 -10.1107      6.9709    112.5191   1.3075718884e+02   5.0361223168e+01    0.4267744    0.2149875   1.12  0.002230533    3.869    0.742
        74  -8.7004    168.7686    114.2975   9.0390456253e+01   2.5303212519e+01    0.2909964    0.2344321 -79.06 0.0009129961    1.535    0.349
        75  -8.7085    173.9586    201.0064   1.0740669422e+02   7.7791895449e+00    0.2940879     0.193092 -57.73  0.001061758    1.906    0.475
        76  -9.2890     71.1221    111.5785   1.1410466258e+02   4.4326321467e+01    0.2528173    0.1545815 -30.25  0.001195825    2.278    0.561
        77 -10.5912     59.1640    110.8081   1.1712875485e+02   4.6001334847e+01    0.3558758    0.2427421 -31.26  0.001962711    1.823    0.451
        78  -8.8341     89.0951    109.9294   1.0897361385e+02   4.2087493817e+01    0.2139218    0.1618586 -23.09 0.0007869086    1.668    0.400
        79  -7.3064    191.2843    109.7367   8.4451768782e+01   2.0864167623e+01    0.1473872    0.1211844 -82.59            0    1.487    0.328
        80  -7.9574     87.5078     93.9777   1.0563301259e+02   4.5734978050e+01    0.2101764    0.1251878 -50.54 0.0006818029    1.548    0.354
        81  -8.0331     41.1949     93.7465   1.1872883545e+02   5.1591951216e+01    0.1787641    0.1459282  31.96 0.0009701104    1.472    0.321
        82  -9.5956    191.8840    193.2948   1.0257466998e+02   5.5750917587e+00    0.4727532    0.2651534 -60.20   0.00198296    2.939    0.660
        83  -8.5516    176.4524     87.0392   8.1532471069e+01   2.8623328480e+01    0.2206858    0.1996348  52.21 0.0001357791    1.084    0.078
        84  -7.7661    139.0370     87.3469   9.0159720504e+01   3.7323869906e+01    0.1995793    0.1869314  39.59 0.0004540956    1.065    0.061
        85  -9.6600    232.4527     77.9668   6.8987137533e+01   1.6388512124e+01     0.258305     0.245158  26.81 4.560078e-05    1.145    0.127
        86  -8.0053      1.6889     76.3230   1.2692498569e+02   5.8079050496e+01    0.1020499   0.07354462  83.98 0.0003692163    1.653    0.395
        87  -8.1480    236.7110     73.8891   6.7338310667e+01   1.6014557550e+01    0.2474879    0.1887639  48.95 0.0004592045    1.379    0.275
        88  -8.2646    118.9096     70.3618   9.0354366724e+01   4.4755893454e+01    0.2177531    0.1893099 -47.03 0.0006841641    1.203    0.169
        89 -11.4865    160.8719     56.6368   7.6068405271e+01   3.7583500192e+01    0.6377988    0.5708172  65.14  0.001814055    1.134    0.118
        90  -9.3361    247.0365    247.8503   1.0192951116e+02  -1.1422044825e+01    0.2406825    0.1395846 -11.58  0.001432712    2.066    0.516
        91 -10.2665    178.2448     34.3185   6.6055882839e+01   3.6392846348e+01    0.3492427    0.2943189  38.61 0.0007494072    1.212    0.175
        92  -8.7425    148.9558     50.6850   7.6824016592e+01   4.1372986359e+01    0.2795536    0.2027857  12.29  0.001315395    1.713    0.416
        93 -10.3803    131.0441     47.9789   8.0141718626e+01   4.5906461388e+01    0.2381623    0.2189216 -12.24            0    1.086    0.079
        94  -8.8159    142.0146     43.7807   7.6187598423e+01   4.4022887349e+01      0.25826    0.1747352 -44.30  0.001024438    1.639    0.390
        95  -9.2019    226.3728     29.4724   5.7742278230e+01   2.4816479050e+01    0.3327588    0.2546835 -27.01  0.001236268    1.452    0.311
        96  -8.5078    199.2286     22.8255   5.9557538270e+01   3.2446132064e+01     0.186887    0.1507366  44.87 0.0003375505    1.298    0.230
        97  -8.0040    150.9236    248.4994   1.1846868660e+02   4.4657793817e+00    0.1642872     0.141695  63.82 0.0004815818    1.155    0.134
        98 -11.9750    243.1989    240.7530   1.0144014626e+02  -1.0063950598e+01    0.2398392    0.2017559  20.51 0.0006849309    1.146    0.127
        99  -8.4868    167.8756    230.2777   1.1308281740e+02   4.2286396078e+00    0.1819214    0.1622958 -81.45 0.0005015354    1.350    0.259
