#   1 NUMBER                 Running object number                                     
#   2 MAG_AUTO               Kron-like elliptical aperture magnitude                    [mag]
#   3 X_IMAGE                Object position along x                                    [pixel]
#   4 Y_IMAGE                Object position along y                                    [pixel]
#   5 X_WORLD                Barycenter position along world x axis                     [deg]
#   6 Y_WORLD                Barycenter position along world y axis                     [deg]
#   7 A_WORLD                Profile RMS along major axis (world units)                 [deg]
#   8 B_WORLD                Profile RMS along minor axis (world units)                 [deg]
#   9 THETA_WORLD            Position angle (CCW/world-x)                               [deg]
#  10 FWHM_WORLD             FWHM assuming a gaussian core                              [deg]
#  11 ELONGATION             A_IMAGE/B_IMAGE                                           
#  12 ELLIPTICITY            1 - B_IMAGE/A_IMAGE                                       
         1 -13.5565     54.7484    146.6005   1.1082513933e+02   3.8616511409e+01     6.103874    0.9421226 -64.68   0.01600626    5.555    0.820
         2 -14.7180     68.5695    144.1622   1.0672032215e+02   3.7424192692e+01     6.054241     2.603538  61.17  0.003675268    4.436    0.775
         3 -14.5114    199.3366     37.6913   4.6936440579e+01   3.0739614623e+01     1.985494     1.495095  29.85  0.006326301    1.741    0.426
         4 -14.4659    210.4577     26.0509   4.2539095830e+01   2.9489610608e+01     1.337183     1.038441   4.05  0.003543334    1.825    0.452
         5 -13.8166      2.7879     11.1715   9.7414608243e+01   7.2890251298e+01     2.142885    0.4867793 -49.67  0.009266756    3.288    0.696
         6  -9.8719     60.5072      7.5231   6.7108537951e+01   6.6420593208e+01    0.1248204    0.1020885  11.57 -9.72069e-07    1.022    0.021
         7 -12.6161    234.9544      2.7981   3.4811554780e+01   2.6407677789e+01    0.7541744    0.3078151  76.71  0.003556621    2.301    0.565
         8 -10.3462     62.0062      1.5304   6.3540938965e+01   6.6770885506e+01    0.1836006    0.1073484  45.48  0.001031492    1.592    0.372
         9 -10.8997     24.0150      1.5849   8.0558132143e+01   7.2406359146e+01    0.2342125   0.09874383  32.51 0.0008833017    2.377    0.579
        10  -9.5997    103.6724    212.6541   1.0818407444e+02   1.6569169977e+01    0.2723644    0.1697585 -38.89  0.001341563    2.359    0.576
        11 -11.2921    139.5977    249.5253   1.0549998965e+02   4.3072421115e+00    0.2822812    0.2190916 -67.48  0.001862533    1.650    0.394
        12 -11.2469    117.6265    249.5588   1.0967369325e+02   7.6769370483e+00    0.2840141    0.1989622  64.02  0.001791494    1.432    0.302
        13 -13.3081     47.8000    221.3185   1.2043260338e+02   2.2625800376e+01     1.223768    0.6857282  70.21  0.002865325    1.621    0.383
        14 -14.3162     85.8574    227.7921   1.1355410263e+02   1.6285188877e+01     1.332394     1.067141 -75.06  0.006907118    1.338    0.253
        15 -16.5564      7.0605    202.6088   1.2697983359e+02   3.0783173392e+01     8.617723     1.098821 -74.19   0.01947079    5.312    0.812
        16 -10.5288    113.2179    207.5650   1.0547438029e+02   1.6058566196e+01    0.2462896     0.183676  73.17 0.0006574405    1.438    0.305
        17 -14.0930     54.3017    191.7408   1.1646546415e+02   2.8073475757e+01     1.326372    0.9563382  66.08  0.008069174    1.220    0.181
        18 -12.1434    194.6268    196.8194   8.6431131463e+01   3.7183570780e+00     1.207043    0.7610706 -70.91  0.004463284    4.280    0.766
        19 -10.7947    108.2544    203.2753   1.0596792954e+02   1.7743671952e+01    0.2233751    0.1680426 -61.24  0.001245718    1.428    0.300
        20 -10.0548    152.5314    197.8038   9.5422728763e+01   1.1166430132e+01    0.3106545    0.1406645 -51.70  0.001281169    2.508    0.601
        21  -9.0808    159.6088    196.7377   9.3711223007e+01   1.0082606269e+01    0.1755145    0.1353552 -60.94 0.0004282223    1.557    0.358
        22 -10.3423    111.5087    197.5095   1.0443714628e+02   1.8409471843e+01     0.285814    0.1248505  39.12  0.001148995    2.122    0.529
        23 -13.2378     25.0839    225.5320   1.2496219516e+02   2.4378102918e+01    0.4687056    0.3793436  88.77  0.002956133    1.236    0.191
        24 -11.6652     12.1706    196.2009   1.2561607407e+02   3.1660269903e+01    0.2597781      0.17216  57.72 0.0004871376    1.307    0.235
        25 -12.7018     14.9459    190.4152   1.2468534469e+02   3.2643553708e+01    0.2724392    0.1958241  77.36 0.0004820368    1.081    0.075
        26  -9.5595     81.4790    194.4533   1.1074865455e+02   2.3780208028e+01    0.2815786    0.1902675  67.57  0.001520842    1.460    0.315
        27 -10.7904    208.1404    195.9020   8.3590103488e+01   1.4928049767e+00    0.1940612    0.1873095  26.39 0.0007132923    1.255    0.203
        28  -9.0439     97.3602    189.8161   1.0653826057e+02   2.2369084157e+01    0.1871992     0.121345 -53.51 0.0009452481    1.659    0.397
        29  -9.5873     71.2076    185.8100   1.1201088647e+02   2.7173864444e+01    0.1960557    0.1523324  74.03 0.0004047648    1.172    0.147
        30 -16.2279     57.7592    246.5737   1.2046815717e+02   1.6588898353e+01      9.50071     2.960481  29.15   0.01136139   10.927    0.908
        31 -10.5332    146.1281    182.3248   9.4118428114e+01   1.5430987468e+01    0.2397842      0.20479 -28.02 0.0006737696    1.319    0.242
        32 -10.4666     99.1780    180.8321   1.0479974024e+02   2.4076133145e+01    0.3180338    0.2585402  11.41  0.001703169    1.655    0.396
        33 -11.8778     68.4920    176.9548   1.1153560336e+02   2.9576566795e+01    0.3150027    0.2386873 -56.14  0.001055927    1.412    0.292
        34 -12.3756     73.0810    171.5144   1.0971035250e+02   3.0207251936e+01    0.4699146    0.2885648 -42.45  0.001668778    2.114    0.527
        35 -10.2589     39.6140    177.3295   1.1829260682e+02   3.3061524059e+01    0.2497574    0.1618308  64.25   0.00067153    1.430    0.301
        36  -9.8698    204.5870    176.7552   8.0519487726e+01   5.3616521399e+00    0.2535677    0.1768896 -44.74  0.001285686    1.558    0.358
        37 -11.3586    140.7689    173.7798   9.3765587452e+01   1.8239680041e+01    0.5930529     0.409875 -85.56  0.002586607    2.197    0.545
        38  -9.8406     83.8703    174.2743   1.0748575580e+02   2.7983727528e+01    0.2591501    0.1673766 -39.59 0.0007566357    2.068    0.517
        39 -14.5689     31.0665    248.5363   1.2522397171e+02   1.9416737764e+01    0.9636768    0.4890862  38.25  0.004157355    1.900    0.474
        40 -13.7368     70.2122    157.3264   1.0837636240e+02   3.3990564291e+01     0.623598    0.5063358 -42.53  0.002057252    1.439    0.305
        41 -10.9165     32.9945    156.8476   1.1772305175e+02   3.8548814323e+01    0.3530888    0.2553763  49.57  0.001914407    1.416    0.294
        42 -10.7407    174.5369    148.9456   8.0827321108e+01   1.6652563251e+01    0.3248037    0.2919141 -83.76 0.0009024597    1.321    0.243
        43 -11.1649    133.6207    144.1573   8.9443604944e+01   2.6220907787e+01     1.084198    0.2969754 -54.83  0.002682033    5.121    0.805
        44  -8.5147    112.6590    150.7222   9.6186702604e+01   2.8727524532e+01    0.1465502    0.1201784  -7.86 0.0003422367    1.622    0.383
        45 -11.2797     39.2853    145.8823   1.1481894660e+02   4.0538233793e+01    0.3860557    0.3361716   2.51  0.001850431    1.537    0.349
        46 -10.7382     83.1510    142.8583   1.0251899769e+02   3.5615945026e+01    0.4114487    0.2635866  69.08 0.0009327047    1.983    0.496
        47 -10.2743    101.5114    141.4862   9.7266552956e+01   3.2924209591e+01    0.2909139    0.2699371  57.79 0.0008350303    1.088    0.081
        48 -10.0975    104.0090    138.4986   9.5972770619e+01   3.3201890065e+01    0.3302725    0.2555113  -8.30  0.001538321    1.831    0.454
        49 -12.3770     89.9964    140.1544   1.0013311815e+02   3.5190913318e+01    0.2960362     0.269137 -57.31 0.0003984301    1.091    0.083
        50 -10.5184    105.8754    130.6848   9.3766399724e+01   3.4740197772e+01    0.3484632    0.3062462 -84.89  0.001090489    1.197    0.164
        51 -11.0237    135.7592    128.0001   8.5143092252e+01   2.9462290056e+01    0.6950521    0.1323672 -49.85  0.001502587    6.137    0.837
        52 -10.2556    111.5269    130.5954   9.2193045740e+01   3.3712002028e+01    0.3076677    0.2523424  -7.34 0.0008766235    1.566    0.362
        53 -12.0357     43.8226    129.7089   1.1128555998e+02   4.4008374208e+01    0.3885341    0.2881555  80.00  0.001456442    1.406    0.289
        54 -10.6532    160.3555    127.5730   7.8986534429e+01   2.4212532534e+01    0.4611399     0.275012 -54.73  0.001843468    1.900    0.474
        55 -11.0733     98.9275    126.6045   9.4795254556e+01   3.6967644811e+01    0.3039639    0.2613918   1.16 0.0007922769    1.419    0.295
        56 -11.2635    120.5157    121.9703   8.7693040491e+01   3.3988278539e+01    0.4510332     0.230619 -32.11  0.001529325    2.843    0.648
        57 -11.2201     32.0724    129.9254   1.1464660903e+02   4.5129930527e+01    0.3087944    0.1569336 -63.96   0.00130576    1.610    0.379
        58 -10.9588    135.0000    118.6011   8.2987675701e+01   3.1745385789e+01    0.6288452    0.1450676 -43.97  0.001593337    4.374    0.771
        59  -9.9213    107.9516    119.1601   9.0491067535e+01   3.7097526107e+01    0.2159351    0.2104385 -59.15 0.0003342449    1.015    0.014
        60 -16.5383      8.6421    242.8066   1.2866371300e+02   2.2814586456e+01     1.711794     1.371235 -87.46   0.01417885    1.377    0.274
        61 -10.8116    158.9656    162.2720   8.7255106769e+01   1.7106841987e+01    0.3649609     0.283692 -74.64 0.0007289008    1.666    0.400
        62 -12.9335     81.9709    162.0104   1.0609809604e+02   3.1160479759e+01     1.190166    0.4632706  54.20  0.000356184    3.423    0.708
        63  -9.9071    168.2724    113.1308   7.3466124067e+01   2.5442816103e+01    0.3779868    0.2712294 -89.47  0.001130773    2.135    0.532
        64 -11.4800     18.6044    109.9747   1.1575796827e+02   5.1069388966e+01    0.5004764    0.1721308 -70.80  0.002092073    2.431    0.589
        65 -11.4045    118.2776    110.0581   8.5268014883e+01   3.7183924168e+01     0.567111    0.3639614  68.86  0.002195195    2.379    0.580
        66 -12.1604     88.8856    155.0055   1.0316341576e+02   3.1769802269e+01    0.6226776     0.444713 -31.82  0.002988853    1.875    0.467
        67 -10.5072    134.5751    105.0604   7.9496126198e+01   3.4834492621e+01    0.5405441    0.1524774 -43.95  0.001526873    3.487    0.713
        68 -10.1636    205.3366    110.1131   6.5099031464e+01   1.7496000483e+01    0.3174956    0.2279706  45.06 0.0009403031    1.474    0.322
        69 -11.4742    241.6577    100.5904   5.6797095936e+01   1.1302418457e+01    0.3391931    0.1502111 -41.84  0.001410221    1.991    0.498
        70 -10.0256    115.3997    100.7742   8.3560208896e+01   3.9864665750e+01    0.2278767      0.14214 -35.88 0.0009435053    1.697    0.411
        71  -9.6494     33.7018     99.9849   1.0929176567e+02   5.2232234194e+01    0.1977281    0.1461561 -62.01  0.000883625    1.127    0.112
        72  -9.9077     31.9879     96.0625   1.0911014983e+02   5.3318553503e+01    0.1987637    0.1644734 -56.96 0.0003213472    1.023    0.022
        73 -10.1590    107.4708    210.4677   1.0709638239e+02   1.6404988698e+01    0.3192685    0.1061167  42.71  0.001248088    2.569    0.611
        74  -9.9406     41.8998     91.9700   1.0487869028e+02   5.3344925974e+01    0.2017199     0.173637 -54.35 0.0005490814    1.015    0.014
        75 -10.4722     53.2171     90.6574   1.0066183911e+02   5.2400605915e+01    0.3045708     0.157489 -48.06  0.001404981    1.684    0.406
        76  -9.5536     74.9393     84.6996   9.1614533644e+01   5.0790182010e+01     0.185895    0.1793384  10.94  0.000330526    1.112    0.101
        77  -8.6833     70.7093     82.2504   9.2360261901e+01   5.1977310516e+01    0.1283036    0.1108918  79.93 0.0006858811    1.479    0.324
        78  -9.9578    158.0593     81.3309   6.6892141530e+01   3.4161389839e+01    0.2201737    0.2037823  57.56 0.0004836782    1.088    0.081
        79  -9.1913    184.6007     77.1964   6.0237178304e+01   2.8363257450e+01    0.2092041    0.1469768 -23.04   0.00059576    1.616    0.381
        80  -9.2825     56.2251     66.4260   9.2861981248e+01   5.7418861010e+01    0.1729335    0.1265191  42.75 0.0008011975    1.635    0.388
        81 -10.7415      2.1238     60.6082   1.1294019823e+02   6.3350610686e+01    0.2169936    0.1059619 -58.72  0.001214626    1.500    0.333
        82 -10.7798     13.4158     59.7220   1.0811587580e+02   6.2937036825e+01    0.2180703      0.18639 -57.22 0.0004222063    1.150    0.131
        83 -13.5317    189.6858     44.6520   5.0216205428e+01   3.2204212547e+01    0.9689469    0.7462372  29.71 0.0009752602    1.625    0.385
        84 -10.0790    172.5276    238.7388   9.7742735856e+01   7.4309459134e-01    0.2431955    0.1739736 -57.66  0.001445764    1.932    0.482
        85  -9.2722     43.4804    236.4196   1.2232631125e+02   2.0211618921e+01    0.1119724   0.08684974  67.20 0.0001465435    1.067    0.063
        86  -9.4950     68.7361     52.5431   8.3397198971e+01   5.8368099797e+01    0.1714275    0.1303134  45.28 0.0006719886    1.553    0.356
        87 -10.4097    147.2268     43.5117   5.7404942448e+01   4.3121662975e+01    0.2602753    0.2510245  67.25 0.0004263336    1.030    0.029
        88 -14.6233     45.6308    203.3494   1.1939630565e+02   2.6601519866e+01     2.890533     1.071194  56.67   0.01092521    2.689    0.628
        89 -11.6491    144.8525     49.5573   5.9902806696e+01   4.2827276971e+01    0.5993449    0.3796028 -82.28  0.001717626    2.688    0.628
        90  -9.5304    189.6984     15.0476   4.2004395908e+01   3.5857047743e+01    0.1835158    0.1702219 -60.52 0.0005999631    1.117    0.105
        91 -10.0535     33.9254    227.8010   1.2349511042e+02   2.2967041325e+01    0.1537407    0.1324509  72.57 0.0006541431    1.244    0.196
        92 -10.0079     61.1018    220.2789   1.1775066954e+02   2.1163361372e+01    0.1789846    0.1498543 -79.77 0.0005164917    1.270    0.213
        93  -9.3303    130.9577    214.1328   1.0260114206e+02   1.1822039796e+01    0.1955863    0.1585036  62.57 0.0003186141    1.233    0.189
