#   1 NUMBER                 Running object number                                     
#   2 MAG_AUTO               Kron-like elliptical aperture magnitude                    [mag]
#   3 X_IMAGE                Object position along x                                    [pixel]
#   4 Y_IMAGE                Object position along y                                    [pixel]
#   5 X_WORLD                Barycenter position along world x axis                     [deg]
#   6 Y_WORLD                Barycenter position along world y axis                     [deg]
#   7 A_WORLD                Profile RMS along major axis (world units)                 [deg]
#   8 B_WORLD                Profile RMS along minor axis (world units)                 [deg]
#   9 THETA_WORLD            Position angle (CCW/world-x)                               [deg]
#  10 FWHM_WORLD             FWHM assuming a gaussian core                              [deg]
#  11 ELONGATION             A_IMAGE/B_IMAGE                                           
#  12 ELLIPTICITY            1 - B_IMAGE/A_IMAGE                                       
         1 -11.8244     76.3393     21.0153   7.1834777492e+01   6.2606656310e+01    0.4120848    0.3742121 -11.89  0.001922069    1.093    0.085
         2 -11.0573     42.1966     19.6365   8.5093621397e+01   6.8449145798e+01    0.3846132     0.221084   0.86  0.001775163    2.639    0.621
         3 -11.7924     34.7702     12.9675   8.5237152989e+01   7.0514501009e+01    0.5165579    0.2567192 -49.15  0.002497428    2.374    0.579
         4 -11.9105     30.0976      7.2553   8.4471117795e+01   7.1997478209e+01    0.4734179     0.348171  36.57   0.00305518    1.680    0.405
         5 -10.1859     16.5510      3.5419   9.0005669613e+01   7.4093737786e+01    0.1823603   0.09276623 -40.88 0.0002730096    1.602    0.376
         6  -9.6743     22.2981      9.3621   8.9942882497e+01   7.2552903198e+01    0.3614674    0.2142918 -12.35  0.002031556    1.885    0.469
         7 -10.1232     24.0000      5.0573   8.6537750683e+01   7.3059951145e+01     0.207283   0.08062234 -40.75  0.000993857    2.166    0.538
         8  -9.6886     26.7360     15.9818   9.0988298741e+01   7.0952508652e+01    0.2740334    0.1372456 -47.45   0.00143584    1.810    0.448
         9 -10.4360     88.7794      7.5534   6.1203588611e+01   6.1711599278e+01    0.3366233     0.201683 -23.69  0.001197222    1.617    0.381
        10 -11.4970     89.6705     13.9215   6.4083241700e+01   6.0803560154e+01    0.4182156     0.315769 -51.90   0.00103681    1.691    0.409
        11 -10.3895     93.2582      8.4340   6.0397160072e+01   6.0631419327e+01    0.4042388    0.1826318 -13.95  0.001639196    2.499    0.600
        12  -9.5761    203.1662     12.1412   4.3584774967e+01   3.2303544592e+01    0.1955239    0.1465907 -58.90   0.00034475    1.280    0.219
        13 -10.1633    126.0020     10.9956   5.3990281561e+01   5.2555578682e+01    0.1676857    0.1568914  38.03 0.0009648345    1.010    0.010
        14  -9.8294    105.0633     10.1428   5.8181217368e+01   5.7749531963e+01    0.2145218    0.1659938  29.89  0.000372526    1.237    0.191
        15  -9.2944    232.6070      9.7198   4.0349408384e+01   2.5320821133e+01    0.1323471   0.09532557  40.97 0.0006997896    1.749    0.428
        16 -10.1763    151.1892      9.3316   4.9011934602e+01   4.6210229156e+01    0.3679285    0.1378198  81.01  0.001110766    4.015    0.751
        17  -9.5915     15.2815      8.7516   9.3673396981e+01   7.3346557808e+01    0.1580787    0.1028887 -25.94 0.0003147554    1.293    0.227
        18 -10.9995    193.7090      6.8431   4.2957785157e+01   3.5266434817e+01    0.3887032    0.1708293 -13.02  0.001479389    2.878    0.653
        19 -10.6729     41.0104      6.9549   7.8763530617e+01   7.0576415605e+01    0.2801748    0.1787717 -21.93  0.001153954    1.361    0.265
        20 -10.3752     36.9199      6.0840   8.0257754965e+01   7.1279346075e+01    0.3269202     0.172443 -43.80  0.001345354    2.102    0.524
        21 -10.1033    217.9998      7.0179   4.0798485898e+01   2.9115736169e+01    0.1677709    0.1466686 -50.68  0.001002336    1.053    0.051
        22  -9.8713    210.5264      7.4903   4.1567007805e+01   3.0921023429e+01    0.1368641    0.1236895 -64.51 9.643515e-05    1.004    0.004
        23  -9.4926    183.5075      7.4914   4.4226836944e+01   3.7858993379e+01    0.1395485    0.1314872  58.76 0.0008085585    1.102    0.093
        24  -9.7616    156.1982      7.6414   4.7671871970e+01   4.5051023042e+01    0.1955415      0.12012  58.28 0.0009126994    1.518    0.341
        25 -10.2059     65.0919      6.4236   6.8272157943e+01   6.6640707321e+01     0.232032    0.1595815  -7.95 0.0007920213    1.370    0.270
        26 -10.4363      7.1972      4.8372   9.6554274441e+01   7.4707896197e+01    0.2588817    0.1247964  39.78  0.001349258    3.241    0.691
        27 -10.6051    144.3073      6.7389   4.9098209976e+01   4.8258989738e+01     0.287894    0.1575117  15.32  0.000967644    2.496    0.599
        28 -11.9034     57.2144      2.9873   6.9323454914e+01   6.8474313485e+01    0.4180538    0.2816286   6.42  0.002372891    1.467    0.318
        29 -10.0384      2.2231      6.4405   1.0056855077e+02   7.4781327394e+01    0.1923851    0.1301931  18.87 0.0008327817    1.754    0.430
        30  -9.2843      1.8513      3.2265   9.9175982085e+01   7.5379822407e+01    0.2195719    0.1216855 -11.22  0.001275809    2.003    0.501
        31  -9.4897    107.4913      4.8111   5.5171688499e+01   5.7699381090e+01     0.195448    0.1663453  21.09            0    1.106    0.096
        32  -9.5764    104.2894      4.6311   5.5816594425e+01   5.8475814402e+01    0.2001079    0.1916604 -87.23 0.0005686464    1.219    0.180
        33  -9.8945    101.0256      2.2594   5.5460203587e+01   5.9458086004e+01    0.4589674    0.1720531  53.20  0.001867293    2.296    0.564
        34 -10.1421    120.9594      4.0254   5.2036980041e+01   5.4479858440e+01    0.2124143    0.1874326  34.38 0.0003577339    1.061    0.058
        35 -10.9225    130.2768      3.1744   4.9992957071e+01   5.2202221609e+01     0.265051    0.1969602  74.58 0.0006938402    1.375    0.273
        36  -9.4438    112.5920      3.2495   5.3366527551e+01   5.6611116496e+01    0.1375071    0.1035821 -71.36 0.0006938489    1.713    0.416
        37 -11.4300     90.2074      2.3625   5.8208159106e+01   6.1914035134e+01    0.2403307     0.228011  70.59 0.0003549971    1.255    0.203
        38 -10.2551    174.5789      2.4031   4.3581467069e+01   4.0677126439e+01    0.4930393    0.1291014  65.13  0.001661391    3.123    0.680
        39 -11.2040     70.8716      5.7422   6.5842333247e+01   6.5615761148e+01     0.328903    0.2681528  -7.43    0.0012518    1.101    0.092
        40 -11.1942     80.2066      1.7478   6.0702289759e+01   6.4136872735e+01    0.3172578    0.1755972  51.29 0.0009292744    1.722    0.419
        41  -9.8476     67.1326      1.6286   6.4850449907e+01   6.6789272612e+01    0.1759883    0.1448979  25.68 0.0004063361    1.117    0.105
        42 -10.4380      9.9889      1.7422   9.3039422951e+01   7.5000691231e+01    0.1704508      0.12954 -23.50 0.0006381135    1.048    0.046
        43  -9.9601    187.0494      1.3494   4.1945977312e+01   3.7508524488e+01    0.1975143    0.1242701  78.21  0.000962419    1.532    0.347
        44 -11.0118     20.5108      2.2439   8.6868129111e+01   7.3884054114e+01    0.2792124    0.1987884   4.50 0.0007035892    1.384    0.277
        45  -9.6026    153.9659      1.0000   4.5592979424e+01   4.6230886178e+01    0.2260934   0.07592241  70.96 0.0004412195    2.815    0.645
        46 -10.5159    213.1751    134.2828   7.5547983223e+01   1.1777329323e+01    0.3807014    0.2467957  69.91  0.001551723    2.572    0.611
        47 -11.6652     18.0967    249.0047   1.2888594541e+02   2.2309120410e+01     0.208432    0.1624963  19.75  0.001644507    2.310    0.567
        48 -11.0213      1.8849    248.4124   1.3131718970e+02   2.3976854181e+01     0.263101    0.1229994 -81.89   0.00191657    1.984    0.496
        49 -11.1512      6.0262    249.4936   1.3073179078e+02   2.3414321772e+01    0.1891259    0.1168988  44.75  0.001535404    1.493    0.330
        50 -11.8932     10.8320    244.6881   1.2984378937e+02   2.3725112210e+01    0.2215371    0.1699764  35.45  0.001642124    1.766    0.434
        51 -12.1227      6.3504    241.2874   1.3041718845e+02   2.4712143381e+01    0.3930461    0.2468476 -48.37   0.00262727    3.376    0.704
        52 -11.2008      1.8290    239.8250   1.3106548156e+02   2.5377163169e+01    0.2487197    0.1342968  63.78  0.001920814    1.238    0.192
        53 -10.6562      2.2723    132.9024   1.2577899529e+02   4.6604552556e+01    0.2632519    0.1595067  60.17  0.001655364    1.551    0.355
        54  -9.5638     35.2290    130.8499   1.1714904586e+02   4.4306085722e+01    0.1702375     0.126524 -59.78 0.0004828215    1.333    0.250
        55 -10.9568     11.8126    129.6059   1.2311023383e+02   4.6667917279e+01    0.2576905    0.1562407  75.12 0.0009207148    1.494    0.330
        56 -10.6075    248.4915    129.5089   6.8606907321e+01   5.6090045038e+00    0.1363736     0.115966 -13.27 0.0008105455    1.011    0.011
        57  -9.7214     28.6212    128.1922   1.1857784210e+02   4.5575204048e+01    0.1703969   0.09487925 -65.91 0.0002572907    1.506    0.336
        58  -9.8726     20.2852    124.9502   1.2042958907e+02   4.7077825785e+01    0.1772023    0.1245351 -79.64 0.0003832605    1.126    0.112
        59 -11.5560     23.7967    121.0964   1.1904068309e+02   4.7690967149e+01    0.5019542    0.2457705  76.64  0.001241002    2.371    0.578
        60 -11.8699     17.5283    115.4169   1.2011110248e+02   4.9556767242e+01     0.403968    0.2076038 -62.36   0.00151926    1.616    0.381
        61  -9.8509      7.9971    121.2600   1.2332946011e+02   4.8889900546e+01    0.1628723    0.1295991  86.02 0.0004375623    1.086    0.079
        62  -9.8299     72.2578    112.9976   1.0390828732e+02   4.4094263266e+01    0.1939031    0.1608082 -68.99 0.0002589369    1.077    0.072
        63  -9.7137     17.7007    122.0168   1.2080448928e+02   4.7981404698e+01    0.1731382    0.1264936 -77.90  0.000399206    1.088    0.081
        64 -10.8569     65.5581    110.6308   1.0538753520e+02   4.5606374993e+01     0.294572    0.2203465  86.50 0.0007989018    1.444    0.307
        65 -11.7311      4.0805    108.9994   1.2320794359e+02   5.2019572401e+01    0.3242238    0.2589645  10.77  0.001982232    1.741    0.426
        66 -11.2375     56.7525    107.9886   1.0748907071e+02   4.7396646053e+01    0.2900135    0.2036782  35.13  0.001570962    1.629    0.386
        67 -10.1492     52.2813    104.8195   1.0823459758e+02   4.8710653531e+01    0.2171111     0.150756 -84.82 0.0008467918    1.477    0.323
        68 -10.8902     19.4235    104.2768   1.1816263006e+02   5.2064799384e+01    0.1944325    0.1573896  -9.73  0.001252803    1.713    0.416
        69  -9.7924    187.0007    103.2669   7.2697947716e+01   2.2873168932e+01    0.2100403     0.195344  49.14 0.0005872506    1.128    0.114
        70  -9.5178     66.6606    101.7119   1.0318107361e+02   4.7604337589e+01    0.1386088    0.1040495 -30.28 0.0003337376    1.639    0.390
        71  -9.9585     62.0079     97.9953   1.0380303211e+02   4.9131828443e+01    0.2619026    0.1134193 -44.01  0.001017405    2.529    0.605
        72  -9.5587     91.6163     96.8118   9.4428574557e+01   4.4846789163e+01    0.2012431    0.1329036 -61.86 0.0003650473    1.533    0.348
        73  -9.2372    101.4538     96.5364   9.1475769282e+01   4.3128100265e+01    0.1502585    0.1401958 -52.71 0.0008076606    1.018    0.017
        74 -10.3713      3.3609     95.5482   1.2195519050e+02   5.5225706749e+01    0.2056217    0.1550793 -77.46 0.0004216536    1.003    0.003
        75 -10.6159     18.0452     94.7662   1.1723989013e+02   5.4444903567e+01    0.2422545    0.1559325  51.56 0.0009859286    1.766    0.434
        76 -10.3975     20.9442     92.5205   1.1596169846e+02   5.4762101607e+01    0.2387859    0.1447893 -70.47 0.0003595508    1.308    0.235
        77  -9.4536     78.8977     94.5367   9.7700307070e+01   4.7495949358e+01     0.190157    0.1454841  36.96 0.0002854473    1.459    0.315
        78  -9.9982    125.0490     93.2887   8.4036128513e+01   3.9084284407e+01    0.2081702    0.1973687  54.04 0.0002643095    1.099    0.090
        79 -10.1019     44.1298     92.3829   1.0834669460e+02   5.2645605264e+01    0.3790725    0.1076097 -48.84  0.001313791    3.338    0.700
        80 -10.6200     57.4158     92.0819   1.0393597014e+02   5.1149873276e+01    0.2372622    0.1938699  -3.93 0.0008719238    1.598    0.374
        81  -9.7743     29.4807     92.0530   1.1309576330e+02   5.4166378434e+01    0.1751032     0.168427  83.86 0.0006744683    1.210    0.173
        82 -11.2666     10.8412     90.9839   1.1900497096e+02   5.5847113223e+01    0.3668691    0.1466708 -65.22 0.0003521464    1.837    0.456
        83 -10.1704     11.3930     85.1742   1.1797297709e+02   5.7188733837e+01     0.198986    0.1430839  86.62 0.0006855904    1.343    0.256
        84 -10.2931     24.8862     89.6326   1.1418772839e+02   5.5139075532e+01    0.2632329    0.1627579 -78.57  0.001447416    1.446    0.308
        85 -10.1519     77.1408     88.8660   9.6778939327e+01   4.9102206767e+01     0.275552    0.2120903  17.52  0.001412437    1.645    0.392
        86 -10.1101     65.0254     88.3750   1.0056157192e+02   5.1016166036e+01    0.2423518    0.1695544 -49.46 0.0005147348    1.285    0.222
        87 -10.3752     18.5768     87.5837   1.1594483173e+02   5.6120432212e+01    0.2960683    0.2003301 -66.26  0.001788639    1.159    0.137
        88  -9.2973    107.6654     88.7140   8.7487965229e+01   4.3683295237e+01    0.1508821    0.1205719  -4.68 0.0003793084    1.625    0.384
        89  -9.6684    113.7947     85.7884   8.4883532228e+01   4.3076041923e+01    0.2217249    0.1952356 -19.04  0.001133412    1.227    0.185
        90  -9.2075     88.7077     86.6956   9.2553262533e+01   4.7682203732e+01    0.1457022    0.1126628 -21.34  0.000481133    1.575    0.365
        91 -12.4346     54.7437     83.9347   1.0288856693e+02   5.3427214921e+01    0.3037905    0.2195011 -61.37 0.0005078295    1.207    0.171
        92  -9.7874     38.8506     85.7270   1.0872669506e+02   5.4796652072e+01    0.2951201    0.1455241 -86.84  0.001095363    3.417    0.707
        93 -10.5563      4.1592     82.9507   1.2008390469e+02   5.8145128416e+01    0.3027374    0.1363217 -71.51  0.001575637    1.663    0.399
        94  -9.9996    124.6528     82.7372   8.0984484691e+01   4.1395796605e+01    0.3191152    0.2211462  41.63  0.001367569    1.530    0.346
        95 -11.0426     64.3755     79.1852   9.8362723695e+01   5.3259221519e+01    0.4386125     0.237339 -60.12  0.001354794    1.762    0.433
        96 -10.3753     10.0901     79.2031   1.1748218503e+02   5.8680727560e+01    0.2506143     0.162675 -60.56 0.0008734932    1.221    0.181
        97 -10.0097     89.3594     80.7014   9.0601536656e+01   4.8919530771e+01    0.2628802    0.1696027 -59.52 0.0005812662    1.630    0.386
        98 -11.1481     27.5433     77.3795   1.1093674290e+02   5.7835665526e+01       0.3503    0.2204102 -10.76 0.0005841901    2.339    0.572
        99 -10.2031    176.8157     76.8781   6.7189685674e+01   3.0038860772e+01    0.2442009    0.2174714  11.16  0.001223788    1.225    0.184
       100 -10.5534      5.8460     76.1057   1.1848349140e+02   5.9656801375e+01    0.3817039   0.08315564 -49.45  0.001420056    3.732    0.732
       101 -10.8731     55.6383     75.5742   1.0041170988e+02   5.5272214448e+01    0.3000202    0.2898592  19.09  0.001238917    1.199    0.166
       102 -10.2724     15.1517     75.3895   1.1502279733e+02   5.9251070184e+01    0.2260067    0.1762658  50.34   0.00120254    1.541    0.351
       103 -10.2429     19.8917     73.9036   1.1300989520e+02   5.9264132162e+01    0.3514557    0.1621515 -45.16  0.001348137    2.045    0.511
       104  -9.0456     42.4469     81.5806   1.0656959657e+02   5.5410527325e+01    0.1346358    0.1108116 -54.89 0.0001443834    1.067    0.063
       105 -10.0948     36.9958     75.2399   1.0703561133e+02   5.7469464657e+01    0.2071553    0.1863399 -14.25 0.0007208302    1.308    0.236
       106 -10.4664     36.0356     71.9830   1.0660622715e+02   5.8326708988e+01    0.4204784    0.2422837 -24.97  0.001991964    2.438    0.590
       107  -9.5854    136.3290     74.4060   7.5335614021e+01   4.0400310862e+01    0.2121852    0.1539186  62.47 0.0009362759    1.556    0.357
       108  -9.7838    217.0169     72.4114   5.9068970459e+01   2.0929676313e+01    0.2280669    0.1804749 -31.93 0.0004382457    1.159    0.137
       109  -9.6135     92.5884     72.7637   8.7111294303e+01   5.0069740721e+01    0.2774316    0.1356915 -55.34 0.0008370146    2.307    0.566
       110  -9.3561     91.1575     69.4440   8.6476371985e+01   5.1044337468e+01     0.202736    0.1496199  44.00 0.0003923486    1.475    0.322
       111  -9.3698     81.4406     73.2439   9.0860861644e+01   5.1952345159e+01    0.2030563    0.1317112 -57.74 0.0009380155    1.571    0.364
       112 -10.8555    106.2821     72.0853   8.2716196770e+01   4.7525707290e+01    0.3546134    0.2129736  49.31  0.001313781    1.805    0.446
       113 -10.3238     10.5367     67.8415   1.1532360934e+02   6.1311041733e+01    0.3540784    0.1485604 -72.46  0.001410138    2.024    0.506
       114 -11.5568      7.7682     63.9720   1.1564721016e+02   6.2368356302e+01    0.2909884    0.1667136 -75.67  0.001645956    1.510    0.338
       115  -9.0000     29.3246     70.7102   1.0881229326e+02   5.9248335446e+01    0.1231969   0.09253468  78.34 0.0003966559    1.611    0.379
       116 -10.0759     79.8889     68.8955   8.9987424542e+01   5.3165983332e+01    0.2275405    0.1882341 -23.91 0.0006031184    1.265    0.209
       117 -10.5851     46.4640     69.2226   1.0200312624e+02   5.7854154697e+01    0.2281418    0.1955766  22.67 0.0007205593    1.379    0.275
       118 -10.6157      9.8612     60.1324   1.1404096551e+02   6.3128082991e+01    0.2171292    0.1370386 -57.13 0.0003309791    1.212    0.175
       119 -11.1265     14.9520     64.3333   1.1291006656e+02   6.1841288569e+01    0.3700179    0.2783144 -81.75  0.001112205    1.307    0.235
       120  -9.8638      1.4405     66.8888   1.1860150888e+02   6.2028537672e+01    0.1874836   0.09220114 -71.78  0.000792672    1.559    0.358
       121 -10.4843     34.5370     64.9856   1.0539973743e+02   6.0091297655e+01    0.2720897    0.1923254 -43.23 0.0008212379    1.277    0.217
       122  -9.9332    133.3187     65.3858   7.3092259487e+01   4.2818517236e+01    0.2496325    0.1871032  13.78  0.001107377    1.708    0.415
       123  -9.6659     96.6114     64.1487   8.2950709356e+01   5.1098747821e+01    0.2282266    0.1731024  36.67 0.0005963129    1.422    0.297
       124  -9.4551     75.9506     64.5816   8.9904168483e+01   5.4754104425e+01    0.1872527    0.1420411  34.39 6.992192e-05    1.466    0.318
       125 -10.7297     63.1276     62.6006   9.3817617992e+01   5.7172260296e+01    0.4491241    0.2937103 -22.52  0.002141053    1.931    0.482
       126 -10.0416     53.3221     61.9332   9.7267579525e+01   5.8662182411e+01    0.2002132    0.1872973  75.84 0.0004263765    1.281    0.219
       127 -10.2153     39.5122     62.5220   1.0278252122e+02   6.0148794981e+01     0.340269    0.1526582 -42.57  0.001167513    2.097    0.523
       128  -9.5742     38.4593     59.5337   1.0233618302e+02   6.0932266337e+01    0.4271006    0.2168179   9.33  0.001810209    3.320    0.699
       129 -10.3247    100.8774     60.8094   8.0452985643e+01   5.0909526456e+01    0.2968263    0.1896028 -61.80  0.001235172    2.141    0.533
       130 -13.9628     19.9332     57.2747   1.0926395591e+02   6.3102979085e+01    0.5048348    0.3158494 -71.91  0.001779025    1.511    0.338
       131 -11.2236     17.2406     33.5223   1.0338553513e+02   6.8463750391e+01    0.7394355    0.3281467 -16.45  0.002891856    4.283    0.767
       132 -11.4326     15.4445     42.8041   1.0726065834e+02   6.6633917614e+01    0.6524633    0.3702493  57.35  0.002837065    3.085    0.676
       133 -13.1444      5.6394     50.7827   1.1374693067e+02   6.5481663483e+01    0.4252835    0.2313127 -42.86 0.0004858223    1.623    0.384
       134  -9.4321    192.8369     58.8055   5.8896209752e+01   2.8950905185e+01    0.2106119    0.1720023 -65.05 0.0004008663    1.319    0.242
       135  -9.4327    130.7838     58.0524   7.1180101588e+01   4.4750215297e+01    0.3169903    0.2062461  88.32  0.001177936    2.731    0.634
       136 -10.8890     83.7231     56.7669   8.4495987025e+01   5.5027064952e+01    0.2960986    0.2457152 -49.52  0.001040181    1.201    0.168
       137 -12.0566     88.9366     53.1387   8.1404367633e+01   5.4766324060e+01    0.5213843    0.4212612  57.95  0.001999111    1.481    0.325
       138 -11.1225     13.9890     48.8381   1.0961708002e+02   6.5413185832e+01    0.3000354     0.191714 -70.92 0.0002389621    1.466    0.318
       139  -9.0940     71.7009     57.2932   8.8882037620e+01   5.6985813039e+01     0.132818    0.1108901 -80.65 0.0003417095    1.566    0.361
       140 -10.3017     33.4436     55.2120   1.0309768531e+02   6.2402815972e+01    0.3241123    0.1494731 -38.68   0.00140943    2.190    0.543
       141  -9.4304    158.2256     56.4020   6.4410709426e+01   3.8203749228e+01     0.209566    0.1520487  74.47 0.0005784144    1.601    0.376
       142 -11.8328    114.6188     53.8652   7.3909896093e+01   4.9256764152e+01    0.3472901    0.3443967 -11.23 0.0007730454    1.068    0.064
       143  -9.9541    105.9737     53.1505   7.6108082750e+01   5.1291766324e+01    0.2234642    0.2051326 -88.86 0.0007397541    1.296    0.228
       144 -12.1048     65.9239     52.5332   8.9277791714e+01   5.8881156538e+01    0.5592856    0.2462398  35.41  0.002323434    2.602    0.616
       145 -10.1418    121.9112     51.2371   7.0971387598e+01   4.8040381530e+01    0.2192038    0.2057837 -76.96 0.0003863582    1.193    0.162
       146 -10.1347     98.1547     48.5564   7.6697826541e+01   5.3778418930e+01    0.3101559    0.1898472 -27.03 0.0007056742    1.695    0.410
       147 -10.3459     76.1288     49.0767   8.4230631555e+01   5.7892016931e+01    0.3881494    0.2141997 -30.33  0.001694741    1.921    0.479
       148 -10.4914     79.0072     45.7510   8.1896587486e+01   5.8014526764e+01    0.2158457    0.1899735 -26.38 0.0002331013    1.019    0.019
       149  -9.1378    211.6648     48.7713   5.3200188047e+01   2.5680072614e+01    0.1408767    0.1080111  35.21 0.0002479218    1.530    0.346
       150 -10.9984     57.4712     47.0115   9.0470079089e+01   6.1261965923e+01    0.3557428    0.2089383 -57.23  0.000883628    1.906    0.475
       151  -9.5207     52.9743     48.5049   9.2830262649e+01   6.1581860408e+01     0.185162    0.1341069  27.84   0.00102597    1.573    0.364
       152  -8.9132    193.3179     47.6486   5.5449293620e+01   3.0469122881e+01    0.1642326     0.106905 -59.43 0.0007047404    1.739    0.425
       153  -9.3395    154.5940     47.5416   6.2132665680e+01   4.0533583283e+01    0.1515737    0.1468489 -31.35 7.035251e-05    1.016    0.016
       154  -9.7056    135.7513     46.2321   6.5717220458e+01   4.5517230650e+01    0.2053229    0.1726572  18.56 0.0004784024    1.289    0.224
       155  -9.1279     64.6774     46.2812   8.7374664803e+01   6.0328041879e+01    0.1269912    0.1093606 -82.22 0.0002222068    1.590    0.371
       156 -11.7721     27.1156     43.7899   1.0224061302e+02   6.5482195355e+01    0.4004604    0.3917775  37.87  0.002110006    1.298    0.230
       157 -10.7770     22.7102     38.5569   1.0250222156e+02   6.6973908695e+01    0.1994424    0.1855455 -87.42 0.0006043644    1.370    0.270
       158 -11.4896     26.6575     35.3411   9.9473236957e+01   6.7285498495e+01    0.4023606     0.219545 -34.22 0.0009165936    1.721    0.419
       159  -9.9998    159.5461     42.1060   5.9297927757e+01   4.0054448835e+01    0.2795601     0.141135 -33.31 0.0009065717    1.897    0.473
       160 -11.8163    140.0321     40.5147   6.2653471362e+01   4.5315175752e+01    0.3632868    0.2755272 -45.49 0.0003616184    1.366    0.268
       161  -9.9658     69.9882     41.4990   8.3432669122e+01   6.0379449154e+01    0.3359754    0.2185239   7.21 0.0009559173    2.186    0.543
       162 -11.0210      3.5160     41.5806   1.1246509606e+02   6.7624895696e+01    0.3657337    0.2000858 -24.79  0.002086495    2.082    0.520
       163  -9.6987     43.0945     40.8274   9.4073451228e+01   6.4408544564e+01    0.1735266    0.1664987 -43.92 0.0006881771    1.223    0.182
       164 -10.4762     34.5648     41.1993   9.7984547513e+01   6.5297247017e+01     0.332612    0.1691542  29.46  0.001159264    2.300    0.565
       165  -9.4321    167.9787     38.9562   5.6720334905e+01   3.8288645840e+01    0.1727492    0.1698842 -48.41 0.0009448883    1.005    0.005
       166 -10.4747    128.0004     38.6447   6.4671218952e+01   4.8596311254e+01    0.4125552    0.2020733  52.20   0.00157058    1.998    0.499
       167 -11.9974    121.5942     37.1749   6.5649140420e+01   5.0372587815e+01    0.5046633    0.4434425 -62.66  0.001361314    1.304    0.233
       168  -9.8535    115.1228     38.8982   6.7991713391e+01   5.1644784998e+01    0.2164681    0.1999932 -47.95 0.0004478697    1.164    0.141
       169  -9.2600     87.3196     39.2712   7.6386863907e+01   5.7601268885e+01    0.1427992     0.106036   7.71 0.0002324721    1.565    0.361
       170 -10.8220      3.4892     35.3085   1.1077016026e+02   6.8977971128e+01    0.4176776     0.192558 -35.16  0.002233202    2.084    0.520
       171 -10.9631     38.9451     35.4661   9.3795069524e+01   6.5968038856e+01    0.2572363    0.1832593 -18.50 0.0003614437    1.453    0.312
       172 -12.1732     40.6895     30.0182   9.0693515550e+01   6.6803151704e+01     0.695794    0.4271919  -1.69  0.002671767    2.240    0.554
       173 -11.1873     96.6393     32.9711   7.0742133139e+01   5.6702252773e+01    0.3896241    0.2170036 -34.94  0.001749019    1.711    0.416
       174 -10.0021    134.2258     34.2280   6.1552995328e+01   4.7683865490e+01    0.2074763     0.184139  21.64 0.0003276877    1.149    0.129
       175  -9.8936     90.5694     34.2681   7.3188533015e+01   5.7772881123e+01    0.2038735    0.1301312 -21.11 0.0005954481    1.617    0.381
       176 -10.1668    144.9481     32.7616   5.8768560971e+01   4.5147456293e+01    0.2597424     0.192003 -53.30 0.0004642149    1.494    0.331
       177  -9.2775     50.4319     33.5419   8.7897670423e+01   6.4866169809e+01    0.1317722    0.1118266 -30.76 0.0001864561    1.053    0.050
       178  -9.4840    166.4839     30.9593   5.4263593174e+01   3.9741389787e+01    0.2211858    0.1461514 -26.17 0.0005182739    1.520    0.342
       179 -10.4692    129.0076     30.8112   6.1381911103e+01   4.9460210108e+01    0.3074409    0.2495127  47.58  0.001257976    1.211    0.174
       180  -9.0937    150.3297     30.3191   5.6842445777e+01   4.4070796837e+01    0.1595105    0.1097642  28.84 0.0007047735    1.687    0.407
       181  -9.6876     25.6410     29.6911   9.7764491053e+01   6.8512871019e+01    0.1629983     0.101033 -55.50 0.0004094597    1.518    0.341
       182 -10.7165      8.0941     28.6773   1.0633799304e+02   7.0101472629e+01    0.2466214    0.2127143  82.84  0.001739578    1.574    0.365
       183  -9.9435     69.7748     28.9603   7.8006459935e+01   6.2605530733e+01    0.1811787     0.102316 -33.81 0.0004656556    1.611    0.379
       184 -10.6384    113.5947     25.6429   6.2918565300e+01   5.3904308111e+01    0.4061953    0.2433878 -39.80  0.001224904    1.736    0.424
       185 -10.0983     97.8798     26.1127   6.7360185758e+01   5.7438641100e+01    0.2414798    0.1921415  -5.90 0.0007810668    1.247    0.198
       186 -10.0182    101.6285     26.2996   6.6373151900e+01   5.6580782250e+01    0.1428102    0.1123471 -68.27  0.000703013    1.744    0.427
       187 -11.0560     14.4156     21.4996   1.0021170277e+02   7.1086285513e+01    0.3044671    0.2514645  47.24  0.001681917    1.746    0.427
       188  -7.7701     18.3157     26.2987   1.0011209225e+02   6.9834518135e+01    0.1989591   0.06823333 -39.05 0.0007116594    2.628    0.619
       189  -9.7718     19.5408     23.4888   9.8305151143e+01   7.0276588522e+01    0.1642864     0.106202  -3.00 0.0008214393    1.799    0.444
       190  -9.4260    153.7663     25.6098   5.4521348152e+01   4.3759511434e+01    0.2047734     0.141422  81.23  0.000692175    1.628    0.386
       191 -10.3642     59.1427     24.2318   7.9928988042e+01   6.5174591117e+01    0.2493501    0.1759259 -33.45  0.001117344    1.271    0.213
       192  -9.7485    146.9489     26.6700   5.6130499172e+01   4.5413760211e+01    0.2002903    0.1917487  55.29 0.0005243607    1.033    0.031
       193 -10.7882      1.9691     22.1691   1.0734865078e+02   7.1783150968e+01    0.2556457    0.1382955 -59.97 0.0005575376    1.516    0.341
       194  -9.8788    229.5384    248.0171   9.3686753221e+01  -5.9292702089e+00    0.1608226    0.1109309  26.62  0.000668333    1.089    0.082
       195 -11.2247     30.5057     21.1667   9.1568757023e+01   6.9621278298e+01    0.2543915     0.188222 -26.47 0.0008478537    1.130    0.115
       196  -9.8147    175.4881     21.2560   4.9659313593e+01   3.8526547655e+01    0.1984479    0.1284122 -40.47 0.0003925877    1.513    0.339
       197  -9.7492    165.1427     20.8521   5.1009637493e+01   4.1312080677e+01    0.2004897    0.1695381  21.17 0.0005897455    1.303    0.233
       198  -9.8473     84.5301     21.4623   6.9301812484e+01   6.0916538866e+01    0.2438312    0.1136501  39.97  0.001010754    2.224    0.550
       199  -9.6681     57.9776    248.0421   1.2250525707e+02   1.8062713843e+01    0.1287168   0.08955956  59.28 0.0007313742    1.022    0.021
       200 -10.2331    147.3060     18.7422   5.3119850401e+01   4.6252978796e+01    0.2670209    0.1767465  72.26 0.0007789877    1.563    0.360
       201  -9.7580     58.1582     18.9617   7.7704521328e+01   6.6162598125e+01    0.2450594    0.1373387 -39.73  0.001227778    1.732    0.423
       202  -9.9203    224.9976    246.7149   9.4224293055e+01  -5.1820114531e+00    0.1580037    0.1062923  25.49  0.001138293    1.100    0.091
       203  -9.3720    136.3758    245.7270   1.0899414322e+02   7.8328888846e+00    0.1154873   0.06919808  57.71 0.0007000214    1.690    0.408
       204  -9.2114     45.3145    244.7436   1.2438390893e+02   2.0071755623e+01    0.1068923   0.05276342  60.20 0.0002051322    1.531    0.347
       205  -9.4416    202.4971    240.0709   9.6968749601e+01  -1.2799653621e+00    0.1403784    0.1066725 -23.40 0.0006682441    1.532    0.347
       206  -9.4899     60.5870    241.0000   1.2162967520e+02   1.8879761170e+01    0.2208053   0.04799037  38.28 0.0009178942    3.800    0.737
       207 -10.6659     20.0425     17.1976   9.5200836050e+01   7.1409760523e+01    0.2077337    0.1829007 -24.02 0.0008298125    1.183    0.155
       208 -11.1159     13.9668     16.1956   9.8123835378e+01   7.2126878276e+01    0.2732073    0.1861509  25.05  0.001075888    1.757    0.431
       209  -9.8800    199.5161     17.4888   4.5536857586e+01   3.2665445757e+01    0.1414692    0.1311797 -64.87 0.0001330646    1.002    0.002
       210  -9.3318    115.0029     17.2133   5.8971943306e+01   5.4605136933e+01    0.1799683    0.1121997  58.48 0.0008374858    1.585    0.369
       211 -10.3071    108.3553     16.3855   6.0198502443e+01   5.6288713299e+01    0.2301463    0.1738706 -15.46  0.001207365    1.313    0.238
       212  -9.3374     82.4931     17.5114   6.8051371611e+01   6.1863411014e+01    0.1389868    0.1208017   4.65  0.000810351    1.031    0.030
       213  -9.3845     49.6866    240.6678   1.2343397666e+02   2.0233441347e+01   0.08345383   0.08225351 -64.08 0.0007045048    1.680    0.405
       214 -11.4710    234.5204     15.0397   4.1570317411e+01   2.4301537876e+01    0.2893766    0.2091456 -87.67 -0.0001525735    1.406    0.289
       215  -9.7533    148.5150    239.0113   1.0612617792e+02   6.9583991625e+00    0.1434596    0.1152635 -51.58  0.001033687    1.593    0.372
       216 -11.1768     14.1643    238.7326   1.2910666493e+02   2.4379321217e+01    0.1679534    0.0948867  73.83 0.0004623455    1.315    0.240
       217 -12.2943     26.1552    235.6851   1.2705244291e+02   2.3672160802e+01     0.314911    0.2579135  65.73  0.002452475    1.284    0.221
       218 -10.0655    250.5675     14.9919   4.0329174838e+01   2.0646356423e+01     0.194423     0.111959 -30.78 0.0003556725    1.540    0.351
       219  -9.7479    175.4928     15.4724   4.7755107032e+01   3.9160563522e+01    0.1419495    0.1371834  70.03 0.0004617915    1.044    0.042
       220 -10.4696    154.5032     15.0305   5.0579708821e+01   4.4762644158e+01    0.2724851     0.207203  67.40 0.0004756995    1.277    0.217
       221 -10.1927    190.8776     13.7790   4.5366908046e+01   3.5298824371e+01    0.2133496    0.1874033  49.00 0.0007065033    1.214    0.176
       222 -10.6168     68.7419     13.7635   7.0886969942e+01   6.5041772588e+01    0.3968956    0.1706499  55.76  0.001607871    3.070    0.674
       223  -9.4632    162.4482     13.4603   4.8842772907e+01   4.2825031381e+01     0.141626    0.1372021  72.91 9.452295e-05    1.009    0.009
       224  -9.0057    210.3197    236.3246   9.5132503076e+01  -2.0060249760e+00    0.1164766    0.0716801  14.54 0.0007045861    1.677    0.404
       225  -9.9426    134.9872     11.5143   5.2512234394e+01   5.0216073203e+01    0.2099008    0.1367066  65.01 -6.450326e-05    1.493    0.330
       226  -9.9540    249.1967    234.0937   8.8531138736e+01  -7.2372929146e+00    0.1643185    0.1095127  13.28 0.0004508519    1.173    0.147
       227 -12.2779      9.7990    228.1809   1.2940115630e+02   2.6599643881e+01    0.3568695    0.2316597  62.02  0.001169544    1.095    0.087
       228  -9.4365     56.4555     10.4731   7.3890325094e+01   6.7664434877e+01     0.129853    0.1085361  -6.63 5.313011e-05    1.016    0.016
       229 -11.9960      4.1307    232.6250   1.3047217565e+02   2.6370781262e+01     0.282704    0.1252266  63.21  0.001931241    1.588    0.370
       230 -10.9866      1.4633    225.4558   1.3065434029e+02   2.7852134710e+01    0.2355796   0.07657258 -88.40 0.0009317941    2.707    0.631
       231  -9.1388    242.9605    230.2151   8.8904005282e+01  -6.0101268126e+00    0.1437471   0.07236493  36.08 0.0008599443    1.659    0.397
       232  -9.4377    209.5118    229.5257   9.4269835036e+01  -1.1142836002e+00     0.116099   0.08970235  23.90 5.766402e-05    1.005    0.005
       233 -10.1097    140.8507    228.7085   1.0627270802e+02   9.6089306989e+00    0.1970185    0.1320996 -33.22 0.0007741562    2.128    0.530
       234  -9.5249    223.3024    226.6990   9.1535428116e+01  -2.8396935241e+00    0.0981063   0.08607154  46.89 0.0007003834    1.588    0.370
       235  -9.8850     90.9996    237.0488   1.1609035837e+02   1.5593605445e+01    0.1449769     0.134002  -1.58  0.000698694    1.674    0.403
       236 -11.4426      8.4063    218.4837   1.2924936102e+02   2.8446667622e+01    0.2556114    0.1840481  19.53  0.001858154    2.329    0.571
       237  -9.4164    224.3240    210.3519   8.8727969030e+01  -1.1069795270e+00    0.1269621   0.07772229  10.25 0.0007047916    1.756    0.431
       238 -10.2992     20.1659    209.8267   1.2681541403e+02   2.8897117684e+01    0.1735171    0.1008215  64.26 0.0007780625    1.289    0.224
       239 -10.8077      3.2935    205.4309   1.2959812947e+02   3.1318041890e+01    0.1745079   0.09713392  30.31  0.001152836    2.224    0.550
       240 -10.4461      7.4787    199.4981   1.2859494730e+02   3.2071181782e+01    0.1078056   0.07682876  74.45 0.0008101833    1.024    0.024
       241  -9.8437     23.1483    197.1785   1.2557256177e+02   3.1025273654e+01    0.1560933    0.1285322  86.07 0.0005715154    1.230    0.187
       242 -10.8938     13.8987    192.6824   1.2706813514e+02   3.2811765851e+01    0.1926355    0.1171066  80.32 0.0004258653    1.265    0.209
       243 -10.3535      6.5912    191.5092   1.2838342445e+02   3.3710363132e+01    0.2009131    0.1266311  71.22  0.000337524    1.168    0.144
       244  -9.0665     20.6856    188.6990   1.2553734532e+02   3.2959585161e+01   0.09756626   0.07971205 -60.73 0.0002640774    1.613    0.380
       245  -9.4712     22.5215    179.5856   1.2458791895e+02   3.4650791779e+01    0.1145612    0.0866136  77.10 9.220866e-05    1.019    0.019
       246 -10.9248      5.3993    167.5769   1.2735946053e+02   3.8720791355e+01    0.2361973    0.1330764  83.04  0.001239108    1.383    0.277
       247  -9.5376    226.5283    164.0206   7.9707066265e+01   4.6516199217e+00    0.1927921    0.1210292 -28.02 0.0006072759    1.532    0.347
       248  -9.8393     14.6599    163.6717   1.2515093068e+02   3.8768562852e+01    0.1090399   0.07795156 -54.74  0.000705161    1.737    0.424
       249  -9.1825     41.2766    157.6602   1.1866611220e+02   3.7463620592e+01    0.1304718   0.07712743  73.22 0.0004221844    1.617    0.381
       250  -9.6504    247.4972    155.4981   7.4455663083e+01   2.1600875156e+00    0.1321434     0.108591  -2.46 -1.169183e-05    1.020    0.019
       251 -10.5236      2.5033    153.4949   1.2713753799e+02   4.1985854602e+01    0.1999629    0.1075906  30.46  0.001215887    2.182    0.542
       252  -9.7524     15.8360    150.3587   1.2390237880e+02   4.1601831479e+01    0.1391578    0.1145511  13.79 0.0009543764    1.775    0.437
       253 -10.0692     23.9846    150.5177   1.2201903899e+02   4.0835427221e+01    0.1588878    0.1138167  39.23 0.0007723725    1.559    0.359
       254  -9.2488     43.0264    145.0701   1.1686773407e+02   4.0146988010e+01    0.1488805    0.1190605 -87.42 0.0002856779    1.032    0.031
       255  -9.8818     22.5355    142.9370   1.2167345589e+02   4.2694973161e+01    0.1858112   0.09713876 -75.41 0.0007286996    1.556    0.357
       256 -10.0181     33.8989    142.1880   1.1880481865e+02   4.1781308439e+01    0.1844974     0.137301  78.40 0.0003630815    1.168    0.144
       257  -9.3133     24.6136    139.1483   1.2079581302e+02   4.3379468304e+01    0.1778597   0.08818723 -64.69 0.0009357823    1.734    0.423
       258  -9.0601     41.7203    138.6844   1.1643005538e+02   4.1779724692e+01    0.1219838   0.08805579 -50.60 0.0003897797    1.573    0.364
