#   1 NUMBER                 Running object number                                     
#   2 MAG_AUTO               Kron-like elliptical aperture magnitude                    [mag]
#   3 X_IMAGE                Object position along x                                    [pixel]
#   4 Y_IMAGE                Object position along y                                    [pixel]
#   5 X_WORLD                Barycenter position along world x axis                     [deg]
#   6 Y_WORLD                Barycenter position along world y axis                     [deg]
#   7 A_WORLD                Profile RMS along major axis (world units)                 [deg]
#   8 B_WORLD                Profile RMS along minor axis (world units)                 [deg]
#   9 THETA_WORLD            Position angle (CCW/world-x)                               [deg]
#  10 FWHM_WORLD             FWHM assuming a gaussian core                              [deg]
#  11 ELONGATION             A_IMAGE/B_IMAGE                                           
#  12 ELLIPTICITY            1 - B_IMAGE/A_IMAGE                                       
         1 -10.1601    215.7538      3.6041   5.1432844850e+01   2.9948364609e+01     1.511135     0.494588 -17.72  0.005395932    3.507    0.715
         2 -14.0961    210.9205     63.2112   6.8698314289e+01   2.4278620065e+01      15.5803      3.28315 -43.30   0.03479605    6.989    0.857
         3 -13.7906    235.1905     70.5800   6.7128662489e+01   1.7691812840e+01     4.143728     1.559641 -37.40   0.01166053    2.411    0.585
         4 -12.2810    249.3821      2.7497   4.8628315404e+01   2.2199969376e+01    0.9253893    0.4969878  73.21  0.004306966    1.908    0.476
         5 -12.8324    144.7737     43.2621   7.4853593333e+01   4.3836684110e+01     2.075348     1.276477  77.57  0.008070945    2.438    0.590
         6 -12.7638    249.3988     25.9777   5.4230510165e+01   1.9893542123e+01     1.386998    0.5409849 -17.77 0.0008212728    3.027    0.670
         7 -14.4526    242.9142     17.5395   5.2710526866e+01   2.2207596305e+01      3.88752     1.239291  60.89   0.01567291    3.000    0.667
         8 -13.5033    225.8477     47.9637   6.2408784294e+01   2.2726755621e+01     2.904446     1.646708  54.36    0.0136394    1.805    0.446
         9 -10.5248    145.5692     26.5548   6.8572144597e+01   4.5868029473e+01    0.8196607    0.3006733 -40.21  0.002779311    3.010    0.668
        10 -11.1320    129.8124     20.9931   6.9847863721e+01   5.0579539139e+01    0.7127629    0.3928575  49.99  0.003110019    1.650    0.394
        11 -10.0960    142.3039     10.5985   6.3171558587e+01   4.8465566574e+01    0.6428455    0.3298979 -10.67  0.002502597    2.261    0.558
        12 -11.0371    119.0420     10.0293   6.7785034060e+01   5.4489479565e+01    0.7564949    0.4554721  39.89  0.003534846    1.544    0.353
        13  -9.6277    151.0305      8.0455   6.0685389394e+01   4.6401615028e+01    0.4589385    0.2007426 -21.09  0.001780976    2.389    0.581
        14  -7.6495     52.3277      8.3038   8.9825045607e+01   6.8610693141e+01    0.1361486    0.0879028   1.55 0.0002801525    1.647    0.393
        15  -8.2902    199.9030      6.8454   5.3864317577e+01   3.3629968797e+01    0.2365938    0.1795556 -24.72  0.001283569    1.353    0.261
        16  -8.6057    207.5704      4.7034   5.2485387509e+01   3.1881595243e+01    0.2738633    0.1157304 -28.38  0.001157527    2.228    0.551
        17  -8.7017    209.0494      1.4450   5.1434814751e+01   3.1799967933e+01    0.2820493    0.1774855  56.13 0.0003712559    1.579    0.367
        18  -9.6797    125.0245     13.9573   6.8067088538e+01   5.2580072124e+01    0.3504055    0.3257163 -17.36  0.001530991    1.150    0.130
        19  -8.4154    161.0109    129.3101   9.6351482533e+01   2.4693718401e+01    0.2186364    0.1950464  30.74  0.001177641    1.058    0.055
        20  -7.3453    217.3152    125.6226   8.3792281000e+01   1.3591575336e+01    0.1386595    0.1130206 -61.57 0.0007028038    1.803    0.445
        21  -9.9917    185.9797    121.2037   8.8872906168e+01   2.0868919467e+01    0.3726126    0.2200413 -37.21  0.001625443    1.722    0.419
        22 -11.3014    196.9708     52.1940   6.7733348512e+01   2.9213773089e+01     1.310992    0.9979094 -26.04  0.006589733    1.290    0.225
        23  -9.8039    156.7316    217.6003   1.1313654113e+02   1.0507774404e+01    0.2088335    0.1711395  28.46 0.0003311296    1.067    0.063
        24  -9.5379    167.9911    113.9423   9.0994780917e+01   2.6068537921e+01    0.3321512    0.3061081  71.00 0.0005695206    1.299    0.230
        25  -8.6590      8.0542    115.5503   1.3586892988e+02   4.9507122245e+01    0.1511728    0.1127511  28.67  0.001023639    1.584    0.369
        26 -10.8571    206.0533    110.4833   8.2194812584e+01   1.8292648136e+01    0.6437339    0.2626104  46.54  0.002435233    2.406    0.584
        27  -8.6936    194.7210    118.5798   8.6426952743e+01   1.9431603285e+01       0.2711    0.1358651  43.19 0.0006165394    1.934    0.483
        28 -10.8934    186.9696    102.9013   8.3997342692e+01   2.3776173051e+01    0.6509764    0.4075364 -46.29  0.002836992    1.818    0.450
        29 -10.7915    185.6213     93.3719   8.1701125842e+01   2.5690857296e+01    0.7920883    0.3251983 -39.50  0.002837305    2.452    0.592
        30  -8.4245    148.3888     99.6968   9.1906194962e+01   3.3092911252e+01     0.255891    0.1837449  21.65  0.000533586    1.599    0.375
        31  -7.8238    134.0316     96.4673   9.4727575246e+01   3.6857946231e+01    0.2271182     0.149553  43.91 0.0003498105    1.508    0.337
        32  -9.0452    193.1046     94.2304   8.0439501941e+01   2.3810225035e+01    0.3420514    0.2126749 -13.36  0.001284543    1.925    0.481
        33  -9.8816    158.3443     92.9350   8.7590847006e+01   3.2124471334e+01    0.4733099    0.3325721  26.55  0.002091785    1.570    0.363
        34  -9.2930    141.3977     88.8548   9.0618584277e+01   3.6755885928e+01    0.4170671    0.3134901 -67.54  0.001183299    1.844    0.458
        35  -8.9819     30.3481    213.6068   1.3722941829e+02   2.7697479549e+01    0.1952163    0.1347894 -62.76  0.001141312    1.779    0.438
        36  -8.8052    176.9860     86.0017   8.1425236724e+01   2.8969742488e+01    0.2212064    0.2140684  -4.54  0.001186697    1.062    0.059
        37 -10.3125    175.1605     81.7267   8.0574876715e+01   3.0128646490e+01    0.5627364     0.353578  36.93 0.0007305368    1.656    0.396
        38 -11.1702    181.5330     77.8347   7.8122740219e+01   2.9227284887e+01     0.996951    0.5124229 -47.39 0.0008818898    2.329    0.571
        39 -11.6269    172.8577     67.4553   7.6775305719e+01   3.3030732164e+01    0.5727912    0.4762771 -11.13  0.001960183    1.231    0.188
        40  -8.3738      1.8158     75.8642   1.3385239591e+02   5.8902200132e+01    0.1584449    0.1186923  81.54 0.0004904267    1.327    0.246
        41 -10.1934    190.7828     71.0871   7.4367252389e+01   2.8028237050e+01    0.4600721     0.402031  -1.05 0.0008888053    1.146    0.128
        42 -10.0842    195.8563     68.0130   7.2558525510e+01   2.7246849697e+01    0.4516712     0.281429  35.72  0.001307411    1.757    0.431
        43  -8.4306    119.1124     69.7985   9.0859726932e+01   4.5374569587e+01     0.210452    0.2068302  84.60 0.0002528528    1.162    0.140
        44  -7.8926    155.6565     68.3038   8.0801670008e+01   3.7149305540e+01    0.1566652    0.1256921 -75.41 0.0003331308    1.684    0.406
        45  -8.5503    148.1817     60.1172   7.9889996468e+01   4.0355904731e+01     0.209483    0.1845029 -59.83 0.0005474899    1.325    0.245
        46 -10.4920    156.5113     82.8961   8.5103386719e+01   3.4387121310e+01    0.3790924    0.3362246   1.42  0.001933354    1.133    0.117
        47 -10.5035    131.3728     47.1130   7.9525994020e+01   4.6571513008e+01    0.3222237     0.289341  19.29 0.0003583009    1.062    0.058
        48 -11.8714    162.8907     52.9535   7.4221178864e+01   3.7789502674e+01     1.332455    0.7654991 -59.70  0.004833206    2.780    0.640
        49  -7.9766     22.5217    208.4802   1.3841141975e+02   2.9337496131e+01    0.1041512   0.07698452  65.05 9.771527e-05    1.004    0.004
        50 -10.9652    159.3499     39.9095   7.0550313353e+01   4.0563912046e+01    0.8594233    0.6804376  53.16  0.004287073    1.220    0.180
        51  -7.3662    158.3090    202.7346   1.1072797061e+02   1.2458117388e+01    0.1196449   0.08837984  55.06 0.0001967383    1.535    0.348
        52 -12.4673      9.3898    193.0328   1.4017110710e+02   3.3284372269e+01    0.7639248    0.5539941  78.03  0.003865416    1.098    0.090
        53  -8.9194    105.1029    159.9525   1.1592369193e+02   2.8822560336e+01    0.1894199    0.1737987  51.74 0.0003062443    1.007    0.007
        54  -9.3525    135.9037     51.8642   8.0074241294e+01   4.4712328447e+01    0.2849906    0.2144601  55.35  0.001347898    1.377    0.274
        55 -12.1121     42.9323    171.4652   1.3192860045e+02   3.4456573213e+01    0.7197463    0.6621805  20.75  0.002087926    1.389    0.280
        56 -11.6785     52.3808    164.1107   1.2910198917e+02   3.4984116736e+01    0.6426679     0.569947  66.42  0.002670331    1.075    0.070
        57  -8.1947    230.6590    167.3530   9.0465418642e+01   5.1881613661e+00    0.1153966    0.1078702 -71.80 0.0007041867    1.808    0.447
        58 -11.9911    244.1228    239.7306   1.0072238585e+02  -4.8840747890e+00    0.2534904    0.1805663  14.70 0.0006025846    1.079    0.073
        59  -8.3678      9.1042    235.5430   1.4175715374e+02   2.5981684698e+01    0.1415161    0.1116422 -84.54 0.0009760364    1.453    0.312
        60 -10.2799     68.3894    144.7564   1.2288943027e+02   3.7297435615e+01    0.5678215     0.334726  61.08  0.002485006    1.888    0.470
        61  -8.5143    103.9831    144.8226   1.1369604320e+02   3.2174409827e+01    0.1901541    0.1822139  50.32 0.0003777581    1.027    0.026
        62 -10.0129    198.3620    133.7079   8.9310471250e+01   1.6188499200e+01    0.3935263    0.2710197 -20.05   0.00194168    1.487    0.328
        63  -8.2225    171.1401    155.2071   9.9716523056e+01   1.7986449505e+01    0.2026314    0.1710537  12.88 0.0003543138    1.133    0.118
        64 -10.2913    217.8104    150.2931   8.9258992161e+01   9.8401241945e+00    0.2640178    0.2119761  25.62 0.0004215851    1.133    0.117
        65  -7.8038    165.1962    132.8393   9.6204954945e+01   2.3174040926e+01    0.1980227    0.1632611  12.30 0.0004097979    1.238    0.192
        66 -10.0262    222.2619    131.9870   8.4376373985e+01   1.1660093986e+01     0.487847    0.2356743 -25.63  0.002087769    2.088    0.521
