#   1 NUMBER                 Running object number                                     
#   2 MAG_AUTO               Kron-like elliptical aperture magnitude                    [mag]
#   3 X_IMAGE                Object position along x                                    [pixel]
#   4 Y_IMAGE                Object position along y                                    [pixel]
#   5 X_WORLD                Barycenter position along world x axis                     [deg]
#   6 Y_WORLD                Barycenter position along world y axis                     [deg]
#   7 A_WORLD                Profile RMS along major axis (world units)                 [deg]
#   8 B_WORLD                Profile RMS along minor axis (world units)                 [deg]
#   9 THETA_WORLD            Position angle (CCW/world-x)                               [deg]
#  10 FWHM_WORLD             FWHM assuming a gaussian core                              [deg]
#  11 ELONGATION             A_IMAGE/B_IMAGE                                           
#  12 ELLIPTICITY            1 - B_IMAGE/A_IMAGE                                       
         1 -13.5992    242.9304     49.1228   8.1467797142e+00   1.8881800132e+01     1.063588    0.9110635  27.23  0.005678313    1.463    0.317
         2 -13.7939      4.7043     12.6591   6.7139682613e+01   7.6027898652e+01     2.311771    0.7382247 -60.57  0.009877113    2.570    0.611
         3  -8.9245     73.5415     43.5259   4.0147126585e+01   6.0113352604e+01    0.1450242    0.1423072 -26.94 9.316488e-05    1.047    0.045
         4 -13.3172     41.5627    147.6106   7.6481787474e+01   3.9424211484e+01    0.7999501    0.5132382 -17.35  0.001361221    2.631    0.620
         5 -12.8568     34.8906    165.1077   7.9914319214e+01   3.6000782762e+01    0.6537578    0.5681239 -20.53 0.0005966278    1.560    0.359
         6 -12.0503     43.2214    160.1124   7.7235363275e+01   3.6262363251e+01    0.3342951    0.3117206 -22.32 0.0004811959    1.376    0.274
         7 -16.2872      7.1978    223.0611   8.9119749928e+01   2.6687653438e+01     9.267937     2.997363 -82.05   0.04772793    3.138    0.681
         8 -14.5410      6.6243    180.9471   8.7933498580e+01   3.5075526919e+01     1.573246    0.7447096  89.58   0.00521619    1.934    0.483
         9 -15.2411     14.5008    165.3924   8.5295909788e+01   3.7854988507e+01     7.000934     1.801777  77.15   0.01966299    6.526    0.847
        10 -10.2322    139.7687    249.6243   6.4526709189e+01   7.0621280832e+00     0.167384   0.07619439  38.84 0.0009540379    1.680    0.405
        11 -11.5866     74.8090    220.2095   7.4838881534e+01   1.9999124689e+01    0.5118318    0.1015007  43.51  0.001919546    3.455    0.711
        12 -10.8511     58.4267    194.8352   7.6429886725e+01   2.6866023161e+01    0.2879561    0.1879863  80.59   0.00166804    1.610    0.379
        13 -12.0620    246.9958    164.6976   3.2591726193e+01   3.2732111996e+00    0.4896029    0.2038118 -39.53   0.00238697    2.648    0.622
        14 -13.0764    236.2006    155.5416   3.2475036798e+01   5.9793578812e+00    0.8005556    0.3157579 -27.96   0.00370112    2.369    0.578
        15 -11.9174     57.2362    151.1915   7.2354190309e+01   3.6702804315e+01    0.5413963    0.3168051 -67.67  0.001108303    1.705    0.414
        16 -12.8123     72.1498    133.7524   6.5459531047e+01   3.8892432631e+01    0.9090461    0.6775515 -26.47 0.0004708401    1.816    0.449
        17  -9.7534    249.6641    142.6716   2.7966792052e+01   5.6286109922e+00    0.1261943   0.07943062   2.10 0.0007051925    1.726    0.421
        18 -11.9343     66.0012    147.7526   6.9390887792e+01   3.6370412286e+01    0.4792105    0.3522289  87.74  0.001025316    1.413    0.292
        19  -9.6471     89.8001    133.9675   6.0214604005e+01   3.6066225201e+01    0.2718643    0.2083327  17.05 0.0005214148    1.565    0.361
        20 -10.7657     85.4415    136.9586   6.2032663906e+01   3.6066592733e+01    0.3132602    0.2951804 -59.11 0.0008667348    1.130    0.115
        21 -13.3078     69.0127    144.5262   6.8062072125e+01   3.6726746225e+01     1.386038    0.7099249  86.96  0.003421266    3.096    0.677
        22 -12.1197     53.2900    120.4204   6.9318553092e+01   4.4830661529e+01    0.7304129    0.2798301 -78.41  0.002347252    3.655    0.726
        23 -11.6689     55.8035    128.9002   6.9799126685e+01   4.2361045386e+01     0.432475     0.236761  86.90  0.001782524    2.333    0.571
        24 -10.0171    105.7758    130.7610   5.4989150411e+01   3.4028136633e+01    0.3728772     0.292157 -73.55  0.001703285    1.437    0.304
        25  -9.7259    101.6185    127.6757   5.5535939422e+01   3.5496418844e+01    0.3545296    0.2461681  18.33  0.001582038    1.846    0.458
        26 -10.3089     87.5736    122.7561   5.8705398008e+01   3.9131798898e+01    0.2715689    0.2573462  24.97 0.0005071747    1.135    0.119
        27 -11.2292    244.1238    120.6931   2.4219382417e+01   9.3476329175e+00    0.1771415    0.1650321 -63.33  0.001211414    1.457    0.314
        28  -9.5543    101.1266    116.7993   5.3314593059e+01   3.8134338104e+01    0.2173626    0.1970731  68.08 0.0002646426    1.117    0.105
        29 -10.3011    231.2875    114.1056   2.4581303566e+01   1.2430112341e+01    0.2128403    0.1975408  42.40 0.0008766548    1.287    0.223
        30 -12.1815     51.3935    107.2395   6.7750755859e+01   4.8454940960e+01    0.9861027    0.2348271 -66.87  0.002792786    4.306    0.768
        31 -12.1940    240.4009    103.1115   2.0891109680e+01   1.2342471611e+01    0.4099572      0.23472 -21.33  0.002126252    1.659    0.397
        32 -11.4523    249.6931     92.7791   1.7450502975e+01   1.2093458752e+01    0.4395499    0.1292434 -28.90  0.001672192    3.009    0.668
        33  -9.3628    204.3823    110.8974   2.8013502441e+01   1.7944521268e+01    0.2909512    0.1715408  31.74  0.001340832    2.020    0.505
        34 -13.1845    222.9930     60.5621   1.2953830504e+01   2.1491197045e+01     1.173832    0.9547637  49.69  0.007003768    1.412    0.292
        35 -10.0223    192.4951    249.5375   5.5006639889e+01   4.7064545288e-01    0.1091021   0.07669842  18.35 0.0002059897    1.011    0.011
        36 -11.2434     13.4477     60.0563   7.5071309952e+01   6.4294162074e+01    0.3122261    0.2097629 -57.95 0.0006291711    1.279    0.218
        37 -10.8186     21.8877     62.8180   7.1358265066e+01   6.2994362326e+01    0.5099941     0.213168  50.43  0.001935271    3.248    0.692
        38  -9.4843     32.6492     50.6716   6.2524826118e+01   6.4984444610e+01    0.2753761     0.139347  47.60  0.001158461    2.519    0.603
        39 -10.1518    177.5928    249.2042   5.7565414333e+01   2.3308328247e+00    0.1376941   0.09156082 -16.95 0.0006452337    1.710    0.415
