#   1 NUMBER                 Running object number                                     
#   2 MAG_AUTO               Kron-like elliptical aperture magnitude                    [mag]
#   3 X_IMAGE                Object position along x                                    [pixel]
#   4 Y_IMAGE                Object position along y                                    [pixel]
#   5 X_WORLD                Barycenter position along world x axis                     [deg]
#   6 Y_WORLD                Barycenter position along world y axis                     [deg]
#   7 A_WORLD                Profile RMS along major axis (world units)                 [deg]
#   8 B_WORLD                Profile RMS along minor axis (world units)                 [deg]
#   9 THETA_WORLD            Position angle (CCW/world-x)                               [deg]
#  10 FWHM_WORLD             FWHM assuming a gaussian core                              [deg]
#  11 ELONGATION             A_IMAGE/B_IMAGE                                           
#  12 ELLIPTICITY            1 - B_IMAGE/A_IMAGE                                       
         1 -14.4500    164.3202     51.6177   7.7059058697e+01   3.7135447125e+01      1.99889     1.407693  14.07  0.007033368    2.061    0.515
         2 -14.0007    177.5250     34.8814   7.0296069132e+01   3.6125131880e+01    0.8521186    0.7618528 -76.62  0.002811478    1.127    0.112
         3 -13.4494    181.8126     28.1032   6.7911117074e+01   3.5895541047e+01    0.5473143    0.4881805  78.64  0.001314076    1.032    0.031
         4 -12.7599    189.6275     14.7850   6.3578587456e+01   3.5487433149e+01    0.3302226    0.3055931  44.84  0.001263961    1.286    0.222
         5 -13.9198    196.9849      4.1529   6.0251394246e+01   3.4820726711e+01    0.8910782    0.5016664  69.10  0.004129474    1.478    0.324
         6 -10.9086    163.8875    204.8043   1.1368725036e+02   7.5480471294e+00    0.2367385    0.2295618 -79.00 0.0003978969    1.142    0.124
         7 -18.6986     57.6318    241.7937   1.4047486059e+02   1.7822785555e+01     6.748568     6.122309  83.57   0.05002983    1.291    0.226
         8 -12.3337    206.8005    180.1760   9.9904986567e+01   3.9039031785e+00    0.7890717     0.431902  28.93  0.002719281    2.174    0.540
         9 -11.0735    209.2525    198.6873   1.0311780980e+02   1.2301050977e-01    0.2389529     0.188241 -65.35 0.0008681195    1.806    0.446
        10 -13.3749     12.5208    205.9556   1.4588644448e+02   3.0334832301e+01     0.482703    0.2422573  36.36   0.00284631    2.167    0.539
        11 -11.2608    155.1451    197.3405   1.1424155710e+02   1.0698429173e+01    0.2808345    0.2103911  68.26  0.001381536    1.615    0.381
        12 -12.3831    136.5231    179.3616   1.1511859477e+02   1.8104116813e+01    0.3232786    0.2505963  40.32 0.0009255568    1.257    0.204
        13  -9.6901    170.8333    176.8718   1.0680791772e+02   1.1752905983e+01    0.2015729    0.1762704  74.29 0.0004247461    1.316    0.240
        14 -10.7143    193.9819    165.4719   9.9428184640e+01   9.2733743794e+00    0.3246562     0.276118  73.36 0.0009845112    1.433    0.302
        15 -10.6657    196.6481    175.3331   1.0096643344e+02   6.8174354810e+00    0.3083223    0.2372126  82.98  0.001173321    1.968    0.492
        16 -11.8968    196.1205    170.8033   1.0012291981e+02   7.7964011769e+00    0.4693614    0.4247382 -66.72  0.001148623    1.280    0.219
        17 -10.0671    180.1416    192.4416   1.0789258294e+02   6.7978783251e+00    0.2216288     0.199764 -85.84  0.000618934    1.350    0.259
        18  -9.6726     17.4651    167.5607   1.4145957500e+02   3.8212875983e+01    0.1197014   0.09628447 -79.55 4.966819e-05    1.043    0.042
        19 -10.6568    120.7829    164.1174   1.1593280496e+02   2.4545439026e+01     0.272278    0.2256104  68.54 0.0006808892    1.280    0.218
        20 -10.6036    223.8209    164.1006   9.3228217597e+01   3.5430668706e+00    0.2113632     0.189387 -60.43  0.000589364    1.298    0.229
        21 -10.5036     12.0092    160.2318   1.4192061429e+02   4.0324196324e+01    0.2559981    0.1800121  44.38  0.001675982    1.581    0.367
        22 -10.9670    237.4206    159.2539   8.9725956512e+01   1.8202107654e+00    0.1954978    0.1233176 -46.44 0.0009451581    1.612    0.380
        23 -10.5475    120.5009    156.5202   1.1447004900e+02   2.6338000814e+01    0.2636539     0.247317  54.80 0.0007076627    1.054    0.051
        24  -9.5547    176.8380    154.8287   1.0076428962e+02   1.5039464484e+01     0.205633     0.180742  89.37 0.0005067002    1.335    0.251
        25 -12.8799    134.0105    145.8289   1.0879417072e+02   2.6090749949e+01     1.336242     0.352115 -54.13  0.003196562    5.508    0.818
        26 -10.7876      9.9285    153.4016   1.4167177806e+02   4.2020448565e+01    0.2820463    0.2096411  -2.13  0.001826197    1.990    0.497
        27 -10.9493    174.6528    148.6926   9.9864315423e+01   1.6785148003e+01    0.3428544    0.2695316 -71.00  0.001228932    1.566    0.361
        28 -12.5392    145.3646    146.3951   1.0613458204e+02   2.3600475820e+01    0.4919841     0.397393  87.60  0.001108743    1.532    0.347
        29 -12.7734    193.7718    193.3857   1.0521687683e+02   3.9780909966e+00    0.9917474     0.556049 -55.31  0.003228812    2.383    0.580
        30 -12.1544     89.5627    147.3093   1.2056883730e+02   3.3984405283e+01    0.4282685    0.2650841  50.54 0.0002460087    1.737    0.424
        31 -11.6946      3.8266    146.5621   1.4236477706e+02   4.4002568298e+01    0.2341242     0.197958 -14.11 0.0009796025    1.608    0.378
        32 -13.2071    112.3525    140.1128   1.1305894096e+02   3.1658253912e+01    0.8889934    0.6247959  14.68  0.003903856    2.005    0.501
        33 -11.2747     20.1866    141.4892   1.3776279863e+02   4.3873337939e+01     0.225803    0.1460872 -69.00 0.0005599529    1.258    0.205
        34 -12.6389    101.4950    139.4285   1.1578178530e+02   3.3798853560e+01    0.2979741    0.2818588 -17.14 0.0002179411    1.151    0.131
        35 -12.8307      9.8608    117.5420   1.3717946318e+02   5.0034206113e+01     0.511988     0.299974 -37.52  0.002988444    1.826    0.452
        36 -13.3951      4.7324    130.5618   1.4029543472e+02   4.7495540586e+01     1.608419    0.5109553 -72.03  0.006972678    2.672    0.626
        37 -12.5994    135.4168    122.7664   1.0298998201e+02   3.0900958206e+01    0.9341375     0.235257 -48.17  0.002494657    4.227    0.763
        38 -10.9466    167.5547    190.4755   1.1022973796e+02   9.6571568513e+00    0.3593737    0.2770787  -3.28  0.001757142    1.678    0.404
        39 -11.9028    105.9315    130.6981   1.1265146353e+02   3.5008861054e+01    0.3927503    0.3346871 -68.66  0.001146154    1.232    0.188
        40 -11.4333    106.1612    126.0583   1.1151199430e+02   3.6020484646e+01    0.3388664    0.2543145 -31.53 0.0008423054    1.477    0.323
        41 -12.2358    118.2295    129.7441   1.0914141313e+02   3.2887520238e+01    0.4091821    0.3579936 -25.65  0.000913149    1.238    0.192
        42 -11.4100    160.3507    127.5676   9.8122306708e+01   2.4388437443e+01    0.4228033    0.2674289 -53.81  0.001308496    1.727    0.421
        43 -12.0492    125.7536    127.6631   1.0667264422e+02   3.1845457515e+01    0.5362855    0.3194309  71.17  0.001837388    3.181    0.686
        44 -10.4188    141.3831    126.6167   1.0244475688e+02   2.8785479646e+01    0.2224872     0.181476  88.03 0.0008615283    1.519    0.342
        45 -11.6290      2.7691    112.6527   1.3844345138e+02   5.1558214123e+01    0.2788549    0.2355264   3.94 0.0008436989    1.500    0.333
        46 -11.0068    112.3308    118.7858   1.0807336313e+02   3.6479688646e+01    0.3099609    0.2730899  86.24  0.001151086    1.309    0.236
        47 -12.7706    139.2874    200.6059   1.1832896662e+02   1.3047905975e+01    0.3766994    0.3297834 -30.52  0.001722457    1.327    0.246
        48 -11.4823    167.9378    112.9924   9.2761578375e+01   2.5639857267e+01    0.5302458     0.350782  77.32  0.002098958    2.267    0.559
        49 -11.0820    134.5634    105.3352   9.8716962020e+01   3.4760472113e+01    0.5319731    0.1455066 -45.38  0.001518539    3.755    0.734
        50 -10.8379    205.5007    110.3306   8.4492219765e+01   1.7442550270e+01    0.3106548    0.2516427  40.71 0.0009142436    1.327    0.246
        51 -10.3456    130.1964    109.7984   1.0101871856e+02   3.4778543780e+01    0.2147575    0.1818125  -9.37 0.0006431941    1.362    0.266
        52 -11.1890     85.1731    107.5758   1.1299575457e+02   4.3783762647e+01    0.3225523    0.2703412  50.14  0.001342975    1.322    0.244
        53 -10.1951     67.9268     98.8319   1.1604339255e+02   4.8277272629e+01    0.2136739    0.1729669 -23.64 0.0006652186    1.254    0.202
        54 -19.1217     39.7479    104.0734   1.2601975801e+02   5.0517010969e+01     16.61246    0.8807749 -59.03    0.0266572   16.482    0.939
        55 -11.3608    159.2009    206.1496   1.1493509053e+02   8.1762466029e+00    0.3683998    0.2708007  68.49  0.001827617    1.710    0.415
        56 -10.8117     85.2486     77.0113   1.0461742059e+02   5.0006265355e+01    0.2226487    0.1898109  29.10 0.0004727738    1.181    0.153
        57 -10.5495    102.1873     72.3972   9.8119521859e+01   4.7778278957e+01    0.3693962    0.2466817  64.21  0.001671771    2.192    0.544
        58 -10.8131    169.1480    236.6802   1.1793236627e+02   8.2342431576e-01    0.2072832    0.1871884 -27.87 0.0003324753    1.265    0.210
        59 -10.1990    220.6419    229.1255   1.0654440202e+02  -6.7609809778e+00    0.2737423     0.149856 -48.06  0.001331589    2.419    0.587
        60 -12.2317    152.5613    184.1847   1.1235462318e+02   1.3916494674e+01    0.4022607    0.2948282  84.62  0.001829813    1.942    0.485
        61 -10.3844     13.5378     59.9635   1.2469819080e+02   6.1712704000e+01     0.165755    0.1559412  18.84  0.000398972    1.382    0.276
        62 -11.6193     19.3713    214.0409   1.4522502711e+02   2.7967912331e+01    0.1908302    0.1342204  56.62  0.001144572    1.305    0.234
