#   1 NUMBER                 Running object number                                     
#   2 MAG_AUTO               Kron-like elliptical aperture magnitude                    [mag]
#   3 X_IMAGE                Object position along x                                    [pixel]
#   4 Y_IMAGE                Object position along y                                    [pixel]
#   5 X_WORLD                Barycenter position along world x axis                     [deg]
#   6 Y_WORLD                Barycenter position along world y axis                     [deg]
#   7 A_WORLD                Profile RMS along major axis (world units)                 [deg]
#   8 B_WORLD                Profile RMS along minor axis (world units)                 [deg]
#   9 THETA_WORLD            Position angle (CCW/world-x)                               [deg]
#  10 FWHM_WORLD             FWHM assuming a gaussian core                              [deg]
#  11 ELONGATION             A_IMAGE/B_IMAGE                                           
#  12 ELLIPTICITY            1 - B_IMAGE/A_IMAGE                                       
         1 -13.9121    217.4508      8.5287   3.8006243573e+01   2.9838414518e+01     2.488562     1.497037  38.55   0.01219159    2.372    0.578
         2 -13.4660    191.9134     39.6397   4.9087544740e+01   3.2350803126e+01     1.065841      1.02599  45.95   0.00417887    1.132    0.117
         3 -12.7649    196.9911     33.6245   4.6723130515e+01   3.1874292531e+01    0.6990472    0.6260213  76.06  0.001181456    1.081    0.075
         4 -10.7268    189.6452     15.0052   4.2543121135e+01   3.5864116232e+01    0.2733078    0.2361085 -25.29 0.0008833287    1.295    0.228
         5 -13.2258    177.0322     52.7443   5.5239581861e+01   3.4227306659e+01     1.944874     1.324085  28.13  0.005493719    1.906    0.475
         6  -9.8257    184.1745    212.5977   9.2019083845e+01   3.2277832827e+00    0.1934827    0.1104289  29.21 0.0009464882    1.691    0.409
         7 -12.0021    248.7705    231.6132   8.3331426678e+01  -9.3867107718e+00    0.4734202    0.2197094 -27.14  0.002578048    2.124    0.529
         8 -11.9400    248.1689    248.2594   8.6171881859e+01  -1.1200380422e+01    0.6113983    0.3391037  29.22   0.00388286    1.484    0.326
         9  -9.7164     43.9927    210.2176   1.2058472844e+02   2.5258055730e+01    0.1751332    0.1184284  67.86 0.0003382799    1.236    0.191
        10  -9.3823     42.6194    205.8858   1.2050458024e+02   2.6311325889e+01     0.266759    0.1990474 -33.71  0.001616751    2.249    0.555
        11  99.0000     33.3938    207.4437   1.2244133534e+02   2.7016135312e+01    0.3262777    0.2176119  80.44    0.0019908    1.243    0.196
        12  -8.4865    224.2479    206.6628   8.3273539032e+01  -2.4951776841e+00    0.1087232    0.1021181 -52.50 0.0002749214    1.560    0.359
        13 -11.0696    193.1585    195.3143   8.7147745281e+01   4.5294188507e+00     1.006542    0.5371049 -61.33  0.003453578    4.650    0.785
        14 -10.6166     66.2630    204.5939   1.1556602397e+02   2.3670074350e+01    0.2670789    0.1714946 -52.69 0.0001576487    1.856    0.461
        15 -12.1623     56.7027    198.1398   1.1691999550e+02   2.6264912512e+01    0.8036699    0.2324693 -55.22   0.00308525    3.792    0.736
        16 -10.6370     59.4509    193.5171   1.1586506653e+02   2.6918500599e+01    0.2168159    0.1590691 -87.44 0.0002325052    1.234    0.190
        17  -8.4693     70.7547    200.1234   1.1414907364e+02   2.4014538425e+01    0.1780603     0.141709  78.73 0.0007394415    1.111    0.100
        18 -10.8071    203.5323    198.8602   8.5756609110e+01   2.1323352560e+00    0.3375582    0.1727326  43.01  0.001576048    1.918    0.479
        19 -10.1748     35.6405    197.6431   1.2123658511e+02   2.8826914844e+01    0.1721388    0.1044968  55.63 0.0005720099    1.449    0.310
        20  -9.6067     81.9762    194.7540   1.1109795740e+02   2.3598264743e+01    0.2304609    0.1844107  77.89 0.0005514523    1.158    0.136
        21 -11.5329    149.4503    188.3916   9.5096482426e+01   1.3736473369e+01    0.4020859    0.3590742  77.97  0.001753894    1.270    0.213
        22  -9.6035     58.7828    250.8605   1.2090930115e+02   1.5763124467e+01   0.08428702   0.06393398  44.63            0    1.320    0.242
        23  -9.5122    211.6493    189.6748   8.2435871638e+01   2.2090681813e+00    0.1448334   0.09651672   5.09 0.0007048445    1.756    0.431
        24 -10.6253     95.3629    188.5854   1.0729867095e+02   2.2935051693e+01    0.4679294    0.3122077  82.13  0.001831622    1.779    0.438
        25  -9.6850    238.5038    185.5377   7.6657556915e+01  -1.6769348978e+00    0.1316772    0.1106627  -2.30  0.000281684    1.022    0.022
        26 -11.3701     98.8995    181.6182   1.0547919068e+02   2.3911466720e+01    0.5647106    0.3438987 -51.58  0.001894492    1.738    0.424
        27 -11.6250    144.0190    178.6097   9.4546877742e+01   1.6714124169e+01    0.5613567    0.2937895 -50.82  0.001827176    2.029    0.507
        28 -10.6953    150.3215    178.5339   9.3109194648e+01   1.5553267469e+01     0.423211    0.2613725 -66.38  0.001339858    2.288    0.563
        29 -10.4194    189.0825    177.0664   8.4436708026e+01   8.4807636307e+00     0.502855    0.3706484 -61.21  0.002486093    1.856    0.461
        30 -10.1970     58.8845    229.6588   1.1929751030e+02   1.9606781411e+01    0.1721373    0.1320795  83.96 0.0003569355    1.167    0.143
        31  -9.6267     84.2236    173.7706   1.0777764286e+02   2.7943339096e+01    0.1725153    0.1547652 -49.43 0.0003694932    1.269    0.212
        32  -9.5912     63.5750    172.4583   1.1250649329e+02   3.1122551831e+01    0.3648365    0.1906456  57.06  0.001712463    2.032    0.508
        33  -9.9466     59.0179    176.7442   1.1409616306e+02   3.0719609690e+01    0.1961494    0.1637528 -83.99 0.0004002331    1.074    0.069
        34 -10.7876    139.3738    171.7735   9.4338000936e+01   1.9015120086e+01    0.4294193    0.2411039  49.19  0.001285876    1.811    0.448
        35 -10.5626    240.0439    169.3014   7.3090285419e+01   5.5367027861e-01    0.1867537    0.1617318   9.70 0.0005542797    1.106    0.096
        36 -10.4962    230.5829    167.8703   7.4470834590e+01   2.4225729516e+00    0.3903662    0.1913035 -52.82   0.00141988    3.659    0.727
        37 -11.1061     50.4001    224.7258   1.2049837612e+02   2.1600836529e+01    0.2118508    0.1304234  75.24 0.0007566815    1.457    0.314
        38  -8.9709    187.9998    163.9917   8.1947970115e+01   1.1118195519e+01    0.1807269     0.163858 -20.96 0.0005931411    1.080    0.074
        39 -10.9166    133.9382    145.9594   9.0402074663e+01   2.5734907409e+01     1.321471    0.3389459 -54.83  0.003054369    6.039    0.834
        40 -10.0466    187.9062    151.9824   7.9338161943e+01   1.3434682896e+01    0.2312014    0.2193397  -5.90 0.0006856245    1.018    0.018
        41  -8.7559    139.1971    150.8019   9.0155419712e+01   2.3615701578e+01    0.2053073    0.1793399 -11.35 0.0004497734    1.308    0.235
        42  -9.5624    174.5702    149.2013   8.1582106825e+01   1.6734767398e+01    0.2817571    0.2146207  43.54 0.0008483506    1.317    0.241
        43  -9.6932    109.0273    147.1546   9.6987662534e+01   3.0130260612e+01    0.2481552    0.2097873 -82.94 0.0002483374    1.255    0.203
        44  -9.3526    112.9456    150.7381   9.6694625909e+01   2.8594111835e+01    0.2673373    0.1931083 -75.79  0.001233218    1.617    0.382
        45  -9.7717     87.1749    143.5969   1.0205946182e+02   3.4621643507e+01    0.4104209    0.2430041  77.03  0.001590996    2.760    0.638
        46 -11.0842    107.4544    137.9660   9.5505927174e+01   3.2578196395e+01    0.6688473    0.3762051 -42.83  0.002805165    1.880    0.468
        47 -10.6709    105.9137    130.7236   9.4348099078e+01   3.4570532526e+01    0.3917823    0.3279885 -62.95  0.001228025    1.178    0.151
        48 -11.6613     95.3395    137.4399   9.8659607489e+01   3.4790861479e+01    0.2977518    0.2730736 -58.40 0.0005835216    1.055    0.052
        49  -8.3125    101.4828    132.4991   9.5948779556e+01   3.4930355811e+01    0.1501007     0.140269 -81.54 0.0001427674    1.063    0.059
        50 -10.2917    136.0079    129.2175   8.6038764860e+01   2.9090831933e+01    0.4436196     0.212984 -50.94   0.00158674    2.139    0.533
        51  -9.3350    160.6441    127.6436   7.9635879145e+01   2.4180264471e+01    0.3160686    0.2347249 -87.00   0.00133497    2.032    0.508
        52 -10.6030    120.2285    123.1146   8.8687342688e+01   3.3663094969e+01    0.6044852    0.3483458 -23.68  0.002080469    3.044    0.671
        53 -10.5238    102.2108    124.7313   9.4019114101e+01   3.6652831917e+01    0.3097359    0.2501312 -23.25 0.0006184035    1.461    0.315
        54 -10.6009    114.7378    128.9528   9.1551967607e+01   3.3363878896e+01    0.3353547     0.314763   5.33 0.0007221891    1.164    0.141
        55  -9.2624     64.8911    223.7844   1.1766077406e+02   1.9970473042e+01    0.1468925   0.09816936 -89.71 0.0005517497    1.443    0.307
        56  -9.3571    109.9724    118.1029   9.0274086134e+01   3.6797273981e+01     0.222815    0.2137192 -50.76 0.0003363329    1.001    0.001
        57 -10.0463    231.2763    113.7133   6.2158700240e+01   1.1437106950e+01    0.2693781    0.2636827 -19.79 0.0007734692    1.100    0.091
        58  -9.1527    167.6534    112.4648   7.4136352877e+01   2.5765704638e+01    0.3229658    0.2382405 -69.71    0.0013863    1.799    0.444
        59 -10.1380    134.6204    106.8105   8.0644828709e+01   3.4352755111e+01    0.6716378    0.1450089 -42.05  0.001636802    4.749    0.789
        60 -11.0308    118.4939    110.6680   8.6014828956e+01   3.6854776474e+01    0.6373591     0.440093  71.84  0.002643087    2.137    0.532
        61  -9.4922    205.6306    110.2350   6.5769283408e+01   1.7557564227e+01    0.2684114    0.2433196  33.16 0.0006105652    1.163    0.140
        62 -10.2492     55.2560    222.8509   1.1943034439e+02   2.1373465709e+01    0.1677812    0.1180012  65.76 0.0006308936    1.162    0.139
        63 -11.4794     63.0704    250.4253   1.2013222621e+02   1.5301791909e+01    0.2509009    0.1146897  46.87  0.001459525    1.688    0.407
        64  -8.7522     80.9726    220.4483   1.1418596878e+02   1.8454782749e+01     0.174969    0.1060083  42.02 0.0003138835    1.484    0.326
        65  -9.7217     48.8184    218.3420   1.2029822345e+02   2.3047104347e+01     0.270107    0.1601711  70.86  0.001619746    1.519    0.342
        66  -8.8747    154.9701     82.2597   6.8567379891e+01   3.4694400674e+01    0.2198354    0.2023193  43.68 0.0003393106    1.096    0.088
        67  -8.4017    184.3545     77.2899   6.0982969841e+01   2.8451646431e+01    0.1565311    0.1179786  22.07 0.0007026945    1.678    0.404
        68 -10.1144     56.3875    217.9901   1.1880621695e+02   2.2193749463e+01    0.2767129      0.13816  76.51  0.001232513    2.272    0.560
        69  -9.3565     61.5341    219.8011   1.1796077092e+02   2.1184525215e+01    0.1509904    0.1204697 -46.27 0.0006825297    1.762    0.432
        70 -10.2036     72.0603    245.6660   1.1817119422e+02   1.4976014445e+01     0.348314    0.2133488 -81.74  0.002220792    1.729    0.422
        71 -19.5465     18.5637    145.1796   1.2027898215e+02   4.2332131194e+01     19.23925     4.657827 -75.49    0.0662591    3.882    0.742
        72  -9.5856     56.8459    210.1303   1.1802427647e+02   2.3728593313e+01    0.2804923    0.1415184 -63.08  0.001406414    1.997    0.499
        73  -9.2720    167.9896    231.7774   9.8241466152e+01   2.8648716826e+00    0.1840329    0.1766549   5.66 0.0005116466    1.181    0.153
