#   1 NUMBER                 Running object number                                     
#   2 MAG_AUTO               Kron-like elliptical aperture magnitude                    [mag]
#   3 X_IMAGE                Object position along x                                    [pixel]
#   4 Y_IMAGE                Object position along y                                    [pixel]
#   5 X_WORLD                Barycenter position along world x axis                     [deg]
#   6 Y_WORLD                Barycenter position along world y axis                     [deg]
#   7 A_WORLD                Profile RMS along major axis (world units)                 [deg]
#   8 B_WORLD                Profile RMS along minor axis (world units)                 [deg]
#   9 THETA_WORLD            Position angle (CCW/world-x)                               [deg]
#  10 FWHM_WORLD             FWHM assuming a gaussian core                              [deg]
#  11 ELONGATION             A_IMAGE/B_IMAGE                                           
#  12 ELLIPTICITY            1 - B_IMAGE/A_IMAGE                                       
         1 -13.6375      2.8454    128.3268   1.2109041764e+02   4.7667899108e+01      6.59854     1.127708 -77.60   0.01723703    6.821    0.853
         2 -13.4736     39.8424    197.3258   1.1871053191e+02   2.8370653662e+01     3.551024     1.400518  71.74   0.01337564    3.799    0.737
         3 -11.8253    211.4115     33.9754   4.2867851265e+01   2.8610596477e+01    0.9172537    0.6885635 -58.61  0.004438977    1.247    0.198
         4 -11.0980    218.6676     26.2466   4.0178499431e+01   2.7875213627e+01    0.6007363    0.3988408  41.43  0.001240333    1.992    0.498
         5 -11.6529    230.3967     14.6990   3.6400178541e+01   2.6562243877e+01    0.6789421    0.5550662 -65.13  0.002734469    1.041    0.039
         6 -10.0265      2.0838      4.9589   9.3021710633e+01   7.3871946915e+01    0.5213345    0.1089079 -45.92  0.002209829    3.514    0.715
         7  -7.9383    124.4900      4.5016   4.6699591877e+01   5.3004658409e+01     0.131818    0.1155367  53.59 0.0008105655    1.015    0.015
         8  -8.2181     52.9937    240.4473   1.1955042402e+02   1.8020057290e+01    0.1929556    0.1404658 -64.80 0.0006702433    1.602    0.376
         9 -10.5908     84.0777    249.8356   1.1452825976e+02   1.2281085769e+01    0.6414169    0.1969965  33.71  0.002557017    3.528    0.717
        10 -10.2883     69.1070    247.4688   1.1711274708e+02   1.4697172759e+01    0.5343338    0.2781773  37.79  0.003078218    1.744    0.427
        11 -10.3538     30.9516    248.2548   1.2398210711e+02   1.9129232010e+01    0.4606128    0.2321066  64.95  0.002873752    1.631    0.387
        12  -8.6234     27.4926    250.5144   1.2469476874e+02   1.9097486184e+01    0.2039005     0.107055  42.92  0.001324698    1.623    0.384
        13 -11.3193     21.1817    241.7826   1.2531255740e+02   2.1361402379e+01     0.877636    0.4653671 -64.64  0.005326455    2.110    0.526
        14 -10.7535     26.0911    229.1415   1.2373590331e+02   2.3255396192e+01    0.5781628    0.2541964  55.09  0.002049803    1.846    0.458
        15 -12.7599      9.0050    207.5049   1.2565537720e+02   2.9302634377e+01     1.163636    0.7555317 -79.22  0.004175943    1.351    0.260
        16 -11.5813     10.1953    233.0927   1.2677233382e+02   2.4098012386e+01    0.6563315    0.5359997  89.58  0.004909512    1.281    0.219
        17 -12.3294      3.3604    244.3295   1.2841771417e+02   2.2658388405e+01     1.369314    0.7317352  88.81  0.009051042    1.546    0.353
        18 -10.2983      4.7276    229.2396   1.2753715563e+02   2.5352667415e+01    0.3641168     0.272079 -81.23  0.001633558    1.349    0.259
        19 -10.3194     40.9774    235.7493   1.2143269174e+02   2.0334314679e+01    0.2418922    0.1670656  76.51 0.0005272818    1.201    0.168
        20  -9.2550     37.9551    230.7743   1.2165556890e+02   2.1639998490e+01    0.2062407    0.1340795  86.50  0.000418936    1.353    0.261
        21  -8.4733     61.5593    235.3409   1.1754711508e+02   1.7920857972e+01    0.2049702    0.1481798  62.56 0.0006269428    1.119    0.106
        22 -12.0114    128.9938    230.3074   1.0355071659e+02   9.1339434262e+00     1.303283    0.3102476  38.61  0.004487561    3.546    0.718
        23 -11.3312     19.1140    219.8606   1.2446813971e+02   2.5812711181e+01    0.4613153    0.4000825  54.65  0.001668744    1.323    0.244
        24 -10.3734     88.3870    227.5568   1.1153024471e+02   1.5800173581e+01    0.4173914    0.2442527  87.26  0.002142672    2.184    0.542
        25  -8.0355     48.7351    225.3626   1.1921626754e+02   2.1454463426e+01     0.161911    0.1212921  72.05 0.0006632067    1.085    0.079
        26 -10.1492     29.9867    218.5667   1.2233505245e+02   2.4950331813e+01    0.3128896    0.2163104  75.95  0.001424432    1.164    0.141
        27  -7.5287     93.5634    220.4814   1.0968632022e+02   1.6439315915e+01    0.1259921    0.1100426  59.63 6.380082e-05    1.038    0.036
        28 -10.1477     83.7939    227.4801   1.1245281371e+02   1.6465929257e+01    0.3367032    0.2616922 -63.04   0.00187538    1.447    0.309
        29 -11.7734      3.9503    184.1332   1.2526636940e+02   3.4732283636e+01    0.7650499     0.415983  82.44  0.004546377    1.539    0.350
        30  -9.9775     60.6694    249.3789   1.1880451526e+02   1.5429886670e+01     0.480966     0.270674  51.95  0.001865705    1.395    0.283
        31 -11.4656     30.5238    208.5196   1.2152572942e+02   2.6973956716e+01    0.5230172     0.384167 -29.18   0.00109137    2.401    0.584
        32  -8.2165     40.5412    247.4619   1.2226850299e+02   1.8196800936e+01    0.1119219   0.08247302  65.54 -1.092215e-05    1.006    0.006
        33 -10.1567     58.9253    180.5855   1.1272212088e+02   2.9895264337e+01    0.4047437    0.2574182 -41.79  0.002050593    2.094    0.522
        34 -10.0866     64.6222    174.7162   1.1063423457e+02   3.0535404088e+01    0.3053591    0.2377925 -47.41  0.001006515    1.476    0.322
        35  -9.8084     23.9968    202.8292   1.2242516534e+02   2.8854663499e+01    0.2685103    0.2182682 -43.13  0.001591482    1.765    0.434
        36  -8.1945     96.8139    172.0261   1.0231443332e+02   2.6470498827e+01    0.2310587    0.1560208 -35.56    0.0010778    1.919    0.479
        37  -9.3658     32.6136    168.4488   1.1761852321e+02   3.5721556630e+01     0.331224    0.1616974 -66.95  0.001671859    1.756    0.430
        38  -9.4281     29.6710    166.4500   1.1811799335e+02   3.6482611654e+01    0.2716595    0.1529923 -80.32  0.001383231    1.548    0.354
        39 -11.3940     81.1112    158.5046   1.0409899534e+02   3.2116987583e+01    0.9529609    0.7772862  66.60  0.002548577    1.241    0.194
        40 -11.8266     68.3063    144.5411   1.0520651002e+02   3.7352976632e+01     1.005997    0.6146058  73.92  0.003581378    2.206    0.547
        41  -9.9347     74.4877    164.6610   1.0677583947e+02   3.1588405224e+01    0.3479004    0.2563251 -85.81 0.0004891253    1.374    0.272
        42  -8.1539    134.0000    147.0119   8.8102262908e+01   2.5633068269e+01    0.2590914   0.08688326 -49.11 0.0008068685    2.973    0.664
        43  -9.3447     96.6821    143.8568   9.7270973870e+01   3.3225393827e+01    0.3394206    0.2637951 -50.75  0.001151143    1.256    0.204
        44  -8.3207     99.6399    140.6736   9.5815730675e+01   3.3497577401e+01    0.3224604    0.1877022 -23.49  0.001106426    3.343    0.701
        45 -10.4848     84.7302    142.4363   1.0028179344e+02   3.5493318296e+01    0.3234381    0.2696053 -38.27   0.00045759    1.305    0.234
        46  -9.6839     73.8419    135.2089   1.0197845273e+02   3.8891566964e+01    0.4073109    0.2191806  62.17  0.001565457    2.780    0.640
        47  -9.2915    107.5131    131.4829   9.1649212315e+01   3.4322635927e+01    0.4677418     0.322262  43.50   0.00216325    1.497    0.332
        48 -11.7179     61.5453    161.2178   1.0958115985e+02   3.4159292419e+01    0.5113654    0.2910511 -45.03  0.001411291    2.055    0.513
        49  -9.4667     20.3771    194.5465   1.2257287904e+02   3.0997725368e+01    0.2196518    0.1547595  83.87  0.001281404    1.141    0.123
        50  -8.9740     95.9016    128.1297   9.4174049156e+01   3.7177478884e+01    0.3365232      0.25533 -24.35  0.001599111    1.615    0.381
        51  -9.1909     22.2893    208.5990   1.2315859473e+02   2.7805973149e+01    0.2146029    0.1373977  70.48 0.0006715418    1.282    0.220
        52  -8.9105    114.9527    125.5277   8.8194868132e+01   3.4345519553e+01     0.235136    0.1538557  38.60 0.0006563619    1.585    0.369
        53  -7.8083    106.1373    120.2084   8.9388151139e+01   3.7260087988e+01    0.1961012    0.1744691  80.53 0.0002652933    1.260    0.206
        54  -8.3829    167.7865    112.8461   7.1569850416e+01   2.5869511938e+01    0.2938817    0.2120182  82.47  0.001217863    2.068    0.516
        55  -8.2383    205.5406    110.4865   6.3270397866e+01   1.7820822201e+01    0.1497907    0.1394682 -35.48 7.006602e-05    1.007    0.007
        56  -8.7531    133.3166    104.5448   7.7747627494e+01   3.5341496461e+01    0.3642914    0.2386083  -9.29  0.001344372    2.578    0.612
        57 -10.3794     12.7498     59.4422   1.0662357203e+02   6.3028241382e+01    0.4231161    0.2584297  87.49  0.002086751    2.815    0.645
        58  -7.9334     39.8019     58.5697   9.5022083751e+01   6.0965100304e+01    0.1634149    0.1189677  37.32 0.0009362152    1.670    0.401
        59 -10.5429    195.8665     49.6438   4.8979392061e+01   3.0227265849e+01    0.3352007    0.2716255   6.50   0.00176277    1.618    0.382
        60 -10.7025      2.0508     43.4227   1.0718748751e+02   6.6940793048e+01     0.865392   0.03703948 -61.64  0.001988592    9.905    0.899
        61 -11.9189    203.3171     38.7213   4.5064544610e+01   2.9921616142e+01    0.7580329     0.557893  64.98  0.002893293    1.337    0.252
        62 -10.2998     81.7823    244.9822   1.1452675549e+02   1.3459164999e+01    0.3045541    0.2268671   7.09  0.001798599    2.302    0.566
        63  -9.1074    119.0094    241.9671   1.0699376179e+02   8.6224862086e+00    0.1841052    0.1472627   4.65  0.000923914    1.708    0.415
        64  -8.6763    135.3109     42.1142   5.7704512421e+01   4.6234869817e+01    0.2612582    0.2034898  65.56 0.0004318684    1.325    0.245
        65  -9.0170    114.4801    242.0321   1.0789399479e+02   9.2929557613e+00     0.161855    0.1215226 -65.79 0.0007430114    1.560    0.359
        66  -8.6970      2.4703     19.4977   9.9143649347e+01   7.1448141162e+01    0.1160474   0.08248739 -30.80 1.428294e-05    1.028    0.027
        67  -8.2148     13.6647     18.7184   9.2669471110e+01   7.0795325481e+01    0.1209446   0.06826426 -20.02 0.0007007578    1.617    0.382
        68  -7.7408    189.3394     15.3081   4.0588888264e+01   3.6091083299e+01    0.1347059   0.09398825  41.90 0.0007043217    1.684    0.406
        69 -10.4469     91.0814    241.6330   1.1242815036e+02   1.2775107904e+01    0.3741093    0.1793338  36.46  0.001935002    1.897    0.473
