#   1 NUMBER                 Running object number                                     
#   2 MAG_AUTO               Kron-like elliptical aperture magnitude                    [mag]
#   3 X_IMAGE                Object position along x                                    [pixel]
#   4 Y_IMAGE                Object position along y                                    [pixel]
#   5 X_WORLD                Barycenter position along world x axis                     [deg]
#   6 Y_WORLD                Barycenter position along world y axis                     [deg]
#   7 A_WORLD                Profile RMS along major axis (world units)                 [deg]
#   8 B_WORLD                Profile RMS along minor axis (world units)                 [deg]
#   9 THETA_WORLD            Position angle (CCW/world-x)                               [deg]
#  10 FWHM_WORLD             FWHM assuming a gaussian core                              [deg]
#  11 ELONGATION             A_IMAGE/B_IMAGE                                           
#  12 ELLIPTICITY            1 - B_IMAGE/A_IMAGE                                       
         1 -12.9395      8.8837     25.2437   4.8204178627e+01   7.4431736628e+01    0.8849165    0.2487878 -59.10  0.003199926    3.634    0.725
         2 -11.6828      1.4609     38.6804   5.9211232417e+01   7.2014578496e+01     0.511453    0.1268645 -69.74  0.001668312    4.148    0.759
         3 -11.9002      1.6298     20.3284   5.2254684683e+01   7.6060908684e+01    0.5328482    0.1288552 -57.64   0.00200063    3.388    0.705
         4 -11.8889    249.7906     16.6943   3.4675939930e+02   2.5131371249e+01    0.3271337    0.1165757 -38.58  0.001511272    1.915    0.478
         5 -13.4715    242.7753     14.4711   3.4663842142e+02   2.6548910683e+01     0.694596    0.4217514 -10.99  0.003947079    2.927    0.658
         6 -12.6475    248.1626      3.4606   3.4426516491e+02   2.6763379490e+01    0.4779052     0.296513 -57.05  0.003536483    1.154    0.133
         7 -12.1828     23.2213     13.0140   2.9801899172e+01   7.4876138536e+01    0.4127266    0.2812274 -13.97  0.002268124    1.679    0.405
         8 -11.6794      2.2061      3.7236   4.1989112784e+01   7.9196762419e+01    0.4180472    0.3231119  -9.16  0.002738972    1.153    0.132
         9 -12.0440      3.5100     10.2243   4.5004059336e+01   7.7895440649e+01    0.3993907    0.2483333 -18.71  0.001928825    1.664    0.399
        10 -12.5691      9.0268      7.2544   3.7621602993e+01   7.7817549520e+01    0.4948231    0.2393789 -37.88  0.002484449    2.059    0.514
        11 -11.7019     16.4694      7.8370   3.1446656951e+01   7.6718034836e+01    0.2738387    0.1915182 -19.05  0.001453744    1.488    0.328
        12 -10.6297    211.4326      8.2521   3.4684704481e+02   3.2940001813e+01    0.1642093   0.07866213 -44.32 0.0006934044    1.567    0.362
        13 -10.6553     27.9553      2.7352   1.9197507404e+01   7.5512743180e+01    0.2959567     0.193889  11.02  0.001594812    1.837    0.456
        14 -10.1638     19.8659      1.8899   2.4194363533e+01   7.7048016429e+01    0.1980776    0.1500297  12.80   0.00122236    1.280    0.219
        15 -10.0282     35.5816     15.6409   2.3416019320e+01   7.2362290913e+01     0.248927    0.1166938 -22.61 0.0009596441    3.307    0.698
        16 -14.2056    234.4953    244.0865   2.9729529326e+01  -3.3407065401e+00     1.611781    0.8103383  12.31   0.01079135    1.841    0.457
        17 -11.6781    248.6932    249.8692   2.8418107240e+01  -5.1473838168e+00    0.3032447    0.1791521  -7.94  0.001724583    1.257    0.205
        18 -12.6967    249.0956    240.4158   2.7049143332e+01  -4.1187889100e+00    0.6726966    0.1808088 -37.71  0.003481037    3.158    0.683
        19 -13.2698    241.9074    237.5017   2.7687267612e+01  -3.1894986123e+00    0.7006801    0.4187302 -31.89  0.004388818    1.489    0.328
        20 -10.7524    124.4080    250.1475   5.0637406128e+01   6.8168040896e+00    0.2762425    0.1222214  13.23  0.001230485    2.746    0.636
        21 -11.1188     65.2664    249.0674   6.3422658762e+01   1.3436459446e+01    0.4028418    0.1840304  34.39  0.002125992    1.677    0.404
        22 -10.4754     51.1155    249.9360   6.6634590212e+01   1.4719458136e+01    0.3209785    0.1109952  35.14  0.001531028    2.069    0.517
        23  -9.8130     27.5783    250.3097   7.1852432584e+01   1.6896439546e+01    0.2599919   0.08382209  37.16  0.001253483    2.104    0.525
        24 -11.1746     21.2371    248.8903   7.3179315229e+01   1.7734871728e+01    0.3782112    0.1856983  40.93  0.002179835    1.514    0.339
        25 -10.0040      1.3877    234.2987   7.7083694607e+01   2.2283082593e+01    0.2548062    0.1042184 -82.88  0.001282495    2.549    0.608
        26 -10.7928     10.1495    248.1581   7.5561901614e+01   1.8828107198e+01     0.466696   0.09837056  44.43   0.00202662    2.802    0.643
        27 -12.0726      4.1516    242.8108   7.6705841784e+01   2.0358861250e+01    0.6145249    0.2736253  69.54  0.003306916    2.130    0.531
        28 -11.6076    108.5392    241.0045   5.3047877569e+01   1.0134682132e+01    0.2879027    0.1984871  61.54  0.001661457    2.003    0.501
        29 -11.5186     17.3136    239.6937   7.3686364288e+01   1.9874507102e+01    0.6504073    0.1999688  40.98  0.003056397    2.222    0.550
        30 -11.3981     82.8328    238.9501   5.8615890924e+01   1.3419487123e+01    0.4620744    0.1503625  33.78   0.00200906    2.334    0.572
        31 -10.7153    124.8103    239.6146   4.9354329995e+01   8.5094323652e+00    0.1828227   0.09157402  34.58 0.0009581072    1.746    0.427
        32 -10.5893     45.4761    237.3813   6.7123737336e+01   1.7700819151e+01    0.3723731    0.1846741  62.45   0.00186649    2.219    0.549
        33 -10.9549     90.4877    247.8508   5.7714760242e+01   1.0951511878e+01    0.2752428    0.1963723  67.27  0.001470955    1.812    0.448
        34 -10.6757      6.8740    235.0316   7.5872228641e+01   2.1694379374e+01    0.2936767    0.1623844  56.28  0.001348796    1.491    0.329
        35 -10.7968     32.5607    232.4088   6.9842881282e+01   1.9966139578e+01    0.4263128    0.2067439  64.76  0.002136755    2.165    0.538
        36 -10.3474     40.4188    231.0294   6.7910118939e+01   1.9489538913e+01    0.3591581    0.1874042 -83.14  0.001870469    2.203    0.546
        37 -10.9434     22.5503    229.7201   7.2056171287e+01   2.1447321799e+01    0.4084584    0.2344579  49.32  0.002343149    1.432    0.302
        38 -10.7055     63.1093    229.8952   6.2430539084e+01   1.7363915056e+01    0.4113425    0.1586475  61.17  0.001408972    4.597    0.782
        39 -10.0518     48.3068    229.8411   6.5956838877e+01   1.8940051194e+01    0.2030555    0.1355733  60.64   0.00097568    1.477    0.323
        40 -11.0843      5.8879    227.5562   7.5858385933e+01   2.3321167342e+01     0.393541    0.2060647  78.75  0.002171013    1.869    0.465
        41 -10.3551     95.9100    228.3988   5.4545094454e+01   1.3918278327e+01    0.2824309    0.1409144  46.25   0.00135272    2.089    0.521
        42 -10.4864     12.5519    227.1666   7.4292487909e+01   2.2853935658e+01    0.2809752    0.1552452  63.48  0.001221364    1.632    0.387
        43  -9.5641     33.6267    224.2785   6.9127717553e+01   2.1566013096e+01    0.1397784    0.0709046  49.37 0.0003599422    1.696    0.410
        44 -10.5432     44.2844    221.4519   6.6344672700e+01   2.1114353916e+01     0.320794    0.1799878  54.00  0.001677663    1.675    0.403
        45 -11.5523     15.5588    218.7186   7.3226943302e+01   2.4413784030e+01     0.797996    0.1499436  49.22  0.002760024    3.895    0.743
        46 -11.2285      2.2809    220.2732   7.6472190365e+01   2.5160637894e+01    0.3381314    0.1895152  78.31   0.00190542    1.690    0.408
        47  -9.4688     70.6632    221.3262   5.9854604125e+01   1.8280854907e+01    0.1398128   0.08331125  53.08 0.0003843369    1.723    0.419
        48  -9.8196     63.7815    221.1640   6.1525977318e+01   1.9091015012e+01    0.2337997   0.09955946  55.38 0.0009464013    2.844    0.648
        49 -12.7128    242.9624    245.9760   2.8720840950e+01  -4.2580805459e+00    0.6294124    0.3012293 -16.99   0.00370831    1.825    0.452
        50  -9.6769     77.3318    217.6515   5.7859674820e+01   1.8274039093e+01    0.1412231   0.08646621  54.92 0.0007048702    1.768    0.435
        51 -10.4232     34.9901    215.2129   6.8232664237e+01   2.3404244713e+01    0.4291523   0.07697041  41.69  0.001463249    3.584    0.721
        52 -11.7590    248.6150    213.4046   2.3153977047e+01  -8.4578307226e-01    0.3163439    0.1618121 -31.06  0.002116648    1.500    0.333
        53 -10.5994     25.8330    210.7126   7.0269275897e+01   2.5282468964e+01    0.3452207     0.196257  83.85  0.001788648    1.839    0.456
        54 -11.2012      3.2280    212.6460   7.5997969927e+01   2.6763936570e+01    0.3797485    0.2555082  54.07  0.002309555    1.216    0.178
        55 -10.2027     45.9906    212.4897   6.5259529483e+01   2.2897070071e+01    0.2827969    0.1070222  59.23  0.001035946    3.380    0.704
        56 -10.6330     39.0009    205.3756   6.6525559140e+01   2.5228561422e+01     0.365883     0.168981  64.75  0.001557653    2.496    0.599
        57 -11.5001     13.1896    204.3061   7.3165497644e+01   2.7861693837e+01    0.5355092    0.2515109  55.41   0.00254983    1.874    0.466
        58 -10.5263      2.3206    205.9033   7.5992280542e+01   2.8358267562e+01     0.296436    0.1879169  71.51  0.001225576    1.412    0.292
        59 -10.4783     29.9646    201.2324   6.8611652592e+01   2.7081356278e+01    0.2893799    0.1842139  64.62  0.001473138    1.507    0.336
        60 -10.1532    250.3213    200.1338   2.0848878769e+01   6.8255577312e-01    0.2203951   0.06955494 -32.59  0.001090285    2.567    0.611
        61 -10.2495    243.6617    199.8347   2.1741526288e+01   1.3690263668e+00    0.2307137   0.07225281 -32.83  0.001106999    2.658    0.624
        62  -9.6406     45.5581    199.7961   6.4349929482e+01   2.5845253733e+01    0.1883687    0.1207946  81.61 0.0009512678    1.706    0.414
        63 -12.0236      5.7604    195.5162   7.4711278503e+01   3.0523427479e+01    0.5664665    0.3123159  64.76  0.002935444    1.632    0.387
        64 -12.0351      3.5447    188.3197   7.5004332552e+01   3.2425188534e+01    0.3834698    0.3381442  72.39  0.002188409    1.074    0.069
        65 -11.8082     19.3497    194.5661   7.1034391069e+01   2.9637391829e+01    0.8283013     0.266451  58.83  0.002968473    3.353    0.702
        66 -10.2205    237.3155    195.9039   2.2029576686e+01   2.5383897747e+00    0.2955759   0.06814998 -33.31  0.001093162    4.316    0.768
        67 -11.0645     28.2585    187.3500   6.8111441055e+01   3.0589126292e+01    0.3892467    0.1372437  51.23  0.001472384    2.731    0.634
        68  -9.9554     40.0018    183.8011   6.4494990550e+01   3.0302983719e+01    0.2167181     0.138741  69.07  0.001059893    1.616    0.381
        69 -10.7634     16.1298    182.1583   7.1192938778e+01   3.2961635910e+01    0.4150266    0.2038858  66.13  0.001864268    2.023    0.506
        70 -12.8934      6.8267    174.2040   7.3424038584e+01   3.5706264660e+01    0.9236997    0.3867734  85.75  0.003840307    2.392    0.582
        71 -10.9292      2.3225    165.6303   7.4324439002e+01   3.8231917279e+01     0.371097    0.2415869  58.13  0.001969968    1.378    0.274
        72 -10.9423     31.0045    172.7810   6.6158518032e+01   3.4009763550e+01    0.6071763    0.1938388 -86.27  0.001838472    4.294    0.767
        73 -11.4337     19.2572    172.3296   6.9640798327e+01   3.5199082859e+01    0.5871012    0.2962156  73.14  0.002568391    2.070    0.517
        74  -9.8730     41.3270    172.6615   6.3048636518e+01   3.2986755420e+01    0.1579088   0.09311063  58.22 0.0007051651    1.729    0.422
        75 -12.0288      9.9563    166.4029   7.2055170714e+01   3.7486947744e+01    0.3485687    0.2313605 -85.10  0.001800806    1.410    0.291
        76 -12.6096      8.9702    151.2066   7.1387632289e+01   4.1593182625e+01     1.006284    0.3240448  56.16  0.003409488    3.340    0.701
        77 -10.3470     35.4499    147.7476   6.2211690787e+01   4.0229132923e+01    0.2901693    0.1411697 -80.24    0.0011487    2.140    0.533
        78 -11.3556     20.5697    141.8841   6.6689747700e+01   4.3236021415e+01    0.5088868    0.2473363 -89.05  0.002062479    2.142    0.533
        79 -11.8897     10.0254    137.2157   6.9978951553e+01   4.5332800152e+01    0.6937937    0.2736099 -74.36   0.00272847    2.256    0.557
        80 -10.5944     33.0000    134.5092   6.1431166459e+01   4.4122870740e+01    0.4352162   0.08043779 -71.56  0.001075831    5.159    0.806
        81 -11.7475      5.6793    125.3830   7.0590854176e+01   4.8885766491e+01     0.683964    0.3598772  72.20  0.002972935    1.968    0.492
        82 -11.3408     22.2290    122.1953   6.3896096514e+01   4.8563205377e+01    0.4666103     0.203091 -84.63  0.001714187    2.504    0.601
        83  -9.1591     93.3271    118.2768   3.7349870902e+01   3.9753959176e+01    0.1542244    0.1231072 -12.09 0.0003192189    1.590    0.371
        84 -11.5240      9.9762    112.6651   6.7677435997e+01   5.2149947839e+01    0.7565528    0.3324118  80.39  0.002787833    2.712    0.631
        85 -10.3831     21.5090    106.0030   6.1962093624e+01   5.3138725060e+01     0.218893    0.1115328  74.93 0.0008105184    2.573    0.611
        86 -11.2783     13.8869     99.5591   6.4363679476e+01   5.5520545197e+01    0.5336419    0.2143397 -76.36  0.002009814    2.375    0.579
        87 -11.7343      2.8063     95.4690   6.8874715372e+01   5.7320205586e+01    0.7003809    0.2927439 -86.63  0.002710614    2.434    0.589
        88 -10.7882     32.8312     95.6557   5.5152861603e+01   5.4887744932e+01    0.3339443    0.1667549  83.22  0.001087327    3.461    0.711
        89 -11.9188     16.6960     86.0496   6.0877268324e+01   5.9003142106e+01    0.6576264    0.1292208 -62.29  0.002014662    3.497    0.714
        90 -10.6233      4.5445     82.1612   6.6323446921e+01   6.0846995268e+01    0.3675078   0.06998932 -64.05  0.001153773    3.441    0.709
        91 -11.4247     11.0870     69.4854   6.0603988943e+01   6.3805237768e+01    0.4587915    0.1240373 -56.34  0.001616211    2.806    0.644
        92 -10.7727     24.0295     68.4815   5.3188454315e+01   6.2960739904e+01    0.3257753    0.1216262 -37.11   0.00104482    3.570    0.720
        93  -9.5826    221.8287     63.4106   3.5836839386e+02   2.4302791587e+01    0.1360144    0.1133643  55.54 0.0003212633    1.543    0.352
        94  -9.9910    231.7168     58.4258   3.5640405780e+02   2.3237780022e+01    0.1355781    0.1102013  59.96  0.000946017    1.589    0.371
        95 -11.3662     16.4884     53.0920   5.3225900628e+01   6.7486370492e+01     0.665737    0.2488638 -67.57  0.002471686    2.896    0.655
        96 -11.8852      3.0494     51.1771   6.1416521135e+01   6.8932502646e+01    0.6667448    0.2703461 -59.81  0.002904777    2.044    0.511
        97 -12.4189     12.0706     39.9615   5.1819758010e+01   7.0949545306e+01    0.7933289    0.3409485 -59.40  0.003475109    2.172    0.540
        98 -10.5956    152.1771    249.3143   4.4885626457e+01   3.9265208362e+00    0.2404556    0.0902999  20.20  0.001089215    2.662    0.624
        99 -10.6767     24.0016     43.0246   4.4889204165e+01   6.9017846090e+01    0.2340402    0.1519303 -23.98  0.001144623    1.732    0.423
       100  -9.8874    216.1773     41.4294   3.5399902635e+02   2.8240086660e+01    0.1565707    0.1004048 -79.67 0.0005983286    1.619    0.382
       101 -12.0200     99.6037    245.9934   5.5528642702e+01   1.0269388166e+01    0.5321615    0.3153699  66.64  0.002682701    2.813    0.644
       102 -10.3249    249.3286     29.3253   3.4924905197e+02   2.3821833805e+01   0.09261625    0.0823255  -3.91 0.0002444235    1.700    0.412
       103 -11.3118     21.7439     24.5412   3.7820286039e+01   7.3088214642e+01    0.2871157    0.1390934 -37.08  0.001298841    2.175    0.540
       104 -11.1012     76.8602    248.0781   6.0759269276e+01   1.2390612102e+01    0.3713396    0.1912319  41.82  0.002029663    1.670    0.401
       105 -10.9289     34.9020    247.9218   7.0124688015e+01   1.6672438457e+01    0.3733504    0.1491567  45.40  0.001367878    1.962    0.490
       106 -10.9602    144.5192    247.9906   4.6252622350e+01   4.9525144785e+00     0.196953    0.1311302  20.67  0.001266331    1.233    0.189
       107 -10.3521     57.7183    247.0492   6.4969148169e+01   1.4591107820e+01    0.2590681    0.1312687  50.89  0.001195827    1.872    0.466
       108 -10.9391     54.3455    240.7090   6.5297653204e+01   1.6146788791e+01    0.4366391    0.2190255  73.16  0.002104576    2.704    0.630
       109 -10.6473     83.8755    246.8052   5.9087315984e+01   1.1861499676e+01    0.2909217    0.1251605  33.82  0.001461897    1.815    0.449
       110 -10.7410     45.5476    244.6181   6.7555657596e+01   1.6278239565e+01    0.3564106    0.1573912  36.88  0.001858767    1.712    0.416
       111 -13.1008    247.2901    226.4251   2.5296375956e+01  -2.3275203321e+00    0.7018222    0.4242555 -18.20  0.005202816    1.221    0.181
       112 -11.0329     72.6696    241.3878   6.1150830162e+01   1.4079290072e+01    0.3415158     0.201936  71.35  0.001803238    2.295    0.564
       113 -10.6907     62.3568    241.4152   6.3511330195e+01   1.5176607435e+01     0.352665    0.1668181  46.04  0.001680917    1.883    0.469
       114 -10.7273     38.3149    241.4051   6.9009974775e+01   1.7608337882e+01    0.3414844    0.1622345  58.97  0.001746225    2.118    0.528
       115 -10.7566     29.3720    241.8506   7.1062329811e+01   1.8365035861e+01    0.4197406    0.1401802  40.90  0.001987233    2.143    0.533
