#   1 NUMBER                 Running object number                                     
#   2 MAG_AUTO               Kron-like elliptical aperture magnitude                    [mag]
#   3 X_IMAGE                Object position along x                                    [pixel]
#   4 Y_IMAGE                Object position along y                                    [pixel]
#   5 X_WORLD                Barycenter position along world x axis                     [deg]
#   6 Y_WORLD                Barycenter position along world y axis                     [deg]
#   7 A_WORLD                Profile RMS along major axis (world units)                 [deg]
#   8 B_WORLD                Profile RMS along minor axis (world units)                 [deg]
#   9 THETA_WORLD            Position angle (CCW/world-x)                               [deg]
#  10 FWHM_WORLD             FWHM assuming a gaussian core                              [deg]
#  11 ELONGATION             A_IMAGE/B_IMAGE                                           
#  12 ELLIPTICITY            1 - B_IMAGE/A_IMAGE                                       
         1 -10.8877    119.7247      9.8171   7.3293131586e+01   5.2332798603e+01    0.5558516    0.3204049  40.78  0.002889293    1.561    0.359
         2 -10.5091    174.1888      7.1611   6.3637560320e+01   3.9912619169e+01    0.2794429    0.1799457 -39.55 0.0009837233    1.728    0.421
         3 -12.1752    176.9082      3.5130   6.2383365776e+01   3.9601870921e+01     1.123234    0.5033945 -77.85  0.004101013    4.006    0.750
         4 -11.0122    190.9046      4.1401   6.0906488857e+01   3.6244393984e+01    0.3976429    0.1920515 -87.42   0.00177584    2.473    0.596
         5  -9.7190    166.2778    247.9352   1.2020978208e+02  -5.2804529447e-01    0.4242586    0.1710761  37.18  0.001475256    2.187    0.543
         6  -9.7436    248.6688    250.1961   1.0504311668e+02  -1.3841074801e+01    0.3146462    0.1392204  34.93  0.001659373    1.997    0.499
         7 -19.1492    154.2863    152.0856   1.0528517041e+02   2.0460866485e+01     7.699313     6.671891 -72.85   0.01946247    1.282    0.220
         8  -9.9117     81.3645    162.3136   1.2543076016e+02   3.1748766059e+01    0.4991855    0.3174125 -37.26  0.002318574    2.007    0.502
         9 -11.4682    120.1375    248.8882   1.2938633436e+02   7.0889981785e+00    0.6562732    0.2528003  46.48  0.002531686    2.162    0.537
        10 -11.7226    111.9955    245.2975   1.3053517127e+02   9.0635318606e+00    0.4906828     0.322012  48.55  0.002195509    1.270    0.213
        11 -10.1992    232.7586     79.7615   7.2974942366e+01   1.6591970931e+01    0.2915363    0.2329037  89.42 0.0009984669    1.284    0.221
        12 -11.9534    250.0402    233.5773   1.0193343307e+02  -1.1898938265e+01    0.2104808    0.1650019 -18.32 0.0004323365    1.218    0.179
        13  -8.2125     16.5577    233.4570   1.4710261032e+02   2.4366301186e+01    0.1098574   0.08268231  80.00 9.569423e-05    1.053    0.050
        14 -13.4204     67.1231    144.1407   1.2592383363e+02   3.8093358277e+01    0.6605248    0.4017266  62.27  0.001115681    2.121    0.528
        15  -9.3631     84.9729    147.1905   1.2175607990e+02   3.4747118903e+01    0.2721269     0.245892  44.98  0.001553366    1.162    0.140
        16 -10.5643    236.7827     69.9581   7.0266005201e+01   1.7251102315e+01    0.2569993    0.2327601  77.78  0.000577781    1.141    0.124
        17 -11.9836    234.8118     66.5912   6.9783728419e+01   1.8199620982e+01     1.076671    0.4531721 -60.51  0.003567446    3.636    0.725
        18  -8.9185      2.5066    212.9474   1.4820534760e+02   2.9841084455e+01    0.1638161   0.08518317 -78.78 0.0006408598    1.546    0.353
        19 -11.1862    144.0766     59.4396   8.3430446970e+01   4.0839022749e+01    0.3599128    0.3376765  70.78  0.001212469    1.096    0.087
        20 -10.4935    228.0703    192.8293   9.8327873112e+01  -2.2599578413e+00    0.2400372    0.1919982 -40.98 0.0004418334    1.338    0.253
        21 -11.8175     33.0261    193.1964   1.4072189377e+02   3.0953987576e+01    0.4064837    0.3512456  87.93  0.002848444    1.115    0.103
        22 -10.3135    170.8272     57.5303   7.7465534437e+01   3.4699258147e+01     0.483335    0.1777567  63.90  0.001626666    3.051    0.672
        23 -10.5957     52.6836    129.7033   1.2723514455e+02   4.3309999593e+01    0.5467538    0.1806907 -53.09  0.002136479    2.530    0.605
        24 -11.4596    109.3746    234.0928   1.2967465255e+02   1.1591652698e+01     0.626973    0.2168351  49.83  0.002463384    2.726    0.633
        25  -8.2824     43.2989     54.2703   1.1186194033e+02   6.0036648312e+01    0.1224494   0.08069438 -14.68 0.0002827012    1.525    0.344
        26 -11.9324    149.6689     48.6494   7.9083904341e+01   4.1076230599e+01    0.7178845    0.4764633  15.66  0.003264228    2.196    0.545
        27  -9.8722     52.2243    190.3977   1.3632290453e+02   2.9313352976e+01    0.4013836    0.1163402 -58.37  0.001518517    3.059    0.673
        28 -10.5481     11.3737    206.6939   1.4615628713e+02   3.0291793134e+01    0.2592816    0.1914464  47.78  0.001850829    1.438    0.305
        29  -9.9861     51.3872    183.4108   1.3566749596e+02   3.0994863539e+01    0.2758161    0.1983613  29.75  0.001246703    1.685    0.406
        30 -11.1223    133.9597     42.2337   8.0505677067e+01   4.5613526157e+01    0.4081184    0.2721051  55.76 0.0008369792    1.376    0.273
        31 -10.1625    221.1830     40.0529   6.5610140018e+01   2.5064577557e+01    0.3351685    0.2121873 -73.95  0.001107967    1.672    0.402
        32  -9.4839     45.3919    114.2873   1.2638808799e+02   4.7657877231e+01    0.3049675    0.2144283  64.29  0.001642553    1.890    0.471
        33  -9.7272    102.1160    203.3223   1.2702584005e+02   1.9088049706e+01    0.4949351    0.2655504 -77.88  0.002042577    2.645    0.622
        34 -11.9054      4.6695    174.0868   1.4484845638e+02   3.7861609139e+01    0.6264686    0.3874832 -39.98  0.003739723    2.266    0.559
        35  -8.9949    229.2831     21.3546   6.0704830575e+01   2.5567082165e+01    0.2445506    0.1438833 -47.18  0.001090482    1.614    0.380
        36  -8.8356    171.0442    246.5450   1.1906679475e+02  -1.1173151834e+00    0.1994869    0.1084609  40.66 0.0004686847    1.543    0.352
        37 -11.1794    103.1770    230.2593   1.3044545371e+02   1.3347208842e+01     0.587567    0.2789359  47.74  0.001772646    1.833    0.454
        38 -11.8236    102.6855    242.0192   1.3196402276e+02   1.1165919883e+01     0.544523     0.464671 -17.48  0.002706388    1.809    0.447
        39 -11.4200     91.2509    246.8812   1.3470671643e+02   1.2037370294e+01     0.547362    0.2495759  61.47   0.00248313    2.508    0.601
