#   1 NUMBER                 Running object number                                     
#   2 MAG_AUTO               Kron-like elliptical aperture magnitude                    [mag]
#   3 X_IMAGE                Object position along x                                    [pixel]
#   4 Y_IMAGE                Object position along y                                    [pixel]
#   5 X_WORLD                Barycenter position along world x axis                     [deg]
#   6 Y_WORLD                Barycenter position along world y axis                     [deg]
#   7 A_WORLD                Profile RMS along major axis (world units)                 [deg]
#   8 B_WORLD                Profile RMS along minor axis (world units)                 [deg]
#   9 THETA_WORLD            Position angle (CCW/world-x)                               [deg]
#  10 FWHM_WORLD             FWHM assuming a gaussian core                              [deg]
#  11 ELONGATION             A_IMAGE/B_IMAGE                                           
#  12 ELLIPTICITY            1 - B_IMAGE/A_IMAGE                                       
         1 -14.8627      6.9754    147.4643   1.4412921060e+02   4.3429560739e+01     10.33245     4.576186  76.51   0.04737389    2.989    0.665
         2 -12.5928      2.5400     46.6618   1.2858349620e+02   6.4899532188e+01     1.574226    0.1709311 -58.90  0.004166738    8.720    0.885
         3 -12.4733      2.4476      9.2778   1.1631445743e+02   7.0989440822e+01     1.387446    0.2104927 -46.42  0.005242184    5.189    0.807
         4 -13.3830    195.7552     29.3331   6.8990689070e+01   3.2818220513e+01     1.379034     1.327401  71.64  0.007049386    1.156    0.135
         5 -13.4409    211.5869      9.6486   6.2277802736e+01   3.1248364790e+01     1.226705    0.9276114  45.51  0.007253337    1.604    0.377
         6  -9.6814     46.5635    248.7785   1.4531130522e+02   1.8010494994e+01    0.2950504    0.1334601  76.63    0.0015357    2.308    0.567
         7 -11.6530    243.7289    248.0906   1.0951284784e+02  -1.3219915183e+01    0.3402902    0.2619669 -21.47  0.002353298    1.364    0.267
         8 -11.5838     30.5859    248.9088   1.4789523381e+02   1.9944957553e+01    0.5165316    0.2601744  49.61  0.003327874    1.665    0.399
         9 -11.4388     34.7556    244.1779   1.4691603009e+02   2.0323970891e+01    0.4054798    0.2539992  51.67  0.002231818    1.423    0.297
        10 -11.0579     13.0003    249.7566   1.5066348158e+02   2.1771569353e+01    0.4639233    0.1645483  39.06  0.002555069    2.940    0.660
        11 -10.6239      2.7406    248.3843   1.5212496733e+02   2.3091650264e+01    0.4613531    0.1670876 -83.01  0.002670705    2.294    0.564
        12 -10.2592    126.4081    250.2754   1.3143477238e+02   5.8522468019e+00    0.3486103   0.07759732  46.57  0.001212842    3.611    0.723
        13 -10.5201    198.3298    245.6914   1.1734788384e+02  -5.7037202734e+00    0.3040745    0.1545994 -54.74  0.001392516    3.233    0.691
        14 -10.3317     19.7820    242.8566   1.4922635435e+02   2.2296749914e+01    0.1825449     0.103999  73.70 0.0006548081    1.321    0.243
        15 -11.5382     12.8004    241.8437   1.5025849300e+02   2.3242316271e+01    0.3645842    0.1621156 -81.18  0.002255077    1.863    0.463
        16  -9.1802    156.5010    249.9862   1.2580458300e+02   8.0010383695e-01    0.1537727    0.1080053 -15.99 0.0008089118    2.424    0.587
        17  -9.2025    111.3113    242.3289   1.3330207222e+02   9.7384963527e+00    0.1108215   0.09918986  10.03 0.0004019067    1.667    0.400
        18 -10.4335      5.6253    241.0174   1.5131777581e+02   2.4142364015e+01    0.1535417     0.134394  63.59 0.0005120879    1.552    0.356
        19  -9.8652    183.1698    238.8228   1.1913620803e+02  -2.0776621196e+00    0.1767742    0.1398676  17.25 0.0005850625    1.346    0.257
        20 -10.7472    140.3744    250.3570   1.2885997237e+02   3.4923382993e+00    0.4673578    0.1047741  40.26  0.001509412    4.241    0.764
        21  -9.9037    228.9808    250.0000   1.1243748246e+02  -1.1232662373e+01    0.2001733   0.05738502  40.34 0.0008064129    2.970    0.663
        22 -10.1459     54.5393    229.4104   1.4240026874e+02   2.0674861038e+01     0.269069    0.1502716  72.55  0.001546368    1.632    0.387
        23  -8.6264     60.5100    227.4934   1.4114997719e+02   2.0255825820e+01    0.1250191   0.09126441  73.74  4.93097e-05    1.079    0.073
        24 -10.1613      7.4997    226.3532   1.5020606080e+02   2.6728221028e+01    0.2712068    0.1785245  15.28  0.001609134    3.525    0.716
        25  -9.2596    111.7317    250.6458   1.3416215905e+02   8.1929354519e+00    0.1789416   0.08973449  51.44 0.0004092094    1.629    0.386
        26  -9.3662    173.7599    222.5606   1.1837752692e+02   2.2777669032e+00    0.3399277    0.1165215  44.46  0.001293618    2.569    0.611
        27  -8.6397    152.5101    213.0018   1.2111972653e+02   7.9661996412e+00     0.180695    0.1379813 -54.93 0.0003454729    1.457    0.314
        28 -12.3688      9.5576    206.8754   1.4862302770e+02   3.0403654284e+01    0.6594664    0.4182458  39.46  0.003199668    1.841    0.457
        29 -11.4210     60.4114    198.7850   1.3825698053e+02   2.6270451919e+01    0.2692989    0.2191362 -62.58 0.0005610108    1.384    0.277
        30  -9.7644    192.4556    194.2314   1.0954654595e+02   3.7757782174e+00    0.7121246    0.3217212 -60.80  0.001909178    6.331    0.842
        31 -11.5165     15.1706    197.0406   1.4689639269e+02   3.1897716240e+01    0.2929973    0.1726651  64.96  0.001217712    1.486    0.327
        32 -11.6499      2.0792    183.4277   1.4830835969e+02   3.5975831828e+01     1.223759    0.1256763 -74.68   0.00323183    8.167    0.878
        33 -11.0196      5.4364    188.3952   1.4804871956e+02   3.4632718995e+01    0.3492004    0.2213637  37.40  0.002215351    1.888    0.470
        34 -11.7114     66.7752    190.4278   1.3595669054e+02   2.7243186543e+01    0.2895041    0.2217512 -63.21 0.0004942977    1.336    0.251
        35 -12.5739     33.5929    232.8638   1.4631718977e+02   2.2615944629e+01    0.2799627    0.2252188 -83.90 0.0007455459    1.315    0.240
        36 -13.0243     63.6830    175.7564   1.3474588188e+02   3.0994070280e+01    0.5067849    0.2745535 -46.90  0.001604454    2.285    0.562
        37 -10.5874     77.0045    177.5984   1.3200956528e+02   2.8680819268e+01    0.2377143    0.2089464 -89.24 0.0003633668    1.051    0.048
        38  -9.5009     97.8360    174.6797   1.2679850032e+02   2.6060443751e+01    0.2459322    0.1857132 -76.82 0.0003553361    1.291    0.226
        39 -11.4936     84.5677    168.4711   1.2888562057e+02   2.9646676823e+01    0.5907497    0.5687034 -29.15  0.003623343    1.318    0.241
        40 -14.0180     38.9366    225.5287   1.4484345055e+02   2.3419817146e+01     1.065744    0.9354019 -58.91   0.00558055    1.662    0.398
        41 -11.8331     85.9243    151.6496   1.2570066126e+02   3.3393833474e+01    0.3017208    0.2433721 -46.53 0.0005060818    1.329    0.248
        42  -8.8539    100.2177    148.2116   1.2146609127e+02   3.1844620414e+01    0.2054081    0.1928106 -47.31 0.0003709267    1.161    0.139
        43 -12.0679     67.3226    143.6367   1.2897792959e+02   3.8025605973e+01    0.6672421    0.4411002  67.61  0.002774627    1.784    0.440
        44  -9.6171    109.1702    137.4918   1.1696495823e+02   3.2765297818e+01    0.4102941    0.2677057 -23.71  0.001540511    2.476    0.596
        45 -10.2382     96.3606    134.6780   1.1969632262e+02   3.5698715901e+01    0.2622534    0.2272644 -31.14 0.0003546669    1.314    0.239
        46 -10.6628     31.8680    131.7708   1.3616217083e+02   4.4885307238e+01    0.2659706    0.1959689  59.18  0.001311361    1.519    0.342
        47  -9.3300     88.1882    129.3680   1.2074236435e+02   3.8300976336e+01    0.2463767     0.188787  71.35 0.0003713153    1.524    0.344
        48  -9.7939     97.2660    152.5123   1.2303397394e+02   3.1335373456e+01     0.275609    0.2528044 -74.12 0.0007606497    1.040    0.038
        49  -8.5290    106.4999    124.0246   1.1462901367e+02   3.6386167044e+01    0.2038055     0.141395 -51.54 -0.0009426978    1.371    0.270
        50  -9.5429    167.7567    112.8461   9.6567884945e+01   2.5726268175e+01    0.3280901    0.2592413 -72.96  0.001156315    1.488    0.328
        51  -9.0664    203.3170    111.3608   8.8821471098e+01   1.7583499263e+01    0.2313559    0.1837257   9.14 0.0006676022    1.684    0.406
        52 -10.4930    240.3946     94.0920   7.8384543859e+01   1.2226799369e+01    0.2922195    0.1925805  83.36  0.001344858    1.980    0.495
        53  -9.7000    157.9645     76.9717   8.8955442570e+01   3.5046293927e+01    0.2474814    0.1876643 -79.66 0.0007624172    1.689    0.408
        54  -9.0952     43.9618     67.9974   1.1924499751e+02   5.7599112011e+01     0.290081    0.1372261  50.28  0.001153056    4.216    0.763
        55  -8.6370     32.1268     62.1867   1.2178617626e+02   5.9883656416e+01    0.1426077    0.1392796 -70.43  0.000747222    1.343    0.256
        56 -11.1751     13.5987     54.9066   1.2657280460e+02   6.2713237231e+01    0.2689954    0.1841021  32.80  0.001313022    1.891    0.471
        57 -10.9212     97.8310    248.3604   1.3643076187e+02   1.0801792804e+01    0.3323453    0.2130982  46.94 0.0009506642    1.355    0.262
        58 -10.5078    100.9889    245.9910   1.3561035793e+02   1.0733328155e+01    0.2809601    0.1542706 -67.50  0.000439896    2.016    0.504
        59  -9.8147     81.8711    249.0840   1.3933728702e+02   1.3093427084e+01    0.1940481    0.1281911  68.99  0.001227143    1.270    0.213
