#   1 NUMBER                 Running object number                                     
#   2 MAG_AUTO               Kron-like elliptical aperture magnitude                    [mag]
#   3 X_IMAGE                Object position along x                                    [pixel]
#   4 Y_IMAGE                Object position along y                                    [pixel]
#   5 X_WORLD                Barycenter position along world x axis                     [deg]
#   6 Y_WORLD                Barycenter position along world y axis                     [deg]
#   7 A_WORLD                Profile RMS along major axis (world units)                 [deg]
#   8 B_WORLD                Profile RMS along minor axis (world units)                 [deg]
#   9 THETA_WORLD            Position angle (CCW/world-x)                               [deg]
#  10 FWHM_WORLD             FWHM assuming a gaussian core                              [deg]
#  11 ELONGATION             A_IMAGE/B_IMAGE                                           
#  12 ELLIPTICITY            1 - B_IMAGE/A_IMAGE                                       
         1 -13.4061    221.3161      2.0514   4.2997768001e+01   2.8383575442e+01     2.457567    0.5209599  63.85  0.006911801    3.753    0.734
         2 -13.7370    180.1534     44.8231   6.0707010481e+01   3.4138168070e+01     1.142204    0.9331855 -16.83 0.0009900053    1.296    0.228
         3 -13.9633    190.8895     35.4229   5.6093736187e+01   3.2564738139e+01     1.248345     1.016246 -32.77    0.0030569    1.223    0.183
         4 -14.9089    199.1415     25.3566   5.1921161045e+01   3.1620985838e+01     2.294468     1.524865  30.49  0.001467062    1.864    0.464
         5 -12.5959     59.1084      3.2251   7.4594413516e+01   6.7728050123e+01    0.4799139    0.2746404  37.02  0.002583129    1.728    0.421
         6 -11.8482     38.9213    211.3087   1.2563271714e+02   2.7850210992e+01    0.3428836    0.1537319  75.83  0.001951496    2.215    0.549
         7 -16.1306    103.7299    238.3712   1.1626918758e+02   1.5146346350e+01     6.681647     2.231115  35.31    0.0291331    3.407    0.707
         8 -19.3736      8.1615    136.2062   1.2683696746e+02   4.5669747988e+01     16.76005     1.815216 -77.66   0.04032453    9.852    0.898
         9 -11.5692    121.1715    212.8374   1.1053205101e+02   1.6517370483e+01    0.2149226    0.1333339  52.22  0.001038501    1.339    0.253
        10 -11.4595    105.6152    209.7880   1.1313078570e+02   1.9398705545e+01    0.3448268    0.2151249  64.39  0.002068366    1.573    0.364
        11 -11.1420     70.6065    210.1126   1.1976103636e+02   2.4253014020e+01     0.196745    0.1411829  60.00  0.000425804    1.076    0.071
        12  -9.5451     30.2639    210.4721   1.2712024868e+02   2.8929789140e+01    0.1460956   0.06722781  52.73 0.0009169838    1.638    0.389
        13 -12.4647     44.6020    231.9538   1.2586277892e+02   2.3709890787e+01    0.2651999    0.1918516  46.81 0.0006871495    1.340    0.254
        14  -9.6202     53.7324    230.3670   1.2423478198e+02   2.2911203151e+01    0.2825524    0.1336645 -85.77    0.0017375    2.265    0.559
        15  -9.2294     40.3721    206.4117   1.2506449611e+02   2.8563513643e+01    0.1112107   0.07397253  67.58 0.0007859569    1.144    0.126
        16 -10.3498     32.9697    205.5624   1.2635546002e+02   2.9521592649e+01    0.1637992    0.1373421 -76.60  0.001313247    1.456    0.313
        17  -9.4091    163.4578    203.9390   1.0139123953e+02   1.0958228992e+01    0.1537028    0.1250195 -44.67 0.0003713342    1.499    0.333
        18 -12.1562    107.9240    203.7323   1.1201414120e+02   2.0081583690e+01    0.3289125    0.1903139  44.93 0.0008191444    1.431    0.301
        19 -10.8371    104.0048    201.7278   1.1254892212e+02   2.1025902925e+01    0.2176815    0.1661164  45.19   0.00060885    1.187    0.157
        20 -12.3932    193.7890    193.4542   9.4117830887e+01   7.1889694136e+00     0.826788     0.480477 -52.99  0.003533301    2.616    0.618
        21 -11.2441     96.4695    199.2007   1.1374457646e+02   2.2600764417e+01    0.4658929    0.3641944   0.90  0.001451317    2.305    0.566
        22 -10.4993    156.1774    200.0722   1.0220290647e+02   1.2790517205e+01    0.4231745    0.2011198 -57.12  0.001953289    3.053    0.672
        23 -12.4560     31.4770    197.9521   1.2616857249e+02   3.1071380314e+01    0.1967556    0.1419992  61.38 0.0004359743    1.107    0.097
        24 -10.4346     36.2263    197.9021   1.2527902476e+02   3.0574972574e+01    0.1706361    0.1174014  54.86 0.0005806717    1.206    0.171
        25 -10.4901    141.0757    197.4730   1.0474660018e+02   1.5781573091e+01    0.2005461    0.1599486  69.11 0.0007180957    1.346    0.257
        26 -13.3591     65.8227    191.7059   1.1906308138e+02   2.8238278918e+01     0.721269    0.6307052 -84.18  0.004059182    1.265    0.210
        27  -9.2577     36.1290    234.1283   1.2737454341e+02   2.4297770980e+01    0.1362461   0.09799716  60.86 0.0003689862    1.094    0.086
        28 -10.4849     19.3387    188.6456   1.2789398125e+02   3.4036512847e+01    0.2346591    0.1480341 -72.26   0.00106227    1.582    0.368
        29 -12.2860    112.8638    196.2962   1.1015855524e+02   2.0610278960e+01    0.5047039     0.347104 -11.87  0.002355283    3.556    0.719
        30 -10.1917    151.2275    183.1756   1.0059032580e+02   1.6389022788e+01    0.1748564    0.1428236  68.26 0.0004871621    1.345    0.257
        31 -11.7280    115.6718    182.6557   1.0780122015e+02   2.2621726941e+01    0.2485802    0.2101511   4.86  0.001117841    1.681    0.405
        32 -11.1010     99.4791    180.7738   1.1094270999e+02   2.5560245847e+01    0.2311979    0.1967466  59.06 0.0005525607    1.048    0.046
        33 -10.9528    144.2611    178.9868   1.0133364043e+02   1.8357716942e+01    0.2440591    0.1588844  31.45 0.0007967793    1.627    0.385
        34 -12.4563     80.8774    172.4176   1.1388219404e+02   2.9971745027e+01    0.3604803      0.27773 -74.57   0.00229039    1.292    0.226
        35  -9.5946    168.4137    176.5266   9.6045801503e+01   1.4346255517e+01    0.2047848    0.1903301 -77.03 0.0005569878    1.294    0.227
        36  -9.8975    165.9432    172.9572   9.5910405109e+01   1.5397129735e+01    0.2359823    0.1967014 -77.25 0.0009758915    1.562    0.360
        37 -12.4099     77.1316    177.5868   1.1529074182e+02   2.9466008253e+01    0.3895248    0.3577119  16.15  0.001286976    1.516    0.340
        38 -10.0617     81.7295    195.2942   1.1624610060e+02   2.5430526543e+01    0.2482478    0.1984055  28.75  0.001642308    1.592    0.372
        39 -10.2868     48.7919    173.2680   1.2086748768e+02   3.3951718911e+01    0.2901964    0.1636756  45.12  0.001027427    1.605    0.377
        40 -11.1408     42.9799    172.0028   1.2198356613e+02   3.4869849817e+01    0.2456324    0.1614361  45.18  0.001590383    1.445    0.308
        41  -9.5536    202.6132    171.1578   8.8509515116e+01   8.7537499982e+00    0.1766744      0.12036 -17.97 0.0006839831    1.668    0.401
        42 -10.9948    230.8647    167.9976   8.2900363437e+01   4.0042317488e+00    0.4064579    0.1831392 -46.57  0.001637376    3.552    0.718
        43 -11.4972    195.0342    168.4100   8.9398116816e+01   1.0592816986e+01     0.313459    0.2754357  32.60  0.001930541    1.054    0.052
        44 -10.8573    146.0491    168.6896   9.9250481213e+01   1.9860501426e+01    0.1973922    0.1628233  44.23 0.0005788796    1.087    0.080
        45 -15.9953     72.1602    150.0119   1.1299162042e+02   3.5872862672e+01     5.458766     2.719755  78.79   0.01259415    3.306    0.697
        46  -9.9457     37.6773    221.7102   1.2645725468e+02   2.6184901566e+01     0.309725    0.1840814  49.51  0.001576231    1.332    0.249
        47 -10.8599    189.9563    160.6487   8.8857093090e+01   1.2776524138e+01    0.3053098    0.2556331 -70.50  0.001121649    1.647    0.393
        48 -11.0611    189.1140    155.1114   8.7909173738e+01   1.3828892277e+01    0.4175792      0.38117  70.28  0.002475769    1.310    0.236
        49 -12.6144     94.4699    155.7000   1.0856333512e+02   3.1368299842e+01    0.6139609    0.4475038 -27.88  0.003197658    2.175    0.540
        50 -10.6164    140.2533    156.9470   9.8408026361e+01   2.3121019924e+01    0.2882919    0.2223589  86.25 0.0007916285    1.629    0.386
        51  -9.6085    152.3983    194.2248   1.0206689211e+02   1.4364780776e+01     0.153122    0.1219735 -69.37 0.0003010438    1.589    0.371
        52 -11.4437    133.8144    144.9693   9.7587786182e+01   2.6678745026e+01     1.046125    0.2815179 -54.81  0.002862365    5.434    0.816
        53  -9.7609    182.6682    150.5072   8.8234009281e+01   1.5884560402e+01    0.2244918    0.1699581 -63.03 0.0007529436    1.780    0.438
        54  -9.7009     64.3406    223.7625   1.2195852338e+02   2.2712188301e+01     0.112477   0.05836882  59.10 0.0004755052    1.551    0.355
        55 -10.5251    174.6300    149.1852   8.9584388292e+01   1.7745192287e+01    0.2702748    0.1892792  45.68 0.0006341016    1.332    0.249
        56  -9.6361    160.2783    147.5952   9.2258413540e+01   2.0944164973e+01    0.1430414    0.1111961 -86.44 0.0006847928    1.775    0.436
        57 -10.8645    144.6105    146.6927   9.5492241731e+01   2.4242958288e+01    0.3141121     0.225648 -83.05  0.001487612    1.990    0.497
        58 -11.3480    106.4851    140.5155   1.0319218428e+02   3.2593538254e+01    0.5052359    0.3153733 -32.59  0.002253855    2.440    0.590
        59 -12.5075     94.2967    140.7631   1.0621105524e+02   3.4573189985e+01    0.2825859    0.2504245 -52.41 0.0004610219    1.248    0.199
        60 -10.7326    106.0807    130.8448   1.0147142591e+02   3.4738387293e+01    0.3300775    0.2758206  85.50  0.001123278    1.239    0.193
        61 -10.9619    101.6671    127.0563   1.0184503866e+02   3.6329935322e+01    0.2652501    0.2226163 -35.59 0.0008079016    1.403    0.287
        62 -10.8686    114.2635    130.7117   9.9406607625e+01   3.3298553150e+01    0.5490435    0.2468359  37.76  0.001367222    2.384    0.581
        63 -11.7680    118.4640    125.7777   9.7340379666e+01   3.3565891478e+01    0.6737372    0.3787068 -40.28  0.002921626    2.053    0.513
        64 -10.0151    160.4077    128.2080   8.8037119379e+01   2.4528051990e+01    0.2135725    0.1387098 -53.61 0.0009603312    1.759    0.432
        65 -10.8534    136.0000    128.5447   9.3683388408e+01   2.9556533023e+01    0.4516695   0.09983433 -49.17  0.001199178    4.985    0.799
        66 -10.2129    109.8846    119.5212   9.8169232104e+01   3.6509587928e+01    0.2355308    0.1946776 -36.57 0.0005956258    1.360    0.265
        67 -10.0708     43.5972    220.3744   1.2535979703e+02   2.5752944209e+01    0.1490923   0.08418109 -65.07 0.0009958701    2.054    0.513
        68 -10.0992    168.0214    112.8399   8.2692739379e+01   2.5728377636e+01     0.364589    0.2539128 -73.11  0.001538197    2.199    0.545
        69 -11.1283    120.0100    110.8230   9.3570168350e+01   3.6449545902e+01    0.4212246    0.2874593  67.29  0.001910795    1.826    0.452
        70 -10.2326    205.5258    110.1434   7.4576967579e+01   1.7665057300e+01    0.3127169    0.2039465  41.43 0.0008612531    1.536    0.349
        71  -9.4533     73.7802    106.7985   1.0534007380e+02   4.5312530340e+01    0.1894035    0.1501043  80.89 0.0008463615    1.352    0.261
        72 -11.4751     53.1877     90.7388   1.0824712115e+02   5.1703109065e+01    0.3662353    0.1689495 -58.26  0.001694353    1.854    0.461
        73 -11.0728     41.9316     91.8846   1.1203830968e+02   5.2690576736e+01    0.2063703    0.2000927 -89.64 0.0005253148    1.160    0.138
        74 -10.2961     48.7341    217.5154   1.2428168483e+02   2.5654319908e+01    0.2790376    0.1490736  33.01  0.001361444    2.157    0.536
        75  -9.4375     67.4546     71.2445   9.8794490483e+01   5.4208104900e+01     0.176532    0.1232676 -63.46 0.0003846484    1.460    0.315
        76 -11.5242    162.3110     63.3962   6.9942573946e+01   3.5932465153e+01    0.3901865     0.297007 -80.60 0.0005124904    1.699    0.411
        77  -9.2430     50.1556     60.3560   1.0184577307e+02   5.8848175579e+01    0.1623471    0.1186818  44.50 0.0003619385    1.609    0.378
        78 -11.2940    163.2021     55.7290   6.7321731101e+01   3.6938300115e+01    0.2838839    0.2561029  23.14 0.0004161604    1.160    0.138
        79 -10.6542     49.0497    233.3421   1.2520152509e+02   2.2975864870e+01    0.2450247    0.1109489  74.55  0.001226625    2.245    0.555
        80 -11.1292    171.7598    240.0643   1.0473913125e+02   4.7587421963e+00    0.3093891    0.2239364 -84.85  0.001927635    2.622    0.619
        81  99.0000     59.9955    216.1066   1.2217536585e+02   2.4550427307e+01     0.407826    0.3468475  14.83  0.001615213    1.921    0.479
        82 -10.4316     43.8350    211.5006   1.2476540350e+02   2.7266781298e+01    0.2871073    0.1377521 -83.22   0.00174129    2.046    0.511
        83 -13.9828     55.6007    205.8512   1.2221765343e+02   2.6897224670e+01    0.8265753    0.5452588  42.40  0.003072375    1.445    0.308
        84 -10.7370    189.7978     15.0081   4.9947498924e+01   3.5233780995e+01    0.2555321    0.2049098  73.30 0.0006234791    1.201    0.167
