#   1 NUMBER                 Running object number                                     
#   2 MAG_AUTO               Kron-like elliptical aperture magnitude                    [mag]
#   3 X_IMAGE                Object position along x                                    [pixel]
#   4 Y_IMAGE                Object position along y                                    [pixel]
#   5 X_WORLD                Barycenter position along world x axis                     [deg]
#   6 Y_WORLD                Barycenter position along world y axis                     [deg]
#   7 A_WORLD                Profile RMS along major axis (world units)                 [deg]
#   8 B_WORLD                Profile RMS along minor axis (world units)                 [deg]
#   9 THETA_WORLD            Position angle (CCW/world-x)                               [deg]
#  10 FWHM_WORLD             FWHM assuming a gaussian core                              [deg]
#  11 ELONGATION             A_IMAGE/B_IMAGE                                           
#  12 ELLIPTICITY            1 - B_IMAGE/A_IMAGE                                       
         1 -13.3243    185.2585     26.9223   1.8182262557e+01   3.5665551946e+01     1.371471     1.099119  66.08  0.007674159    1.158    0.136
         2 -12.2597    229.0023     48.7575   1.8124544715e+01   2.2019707675e+01     1.107582    0.8985536 -70.66  0.004815822    1.147    0.128
         3 -13.0822    214.9223     29.1317   1.4995075061e+01   2.8012719770e+01     1.893955     1.018138 -63.51  0.008554087    2.068    0.516
         4 -12.3918    230.9421     25.4021   1.2392223997e+01   2.4678816975e+01     1.291962    0.6864702  77.09  0.004628148    1.852    0.460
         5 -14.8825    225.7551      8.8666   9.0657733570e+00   2.7817898837e+01     5.301795     1.781366  71.52   0.02193707    2.690    0.628
         6 -10.0962    125.7770     14.0291   2.4315205709e+01   5.1962131627e+01    0.2554093    0.2153819  42.47  0.001514105    1.071    0.066
         7 -11.6680    119.5636      9.7517   2.4075769403e+01   5.3842303431e+01    0.7231437     0.407521  45.96  0.002750489    1.558    0.358
         8  -9.0519     99.6771      2.3079   2.5757254853e+01   5.8993849287e+01    0.1191558   0.09921902 -71.67 0.0004076172    1.646    0.392
         9 -10.9427    142.1615    182.3683   6.6922703500e+01   1.6250828320e+01    0.3946373    0.2932329 -80.24  0.001191969    1.721    0.419
        10 -15.1071    190.7474    154.8251   5.0592033954e+01   1.2024307462e+01     1.383446      1.16688 -84.40  0.005034646    1.553    0.356
        11 -19.2560    230.6994    122.6988   3.5591584004e+01   9.5694441612e+00     7.135293     6.768408  23.98   0.02106852    1.116    0.104
        12  -9.6937    158.0385    181.6676   6.3226686487e+01   1.3336933857e+01    0.2479565    0.2090583 -35.67 0.0002737287    1.296    0.228
        13 -11.1071    171.8936    204.5019   6.4344256716e+01   6.3882113838e+00    0.4341847    0.2993581  70.02  0.001349725    2.204    0.546
        14 -10.1762    244.5415    178.6451   4.5311459603e+01  -2.3508591412e+00    0.3161048     0.222711   1.16 0.0007279649    1.498    0.333
        15  -8.6014    246.8647    212.9187   5.1448957561e+01  -7.6387739740e+00    0.1730639     0.127862  10.56 0.0004081094    1.161    0.139
        16 -11.4521    127.0238    176.5507   6.9383600167e+01   2.0338037752e+01    0.4377812    0.2433708 -47.23 0.0004550589    1.950    0.487
        17 -14.7853    225.5278     81.4440   2.6555511901e+01   1.7787530166e+01     1.509541    0.4484386  46.51  0.004543764    4.358    0.771
        18  -8.4703    229.5298    213.3927   5.4633100261e+01  -5.0208302211e+00    0.1266363    0.1038855  13.84 0.0001088506    1.024    0.024
        19 -11.1430    110.8964    168.0669   7.1750250895e+01   2.5161807452e+01    0.3416337    0.2783828  87.70 0.0009868821    1.289    0.224
        20  -8.7422     78.9491    173.3497   8.0314823330e+01   2.9138791627e+01    0.1816199    0.1596774  65.02 0.0004052465    1.082    0.076
        21 -11.0257     69.8650    159.3114   8.0514552203e+01   3.3735772746e+01    0.5316181    0.1912612 -66.71  0.001987512    2.784    0.641
        22  -9.4887    170.9484    223.4950   6.7639829661e+01   3.3069928963e+00    0.2055012    0.1123726  40.38 0.0005099753    1.557    0.358
        23 -12.1586     68.8130    128.7584   7.5713436755e+01   4.1244289290e+01     1.003762    0.2598019 -54.40  0.003319728    3.239    0.691
        24  -9.9264     67.1670    150.6650   7.9896532057e+01   3.6172677842e+01    0.3702448    0.1623652 -68.62   0.00142924    2.272    0.560
        25 -12.9192     68.2807    144.4361   7.8610043867e+01   3.7521364264e+01     1.131496    0.6766253 -83.29  0.004598022    1.930    0.482
        26  -9.0817    144.6046    209.1814   7.0843439457e+01   1.0474940615e+01    0.2258794    0.1622986  51.56  0.001109299    1.290    0.225
        27  -9.4147     92.3531    137.6022   7.0860031322e+01   3.5532595196e+01    0.2745268     0.180071  36.60  0.001226275    1.619    0.382
        28 -10.8610    107.9586    131.9487   6.5423701757e+01   3.4149863703e+01    0.4174586    0.2495338  43.22 0.0008015089    1.698    0.411
        29  -9.9108     92.9426    130.7081   6.9291031811e+01   3.7089945769e+01    0.4682015    0.2409535 -32.67  0.001494896    3.337    0.700
        30  -8.4220     33.8320    132.1725   8.6057171285e+01   4.4477324578e+01    0.1627551     0.130928 -53.30 0.0002590028    1.259    0.206
        31  -9.8968    101.8175    127.4031   6.6105986019e+01   3.6342369970e+01    0.3028476    0.2119313 -46.97   0.00100553    1.415    0.293
        32 -11.4418    107.1227    123.9063   6.3837576807e+01   3.6201741271e+01     0.652387    0.2653667 -56.99  0.001577521    2.673    0.626
        33 -10.9147     55.0999    118.0360   7.7697577726e+01   4.5595754633e+01    0.3003897    0.2469943 -40.46 0.0003389474    1.279    0.218
        34 -13.9559     43.7534    104.3492   7.8564688014e+01   5.0119745114e+01     1.666843     1.234631  43.23  0.008520116    1.545    0.353
        35 -11.7926     90.0466    110.7269   6.5639622951e+01   4.2325813058e+01     1.330139    0.6101488 -62.81   0.00445694    2.706    0.630
        36 -13.6454     74.4633    108.1963   6.9767346051e+01   4.5372424178e+01     1.381589     1.199606  61.76  0.004009565    1.276    0.216
        37 -12.0194     62.8761    105.7233   7.2814911159e+01   4.7560729837e+01    0.4901869     0.438409  89.13 0.0007234322    1.200    0.167
        38 -13.5205      6.7228     99.1413   8.9301185942e+01   5.4274660930e+01    0.5407856    0.2861991  25.34  0.002304285    2.306    0.566
        39  -9.7354    141.0764    205.0822   7.0959112284e+01   1.1886590153e+01    0.3249316    0.2302767  81.53 0.0005885035    1.939    0.484
        40 -11.1185    130.0158     83.0038   4.6504993467e+01   4.0487088171e+01     0.596262    0.2271996 -37.31  0.001649241    2.803    0.643
        41  -9.4483    126.5700     81.5060   4.6979731952e+01   4.1554703930e+01    0.2485561    0.1992311  39.40 0.0005850059    1.256    0.204
        42  -9.6159    204.3169    200.6236   5.7085562411e+01   1.1730283187e+00    0.3517909    0.2262964  -4.59  0.001669184    2.113    0.527
        43 -10.2715    141.2148     78.8876   4.2372745551e+01   3.8702995458e+01     0.386001     0.269894 -24.32 0.0009164432    1.647    0.393
        44  -9.8964    119.2723    200.2866   7.4965457555e+01   1.6684611205e+01    0.2416586    0.2007245  76.52 0.0004559967    1.213    0.176
        45  -8.7412    245.4174    195.9857   4.8554615574e+01  -5.0702437096e+00    0.1725538    0.1374098  18.91 0.0001086861    1.142    0.124
        46  -9.4287    180.7879    194.7845   6.0768116370e+01   6.4794630358e+00    0.4066203    0.1950928 -49.35  0.001710944    2.445    0.591
        47 -11.3525    145.9995     69.7791   3.8428377286e+01   3.9233171950e+01     0.489504    0.2907183 -27.54  0.001993545    1.927    0.481
        48 -10.5193    132.7654    191.0186   7.0528639695e+01   1.6203060058e+01    0.3540069    0.2533818  89.21 0.0008709203    1.840    0.456
        49 -11.3191    155.6640     59.6721   3.3126169234e+01   3.8574040581e+01    0.4103215    0.2952651  -2.25  0.001828694    1.907    0.476
        50 -11.1441    156.6979     56.1269   3.1814810979e+01   3.8883443588e+01    0.5679256    0.3073288  52.20  0.002305278    1.750    0.429
        51 -10.4938    195.9985     56.5131   2.4709580725e+01   2.8889508108e+01    0.4318713     0.326713 -59.97  0.001707388    1.353    0.261
        52  -9.2037    167.0855    190.9121   6.2957708017e+01   9.7869594472e+00    0.2051648    0.1912073  36.51 0.0003326529    1.025    0.025
        53 -10.2276     97.7353    247.8002   8.5039107515e+01   1.1121051117e+01    0.2111226    0.1883926 -89.82 0.0006239464    1.273    0.215
        54  -8.9398    122.3425    236.8712   7.9163515095e+01   9.2150988167e+00    0.1603736    0.1441701  60.51 0.0003786708    1.119    0.107
        55 -12.2455    200.4384     37.3980   1.8926397907e+01   3.0507860580e+01     1.626727    0.2605349  55.87  0.004509306    4.820    0.793
        56 -11.3385    210.4947     33.8875   1.6714063959e+01   2.8482356009e+01    0.6419461    0.4421193  65.01  0.002459829    1.397    0.284
        57  -9.1223    216.9634    218.4983   5.7861809015e+01  -3.7215660765e+00    0.2621619    0.1108185  44.21  0.001163785    2.352    0.575
        58  -8.1975     48.5297    235.4548   9.3026956067e+01   2.0110242175e+01    0.1146509   0.08730212  68.56  0.000116327    1.038    0.036
        59 -10.0738    123.4571     45.2837   3.5979879287e+01   4.8605260928e+01    0.4483959    0.2384109 -25.69   0.00161972    2.123    0.529
        60 -10.2780    125.4948     40.9755   3.3965818908e+01   4.8760823066e+01    0.4295092    0.2471702  -0.25  0.001605055    3.059    0.673
        61 -10.4174    130.7950     33.7374   3.0180868151e+01   4.8492179792e+01    0.4863114    0.2561806  24.83   0.00179647    3.038    0.671
        62 -10.3635    179.3041    209.8623   6.3736528790e+01   4.1133107309e+00    0.6827841    0.3600779  61.96  0.001870092    3.944    0.746
        63 -10.8765    134.7426     20.1464   2.4618353972e+01   4.9163460890e+01    0.3905682    0.2086698 -47.53  0.001717809    2.311    0.567
        64  -9.0600    170.0240    185.0698   6.1242063810e+01   1.0339056274e+01    0.2329248    0.2014349 -65.19 0.0006224925    1.358    0.264
        65  -9.6241    199.1441     50.6320   2.2637572395e+01   2.8981371082e+01    0.3430152    0.2818382  37.62  0.001293256    1.424    0.298
        66 -11.1138    206.7124     48.2025   2.0894513739e+01   2.7454488758e+01    0.3163648    0.2699274  79.60 0.0008615185    1.122    0.108
        67 -10.0036    165.1649    180.1345   6.1361813066e+01   1.2249238155e+01    0.3734057    0.2691282  83.39 0.0005246945    2.176    0.540
        68  -9.8736    135.4397    185.5428   6.9005264302e+01   1.6850790173e+01    0.2542914    0.2373473   3.58  0.001461437    1.241    0.194
