#   1 NUMBER                 Running object number                                     
#   2 MAG_AUTO               Kron-like elliptical aperture magnitude                    [mag]
#   3 X_IMAGE                Object position along x                                    [pixel]
#   4 Y_IMAGE                Object position along y                                    [pixel]
#   5 X_WORLD                Barycenter position along world x axis                     [deg]
#   6 Y_WORLD                Barycenter position along world y axis                     [deg]
#   7 A_WORLD                Profile RMS along major axis (world units)                 [deg]
#   8 B_WORLD                Profile RMS along minor axis (world units)                 [deg]
#   9 THETA_WORLD            Position angle (CCW/world-x)                               [deg]
#  10 FWHM_WORLD             FWHM assuming a gaussian core                              [deg]
#  11 ELONGATION             A_IMAGE/B_IMAGE                                           
#  12 ELLIPTICITY            1 - B_IMAGE/A_IMAGE                                       
         1 -14.1484    222.5036      4.3538   3.8674840946e+01   2.8732894735e+01      2.38702     1.135237  57.30  0.007178824    2.175    0.540
         2 -14.0091    180.4124     48.7964   5.6014574584e+01   3.3838284789e+01     1.987922     1.360507  23.32 0.0009060762    2.009    0.502
         3 -14.0318    192.0287     38.7828   5.1251199549e+01   3.2255883846e+01     1.260016     1.069362 -46.35  0.003239164    1.164    0.141
         4 -14.5012    199.7590     30.1078   4.7750333549e+01   3.1410465498e+01     1.592262     1.277068  33.28  0.001360389    1.508    0.337
         5 -10.9221    189.7531     14.7496   4.4700548653e+01   3.5741965215e+01    0.2535842    0.2215332 -54.95 0.0007970483    1.141    0.123
         6 -10.1857     78.1028     14.4687   6.7417844542e+01   6.2419726727e+01    0.2906289    0.1910669  70.71  0.001031055    2.631    0.620
         7 -10.8397     67.8652      2.3308   6.5047501174e+01   6.5635397730e+01    0.2356311     0.114794  57.87  0.001097944    2.591    0.614
         8  -9.8618     37.0098    224.5203   1.2465989358e+02   2.3806413235e+01    0.1266878   0.09999819  41.17 0.0004571525    1.513    0.339
         9 -19.4830     13.8320    147.6059   1.2343515524e+02   4.2475373934e+01     18.60209     5.276937 -79.41   0.07159658    3.345    0.701
        10 -13.5278     54.8036    201.2384   1.1946924588e+02   2.6304748289e+01    0.4759905     0.388917 -89.91  0.001661623    1.137    0.120
        11 -10.7730     43.9874    210.6919   1.2238699041e+02   2.5694467787e+01    0.2842621    0.1773723 -79.39    0.0011491    1.458    0.314
        12  -9.5753     41.7331    205.8717   1.2244260024e+02   2.6933167905e+01    0.2444793    0.2218501 -32.65  0.001153929    1.760    0.432
        13 -11.3693    175.0170    212.4584   9.6332659681e+01   4.9343343313e+00     0.294514    0.1535192  40.77  0.001433495    1.661    0.398
        14 -10.0986    152.3629    211.1989   1.0066244487e+02   9.1317921443e+00    0.1642911    0.1255856 -66.32 0.0002890305    1.622    0.384
        15 -10.9878     37.5990    211.2418   1.2363533108e+02   2.6326237533e+01    0.1557709     0.112282  69.12 0.0003261239    1.071    0.067
        16 -13.4697     31.9981    206.5546   1.2435386788e+02   2.7893816758e+01    0.3783004    0.1654471  56.44  0.001725874    1.945    0.486
        17 -11.8479    193.5306    195.7697   8.9790451613e+01   4.3448423051e+00     1.380115    0.6578741 -58.87  0.004313793    5.617    0.822
        18 -10.0453     96.3154    201.6540   1.1094599735e+02   2.0365406059e+01    0.2215335    0.1487964 -82.38 0.0007531131    1.610    0.379
        19 -10.3689     98.9974    199.9885   1.1017025835e+02   2.0284876812e+01    0.2000379    0.1668938  67.99  0.001235669    1.046    0.044
        20  -9.1004     87.7428    202.4226   1.1283253183e+02   2.1516796419e+01    0.1657542    0.1175437  32.33  0.000698501    1.627    0.385
        21 -11.3489    152.0131    197.1601   9.8504078070e+01   1.1727184270e+01    0.3730578    0.2798193 -67.12  0.002016741    1.640    0.390
        22 -11.8451    130.0175    198.5029   1.0336796569e+02   1.5408017834e+01    0.3033577    0.2085901  71.14 0.0009725202    1.747    0.428
        23 -16.0799     70.8029    146.8288   1.0915066335e+02   3.6435231411e+01     11.99289     5.597167  82.31   0.01897682    8.211    0.878
        24 -12.3484     28.3108    196.5849   1.2434474822e+02   3.0336852175e+01    0.1987419     0.148154  75.91 0.0005044696    1.028    0.027
        25  -9.9939     82.0684    195.1825   1.1317324756e+02   2.3861729578e+01    0.2176108    0.2029225  64.71  0.001187975    1.205    0.170
        26 -13.5426     64.0044    188.3432   1.1626027068e+02   2.7854223058e+01    0.7999686    0.6815621 -41.41  0.005097338    1.627    0.386
        27  -9.3740     61.6953    219.7720   1.1976637400e+02   2.1698260508e+01    0.3664246     0.165304  74.96  0.001676495    2.830    0.647
        28 -13.4086    115.8638    184.2890   1.0427080108e+02   2.0760778986e+01    0.8925219    0.5300845  52.54  0.004315537    1.618    0.382
        29 -10.8251     96.2212    190.2407   1.0948740466e+02   2.2751718768e+01    0.3627659    0.2864421  28.06  0.001116838    1.535    0.348
        30 -10.5000    141.6971    189.1839   9.9374477897e+01   1.5141556549e+01    0.2146583    0.1779119 -83.85  0.001191516    1.398    0.285
        31  -9.8347    153.9790    184.9787   9.5991545187e+01   1.3673274590e+01    0.2220553    0.1711868  81.18 0.0008944909    1.704    0.413
        32 -11.1793     99.3549    180.8441   1.0746727035e+02   2.4270796848e+01    0.2743614    0.2246368  41.03 0.0005377037    1.263    0.209
        33 -10.5037    204.3718    176.1223   8.3864645965e+01   5.6041646882e+00    0.3822132    0.2633255 -45.07  0.001373817    1.615    0.381
        34  -9.6828    197.2776    176.8786   8.5417511002e+01   6.8313910103e+00    0.2487995    0.1856126  47.33  0.001306987    1.377    0.274
        35  -9.6831    188.5924    175.2826   8.6849330073e+01   8.7954487440e+00    0.2516788    0.1364148 -45.75 0.0006515092    2.014    0.504
        36 -10.5217     58.1163    176.0044   1.1617351171e+02   3.1346558634e+01    0.2504826    0.1687489  55.41 0.0004798369    1.380    0.276
        37 -11.7574     66.7401    206.0789   1.1752791278e+02   2.3753676845e+01    0.6779215    0.3333264 -43.84 0.0004314137    3.910    0.744
        38 -10.5655     72.3788    202.8308   1.1605397674e+02   2.3649382542e+01    0.3793615    0.2182503  71.43  0.002004471    1.800    0.444
        39 -10.8755     46.3733    172.9527   1.1847037602e+02   3.3466633002e+01    0.3447272    0.2670761  40.38  0.002079366    1.440    0.306
        40 -10.3650    142.9737    170.0000   9.5672007745e+01   1.8792565738e+01    0.2499823   0.07915077  42.19 0.0008101341    2.996    0.666
        41 -10.7824    229.9916    166.0234   7.6954593075e+01   2.4575032235e+00    0.2027211    0.1747511 -70.95 0.0007076201    1.708    0.414
        42 -10.0821    160.9776    165.0272   9.0653265116e+01   1.6252244106e+01    0.2351974    0.1838136  86.18 0.0009913192    1.729    0.422
        43 -12.8580    203.2481    199.8067   8.8641058662e+01   1.9560255909e+00    0.8311552     0.426197  22.54  0.003468546    2.632    0.620
        44  -9.7162    236.6812    158.3024   7.4125063227e+01   2.4541247790e+00    0.1265365    0.1100534 -67.70 0.0002625354    1.625    0.385
        45 -12.4230     93.8700    153.5143   1.0440523971e+02   3.1355628249e+01    0.6597728    0.4803031 -26.89  0.003180673    2.014    0.504
        46 -11.5308    133.9183    145.3098   9.2823903744e+01   2.5919429203e+01     1.254073    0.3299414 -55.00  0.003047285    5.566    0.820
        47  -9.7030    113.3672    151.1734   9.9099498872e+01   2.8528114140e+01    0.3225857    0.1956659  86.92  0.001156816    2.920    0.658
        48 -10.5549    174.3227    148.6969   8.4216724919e+01   1.6767163971e+01    0.3529029    0.2797963 -74.21  0.001216558    1.646    0.393
        49 -10.7764    143.8534    146.0059   9.0577620727e+01   2.3746448199e+01      0.36754    0.2036181 -69.10  0.001244401    3.179    0.685
        50  -9.0915    108.9345    147.0389   9.9406455878e+01   3.0283925715e+01    0.1717501    0.1610473  85.14 0.0003230569    1.010    0.010
        51  -9.9044     87.4473    144.3738   1.0442311812e+02   3.4543500479e+01    0.3423319     0.201567  74.42  0.001386667    2.516    0.603
        52 -11.4528    106.8759    138.8862   9.8296425134e+01   3.2556201546e+01    0.5286999    0.4542421 -19.75  0.002506312    1.446    0.308
        53 -12.3026     93.9171    139.0947   1.0173787226e+02   3.4749911014e+01    0.2947644     0.256148 -49.38 0.0003913539    1.194    0.162
        54 -11.0116    114.2234    130.1210   9.4479641248e+01   3.3244540024e+01     0.439961    0.3743318 -77.69  0.001699398    1.234    0.189
        55 -11.4352    119.9118    123.7989   9.1511694808e+01   3.3601648238e+01    0.8247193    0.4234328 -30.33  0.002705205    3.309    0.698
        56 -11.2973    135.7451    127.7622   8.8379369572e+01   2.9467448865e+01     1.064265    0.2126241 -49.02  0.002511824    5.339    0.813
        57 -11.0196    105.9382    130.7650   9.6822584598e+01   3.4633216248e+01    0.3790752    0.3081052 -66.79  0.001221916    1.220    0.180
        58 -10.2748    160.7440    127.8729   8.2370221444e+01   2.4012308907e+01    0.3369732    0.2652931 -65.19  0.001576084    1.471    0.320
        59 -11.1556    101.4211    125.8017   9.6951243847e+01   3.6614408221e+01    0.2881958    0.2363706 -29.81 0.0006043241    1.416    0.294
        60 -10.1534    109.5757    118.9589   9.3135716638e+01   3.6723394875e+01    0.2486434    0.2124215  53.05   0.00128047    1.214    0.176
        61 -10.1290    167.8179    112.5587   7.6850473789e+01   2.5569444939e+01    0.3907717    0.2767507 -76.23  0.001194004    2.082    0.520
        62 -10.2158    134.8701    112.0589   8.4654759153e+01   3.3139549792e+01    0.3943731    0.1026669 -45.25  0.001071736    3.776    0.735
        63 -11.6402    118.8125    110.8056   8.8575773463e+01   3.6787427957e+01    0.6450354    0.4427993  69.57  0.002736445    1.987    0.497
        64 -10.2188    205.4932    110.1713   6.8503756259e+01   1.7245357262e+01    0.3108965      0.21887  42.30 0.0008405769    1.500    0.333
        65 -10.0670    134.6665    105.8043   8.3035181846e+01   3.4549810030e+01    0.4332884    0.1442607 -42.95  0.001331599    2.976    0.664
        66 -10.1269     64.9719     99.9834   1.0177577607e+02   4.8469214541e+01    0.2676183    0.1971633  33.53  0.001140833    1.529    0.346
        67 -11.8381     52.7323     90.7798   1.0358459220e+02   5.2162208610e+01    0.4196602     0.202468 -48.65  0.001324743    1.799    0.444
        68  -8.6308    164.6651     91.7176   7.1834954367e+01   3.0468192957e+01    0.1601777      0.12429  16.84 0.0004643816    1.618    0.382
        69  -9.4492     57.1749    210.6794   1.1984706001e+02   2.4075507547e+01    0.3976938    0.2313386 -68.47   0.00128298    1.705    0.414
        70  -9.4313    155.8322     81.1777   7.0744417613e+01   3.4634830248e+01    0.2195153    0.1875073  14.34 0.0005627677    1.338    0.253
        71  -9.2263    184.3408     77.3162   6.3646254241e+01   2.8250175529e+01    0.1602543    0.1209609  19.94 0.0007048419    1.708    0.414
        72  -9.9865     65.6855     70.6043   9.3685273425e+01   5.4990303505e+01    0.2539939    0.1974478  49.49  0.001395713    1.568    0.362
        73  -9.3983     72.7137    217.5334   1.1745373158e+02   2.0656522020e+01    0.1597947   0.09301593  53.28 0.0004702212    1.432    0.302
        74 -10.2112    169.0995    236.2638   1.0106761737e+02   2.2523006441e+00    0.1777398     0.176232 -87.24 0.0004081496    1.264    0.209
        75  -9.5556     43.4737    236.7077   1.2432245981e+02   2.0788627963e+01    0.1174094   0.09086541 -87.71 0.0005954927    1.287    0.223
        76 -11.4318     61.0516    234.0193   1.2104218502e+02   1.9100122321e+01    0.1887206    0.1331288  83.60 0.0003813651    1.258    0.205
        77 -10.9492    156.9774     59.1343   6.3674786687e+01   3.8236957940e+01    0.3428001     0.266874 -81.01 0.0005062709    1.586    0.370
        78 -10.8992    159.4010     53.1979   6.1283516167e+01   3.8568277040e+01    0.2704674    0.2517847  71.31 0.0003019746    1.074    0.069
        79  -8.7336     49.6247    217.0702   1.2181944771e+02   2.3751137040e+01    0.2923573    0.2132932  11.46  0.001721515    2.617    0.618
        80 -10.4715     54.0098    231.5421   1.2211620817e+02   2.0450648962e+01    0.2093263    0.1335806  86.93   0.00138101    1.418    0.295
        81  -9.2292    220.4648    228.4194   9.0410171331e+01  -4.9533414415e+00    0.1893546    0.1121701 -46.03  0.001029806    2.377    0.579
