#   1 NUMBER                 Running object number                                     
#   2 MAG_AUTO               Kron-like elliptical aperture magnitude                    [mag]
#   3 X_IMAGE                Object position along x                                    [pixel]
#   4 Y_IMAGE                Object position along y                                    [pixel]
#   5 X_WORLD                Barycenter position along world x axis                     [deg]
#   6 Y_WORLD                Barycenter position along world y axis                     [deg]
#   7 A_WORLD                Profile RMS along major axis (world units)                 [deg]
#   8 B_WORLD                Profile RMS along minor axis (world units)                 [deg]
#   9 THETA_WORLD            Position angle (CCW/world-x)                               [deg]
#  10 FWHM_WORLD             FWHM assuming a gaussian core                              [deg]
#  11 ELONGATION             A_IMAGE/B_IMAGE                                           
#  12 ELLIPTICITY            1 - B_IMAGE/A_IMAGE                                       
         1 -14.4928    219.1577      4.8072   4.0542861078e+01   2.9198839027e+01     2.767176     1.528982  48.71  0.008306292    2.089    0.521
         2 -13.8107    178.7003     48.1113   5.8087499532e+01   3.4251429606e+01      1.26891    0.9834023  14.32 0.0008167939    1.578    0.366
         3 -13.9655    190.6322     37.5822   5.2966019612e+01   3.2618219185e+01     1.136973    0.9783054 -54.33   0.00331012    1.159    0.137
         4 -14.0744    197.5938     29.1196   4.9512046635e+01   3.1901244202e+01     1.067091    0.9115278  16.40  0.001344987    1.391    0.281
         5 -10.9340    189.9394     14.8658   4.6369809554e+01   3.5508104604e+01    0.2354212    0.2078277 -32.49 0.0007250765    1.198    0.165
         6 -10.8865     71.2489      7.0009   6.8177561413e+01   6.4335462400e+01    0.1666759   0.09817982 -21.11 0.0006187151    1.600    0.375
         7  -9.7421     58.9068    227.8989   1.2236752507e+02   2.0806043892e+01    0.1201834    0.0922121  78.80 0.0003010397    1.104    0.094
         8 -19.4892     16.7171    143.8699   1.2357729248e+02   4.2854252591e+01     18.53954     5.326043 -78.45   0.07228126    3.314    0.698
         9 -10.4616     44.7084    198.9832   1.2264795384e+02   2.8097350891e+01    0.2009141     0.168914 -64.93  0.001438839    1.465    0.317
        10  -9.5380     73.4698    218.5296   1.1894457119e+02   2.0623543695e+01    0.1197555   0.09202744  68.17 0.0001327125    1.028    0.027
        11 -12.2749     31.8173    198.0770   1.2502169869e+02   2.9724034055e+01    0.1992809    0.1495706  58.33 0.0005950842    1.230    0.187
        12 -10.6566     36.1199    197.7997   1.2418951615e+02   2.9311950958e+01     0.164615    0.1134869  69.25 0.0005180609    1.164    0.141
        13  -9.3701    159.7771    197.0303   9.9054361247e+01   1.0618474019e+01    0.1611826    0.1126433 -47.70 0.0004083387    1.614    0.380
        14 -11.8953    204.0138    200.2636   9.0938482621e+01   2.0418547933e+00    0.3555517    0.2927101 -23.31  0.002184346    1.284    0.221
        15 -10.0982     49.7326    216.4193   1.2311290547e+02   2.4075634871e+01    0.3258244    0.2299911  21.79  0.002030968    2.326    0.570
        16 -10.0716     82.3114    195.0825   1.1477890879e+02   2.3979030780e+01    0.2432212    0.1655643  52.38   0.00108097    1.307    0.235
        17 -11.2036     97.0217    192.7798   1.1144598924e+02   2.2238626471e+01     0.335665    0.2617075 -27.22  0.001454414    2.019    0.505
        18 -12.9630     66.5793    188.9057   1.1732387117e+02   2.7448701164e+01     0.704255    0.6038038 -64.18  0.003588142    1.350    0.259
        19 -12.1516    148.9674    186.4651   9.9500883106e+01   1.4543809744e+01    0.4282976    0.2997544  85.10  0.002034065    2.160    0.537
        20 -10.4283    154.5081    186.4986   9.8342437693e+01   1.3504612355e+01    0.2338477    0.1339257 -60.82  0.001034175    2.310    0.567
        21 -10.9960     55.9225    212.3111   1.2165073376e+02   2.4101822803e+01    0.6149014    0.2599997  63.73  0.002452364    2.463    0.594
        22 -11.8159     99.3469    180.7497   1.0930307261e+02   2.4371711843e+01    0.3287227    0.2620017 -62.41 0.0005897897    1.296    0.228
        23  -9.9440     73.8098    189.8018   1.1592537861e+02   2.6277372744e+01    0.1723336    0.1298394  64.19  0.001065457    1.157    0.135
        24 -16.2169     70.9924    146.8426   1.1081734717e+02   3.6223952571e+01     11.09991     5.150233  78.95   0.02196549    8.515    0.883
        25 -11.9723     38.7101    211.8397   1.2475782886e+02   2.6245767272e+01    0.3704897    0.1630361  71.12  0.001932929    2.300    0.565
        26  99.0000     43.2718    209.6308   1.2376651213e+02   2.6149843663e+01    0.4380775    0.1625887  71.01  0.001781171    3.791    0.736
        27 -10.8604     43.8991    205.5840   1.2333678559e+02   2.6871106774e+01    0.1696174    0.1294181 -78.70  0.001197141    1.288    0.224
        28  -9.5779    185.2706    169.6367   8.8731534722e+01   1.0629922391e+01    0.1375226    0.1148626 -81.96 0.0006998065    1.656    0.396
        29 -10.0550     29.8032    210.3685   1.2624916547e+02   2.7513596826e+01    0.2238569   0.07286736  47.74  0.001151508    2.426    0.588
        30  -9.6086    162.8440    168.1049   9.3136985988e+01   1.5397091092e+01    0.2118384    0.1912721  77.86 0.0004877139    1.246    0.197
        31  -9.7933    192.4787    164.9868   8.6299907133e+01   1.0015610179e+01    0.2119493     0.140649 -38.16 0.0005167984    1.555    0.357
        32 -10.4716    157.8033    161.1743   9.2839720545e+01   1.7772073824e+01    0.2224758    0.1985251  70.47  0.001141897    1.214    0.176
        33 -12.6057     95.0023    153.7977   1.0607155932e+02   3.1015034365e+01    0.6569972    0.4585788 -33.04  0.003200016    1.991    0.498
        34 -10.4622    189.0176    154.5183   8.4749115288e+01   1.2620481488e+01    0.2331528    0.1408825  43.93  0.001039752    1.612    0.380
        35 -11.5875    133.8924    145.4494   9.5050654159e+01   2.5868032303e+01     1.217104    0.3145002 -54.56  0.003005467    5.560    0.820
        36  -9.9696    113.2813    151.2537   1.0118394756e+02   2.8472327401e+01    0.3061819    0.2018745  80.50  0.001330517    2.140    0.533
        37 -10.4545    174.4697    148.7482   8.6530816351e+01   1.6779715240e+01    0.3104442    0.2501904 -88.25  0.000972261    1.693    0.409
        38 -10.7159    143.5033    145.9792   9.2891081974e+01   2.3823532763e+01    0.3427422    0.1459644 -53.50  0.001207202    2.649    0.623
        39  -9.9858    107.5114    145.9260   1.0157289423e+02   3.0702266616e+01    0.2128756     0.137801 -58.93 0.0005257847    1.518    0.341
        40 -11.6571    106.9189    139.3692   1.0042500710e+02   3.2308649995e+01    0.5627936    0.3467278 -33.67  0.002400115    2.209    0.547
        41 -12.5111     94.8753    139.4002   1.0349285931e+02   3.4357195433e+01    0.3028446    0.2863661  13.70 0.0004813848    1.262    0.207
        42 -11.1753    105.9453    130.8417   9.8897926824e+01   3.4449663772e+01    0.3846517    0.3116738 -64.43  0.001857896    1.201    0.167
        43 -11.0664    114.3770    130.0302   9.6537852073e+01   3.3094510660e+01    0.3367011    0.2651492 -37.69 0.0007039174    1.369    0.269
        44 -11.1933    135.7449    127.5629   9.0567944831e+01   2.9422690418e+01    0.5737975    0.1913443 -51.39  0.001748074    3.296    0.697
        45 -11.0661    101.9482    126.0640   9.8912743831e+01   3.6265164936e+01    0.2986381    0.2490049 -23.13 0.0009879706    1.460    0.315
        46 -11.1144    120.2742    123.1670   9.3436282748e+01   3.3527948181e+01    0.5706574    0.3233546 -21.96  0.001792187    3.960    0.747
        47 -13.5243     57.0681    202.5531   1.2058213890e+02   2.5878498895e+01    0.5332839    0.4098198  74.67  0.001723827    1.031    0.030
        48 -10.1764    160.6616    127.9852   8.4729155085e+01   2.3970223283e+01    0.2898631    0.2293101  78.23   0.00134063    1.611    0.379
        49 -10.2272    109.9067    119.0118   9.5179606577e+01   3.6457525514e+01    0.2174978    0.2082181 -67.39 0.0003949401    1.010    0.010
        50 -10.2016    167.5873    112.4123   7.9173919001e+01   2.5582530393e+01     0.340142    0.2441682 -72.14  0.001420165    1.971    0.493
        51 -11.3757    118.8255    110.8040   9.0762284736e+01   3.6602734506e+01      0.51603    0.3256679  58.01  0.002193206    1.902    0.474
        52 -10.2422    205.5168    110.1543   7.0766764045e+01   1.7152307002e+01    0.3206324    0.2188728  41.15  0.001002281    1.537    0.350
        53 -12.1143     71.0652    207.0670   1.1830568963e+02   2.3151259710e+01    0.5576558    0.2953784  29.00  0.002222475    2.659    0.624
        54 -11.1589     41.7674     91.6630   1.0901574042e+02   5.2741360550e+01    0.2473635    0.1664081 -43.48 0.0005260606    1.403    0.287
        55  -9.5027    184.5037     84.5140   6.7852389458e+01   2.6824184440e+01    0.1560206    0.1514505 -45.64 0.0001055921    1.026    0.026
        56 -10.2554     32.8999    205.7450   1.2537578469e+02   2.8079798523e+01    0.1734551    0.1281045 -81.69  0.001247993    1.262    0.208
        57 -11.4921    160.9005     62.2430   6.5966505831e+01   3.6617489919e+01    0.4814697    0.3315229 -78.48 0.0009480896    2.159    0.537
        58 -12.0316    162.9764     55.6687   6.3437279164e+01   3.7155686709e+01    0.5063165    0.3661759  86.21  0.002253446    1.782    0.439
        59 -11.2652     62.1080    235.9096   1.2242356912e+02   1.8970977559e+01    0.1716067    0.1260323  81.55 0.0005230767    1.180    0.153
        60 -11.0131     51.2337    226.0432   1.2356955254e+02   2.2097239212e+01    0.2123307    0.1192228  73.40 0.0009202348    1.573    0.364
        61 -12.0360     49.5510    233.8281   1.2440867442e+02   2.0898573126e+01    0.2299669    0.1346835  69.30 0.0003660243    1.389    0.280
        62 -11.1897     53.5779    231.3436   1.2354897688e+02   2.0850253269e+01    0.1897888     0.138928  78.86 0.0006420127    1.121    0.108
        63 -11.5111     96.7107    200.8094   1.1252458448e+02   2.0675485639e+01    0.4654302    0.2896371 -38.71  0.001254985    2.569    0.611
        64 -11.9398    194.2188    196.5292   9.2131497276e+01   4.3801260804e+00     1.176504    0.6586024 -65.51  0.003705473    6.123    0.837
        65  -9.4410     87.7298    202.4603   1.1453242912e+02   2.1701839767e+01    0.1594753    0.1146813  34.16 0.0009343961    1.593    0.372
        66  -9.6529     36.0336    234.2451   1.2668662454e+02   2.2403908054e+01    0.1416312   0.09475353  66.65 0.0003634911    1.083    0.076
