#   1 NUMBER                 Running object number                                     
#   2 MAG_AUTO               Kron-like elliptical aperture magnitude                    [mag]
#   3 X_IMAGE                Object position along x                                    [pixel]
#   4 Y_IMAGE                Object position along y                                    [pixel]
#   5 X_WORLD                Barycenter position along world x axis                     [deg]
#   6 Y_WORLD                Barycenter position along world y axis                     [deg]
#   7 A_WORLD                Profile RMS along major axis (world units)                 [deg]
#   8 B_WORLD                Profile RMS along minor axis (world units)                 [deg]
#   9 THETA_WORLD            Position angle (CCW/world-x)                               [deg]
#  10 FWHM_WORLD             FWHM assuming a gaussian core                              [deg]
#  11 ELONGATION             A_IMAGE/B_IMAGE                                           
#  12 ELLIPTICITY            1 - B_IMAGE/A_IMAGE                                       
         1 -12.5535    148.1603     21.6800   2.9028213756e+02   6.6287116916e+00   0.02067187   0.01484538  71.98 0.0006015157    1.750    0.429
         2 -12.8713    101.7643     21.5172   2.9082950766e+02   6.9147181354e+00   0.03219893   0.01181059 -42.28  0.002254622    3.459    0.711
         3 -11.2068     95.1828     25.2275   2.9093000146e+02   6.9124765837e+00  0.009207291  0.007731446  63.72 0.0005329188    1.305    0.234
         4 -12.0735    132.5571     14.3682   2.9042178857e+02   6.8080555767e+00   0.01240437     0.010459 -27.85 0.0005372552    1.265    0.209
         5 -11.4015    121.7763     15.2319   2.9055449421e+02   6.8642070717e+00   0.01772084   0.00592908 -50.11  0.001308011    2.933    0.659
         6 -12.0573    132.3577      6.3814   2.9037529796e+02   6.9007011964e+00   0.01396258   0.01119345 -21.11  0.001555252    1.390    0.281
         7 -11.4439    122.1079      6.7067   2.9049844601e+02   6.9597695251e+00   0.01899828  0.007064443 -48.88  0.001452683    2.716    0.632
         8 -12.3914     58.5247      2.1348   2.9122265940e+02   7.4008375055e+00   0.02173169  0.008406095  16.01  0.001392803    4.133    0.758
         9 -11.4971    139.4086      1.3613   2.9026125418e+02   6.9149384429e+00   0.01022458  0.006343146  21.93   0.00099505    1.656    0.396
        10 -11.2197    230.5167    186.5262   2.9031724862e+02   4.2346781778e+00   0.00662688  0.006469447  28.82 4.176466e-05    1.011    0.011
        11 -16.3040    162.4964    117.0021   2.9069504899e+02   5.4486751174e+00    0.1403058   0.09351043 -56.93   0.01461964    1.502    0.334
        12 -14.5510    143.1124    142.4122   2.9107862067e+02   5.2759818687e+00   0.05149068   0.02799953 -73.99  0.004379822    2.278    0.561
        13 -16.7381    126.8841    105.5374   2.9104546524e+02   5.7981706918e+00    0.2928411    0.1296471 -61.67   0.02483513    2.294    0.564
        14 -13.4421    174.4447    138.4412   2.9068484124e+02   5.1296592050e+00   0.01684412   0.01339848  56.46  0.001303137    1.360    0.265
        15 -11.5265    188.5332    142.6137   2.9054417024e+02   4.9954801073e+00   0.01157494  0.009343122  37.17 0.0003270824    1.212    0.175
        16 -17.1867    189.2127    172.4860   2.9071821091e+02   4.6487990851e+00    0.4161623    0.1635287 -53.16   0.03387676    2.443    0.591
        17 -11.3485    244.1199    136.5839   2.8985248295e+02   4.7235636105e+00   0.01065304  0.008988553 -52.08 0.0007535346    1.197    0.165
        18 -12.2185    150.4971    136.5250   2.9095562936e+02   5.2983010214e+00   0.01144984   0.01097693  48.79  0.001412223    1.054    0.051
        19 -13.2075    182.5033    134.3495   2.9056486958e+02   5.1271872854e+00   0.03105306   0.01483136  39.64  0.001817214    2.040    0.510
        20 -12.5589    181.0403    128.0269   2.9054356213e+02   5.2086410271e+00   0.01612348   0.01172398   5.67 0.0008092311    1.567    0.362
        21 -11.5616    150.3008    130.9368   2.9092389231e+02   5.3635885725e+00   0.01402204    0.0102754  16.64  0.001148599    1.425    0.298
        22 -11.6399    100.4401    132.3099   2.9152078567e+02   5.6527856015e+00   0.01182624   0.01090443  55.41 0.0003133119    1.117    0.105
        23 -10.5574    104.4840    128.9134   2.9145236204e+02   5.6670403696e+00  0.009730255  0.006581507 -60.47 0.0004863075    1.499    0.333
        24 -12.0799    146.2224    131.2409   2.9097386708e+02   5.3850685703e+00   0.01143232   0.01033959  34.02 0.0007054501    1.083    0.077
        25 -12.0681    189.7336    122.6685   2.9040836825e+02   5.2167701243e+00   0.01477167   0.01180494 -33.55  0.001042805    1.337    0.252
        26 -18.2733    221.5999    169.3560   2.9031759087e+02   4.4861716857e+00    0.8360685   0.03792466 -62.19   0.02026722   28.134    0.964
        27  -9.5511    238.4692    119.4404   2.8981434998e+02   4.9546769435e+00  0.006882221  0.006150152 -20.10 0.0002541131    1.175    0.149
        28 -14.4633     54.0067    148.9052   2.9217004908e+02   5.7456990924e+00   0.03166204   0.02991785  16.39   0.00391138    1.045    0.043
        29 -10.7402    182.5170    114.4372   2.9044324302e+02   5.3553726941e+00  0.006629483  0.006424408  30.11 0.0001078412    1.015    0.015
        30 -11.5527    184.6937    110.3676   2.9039273777e+02   5.3886710243e+00   0.01496768   0.01025321  76.64  0.001011232    1.947    0.486
        31 -10.9331    188.0206    109.5112   2.9034827592e+02   5.3780843803e+00   0.01844908   0.01163789  48.67 0.0004934885    1.703    0.413
        32 -17.6857    190.2334     63.0004   2.9003808634e+02   5.8974115110e+00     0.332465    0.2338399  28.62   0.03551624    1.385    0.278
        33 -10.6484     24.1132    105.1479   2.9225742202e+02   6.4298402035e+00   0.01033694  0.008902008 -16.28  0.000674438    1.246    0.198
        34 -11.1197    179.9587    103.3567   2.9040579399e+02   5.4980632896e+00   0.01031433  0.009076231  66.19 0.0007017871    1.225    0.184
        35 -13.1133     93.7608    133.5877   2.9160743296e+02   5.6789250063e+00   0.09199765   0.01218262 -57.56  0.005091161    5.278    0.811
        36 -14.6150     71.5769    150.9441   2.9197493716e+02   5.6151767863e+00   0.03079252   0.02840514  19.79  0.001411545    1.069    0.065
        37 -11.1661     86.1959     98.0102   2.9148019252e+02   6.1332142740e+00   0.01386169  0.009048475 -75.01  0.001370769    1.774    0.436
        38 -11.6499     99.9787     93.0627   2.9128720160e+02   6.1057450753e+00   0.01382768   0.00887113 -60.77 0.0008834568    1.581    0.367
        39 -11.3349    247.9068     89.7104   2.8952154639e+02   5.2372137891e+00    0.0127109  0.009898243 -71.65  0.001404429    1.377    0.274
        40 -11.6925    232.7212     86.3502   2.8967988845e+02   5.3690244841e+00   0.01634439    0.0118033  -0.35    0.0016919    1.647    0.393
        41  99.0000    240.1272     83.2751   2.8957383912e+02   5.3587252474e+00   0.02839131   0.01405462  22.25  0.002467104    2.153    0.536
        42 -12.7265     78.8016     86.5352   2.9149767026e+02   6.3099560006e+00    0.0207738   0.00685936  24.87   0.00145277    3.237    0.691
        43 -15.7620     81.0754    143.8368   2.9181957012e+02   5.6387791436e+00   0.09386613   0.05757311  24.45  0.008545708    1.633    0.388
        44 -11.9724     98.0395     72.8902   2.9118713206e+02   6.3488740664e+00   0.03846136     0.018179  51.35  0.003082572    2.692    0.629
        45 -11.9470     79.0834     74.2404   2.9141941598e+02   6.4492045997e+00   0.01262768  0.009767712 -72.61 0.0005833111    1.395    0.283
        46 -15.3556     53.9069    161.9731   2.9225058202e+02   5.5963315709e+00   0.05812551   0.04370699 -55.56  0.005820239    1.337    0.252
        47 -12.8410    134.8617    147.4146   2.9120643396e+02   5.2690854894e+00   0.02370612   0.02110346  63.94  0.002013249    1.197    0.165
        48 -11.2715     13.0739     60.0073   2.9211343310e+02   7.0146955145e+00   0.01010557  0.009950518  27.87 0.0004985844    1.013    0.013
        49 -12.1848     64.8754     57.9194   2.9148791562e+02   6.7230262532e+00   0.01985407  0.009282803 -65.73   0.00168164    2.326    0.570
        50 -11.8926    103.0158     54.8588   2.9101831092e+02   6.5251130992e+00   0.01166612  0.009571915 -63.73 0.0006464219    1.254    0.202
        51 -12.3011     92.2353     52.4486   2.9113103850e+02   6.6186390808e+00    0.0221029  0.007410888 -45.67   0.00154792    3.351    0.702
        52 -12.0059     22.7650     45.2370   2.9190881354e+02   7.1250348264e+00    0.0116473   0.01107932  89.93 0.0003442678    1.103    0.094
        53 -12.9178     99.7934     30.8509   2.9090982790e+02   6.8198745081e+00   0.01690094   0.01234914  66.14  0.001614484    1.645    0.392
        54 -11.2392    158.4893     29.2059   2.9020616030e+02   6.4792047435e+00   0.01114117  0.009220278  88.94 0.0002168958    1.371    0.271
        55 -11.6554    167.1895     28.0512   2.9009636040e+02   6.4390481211e+00   0.01419339  0.008817879 -38.44 0.0009198539    1.797    0.443
        56 -10.8217    169.2595     22.5642   2.9003835344e+02   6.4891581902e+00    0.0235933  0.005595401 -56.02  0.001557746    3.656    0.726
        57 -12.3265     64.1878     26.4035   2.9130380990e+02   7.0883523440e+00   0.01619835   0.01065813 -45.67   0.00165563    1.565    0.361
        58 -11.8431     77.9178     26.8471   2.9114408866e+02   6.9994387902e+00   0.01035853  0.008914915 -21.76 0.0003323635    1.241    0.194
        59 -12.0339    151.3056     23.3320   2.9025508501e+02   6.5905120401e+00    0.0219008   0.01521227 -78.24  0.002097387    1.682    0.406
        60 -11.3438    206.7951    227.1745   2.9084400495e+02   3.9140216252e+00   0.01004584  0.008884285  56.03 0.0005501853    1.180    0.153
        61 -11.7146    240.3053    213.4173   2.9036585409e+02   3.8664476179e+00   0.01191668   0.01074619  47.66  0.000271818    1.122    0.109
        62 -11.2812    247.6188    212.4606   2.9027397612e+02   3.8325846595e+00   0.01645435  0.006791814  23.55  0.001286675    2.597    0.615
        63 -11.7008    107.6026     18.6842   2.9074316344e+02   6.9114418331e+00   0.01173791   0.01034164 -78.43  0.001073361    1.212    0.175
        64 -11.7812    121.2616     20.2568   2.9059129669e+02   6.8098257319e+00   0.01135162  0.009809849 -28.29 0.0005086362    1.220    0.180
        65 -10.8556    176.6389     17.0230   2.8991732175e+02   6.5072808288e+00   0.01205585  0.003575527 -43.42 0.0007036274    4.633    0.784
        66 -14.6208      3.5930    198.1014   2.9306358587e+02   5.4877598594e+00   0.05569898   0.02817667 -59.25  0.004112342    1.963    0.491
        67 -15.3836     19.6582    185.4505   2.9279734441e+02   5.5353389375e+00   0.05854114   0.03192448  -8.98  0.004384438    3.415    0.707
        68 -12.5477    132.8080    141.0341   2.9119181636e+02   5.3548346796e+00   0.02623191   0.01064648 -72.23  0.001839259    3.577    0.720
        69  -9.9286    126.5925    196.3028   2.9160135339e+02   4.7587717369e+00  0.007418098   0.00476868  57.02 0.0002036649    1.854    0.461
        70 -12.1217     65.8445    192.1299   2.9229267200e+02   5.1774458298e+00   0.01053509  0.009038594  59.75  0.000562548    1.245    0.197
