#   1 NUMBER                 Running object number                                     
#   2 MAG_AUTO               Kron-like elliptical aperture magnitude                    [mag]
#   3 X_IMAGE                Object position along x                                    [pixel]
#   4 Y_IMAGE                Object position along y                                    [pixel]
#   5 X_WORLD                Barycenter position along world x axis                     [deg]
#   6 Y_WORLD                Barycenter position along world y axis                     [deg]
#   7 A_WORLD                Profile RMS along major axis (world units)                 [deg]
#   8 B_WORLD                Profile RMS along minor axis (world units)                 [deg]
#   9 THETA_WORLD            Position angle (CCW/world-x)                               [deg]
#  10 FWHM_WORLD             FWHM assuming a gaussian core                              [deg]
#  11 ELONGATION             A_IMAGE/B_IMAGE                                           
#  12 ELLIPTICITY            1 - B_IMAGE/A_IMAGE                                       
         1  -9.9995    201.7127     36.5882   6.9882486451e+01   3.0280547920e+01     1.399655     0.705256  -6.42  0.004493551    4.360    0.771
         2 -10.1277    204.4601      5.8597   6.1189104081e+01   3.3127491784e+01    0.9120716    0.5750095  64.70  0.004777739    1.489    0.328
         3  -9.1352    192.9157     11.9096   6.4049365597e+01   3.5454106249e+01    0.2956603    0.2420242 -65.80  0.001689167    1.171    0.146
         4  -9.0412    187.1308      9.4292   6.4003375761e+01   3.7202003954e+01     1.163788    0.4485429 -66.90  0.003306472    5.265    0.810
         5  -9.4529    199.8274     15.6166   6.4306069574e+01   3.3282886799e+01    0.3891718    0.3510046  -8.08    0.0018601    1.335    0.251
         6  -8.0553    197.9910     11.3036   6.3320707428e+01   3.4213992802e+01    0.2830167    0.2440963 -89.60  0.001023298    1.033    0.031
         7  -9.7311    240.1977      2.3911   5.7371194082e+01   2.4828604304e+01    0.3834456    0.2426734 -87.88  0.001305651    1.453    0.312
         8 -10.4636    225.9751     23.7801   6.3700811402e+01   2.5808475220e+01    0.6531207    0.4514644 -74.96   0.00349634    1.410    0.291
         9 -10.7180    220.8097     15.4099   6.2097677057e+01   2.8039265546e+01    0.6488709    0.5307371  88.35  0.003418326    1.118    0.106
        10 -10.5206    249.2802      5.2828   5.7385071964e+01   2.2456893526e+01    0.6258345    0.2904652 -30.89  0.003083272    2.097    0.523
        11  -9.8657    231.5976      2.8872   5.8118891764e+01   2.6785209101e+01    0.4436398    0.2036198 -84.29  0.001437945    2.372    0.578
        12 -10.0690    250.0686     18.9591   6.0398913824e+01   2.0741537972e+01    0.6062414    0.2281577 -29.61  0.002239808    2.614    0.617
        13 -10.3545    245.6642     13.8643   5.9586013623e+01   2.2325650051e+01    0.6418811    0.2674205  62.95  0.002939072    2.395    0.583
        14 -10.0035    244.4736     21.6560   6.1482427630e+01   2.1692988506e+01    0.4723164    0.3320298 -12.99  0.001775486    1.894    0.472
        15 -10.9663    238.0353     18.0507   6.1187745859e+01   2.3607242770e+01     0.785006    0.5622133 -79.46  0.004503168    1.298    0.230
        16 -10.3991    231.7868     12.9236   6.0498113181e+01   2.5663970890e+01    0.7599865    0.4499257  18.07  0.003138698    3.598    0.722
        17 -10.3014    238.6638      8.8772   5.8980615198e+01   2.4491964881e+01     0.560784    0.2773706 -64.10  0.002019262    2.020    0.505
        18 -10.1584    222.1343      5.9633   5.9620528517e+01   2.8735817062e+01    0.5032982    0.3955159 -48.84  0.003029122    1.205    0.170
        19  -8.6884    168.6597     11.7084   6.7015897235e+01   4.1779753705e+01    0.3881574    0.1681557 -42.06  0.001590939    2.392    0.582
        20 -10.3400    212.7923      9.0281   6.1225622960e+01   3.0713836673e+01    0.5765487    0.3474083 -38.40  0.002981304    1.603    0.376
        21  -8.5971    214.4040      1.7991   5.9236259157e+01   3.1050865709e+01    0.2224934    0.1739629 -10.82 0.0007061311    1.633    0.388
        22  -8.5366    179.7784     12.3229   6.5737746013e+01   3.8817786825e+01    0.2789756    0.1615403 -88.11  0.001248586    1.914    0.477
        23  -9.7391    155.3847      9.9472   6.8368221184e+01   4.5402408713e+01    0.3280579    0.2583694 -13.15  0.001434459    1.449    0.310
        24  -9.0893    116.7048      6.9590   7.4247246646e+01   5.5341346423e+01    0.2372657    0.1746555 -42.85  0.001054142    1.572    0.364
        25  -8.5613    112.4972     11.0179   7.6818185079e+01   5.5947366087e+01     0.197042    0.1326696 -16.18 0.0008686669    1.587    0.370
        26  -8.3892     84.4897     10.9676   8.4242226956e+01   6.2064868578e+01    0.1916814    0.1213483 -21.25 0.0009186437    1.581    0.367
        27  -9.1261    171.3649      5.7150   6.4800245038e+01   4.1653688348e+01    0.3510297    0.2218475 -51.41  0.001751062    1.678    0.404
        28  -8.0578    175.2232      4.9971   6.4104943688e+01   4.0718464992e+01    0.2342818    0.1501669 -66.48  0.001149991    1.693    0.409
        29  -8.1850    132.2675      6.0953   7.0853134414e+01   5.1632874883e+01    0.2100334   0.09653337  10.97 0.0006992215    4.068    0.754
        30  -7.8044    158.2829      6.6371   6.6850077959e+01   4.4963417996e+01    0.1439967   0.09661004 -60.86 0.0004915805    1.682    0.405
        31  -8.4235     60.5114      5.5206   8.9758350244e+01   6.7127033188e+01    0.1243084    0.1013756   8.78 -4.356975e-06    1.010    0.010
        32  -8.8419    165.2678      3.2066   6.4799388905e+01   4.3463750002e+01    0.3089509    0.1603494 -22.14  0.001415301    2.156    0.536
        33  -8.3227    143.3913      4.2003   6.8276421337e+01   4.9002139562e+01    0.1870921    0.1212754 -36.36 0.0009486559    1.675    0.403
        34  -8.8211    190.2416      2.1221   6.1588611353e+01   3.7108063573e+01    0.3260905    0.2136681  70.29  0.001149752    1.363    0.266
        35  -9.2085     63.6261      2.2412   8.6915247094e+01   6.6933318129e+01    0.2352544      0.18992   8.98  0.001000647    1.041    0.039
        36  -7.6511    159.3374      3.3308   6.5627238179e+01   4.4987528676e+01    0.1481403   0.09121101  40.70  0.000705203    1.736    0.424
        37  -8.7558    194.5142      2.0388   6.1131951390e+01   3.6023205473e+01    0.2799694    0.1739578 -61.56  0.001416083    1.621    0.383
        38 -11.2854    237.7415    190.3815   1.0096574766e+02  -1.9992773974e+00    0.6972645     0.306213 -39.50  0.003179293    2.461    0.594
        39  -8.6869    224.2266    192.0812   1.0367655870e+02   8.3066210505e-02    0.2277986    0.1800096 -47.92  0.001096756    1.631    0.387
        40  -8.4758     22.3172    190.3323   1.4510228552e+02   3.3181724354e+01    0.1042645   0.07989206 -57.15 0.0003151543    1.689    0.408
        41  -8.4413    111.6710    188.6747   1.2598897034e+02   2.1379504634e+01    0.1267908    0.1089411  -5.66 0.0007050246    1.701    0.412
        42 -10.2307    249.6034    184.5240   9.7822057637e+01  -3.1746916428e+00    0.4923419    0.2623829 -31.91  0.002568906    1.811    0.448
        43  -8.8423    224.2371    184.4969   1.0222427888e+02   1.1949087753e+00    0.2298028    0.1777273 -30.09 0.0007155731    1.328    0.247
        44 -11.2328    242.2328    180.6868   9.8315329304e+01  -1.4073146694e+00    0.6443745    0.2984684 -36.36  0.002683692    2.152    0.535
        45 -10.0128    245.5179    178.5049   9.7327059104e+01  -1.6608221401e+00    0.2404035     0.236006 -65.10  0.001104211    1.432    0.302
        46  -9.7860    226.4365    179.3529   1.0081923899e+02   1.5691220658e+00    0.3208461     0.258171   6.72 0.0008510456    1.182    0.154
        47  -8.1835    219.0146    178.5294   1.0200572972e+02   3.0535879988e+00    0.1988307    0.1248086  42.99 0.0006639987    1.540    0.351
        48  -8.1422    158.4058    178.2364   1.1407368015e+02   1.4847651268e+01    0.1819045    0.1380002 -59.95 0.0009391126    1.514    0.339
        49  -8.1317    152.5165    178.4426   1.1537978285e+02   1.5954749381e+01    0.1426907    0.1288434  53.02 8.918596e-05    1.031    0.030
        50 -10.2774    233.3270    174.9776   9.8721290221e+01   9.8166999037e-01    0.3523409    0.2095337 -41.52  0.001563014    1.836    0.455
        51 -11.5102    246.1309    159.6712   9.3383919805e+01   9.5591230648e-01     1.288799    0.3717864 -42.90  0.004236286    4.169    0.760
        52 -10.9750    243.7225    168.9797   9.5713728667e+01   1.4405411111e-02    0.4729332    0.2956655   9.56  0.001932177    1.995    0.499
        53  -9.0567    250.4861    158.7635   9.2477895273e+01   3.1200165629e-01    0.2568291    0.1486154 -35.80 0.0007308343    1.643    0.391
        54  -9.5254    225.6713    172.7462   9.9632584389e+01   2.7158350371e+00    0.3525436    0.2371112 -31.83  0.001293536    1.479    0.324
        55  -9.8581    237.4107    169.7248   9.6944314785e+01   1.0296188954e+00    0.3129004     0.232779 -54.16  0.001458407    1.860    0.462
        56  -9.1341    233.9194    164.2847   9.6427763221e+01   2.4898134731e+00    0.2931733     0.179182 -46.43  0.001175808    1.932    0.482
        57  -8.0374      9.9321    172.0000   1.4636269228e+02   3.8213584571e+01    0.1627124   0.06150821  30.21 0.0008139163    3.023    0.669
        58  -7.9523    212.2919    169.6620   1.0146870183e+02   5.7402865172e+00    0.1303192    0.1122237 -78.76 0.0007025418    1.645    0.392
        59  -8.8040    147.1167    168.1309   1.1465597551e+02   1.9065162369e+01    0.2154141    0.1980438  62.67 0.0004885536    1.049    0.047
        60  -9.5390    240.4780    163.4233   9.5117854723e+01   1.4174721044e+00    0.2831258    0.2287671  -4.86  0.001412108    1.161    0.138
        61  -8.2029     51.9688    159.9929   1.3582208257e+02   3.6558983835e+01    0.2160759    0.1295482  70.71  0.001127901    1.705    0.413
        62  -8.8924    237.0018    159.2393   9.4834710557e+01   2.6921731892e+00    0.1885783    0.1695441  -2.47  0.001148618    1.027    0.026
        63  -9.1253    226.8294    156.9312   9.6125037953e+01   4.9873689155e+00    0.2198109    0.1738904   2.61 0.0008750793    1.309    0.236
        64  -8.5632     80.4235    155.8284   1.2832440195e+02   3.3653898028e+01    0.1890966    0.1184622 -54.19 0.0005931864    1.632    0.387
        65 -11.0636    242.2177    133.8591   8.8417266145e+01   5.6626498212e+00    0.5632862    0.4514424 -36.87  0.002304454    1.200    0.166
        66  -8.9705    250.2544    140.3499   8.8570614997e+01   3.1110487671e+00     0.236216    0.1733503 -27.72 0.0007070195    1.233    0.189
        67 -10.9896    248.9390    133.4713   8.7259012354e+01   4.4172152081e+00    0.7294167    0.2952584 -38.27  0.003005044    2.255    0.557
        68 -11.3274    243.7481    149.7316   9.1664553541e+01   2.8935173810e+00    0.9712974    0.4150139 -27.58  0.002997743    2.500    0.600
        69  -9.9978    249.7655    151.5133   9.1062668864e+01   1.5146584870e+00    0.5392296    0.2912131 -35.24  0.002549296    1.719    0.418
        70  -8.6104    118.4792    153.9452   1.1863306195e+02   2.7636957988e+01    0.2223004    0.1419238 -56.71  0.001033062    1.595    0.373
        71  -8.3384    233.1214    152.9009   9.4150264881e+01   4.4152167133e+00    0.2579963    0.1764419 -25.26  0.001335793    1.422    0.297
        72  -8.9078    221.4630    152.8647   9.6212775879e+01   6.7037210801e+00    0.2477685    0.2247112 -75.13 0.0008240052    1.420    0.296
        73  -9.4731    234.7049    147.8126   9.2770146823e+01   4.9165719640e+00    0.2431481    0.2274618 -40.21  0.001144748    1.201    0.167
        74  -9.4108    229.6369    148.0991   9.3710999560e+01   5.8624054573e+00    0.2197019    0.1678759 -47.66  0.001165399    1.465    0.317
        75  -8.9848    224.0835    146.5014   9.4340834584e+01   7.2311741098e+00    0.3007807    0.2397269   6.20  0.001613844    1.343    0.255
        76  -8.2680    111.9781    147.5051   1.1899733570e+02   3.0291019400e+01    0.2168643    0.1401046  43.73 0.0007900359    1.527    0.345
        77  -9.7980    230.4117    141.4715   9.2105289171e+01   6.7857078710e+00    0.3617324    0.2270647 -40.90  0.001088925    1.581    0.367
        78  -9.6714    225.1326    139.1964   9.2515514118e+01   8.2322537025e+00    0.4815517    0.1526261 -30.25  0.001446886    4.003    0.750
        79  -9.4982    233.9436    135.0964   9.0064575438e+01   7.1135518197e+00    0.3036399     0.180694 -34.04  0.001351378    1.578    0.366
        80  -9.2347    233.5965    129.7789   8.8908620142e+01   8.0514759383e+00    0.2756875    0.1593162 -43.82  0.001001795    1.745    0.427
        81  -8.5869     52.6810    136.3147   1.3247172741e+02   4.1992931582e+01    0.1374551   0.08984572  73.69 0.0003102522    1.652    0.395
        82  -9.4617    169.9995    134.7148   1.0239584268e+02   2.1050549351e+01    0.2718796    0.2288139 -41.59 0.0005430498    1.210    0.174
        83  -9.4910     83.6321    123.2213   1.2164355465e+02   4.0822096397e+01    0.1942094    0.1703704 -34.78 0.0004877486    1.305    0.234
        84 -10.1564     86.0044    128.9945   1.2215328976e+02   3.9080211970e+01    0.2261508    0.1896976  83.14 0.0005442418    1.207    0.171
        85  -8.2148    209.9961    138.0655   9.5016404598e+01   1.1600775039e+01     0.181196    0.1655445 -23.41 0.0006584851    1.064    0.060
        86  -8.3400     61.7734    129.9962   1.2900605343e+02   4.2357318190e+01    0.1819978    0.1005796 -64.53 0.0004385524    1.617    0.381
        87  -8.2684    221.9776    130.0000   9.0956903223e+01   1.0441243289e+01      0.22928   0.08231142  50.36 0.0007574966    2.899    0.655
        88  -7.7825     68.6561    128.6775   1.2687583644e+02   4.1746399714e+01    0.1379953     0.102955 -32.69 0.0007050273    1.731    0.422
        89  -8.7089    206.3484    126.8536   9.3066398680e+01   1.4391745712e+01    0.2362796    0.2079323  66.79 0.0005359322    1.267    0.211
        90 -10.1713    241.0700    124.7474   8.6531153566e+01   7.3425089067e+00    0.3696422    0.3290385 -56.38  0.001683875    1.263    0.208
        91  -8.6524    113.4919    126.4984   1.1420115918e+02   3.4812010042e+01    0.1502282    0.1419935 -87.20 -4.976769e-05    1.015    0.015
        92  -9.1677    229.5082    124.8766   8.8458396348e+01   9.7100255369e+00    0.2790104    0.2003535  74.18  0.001328024    1.952    0.488
        93  -8.4241    188.7480    124.0116   9.5828917168e+01   1.8896513319e+01    0.2030708    0.1297687 -39.10 0.0008823212    1.558    0.358
        94  -7.9061    161.5056    124.5252   1.0184223837e+02   2.5038937389e+01    0.1556566     0.149458  85.96 0.0008092858    1.065    0.061
        95  -7.9328    213.3374    123.6838   9.1009546488e+01   1.3405632820e+01    0.1495105    0.1168975 -73.73 0.0007048068    1.699    0.411
        96  -7.9258    221.5051    121.5066   8.9033689095e+01   1.1991865415e+01    0.1450142    0.1373736 -33.95 -6.333002e-06    1.049    0.047
        97  -8.6532    244.0922    119.8888   8.4937689891e+01   7.5050983327e+00    0.2988503    0.1973221 -66.18  0.001342723    2.345    0.574
        98  -9.4794    249.1838     98.6117   7.9226660946e+01   9.8055790848e+00    0.3013347    0.2255919 -54.59 0.0009237071    1.396    0.284
        99  -9.3165    245.0611     98.9637   7.9894919524e+01   1.0617721804e+01    0.4033699    0.2560566   5.92  0.001675809    2.713    0.631
       100  -8.9704    247.9711    102.9912   8.0426101941e+01   9.3755990900e+00     0.279263    0.2504098  39.59  0.001066205    1.229    0.186
       101 -11.6244    246.8582    111.7705   8.2637828959e+01   8.2264527531e+00     1.112463    0.6443172 -55.10  0.004936718    2.184    0.542
       102  -9.7677    248.5328    107.0172   8.1285531451e+01   8.6296139801e+00    0.3396076    0.3212095  16.72  0.001263605    1.138    0.122
       103  -9.7358    230.4139    116.2952   8.6281246622e+01   1.0944022006e+01    0.4630308     0.230945  57.26  0.001913538    2.307    0.566
       104  -7.7885    204.0000    115.9549   9.0845726766e+01   1.6885715012e+01    0.2451775   0.08400471 -37.12 0.0006895894    2.846    0.649
       105  -8.5792    182.9532    116.4187   9.5122730756e+01   2.1692861832e+01    0.2422076     0.149704  49.42 0.0007101246    1.619    0.382
       106  -8.8256    218.9676    115.6219   8.8056923725e+01   1.3559496876e+01    0.3279849    0.1418891  52.61  0.001244154    2.426    0.588
       107  -8.7576     51.9700    113.9502   1.2898606422e+02   4.7384613038e+01    0.1678672    0.1390446 -68.95   0.00100443    1.043    0.042
       108 -10.6238    104.7741    111.1073   1.1294019890e+02   3.9996063941e+01    0.4998205    0.3119899 -48.82  0.001327265    1.547    0.354
       109  -8.0018     47.5848    106.1688   1.2886179520e+02   4.9722947904e+01    0.1860861    0.1038035 -54.15 0.0003378835    1.563    0.360
       110  -7.9979    196.4537    103.5311   8.9109607862e+01   2.0906743483e+01    0.1517036     0.147791 -47.38 8.476032e-05    1.011    0.011
       111  -8.8532     15.1428    112.3115   1.3951315951e+02   5.1232674042e+01     0.198787    0.1304143 -67.01 0.0004036321    1.219    0.180
       112  -8.4809    221.5991    100.7748   8.3948321189e+01   1.5496521192e+01    0.2215355    0.1268122 -44.48  0.000954693    1.700    0.412
       113  -7.6288    167.0000    101.0016   9.4476809850e+01   2.8495444057e+01    0.2588444   0.08931103 -39.36 0.0007957104    2.896    0.655
       114  -8.6459     70.6746    101.3176   1.2067622040e+02   4.7928557412e+01    0.1414861    0.1054847  80.53 0.0007044971    1.674    0.403
       115  -9.5881    236.5240     98.2534   8.0979058893e+01   1.2570477642e+01    0.2739704    0.2011541 -52.50  0.001398777    1.398    0.285
       116  -9.4579    130.1176     98.3955   1.0265861919e+02   3.7622730286e+01    0.2503245    0.2129075 -29.87 0.0004668404    1.248    0.199
       117  -8.3593    196.7947     98.5642   8.7743166485e+01   2.1722336035e+01    0.2171254    0.1490989  71.94 0.0009393658    1.771    0.435
       118  -8.4964     70.9660     97.5290   1.1968785394e+02   4.8764054824e+01    0.1875973    0.1240817  -1.39  0.000809828    2.560    0.609
       119  -9.7844    230.8058     94.6729   8.0970783540e+01   1.4418388714e+01     0.319603    0.2812422 -42.69 0.0008089951    1.061    0.057
       120  -9.4511    243.2758     93.0898   7.8749794980e+01   1.1921532071e+01    0.2826031    0.2076859  48.59  0.001489582    1.497    0.332
       121  -9.5382    243.5906     88.1201   7.7513262522e+01   1.2628533450e+01    0.4204071    0.1706429 -30.20   0.00160015    2.461    0.594
       122 -10.2147    235.6640     73.1969   7.4950764697e+01   1.6700241015e+01    0.8221114    0.3958186 -40.59  0.003526985    1.858    0.462
       123  -9.0878    231.9007     83.8387   7.8121587090e+01   1.5908563620e+01    0.4870452     0.285924 -52.16  0.002180387    1.791    0.442
       124  -9.6965    248.7774     86.7654   7.6485812514e+01   1.1718081985e+01    0.5924895    0.2934507 -30.79  0.002591201    1.914    0.478
       125  -9.2386    243.1172     76.8708   7.4862181869e+01   1.4459569086e+01    0.3250638    0.2178867 -51.47  0.001335898    1.444    0.308
       126  -9.8134    245.4070     81.3129   7.5631981188e+01   1.3279632149e+01    0.4538306     0.319498  45.99  0.002344191    1.621    0.383
       127  -9.5176    240.7766     80.5920   7.6077478506e+01   1.4412063670e+01    0.3166031     0.227529 -79.93 0.0009791222    1.725    0.420
       128  -8.6843    216.9632     92.3278   8.2575329540e+01   1.7990896168e+01    0.3546103    0.2211255  18.07  0.001345775    2.823    0.646
       129  -9.2426    102.5154     93.4830   1.0896636413e+02   4.4381403572e+01    0.1481429     0.141817 -56.70 0.0003902099    1.017    0.017
       130  -8.3583    172.2271     91.5793   9.0735220613e+01   2.9026384102e+01    0.2281806     0.143557  42.29 0.0009462518    1.689    0.408
       131 -10.0797    108.1432     90.2611   1.0640963213e+02   4.3984751372e+01    0.4028559    0.2030699 -61.46    0.0013928    2.925    0.658
       132  -8.8016     66.4500     92.0000   1.1977999744e+02   5.0672812599e+01    0.2804907   0.07994322  34.17 0.0009319959    3.913    0.744
       133  -9.3900    237.1574     90.1069   7.8904575324e+01   1.3731358510e+01    0.2978573    0.2092894  68.07  0.001445792    1.628    0.386
       134  -8.4452    216.3179     88.3426   8.1656774126e+01   1.8809027792e+01    0.1520145     0.116466  13.91 0.0007049096    1.716    0.417
       135  -9.0520    226.2126     86.4399   7.9617800546e+01   1.6801193474e+01    0.3318595    0.2107215 -24.81  0.001249192    1.692    0.409
       136  -9.8760    117.3106     84.8753   1.0221016188e+02   4.3232300800e+01    0.2953279    0.2764955 -55.47  0.001523475    1.074    0.069
       137  -8.2479    135.0038     83.7736   9.7133354476e+01   3.9520797422e+01    0.2489962    0.1796866  84.03  0.000835315    1.977    0.494
       138 -10.0072    111.9632     83.5110   1.0331488766e+02   4.4635677505e+01    0.3349143    0.2127479  62.13   0.00121691    2.024    0.506
       139  -9.8504     87.9508     82.7111   1.1033580438e+02   4.9382984168e+01    0.2623684    0.1859322 -63.60 0.0008325096    1.594    0.373
       140 -10.0225    119.2354     79.5822   1.0005656354e+02   4.3896044700e+01    0.3026423    0.2580068 -15.63  0.001535531    1.293    0.227
       141  -9.6183    214.4944     76.6541   7.8901972102e+01   2.1161704077e+01    0.4767618    0.3614548 -15.55  0.002329018    1.543    0.352
       142  -8.5023    175.5169     78.0200   8.6184974531e+01   3.0672173748e+01     0.227076    0.1222112 -56.64 0.0008089871    2.433    0.589
       143  -8.4713    148.6573     77.9952   9.2017441156e+01   3.7383215276e+01    0.2238406    0.2031615 -39.31 0.0007917924    1.107    0.096
       144  -8.5227    112.2541     78.4159   1.0166658022e+02   4.5618455412e+01    0.2120828    0.1441108  57.91 0.0007893815    1.684    0.406
       145  -8.9842     78.5063     78.3284   1.1210486363e+02   5.1905792254e+01    0.2503036     0.131906  38.04  0.001103963    2.050    0.512
       146 -10.0244    126.6488     76.9329   9.7211015636e+01   4.2775835544e+01    0.2735171    0.2508797 -59.78  0.000608949    1.139    0.122
       147 -10.2640     97.7164     74.8251   1.0487339184e+02   4.9258430802e+01    0.3477743    0.2447371  71.15  0.001557065    2.103    0.524
       148  -9.0578    226.5441     73.4855   7.6284932824e+01   1.8777698404e+01    0.2254624    0.2036162 -46.76 0.0005299731    1.033    0.032
       149  -9.5360    237.1546     83.7461   7.7348243310e+01   1.4733069568e+01    0.3786926     0.268822 -76.09  0.001846923    1.773    0.436
       150  -8.1521    158.4752     71.4588   8.7788717699e+01   3.6134629452e+01    0.1547035    0.1498735 -86.40 0.0001507881    1.036    0.035
       151  -8.8720    221.3486     61.2543   7.3863346262e+01   2.1886416468e+01    0.4661594    0.2035356 -53.66  0.001680114    2.759    0.638
       152  -9.0419    227.4652     67.5105   7.4634431714e+01   1.9477011553e+01    0.2954945    0.2287698 -47.87  0.001521096    1.200    0.167
       153  -9.1198    224.0081     66.5127   7.4856427982e+01   2.0452662838e+01    0.2981847    0.2098254 -60.01  0.001170355    1.480    0.325
       154  -9.2551    249.9883     65.9784   7.1393971056e+01   1.4556348624e+01    0.3178937    0.1824768 -46.58  0.001195798    1.572    0.364
       155  -8.5592    154.8037     67.0376   8.7224551828e+01   3.7828433288e+01    0.2258711    0.1743965  87.75 0.0008183591    1.578    0.366
       156  -8.4411    238.4394     64.9687   7.2556339028e+01   1.7296769934e+01    0.2068308    0.1899982  77.88 0.0007270315    1.149    0.129
       157 -10.4986    133.4841     57.7811   8.9188303548e+01   4.4659828999e+01     1.056401    0.4158345 -54.33  0.002594217    5.984    0.833
       158  -7.9031    158.3253     62.3052   8.4979622807e+01   3.7738525272e+01    0.1583606     0.118696  23.91 0.0004779599    1.645    0.392
       159  -7.9768     43.5417     62.5255   1.1993125958e+02   5.9986030492e+01    0.1280243    0.1097595 -45.05  9.35442e-05    1.038    0.037
       160  -9.1342    148.9309     60.3884   8.6414458927e+01   4.0429644128e+01    0.2968203    0.2755102 -41.73  0.001577316    1.096    0.087
       161 -10.3901    126.8338     59.0366   9.1298572484e+01   4.6021309755e+01    0.3548386     0.237612 -44.52  0.001325473    1.549    0.354
       162  -9.0840    117.7871     61.0000   9.4392440614e+01   4.7742650791e+01    0.2277551    0.1634207  25.96  0.001053764    1.622    0.383
       163  -9.7345    171.2077     59.2142   8.1429917330e+01   3.4932679748e+01    0.3448402    0.2880256 -30.96 0.0009550047    1.240    0.194
       164  -9.3021    214.1820     57.7676   7.3942590757e+01   2.4163776986e+01    0.3688006    0.2685367  69.41  0.001305614    1.398    0.284
       165  -8.4643    207.5426     24.6293   6.5887543763e+01   3.0286514916e+01    0.6463556    0.3483901  77.63   0.00291647    1.859    0.462
       166 -10.8984    199.3384     53.4970   7.4947780670e+01   2.8537625224e+01     0.829127    0.4596789 -49.20  0.003528955    1.847    0.458
       167  -8.9406    233.7001    247.5647   1.1140949317e+02  -8.3952775666e+00    0.2438683    0.1708417  55.05   0.00151682    2.260    0.557
       168  -9.7905    198.1690     30.3834   6.8612573829e+01   3.1983925574e+01    0.4971872    0.2604277 -45.52  0.002185685    1.875    0.467
       169  -9.5703    201.1752     26.3890   6.7120930274e+01   3.1699807684e+01    0.5766115    0.1944352 -41.61  0.001579242    2.741    0.635
       170  -8.9694    199.6776     20.8226   6.5759378904e+01   3.2738470837e+01    0.2464312    0.2035032   7.48 0.0005783637    1.559    0.358
       171  -9.4299    186.5806    247.2313   1.1950399418e+02  -1.1899094019e+00    0.1964984    0.1661294  81.41  0.001002658    1.778    0.437
       172  -9.8476    190.9001    245.8679   1.1854879538e+02  -1.6997500583e+00     0.188215     0.136215  21.80  0.001202346    1.301    0.231
       173  -8.8026    148.6757    246.3172   1.2621495606e+02   5.0098826014e+00    0.1200814   0.07927461  62.31 0.0004752548    1.670    0.401
       174  -9.0127    225.3399    244.0769   1.1229117613e+02  -6.7899679631e+00    0.2672082    0.1371383  49.63  0.001405153    2.426    0.588
       175  -9.0905    182.9866    239.9548   1.1914173316e+02   3.4565045645e-01    0.1821353    0.1386335  65.43  0.001135448    1.758    0.431
       176  -9.2360     99.1651     57.0322   9.8449243488e+01   5.2403830128e+01    0.2466128    0.1668375  -6.70  0.001092254    2.039    0.510
       177  -8.8559    250.3489     54.4599   6.8624158452e+01   1.6113287277e+01    0.3369212    0.1449046 -39.77  0.001462706    1.972    0.493
       178  -8.5264    235.2875     60.1486   7.1758462062e+01   1.8731258836e+01    0.2280716     0.188669  58.50 0.0007672056    1.307    0.235
       179  -9.2974    236.7044     53.9643   7.0053096272e+01   1.9287676532e+01    0.3030874    0.1972555  74.16 0.0007811038    1.637    0.389
       180 -10.0506    244.2630     42.1696   6.6348044536e+01   1.9157810397e+01     0.393419    0.3365135 -28.84  0.001658042    1.261    0.207
       181  -8.8242    249.4379     48.5310   6.7321370054e+01   1.7131936550e+01    0.2754857    0.1557721  61.07  0.001358771    1.880    0.468
       182  -8.9005    249.8486     44.7901   6.6397937436e+01   1.7544689204e+01    0.3746555    0.1573414 -52.16  0.001545863    2.379    0.580
       183  -8.5789    241.0419     54.4811   6.9672688712e+01   1.8211199123e+01    0.3092813    0.1295357  62.67  0.001055864    2.462    0.594
       184  -9.9679    244.4564     51.4706   6.8557984247e+01   1.7851644620e+01    0.4771623    0.2868353 -67.03  0.002274326    1.874    0.467
       185 -10.0081    229.1202     52.3023   7.0552456279e+01   2.1313964489e+01     0.485009    0.4329772  66.07  0.002825374    1.189    0.159
       186  -8.5394    207.0490     54.1983   7.3998434019e+01   2.6474779226e+01    0.2761251    0.1966646  48.25  0.001157451    1.518    0.341
       187  -8.4223    220.6035     53.5174   7.1947608923e+01   2.3201827145e+01    0.3084662    0.1374525  63.82  0.001236452    2.266    0.559
       188  -9.0977    163.7296     53.5296   8.1114628635e+01   3.7755856434e+01    0.2892049    0.2052486 -33.92  0.001214301    1.441    0.306
       189  -8.4544    145.7544     49.2163   8.3436802246e+01   4.3010468600e+01    0.2141777    0.1721343  28.84 0.0006955019    1.361    0.265
       190  -8.9080    162.5886     46.4942   7.9102473648e+01   3.9104713321e+01    0.3433293     0.209456 -69.24  0.001337069    2.363    0.577
       191  -8.8842     95.8009     46.2269   9.5525328010e+01   5.4948513083e+01    0.3231831   0.09526215 -42.58  0.001036904    3.563    0.719
       192  -9.2539    215.5861     42.7033   6.9749980979e+01   2.5954163215e+01     0.543513    0.3063529  -9.47  0.002116086    2.939    0.660
       193  -8.5692    123.6806     45.9838   8.7534642110e+01   4.8890462047e+01    0.2101868    0.1945888 -32.87  0.001164564    1.113    0.101
       194  -8.6886    238.4044     45.1738   6.7697570085e+01   2.0107821259e+01      0.22577    0.1753064  62.01 0.0008577567    1.376    0.273
       195  -9.3655    189.5202     44.5859   7.3903479097e+01   3.2351365412e+01    0.2684489    0.2086401 -36.76 0.0008393289    1.298    0.230
       196 -10.6418    185.7737     37.3071   7.2338499378e+01   3.4317055859e+01    0.7026181    0.3705273 -45.28  0.002683408    1.919    0.479
       197  -8.5731    134.4473     43.1484   8.3900494636e+01   4.6729565296e+01    0.2576201    0.1716431  61.86  0.001192375    1.529    0.346
       198  -9.2973    115.3383     42.4053   8.8406911113e+01   5.1364109213e+01    0.2469108    0.2298187  12.36 0.0007467743    1.038    0.036
       199  -8.5880    142.2280     41.8667   8.1706034534e+01   4.4982763664e+01    0.3490382    0.1273647  41.75  0.001087251    3.397    0.706
       200  -9.4556    190.5288     34.5080   7.0825133952e+01   3.3441831434e+01    0.2421879    0.1863795  60.70  0.001167292    1.261    0.207
       201  -9.4250    238.2463     38.6230   6.6116153848e+01   2.1017186108e+01    0.3012702    0.2357641 -62.96  0.001024401    1.163    0.140
       202  -7.9992    209.1645     40.1626   6.9888187405e+01   2.7909078528e+01    0.2035062    0.1524423 -66.02 0.0006102152    1.336    0.251
       203  -8.3619     76.6960     44.0361   1.0104746689e+02   5.8886395517e+01    0.1898206    0.1604322 -27.37 0.0005602609    1.101    0.092
       204  -9.5509    165.7410     40.4007   7.6576858217e+01   3.9144775310e+01    0.2587811    0.2054915  83.28 0.0006262612    1.317    0.241
       205  -9.3983    162.1848     38.3389   7.6557620673e+01   4.0352483027e+01      0.75148    0.3992298  -4.43  0.002554621    3.546    0.718
       206  -8.2923    233.0513     38.4662   6.6628181115e+01   2.2262734676e+01    0.1966966    0.1303575  75.50 0.0006004703    1.525    0.344
       207 -10.3655    248.2859     32.5915   6.3692422732e+01   1.9483515978e+01    0.7554162    0.3333608 -52.38  0.003336213    2.146    0.534
       208  -8.8670    250.4992     27.0334   6.2207667133e+01   1.9676595083e+01    0.2675887    0.1536342 -40.87 0.0007624365    1.516    0.340
       209  -7.8032     79.6794     37.3188   9.7328888792e+01   5.9467973670e+01    0.1265808    0.1089405 -72.96 0.0004950233    1.665    0.399
       210  -8.1352     61.4564     37.5066   1.0412378775e+02   6.2461807106e+01    0.1298505    0.1128865 -16.85 0.0001647699    1.026    0.025
       211  -9.0971    230.8702    237.7479   1.1037553001e+02  -6.8963007409e+00    0.2168925     0.157345 -31.79  0.001274812    1.645    0.392
       212 -10.1802    227.8941     33.2315   6.5874866545e+01   2.4176087809e+01    0.5659468    0.4485596 -57.78  0.003074005    1.144    0.126
       213  -8.5790    243.8092    236.9956   1.0808348483e+02  -8.7067912319e+00    0.1492413     0.135007 -56.66   0.00107148    1.985    0.496
       214  -9.8021    205.6679    235.9320   1.1447919876e+02  -2.7841179698e+00    0.2964815    0.2776625  36.47  0.001604474    1.318    0.242
       215  -9.3241    218.3282    235.6350   1.1220477372e+02  -4.7391938656e+00    0.3267514    0.1463789  31.96  0.001661749    1.969    0.492
       216  -9.3409    238.5257    231.9169   1.0814919822e+02  -7.3699866044e+00    0.3290378    0.2013187  53.58  0.001798621    2.545    0.607
       217  -8.5383    153.0000    230.9902   1.2347294838e+02   6.6198992032e+00    0.1718642    0.0727028 -50.02 0.0007389484    2.915    0.657
       218  -9.8004    229.9574    228.7980   1.0910198220e+02  -5.7123605855e+00    0.2545373    0.1946666 -31.20   0.00159842    1.541    0.351
       219  -8.7640    248.1027    227.6425   1.0584607088e+02  -8.2923227477e+00    0.1726964    0.1468681  -8.75 0.0007775033    1.289    0.224
       220  -8.3483    164.0108    228.6968   1.2107409869e+02   5.1180855732e+00    0.2051851   0.07967841  55.27 0.0007021753    4.095    0.756
       221 -10.3388    239.6624    221.4169   1.0621627309e+02  -6.3138983009e+00    0.5316328    0.4233046 -67.05  0.003140316    2.684    0.627
       222  -8.5277     99.2957    226.2647   1.3318236625e+02   1.6112694985e+01    0.1716026    0.1144078  65.03   0.00103419    1.354    0.261
       223  -9.2420    221.1553     31.1135   6.6066665152e+01   2.6088055726e+01     0.400277     0.316986 -66.61  0.002246671    1.173    0.148
       224  -8.7721    209.2307     31.6212   6.7572619487e+01   2.9001988254e+01    0.2964271    0.2165787  78.12 0.0009456182    1.321    0.243
       225  -9.5604    212.8778     31.5374   6.7117086152e+01   2.8093253607e+01    0.4832805    0.3063643 -34.56  0.002393749    1.554    0.357
       226  -9.3144    216.2087     30.4261   6.6440270764e+01   2.7399445520e+01    0.3223153    0.2853889  76.60  0.001893365    1.124    0.111
       227  -8.7525    105.0103     34.8088   8.8345538282e+01   5.4777802956e+01     0.202137    0.1480601 -48.74 0.0005213614    1.606    0.377
       228  -9.1393    169.5268     33.5104   7.3743591986e+01   3.9067566877e+01    0.2225968    0.1698838  34.87  0.001001179    1.474    0.321
       229  -9.4276    170.8514     30.0996   7.2457312660e+01   3.9149391650e+01    0.2622355    0.1901431 -47.98 0.0009709223    1.429    0.300
       230  -8.0853    116.6608     32.6758   8.4380092955e+01   5.2451654183e+01    0.1529651    0.1025881  24.03 0.0007051135    1.724    0.420
       231  -9.4553    109.9281     31.6876   8.5759329743e+01   5.4122332735e+01    0.2794935    0.2056122 -33.96  0.001056634    1.406    0.289
       232  -9.8937    176.4721     41.5924   7.5097050945e+01   3.6173844853e+01    0.6316277    0.3851486 -76.31  0.002574602    2.250    0.556
       233  -8.1854     71.4643     30.5476   9.7424625359e+01   6.1965274567e+01     0.130269    0.1156165  -5.14 0.0008073333    1.040    0.038
       234  -8.9241    221.5933     42.1045   6.8854676984e+01   2.4549036624e+01    0.3730564    0.2025877 -61.74  0.001595394    2.101    0.524
       235  -9.7277    146.3048     26.0981   7.5413820467e+01   4.6011038688e+01    0.4948176    0.2035941 -47.06  0.001768623    3.029    0.670
       236  -8.9915    110.0814     26.7193   8.3752499667e+01   5.4737805441e+01    0.3499553    0.1888704  57.63  0.001575802    1.859    0.462
       237  -8.9967     25.8186     27.2321   1.1546484458e+02   6.8593487929e+01    0.3275963    0.1460597 -52.98  0.001637871    2.247    0.555
       238  -9.6275    118.1030     24.4951   8.0861483972e+01   5.3158143817e+01    0.4712759    0.2575796 -49.39  0.002008407    2.398    0.583
       239  -9.1990    173.1038     25.1299   7.0559172955e+01   3.9157521584e+01    0.2253124    0.1863672  44.82 0.0008647376    1.261    0.207
       240  -9.6887    237.1769     30.3984   6.4227083763e+01   2.2320886654e+01    0.4579523    0.3800993  49.70  0.002496191    1.433    0.302
       241  -8.8058    132.0845     23.7602   7.7427678218e+01   4.9866106286e+01    0.4458303    0.1631444 -29.54  0.001669504    2.761    0.638
       242 -10.0689    208.2412    223.9706   1.1215000918e+02  -1.6447450829e+00    0.3129143    0.1405667  28.92  0.001416572    2.391    0.582
       243  -7.6888     97.3414     22.6798   8.5591799015e+01   5.8045406235e+01    0.1315041    0.1074421 -69.18 0.0007049952    1.719    0.418
       244  -9.3270    175.7916     20.3388   6.8691958871e+01   3.9001658983e+01    0.4270236    0.2232826 -60.04  0.001437923    2.383    0.580
       245  -8.3711    183.7721     20.3964   6.7618738502e+01   3.6908219143e+01    0.2096863    0.1182861  59.45 0.0009555236    1.640    0.390
       246  -8.5342    187.0457     17.2350   6.6270918111e+01   3.6405678399e+01    0.2354451    0.1894967  27.65  0.000893184    1.515    0.340
       247  -9.2983    165.5456     20.5054   7.0254092761e+01   4.1665382142e+01    0.2533407    0.1336132  82.11   0.00102133    2.221    0.550
       248  -8.7673    150.6992     19.3683   7.2302384726e+01   4.5648577040e+01    0.2295236    0.1554243 -62.59 0.0007362512    1.771    0.435
       249  -8.4413    141.4062     17.3021   7.3245272868e+01   4.8247054430e+01    0.1877717    0.1279652 -38.26 0.0007299158    1.574    0.365
       250  -8.6199    162.4377     15.6252   6.9159906980e+01   4.3002303969e+01    0.2570277    0.1927061 -61.21   0.00134003    1.445    0.308
       251  -8.3150    115.4829     15.9581   7.8117550519e+01   5.4742786177e+01    0.1911179    0.1024575 -48.43 0.0008089563    2.468    0.595
       252  -8.1555    105.2385     15.0083   8.0224744604e+01   5.7200303816e+01    0.1721165    0.1115771 -20.99 0.0007535735    1.606    0.377
       253  -8.7964     67.4966     13.9893   9.1358168157e+01   6.4929156906e+01    0.1970782    0.1579745  30.58 0.0009031581    1.188    0.158
       254  -9.3193    228.3671    221.5912   1.0818782140e+02  -4.5835434164e+00    0.2839748    0.2460025 -84.54  0.001804233    2.155    0.536
       255 -10.7890    247.4043    217.0037   1.0415613717e+02  -6.9599955520e+00    0.4497963    0.3885126 -59.66  0.002807888    2.066    0.516
       256  -9.0208    193.3158    219.6516   1.1419600748e+02   1.4586478696e+00     0.247656    0.1955706 -81.31  0.001421481    2.153    0.536
       257  -7.8932    131.5063    219.5376   1.2611582190e+02   1.2132421614e+01    0.1300188    0.1052524  54.75 0.0008089913    1.048    0.046
       258  -8.0133     58.4807     12.4889   9.4058760354e+01   6.6639762551e+01    0.1239789    0.1041495   0.86 0.0002798067    1.033    0.032
       259  -8.1064    160.0665    218.7839   1.2040787894e+02   7.3547686553e+00    0.1791125   0.08909824  43.11 0.0008655459    1.678    0.404
       260 -10.7218    214.6227    213.2593   1.0921905379e+02  -1.2567346844e+00    0.4318781    0.2599369 -28.47  0.002395005    1.834    0.455
       261 -10.3271    233.3120    212.9292   1.0584788880e+02  -4.2741738550e+00    0.4076144    0.2717849  -0.59  0.002398546    1.587    0.370
       262  -8.3219    132.5777    213.8014   1.2513925472e+02   1.2963946597e+01    0.1611464    0.1216372 -79.43 0.0005342272    1.583    0.368
       263  -7.8077     71.6787     10.2906   8.8088045064e+01   6.4612779947e+01    0.1120063    0.1013094 -63.91  0.000680722    1.606    0.377
       264  -8.4627    186.3703    213.1242   1.1445392136e+02   3.6297263626e+00    0.1663422    0.1225632 -55.41  0.000948237    1.796    0.443
       265  -9.4175    124.0239    206.0042   1.2581305989e+02   1.5856262766e+01    0.1863593    0.1576894  58.72            0    1.020    0.020
       266  -8.8911    242.3073     34.3127   6.4667030277e+01   2.0630996941e+01    0.3593003    0.1699684 -39.34    0.0016061    1.839    0.456
       267  -9.5006    235.6092    204.3751   1.0393139132e+02  -3.5353748381e+00    0.2291691    0.2149014 -43.66 0.0009740443    1.504    0.335
       268 -10.4274    242.4083    201.0893   1.0216393524e+02  -4.2045010568e+00    0.3771902     0.319833  59.51  0.002403561    1.768    0.434
       269  -8.5773     64.8219    203.5967   1.3768047331e+02   2.5446091186e+01    0.1720781   0.09127498  51.74 0.0009359497    1.598    0.374
       270  -8.8916    249.8495    201.1643   1.0092246784e+02  -5.3930818280e+00    0.3145308    0.1588346 -32.70  0.001666853    1.986    0.496
       271 -10.5002    247.7036    193.9222   9.9936151384e+01  -4.1191088968e+00    0.5167801    0.4074718 -65.20  0.002930559    2.413    0.586
       272  -8.4524     16.1712    201.8971   1.4701824083e+02   3.1435309366e+01    0.1777585    0.1107754  70.19 0.0008238027    1.223    0.182
       273  -9.1214    229.3009    200.8872   1.0440324053e+02  -2.0255506376e+00    0.2065034    0.1718325 -34.52  0.001071261    1.407    0.289
       274  -9.8258    230.9147    195.4631   1.0311769186e+02  -1.5492756610e+00    0.4018154    0.2441923 -20.49  0.001813455    1.757    0.431
