#   1 NUMBER                 Running object number                                     
#   2 MAG_AUTO               Kron-like elliptical aperture magnitude                    [mag]
#   3 X_IMAGE                Object position along x                                    [pixel]
#   4 Y_IMAGE                Object position along y                                    [pixel]
#   5 X_WORLD                Barycenter position along world x axis                     [deg]
#   6 Y_WORLD                Barycenter position along world y axis                     [deg]
#   7 A_WORLD                Profile RMS along major axis (world units)                 [deg]
#   8 B_WORLD                Profile RMS along minor axis (world units)                 [deg]
#   9 THETA_WORLD            Position angle (CCW/world-x)                               [deg]
#  10 FWHM_WORLD             FWHM assuming a gaussian core                              [deg]
#  11 ELONGATION             A_IMAGE/B_IMAGE                                           
#  12 ELLIPTICITY            1 - B_IMAGE/A_IMAGE                                       
         1 -12.4981      3.2857     40.6223   1.3984009675e+02   6.7813205056e+01    0.9922466    0.2643445 -72.95  0.003701119    3.315    0.698
         2 -13.4186      5.6325     10.5408   1.2924649855e+02   7.4437669985e+01     1.867079    0.7597877 -50.60  0.009423492    1.801    0.445
         3 -13.7679    205.0446      7.4853   6.6335740278e+01   3.2677694859e+01     1.510462     1.044637  42.43  0.008092089    1.593    0.372
         4 -13.6718    190.4943     26.7370   7.3697328220e+01   3.4368861715e+01     1.446736       1.3464  31.87  0.006532923    1.110    0.099
         5  -9.2912     46.7974    249.0771   1.4699498386e+02   2.1049133367e+01    0.1872534   0.08283854  49.97 0.0008073283    1.646    0.393
         6 -10.7618    139.7098    250.2460   1.3107786033e+02   1.0464691696e+01    0.2817969    0.1110431  39.44   0.00164511    1.876    0.467
         7 -10.7644    139.3777    246.1636   1.3073097285e+02   1.1000234507e+01    0.1674076    0.1390396 -53.02  0.001382109    1.658    0.397
         8 -11.1184    125.2703    250.2515   1.3356705623e+02   1.2226768592e+01      0.41008    0.1052308  34.51  0.001892212    3.015    0.668
         9 -10.1779     67.4074    250.3638   1.4356630931e+02   1.8787962111e+01     0.196968    0.1033008  33.24   0.00137319    1.576    0.365
        10 -14.4568      7.8133    208.3267   1.5225548186e+02   3.0979299468e+01     3.769053     1.360884 -62.17   0.01749196    3.345    0.701
        11  -9.8310     66.6143    243.0981   1.4327268293e+02   1.9905954016e+01    0.1687866   0.09892921  46.37 0.0005799963    1.260    0.206
        12 -10.1211     12.9490    240.7106   1.5234006293e+02   2.5337272711e+01      0.18726   0.08284563  47.83  0.001084751    1.530    0.346
        13 -11.0234    185.2536    238.1607   1.2193763737e+02   6.0797083805e+00    0.2396148    0.1947837 -62.88  0.001398669    2.339    0.573
        14 -12.4946      2.4574    152.6152   1.5123548473e+02   4.2000463681e+01    0.9599565    0.5646574 -81.72  0.006243107    1.475    0.322
        15  -9.6382    248.6651    231.3132   1.1085894169e+02  -1.1636825088e+00   0.08707289   0.07357397  23.12 0.0007045768    1.686    0.407
        16 -10.4333    144.9781    230.4878   1.2806702187e+02   1.2261754723e+01     0.177708   0.08478945  35.67  0.001040618    1.614    0.380
        17  -9.9187     35.3341    225.4377   1.4789153427e+02   2.5741447078e+01    0.1662411    0.1363236  23.18 0.0009316072    1.504    0.335
        18  -8.5874     20.2850    229.6424   1.5073903467e+02   2.6424450971e+01    0.1048049   0.04855385  58.56 0.0003722062    1.674    0.403
        19  -9.2478     33.4000    228.7461   1.4838993782e+02   2.5393275943e+01    0.1661569   0.08867089 -81.71 0.0005970242    1.992    0.498
        20 -14.0271     47.0740    228.1474   1.4589968473e+02   2.4177371562e+01    0.8292133    0.7150083  61.63  0.007240256    1.173    0.147
        21 -10.9771    173.3735    222.1893   1.2193958231e+02   9.4978498140e+00    0.3342018    0.1786011  29.00  0.002021545    1.532    0.347
        22 -10.5821      6.6762    249.3159   1.5358185809e+02   2.4578272521e+01    0.1834208   0.07955164  45.02  0.001018385    1.521    0.343
        23 -10.2838    237.6240    246.8278   1.1469354245e+02  -1.1922386835e+00    0.1169755   0.08410987 -21.76 0.0009495752    1.698    0.411
        24  -9.1905    152.6529    213.0109   1.2452565133e+02   1.3559626960e+01    0.1450149    0.1282966  18.51 0.0003523628    1.130    0.115
        25 -12.9896     41.0715    235.8675   1.4736012589e+02   2.3560738117e+01    0.4727873    0.2831427 -45.39 0.0007923786    2.815    0.645
        26 -10.6796      2.6824    249.8293   1.5422575237e+02   2.4822663992e+01    0.2004903    0.1626711  37.32  0.001294347    1.407    0.289
        27  -9.7018     31.8819    206.6994   1.4762046750e+02   2.9203080687e+01    0.2663771   0.09518562  52.76  0.001226307    2.260    0.558
        28 -12.2504     23.4934    201.6325   1.4900606318e+02   3.0849252210e+01     0.421838    0.1471772  48.62  0.002263578    2.143    0.533
        29 -10.9807     16.4025    198.7109   1.5026432426e+02   3.1975331084e+01    0.2963872    0.1458764  54.78  0.001163675    1.592    0.372
        30  -9.8266    191.6212    192.4459   1.1425074254e+02   1.0636744071e+01    0.3125095    0.1819301 -54.76  0.001495027    3.513    0.715
        31 -11.9598     71.7121    192.4462   1.3850204980e+02   2.7594212684e+01    0.2280836    0.2145657 -39.34 0.0004517097    1.343    0.255
        32 -10.1794     39.6144    191.8801   1.4521479421e+02   3.1137998751e+01      0.38054   0.08582821  56.01  0.001214433    6.296    0.841
        33 -11.6501     66.0624    200.7047   1.4039606328e+02   2.6763936642e+01     0.266856    0.2077245 -42.26  0.001159376    1.728    0.421
        34 -13.4279     68.3196    177.4748   1.3780367685e+02   3.0802915428e+01    0.4438941    0.2625014 -42.30  0.002182703    2.325    0.570
        35 -11.0632     81.0958    179.4044   1.3513931133e+02   2.8876883209e+01    0.2095335    0.1909757  48.63 0.0003474097    1.074    0.069
        36 -12.0233     88.2546    169.6067   1.3234793788e+02   2.9833091358e+01     0.587823     0.535442  42.60  0.004026483    1.071    0.066
        37  -9.3236    195.0629    158.5878   1.0753110734e+02   1.4710421720e+01    0.2278085    0.1646088 -71.51  0.001027319    3.411    0.707
        38 -15.0831      3.7025    178.0216   1.5201056951e+02   3.6816200160e+01     7.502652    0.9994175 -77.65   0.02055952    5.713    0.825
        39 -10.1025     99.9119    153.4141   1.2728947073e+02   3.1411701264e+01     0.265683    0.2533739 -57.74 0.0007740249    1.115    0.103
        40  -9.3697    102.8086    148.9603   1.2586474388e+02   3.1879787358e+01    0.1950303    0.1717187 -16.36  0.000488454    1.316    0.240
        41 -12.1528     88.7473    152.9123   1.2995710304e+02   3.3113297327e+01    0.2569876    0.2326956 -10.04 0.0005626524    1.308    0.236
        42 -12.6785     67.1076    143.8848   1.3419697382e+02   3.7866708224e+01    0.7275634    0.4630084  66.07  0.003767597    1.757    0.431
        43 -12.1010     57.1211    131.9264   1.3526681608e+02   4.1704038640e+01    0.8520699    0.4031545 -84.04  0.003538249    2.854    0.650
        44  -8.6387    192.3506    144.1487   1.0509933859e+02   1.7295958099e+01     0.172433    0.1183437 -39.57 0.0004285374    1.601    0.376
        45  -9.5989     33.3462    141.3038   1.4276899105e+02   4.2035573212e+01    0.1166662   0.08620053 -40.68 0.0007040689    1.691    0.409
        46  -9.8777    110.8262    137.8337   1.2190458398e+02   3.2891684559e+01     0.355592    0.2415726 -15.00  0.001284149    2.254    0.556
        47  -8.6846    174.2453    137.4236   1.0723335495e+02   2.1661417936e+01    0.1763727    0.1279689  50.52 0.0003422037    1.554    0.357
        48 -10.7115     98.3092    135.4507   1.2467970867e+02   3.5369694969e+01     0.247273    0.2189699 -22.87 0.0004671657    1.274    0.215
        49 -10.1599     33.4886    132.4938   1.4187246255e+02   4.3991996067e+01    0.2163348   0.08823679  40.35 0.0009299804    2.288    0.563
        50  -9.4299    107.8644    124.6119   1.2006619289e+02   3.6131505958e+01    0.1870378    0.1604765  38.84 0.0004362163    1.151    0.131
        51 -10.6337     95.3265    241.0406   1.3804873302e+02   1.7010940738e+01    0.2384993     0.162254 -62.15  0.001647399    1.883    0.469
        52 -14.0623     55.2773    215.3151   1.4360552883e+02   2.5426326746e+01     6.707294    0.7231352  38.61   0.02675231    4.015    0.751
        53 -10.3949    168.2077    113.2514   1.0287766376e+02   2.6901170483e+01    0.3094057    0.2711119 -75.40 0.0008736926    1.543    0.352
        54  -9.5908    203.2147    111.7720   9.5711537827e+01   2.0069704328e+01    0.1985725    0.1488078   5.22 0.0006327734    1.352    0.260
        55  -9.8121     34.6510     93.0648   1.3641331783e+02   5.3142020906e+01    0.2967106    0.1677814  38.37  0.001451916    1.892    0.472
        56  -8.5223    184.5433     77.4552   8.9996589088e+01   2.9181822651e+01    0.1487438    0.1336941  -0.22  7.89595e-05    1.054    0.051
        57  -9.3750    155.8099     75.4137   9.5121336541e+01   3.6085759537e+01    0.2153327    0.1360129  38.79 0.0003948408    1.652    0.395
        58 -10.2294     15.3998     65.7674   1.3907719761e+02   6.1200631321e+01    0.3705419    0.1622648  37.26  0.001267746    2.580    0.612
        59 -11.7060      5.0194     62.5577   1.4292446485e+02   6.2533061510e+01    0.4827559    0.3078892  31.39  0.001880058    1.849    0.459
        60 -10.0091    171.9593    246.7641   1.2521233103e+02   6.8363029824e+00    0.1580694   0.07637261  40.44 0.0009823891    1.716    0.417
        61 -11.2063      9.3425     54.0922   1.3958969290e+02   6.4343480101e+01    0.2138165    0.1867244  34.53 0.0008646651    1.382    0.276
        62 -10.9876    248.0368    249.0071   1.1343577730e+02  -2.5571541154e+00    0.2572365    0.1360795  39.73  0.001757569    2.153    0.536
        63 -10.2113     98.9779    248.9906   1.3802478564e+02   1.5500086672e+01    0.1606827    0.1195329  42.68  0.001190696    1.025    0.025
        64  -9.8272     82.0776    248.8688   1.4094975837e+02   1.7420934851e+01    0.1625179    0.0995108  50.62 0.0007935078    1.314    0.239
