#   1 NUMBER                 Running object number                                     
#   2 MAG_AUTO               Kron-like elliptical aperture magnitude                    [mag]
#   3 X_IMAGE                Object position along x                                    [pixel]
#   4 Y_IMAGE                Object position along y                                    [pixel]
#   5 X_WORLD                Barycenter position along world x axis                     [deg]
#   6 Y_WORLD                Barycenter position along world y axis                     [deg]
#   7 A_WORLD                Profile RMS along major axis (world units)                 [deg]
#   8 B_WORLD                Profile RMS along minor axis (world units)                 [deg]
#   9 THETA_WORLD            Position angle (CCW/world-x)                               [deg]
#  10 FWHM_WORLD             FWHM assuming a gaussian core                              [deg]
#  11 ELONGATION             A_IMAGE/B_IMAGE                                           
#  12 ELLIPTICITY            1 - B_IMAGE/A_IMAGE                                       
         1 -10.9650     74.1776     20.2418   5.5714922352e+01   6.1710047801e+01    0.4514523    0.2812099   5.18  0.002359891    1.934    0.483
         2 -10.0894     15.2538      8.5348   7.6236746575e+01   7.2395818175e+01     0.399137    0.1833584   9.34  0.001871365    2.819    0.645
         3 -11.5178     14.0382     15.9110   8.0604782496e+01   7.1505967379e+01    0.3344624    0.2599615 -47.15  0.001575433    1.838    0.456
         4 -10.2192     30.9148     19.5583   7.3199168525e+01   6.9029887731e+01    0.4214894    0.1813567 -33.87  0.002117372    2.250    0.556
         5 -11.9405    235.3285     15.2535   2.8766100684e+01   2.6413372815e+01     0.356835    0.1877144 -74.75  0.001108924    1.770    0.435
         6 -11.6897     83.8657     14.5199   5.0437409078e+01   6.0316455598e+01    0.4866568    0.2642421  14.12  0.001759885    2.574    0.611
         7 -11.9571     35.2671     12.4555   6.7613852459e+01   6.9331936976e+01    0.2641968    0.2278194   9.52 0.0006363075    1.249    0.200
         8 -11.6965     30.2029      7.4319   6.7556122564e+01   7.0641565171e+01    0.3906557    0.2438965  20.82   0.00245269    1.343    0.255
         9 -10.1390    145.4046     13.7004   3.7580560634e+01   4.6400560348e+01     0.222665    0.1160021 -33.82  0.001128488    2.093    0.522
        10 -11.1092    192.8798     11.0862   3.1351606484e+01   3.5740656847e+01    0.2617801    0.1679947 -29.83  0.001064421    1.821    0.451
        11  -9.9742     69.9474     11.0115   5.3158474136e+01   6.3477801185e+01    0.2898485     0.148294  22.27  0.001367474    2.369    0.578
        12 -11.1110    124.7932      9.4735   3.9566466535e+01   5.1614559772e+01    0.3680197    0.1530355 -45.23  0.001604186    2.964    0.663
        13 -10.8616    225.3191      9.8363   2.8429221045e+01   2.9002899685e+01    0.1859607    0.1097607 -58.65 0.0005213969    1.408    0.290
        14 -11.9256    117.5013      8.8839   4.0671778039e+01   5.3353905230e+01     0.364974    0.2551532 -88.61 0.0005909438    1.657    0.397
        15 -11.0092     45.1287      9.8746   6.1866797026e+01   6.8090969916e+01    0.1966115    0.1511361  12.00  0.000279193    1.069    0.065
        16  -9.8407     22.2684      9.5284   7.2795072979e+01   7.1444523524e+01     0.288151    0.1484433  15.14  0.001253749    1.967    0.492
        17  -9.2577      9.2806      9.6682   8.0375199495e+01   7.2863579417e+01   0.09391694   0.08691172  -2.21 0.0002339427    1.608    0.378
        18 -10.2433     98.2865      7.0928   4.3945201209e+01   5.7853678822e+01    0.2100746    0.1380156  47.99 0.0003409961    1.264    0.209
        19 -10.3051      2.8550      6.5985   8.2847188174e+01   7.3880225951e+01    0.2286681    0.1093271  25.25 0.0008294119    2.017    0.504
        20  -9.1879    247.0053      6.2382   2.6339803670e+01   2.5176370501e+01    0.1281262   0.07666618  85.07 0.0002783361    1.501    0.334
        21 -10.8534    151.1264      6.0339   3.4645927276e+01   4.5758684083e+01    0.2096883    0.1522392  75.16 0.0003285753    1.161    0.139
        22  -9.8167     37.3625      5.6872   6.3214988186e+01   6.9769732559e+01    0.1483484    0.1476205 -34.82  0.001098656    1.690    0.408
        23 -10.6392    104.4789      4.1633   4.1565056810e+01   5.6702946891e+01    0.2148444    0.2047591 -29.35 0.0008561112    1.256    0.204
        24  -9.8602     54.3755      4.8040   5.5720435947e+01   6.6989119219e+01    0.1661699    0.1018248  -3.08 0.0009570743    1.751    0.429
        25 -11.0932    176.2997     12.2714   3.3302940034e+01   3.9348832393e+01     0.238942    0.1235677  61.91  0.001252838    1.739    0.425
        26  -9.7845     59.5018      3.5007   5.3268009424e+01   6.6157794049e+01    0.1210148   0.09796793  30.87 -0.0003207436    1.050    0.048
        27 -11.9461     20.5677      2.1280   6.9800740220e+01   7.2539281738e+01    0.2266616    0.1470522  14.63 0.0004109691    1.241    0.194
        28  -9.1847     40.7556      7.6194   6.2658976595e+01   6.9035325103e+01    0.1475191   0.09958588  41.10  0.000215563    1.464    0.317
        29 -10.0590    112.0290      1.3056   3.9130441612e+01   5.5208600689e+01    0.2741591   0.09713716  66.27 0.0009001226    2.392    0.582
        30 -10.4628     80.2517      1.4778   4.6118749584e+01   6.2181908828e+01    0.2572884   0.09327744  55.22  0.001175321    2.140    0.533
        31 -10.6052    238.0050      2.2311   2.6149217612e+01   2.7309279291e+01    0.1536319    0.1137098 -79.97 0.0004096815    1.089    0.082
        32  -8.8462     85.6890    215.2811   1.0217696209e+02   1.6949289303e+01    0.1427138    0.0973497  61.58 0.0001904165    1.566    0.362
        33 -10.9576     27.7819    250.4097   1.1814925442e+02   1.6611860449e+01    0.2587893    0.1209411  36.85  0.001333875    1.873    0.466
        34 -12.0621     18.0092    249.0176   1.1995831980e+02   1.7925343312e+01     0.401039    0.2954965   5.58  0.002522532    2.186    0.543
        35 -11.0511      1.9477    247.0253   1.2288331808e+02   1.9904253869e+01    0.5967181    0.2184725  66.96   0.00277571    2.561    0.609
        36 -13.2352     11.1112    243.8225   1.2100078396e+02   1.9677509215e+01    0.6944095    0.5014461 -60.31  0.004671185    1.679    0.405
        37 -11.5225      9.4536    237.5206   1.2098802713e+02   2.1147643553e+01    0.3265173    0.2115103  19.31  0.001979663    2.071    0.517
        38 -10.0259     15.9564    213.0627   1.1815873790e+02   2.5903737677e+01    0.1926691    0.1599821  75.81 0.0008910815    1.033    0.032
        39  -9.6105    205.5145    212.4801   7.4368251875e+01  -1.2055848048e+00    0.1353999    0.1129962  -7.47 0.0001749628    1.003    0.003
        40  -9.7585     20.3565    209.6848   1.1694455214e+02   2.6259057286e+01    0.2057546    0.1127176  63.27 0.0007349112    1.719    0.418
        41  -9.8959    193.7147    202.7271   7.4959840472e+01   2.3392449555e+00    0.1696994    0.1662285  38.56 0.0006509384    1.333    0.250
        42 -11.1933      3.9799    201.4888   1.2002378005e+02   2.9665324746e+01    0.2334469    0.1431628 -66.02 0.0007683014    1.548    0.354
        43  -9.0857     22.3420    200.6870   1.1579045599e+02   2.8191612639e+01    0.1404141   0.07957114  63.22 0.0007046822    1.703    0.413
        44  -9.0865     24.5100    195.5407   1.1484557801e+02   2.9222036133e+01    0.1324945    0.1095003  79.04 9.459844e-05    1.041    0.039
        45  -9.4047     14.3004    192.6839   1.1703861929e+02   3.0873700722e+01    0.1355557   0.08000544  66.23 0.0007020232    1.615    0.381
        46 -10.2350      6.1041    191.8417   1.1889493813e+02   3.1779183029e+01     0.201526    0.1397068  70.31 0.0007280456    1.277    0.217
        47  -8.9982     14.6887    188.6695   1.1662590177e+02   3.1817619155e+01    0.1283691   0.08772389 -48.97 0.0005678316    1.671    0.402
        48  -9.8441      7.1751    188.1870   1.1838041024e+02   3.2574510194e+01    0.1740387    0.1469879 -79.17 0.0003445834    1.129    0.115
        49  -9.1745    226.3705    163.8152   6.0896739654e+01   4.3983144629e+00    0.2014474    0.1101475 -31.75 0.0009355505    1.698    0.411
        50  -9.9398     14.3309    164.3132   1.1454002419e+02   3.7949229054e+01    0.1359749   0.08778907 -46.04 0.0004461669    1.676    0.403
        51 -10.7648      3.5545    153.6697   1.1644148597e+02   4.1449495627e+01    0.3853783    0.1313111  27.83  0.001641464    3.065    0.674
        52  -9.1849     27.2685    146.9898   1.0887962411e+02   4.1336319023e+01     0.177729     0.107579 -70.25  0.000792757    1.434    0.303
        53  -9.7842      5.9929    144.9921   1.1490109922e+02   4.3500328035e+01    0.1634178    0.1318359 -75.64 0.0005110702    1.020    0.019
        54  -9.8921    236.2791    138.5955   5.4038327359e+01   7.3580829603e+00    0.2052897    0.1698958  24.49 0.0008235103    1.447    0.309
        55  -9.8619    212.6739    133.9220   5.6960053366e+01   1.2396129088e+01    0.2012999    0.1690954 -45.21 0.0006068246    1.089    0.082
        56 -10.0502     96.1332    133.5582   8.4970313707e+01   3.5696213144e+01    0.2677542    0.2090391 -33.49 0.0006788393    1.338    0.252
        57  -9.2777     38.0000    133.9750   1.0360255119e+02   4.3726608453e+01    0.2437263    0.0734911 -65.46 0.0008008005    2.931    0.659
        58 -10.8130      8.2755    132.9927   1.1287755617e+02   4.6425635548e+01    0.1934596    0.1515838 -70.59 0.0004686767    1.053    0.051
        59  -9.2512     61.5109    130.5312   9.5296618722e+01   4.1869216563e+01    0.1503644    0.1389963 -53.68 0.0001814691    1.005    0.005
        60  -8.9445     80.2744    129.2655   8.8940079963e+01   3.9448999420e+01    0.1504764    0.1156243 -23.80            0    1.474    0.322
        61 -11.3571     28.4659    128.1362   1.0575768500e+02   4.6153299639e+01    0.2286042     0.216834 -53.19  0.000272196    1.101    0.092
        62 -10.4351     12.1971    129.2114   1.1117586045e+02   4.7137678571e+01    0.1850087    0.1456304  77.66  0.001037544    1.344    0.256
        63  -9.5954     47.3218    127.0121   9.9299309478e+01   4.4543732104e+01    0.2016404    0.1738794 -59.92 0.0003485665    1.051    0.049
        64 -10.3331     37.9842    127.2183   1.0245346117e+02   4.5493370245e+01    0.1868479    0.1785282 -46.22 0.0003499326    1.091    0.083
        65 -11.5111      9.8707    121.2940   1.1086532595e+02   4.9312959100e+01    0.4098103    0.2689023  83.11  0.001700966    1.689    0.408
        66  -9.9702      1.8178    122.8529   1.1368168636e+02   4.9385052985e+01    0.1777713    0.1367328  84.33   0.00060548    1.317    0.241
        67 -10.7990     24.1981    122.0230   1.0619626057e+02   4.8095465857e+01    0.2219896    0.1996112  38.50 -0.0006383859    1.280    0.219
        68  -8.8978     75.7125    120.7205   8.8451995769e+01   4.2337592145e+01    0.1529241    0.1140204 -23.59 0.0001686627    1.520    0.342
        69  -9.8059     46.3399    117.8976   9.7834413854e+01   4.7008996283e+01    0.2014431    0.1646547 -53.77 0.0003474782    1.090    0.082
        70 -10.4203     69.2745    116.9876   8.9728804815e+01   4.4252158814e+01    0.2161911    0.1862721 -47.27   0.00112403    1.078    0.072
        71 -10.4844      1.9427    114.0742   1.1252795728e+02   5.1585907619e+01    0.1981465    0.1574338 -63.56 0.0003078977    1.015    0.014
        72 -11.1984     13.1472    109.1541   1.0793311880e+02   5.2172026357e+01    0.2489363    0.1849875 -79.52 0.0009517741    1.323    0.244
        73 -10.8923     24.2869    111.3729   1.0435202620e+02   5.0805648199e+01    0.3358669    0.1751288  54.01  0.001408299    2.756    0.637
        74 -10.7306     45.5201    110.7185   9.6610830564e+01   4.8924322651e+01    0.2373322    0.2265414 -59.82 0.0002445614    1.102    0.092
        75 -11.4579      4.1502    108.7142   1.1102973109e+02   5.2808709955e+01    0.4318732    0.2406982  -2.04  0.002191962    2.245    0.554
        76 -10.2338      1.4007    104.3197   1.1135879466e+02   5.4034849013e+01    0.2523868   0.09322662 -64.56 0.0006921228    2.019    0.505
        77 -12.0438     16.7188    104.0290   1.0577447904e+02   5.3211646573e+01    0.4785177    0.2375941   4.13   0.00140172    2.568    0.611
        78  -9.2541    187.2647    102.6467   5.4294983216e+01   2.3529098916e+01    0.1514108    0.1083524 -66.44 0.0006984086    1.622    0.383
        79  -9.7677     94.4759    102.4668   7.7563726197e+01   4.3539542701e+01     0.154256    0.1474681 -19.34 -3.36171e-05    1.008    0.008
        80 -10.0235    246.5641    101.5347   4.4923596573e+01   1.2013946195e+01    0.1298272    0.1055436 -47.17 0.0001900336    1.024    0.023
        81  -9.1748    159.7457    101.0231   5.9461380715e+01   2.9944807395e+01    0.1883982    0.1282437 -42.76 0.0002352451    1.426    0.299
        82 -11.0283     29.2036     99.2092   1.0016490533e+02   5.3422513637e+01    0.2220966    0.2009961 -54.96 0.0002469864    1.094    0.086
        83 -10.2510     62.8045     98.1776   8.7293927577e+01   4.9792167134e+01    0.2092181    0.1607124 -25.70 0.0003689388    1.315    0.239
        84 -12.2260     20.4021     93.1443   1.0228456347e+02   5.5612072473e+01    0.4487595    0.2581912 -29.34 0.0007706654    1.789    0.441
        85  -9.5327     99.7926     94.2331   7.3511101438e+01   4.4360478096e+01    0.2044894    0.1724985  -6.17 0.0002994495    1.285    0.222
        86 -11.2585     10.6304     93.8982   1.0622667948e+02   5.6084996949e+01    0.2225706    0.2057434 -36.90 0.0004495027    1.143    0.125
        87 -10.5898      7.0664     91.0410   1.0708260725e+02   5.6975219668e+01    0.2329803    0.1814829 -50.51 0.0004049208    1.037    0.035
        88 -11.5136     66.3492     91.6271   8.4195684946e+01   5.0795033671e+01    0.3296478    0.2760314 -77.48  0.001707358    1.529    0.346
        89 -11.5824     57.7213     91.5815   8.7398997873e+01   5.2047803917e+01    0.3607966    0.2568896   5.98 0.0008501831    1.586    0.369
        90  -9.7794     28.8919     91.8931   9.8676352516e+01   5.5221116199e+01    0.2271458     0.150094   4.60 0.0008074616    1.709    0.415
        91  -9.3835      1.2041     90.0206   1.0917845570e+02   5.7512158956e+01    0.1740142   0.08427276 -66.09 0.0003615509    1.682    0.405
        92 -11.5438    125.2483     93.3267   6.5787079569e+01   3.9234002693e+01    0.2684862    0.2588194 -75.75 0.0001975803    1.104    0.094
        93 -12.0133      5.4464     76.3284   1.0485519991e+02   6.0505594123e+01    0.7387266     0.254345 -57.14  0.002696435    2.107    0.525
        94 -11.0535      6.9268     85.0253   1.0600547725e+02   5.8410886486e+01    0.3137647    0.2763045 -41.79 0.0009914621    1.102    0.093
        95 -11.2806     10.8770     84.3689   1.0427214680e+02   5.8339971499e+01    0.5246734    0.2403025 -81.24  0.002024308    3.365    0.703
        96  -9.1900    124.3280     86.3066   6.3984566088e+01   4.0848924809e+01    0.1564075    0.1204247   8.66  0.000703729    1.654    0.396
        97 -10.2899     69.5504     83.2272   8.0548108084e+01   5.2165794296e+01    0.2458092    0.1901983  27.58 0.0001819681    1.310    0.236
        98  -9.9257     89.6166     80.8163   7.2735616102e+01   4.9155504639e+01    0.2666498    0.1945653  66.30 0.0006580364    1.987    0.497
        99 -10.3756     85.9975     78.9403   7.3362115510e+01   5.0217084310e+01    0.2491845    0.2018023  32.68  0.000411738    1.222    0.182
       100  -9.3875    250.3293     80.7066   4.0274035668e+01   1.4688332125e+01    0.1283053   0.08048481 -65.36 0.0006401715    1.629    0.386
       101 -11.5492     55.0006     75.0835   8.3630991249e+01   5.6082611160e+01    0.3546262    0.3085874  13.23            0    1.151    0.131
       102 -10.1380     51.2873     77.7231   8.5926569340e+01   5.6018713497e+01    0.1982265    0.1972991 -26.28            0    1.235    0.190
       103  -9.6854    134.9511     78.9805   5.9088020845e+01   3.9845319646e+01    0.2238433    0.1771573  18.53 0.0003684514    1.529    0.346
       104  -9.0537    124.4525     79.3872   6.1882804563e+01   4.2151818490e+01    0.1478657    0.1425536  56.35  0.000137157    1.055    0.053
       105  -9.3489     80.4562     79.4664   7.5446203365e+01   5.1118081341e+01    0.1466018    0.1369738  -7.69 0.0008079111    1.028    0.028
       106  -9.3432     31.3124     78.9876   9.4516342105e+01   5.8002456270e+01    0.1569319    0.1102903 -50.74 0.0008464072    1.264    0.209
       107 -10.6096     22.1610     76.8796   9.7845580998e+01   5.9280757871e+01    0.2566381    0.2063434  64.42 0.0005924018    1.757    0.431
       108 -10.4565     19.7363     73.1368   9.7942106766e+01   6.0310472626e+01    0.5392381    0.2081641 -40.47  0.002313994    2.248    0.555
       109 -10.0529    176.9664     76.9176   4.9700081956e+01   3.0469457758e+01    0.2228064    0.2093226 -81.73 0.0007993904    1.020    0.020
       110  -9.9598     69.6092     74.6089   7.7825532196e+01   5.3968007844e+01    0.2686639    0.2145305  81.34  0.000950017    2.034    0.508
       111 -10.0446     32.8991     73.4829   9.2334317115e+01   5.9071964839e+01    0.2351771     0.124959  27.10 0.0005303073    1.999    0.500
       112  -9.2803    175.2785     72.6416   4.8891273960e+01   3.1575338424e+01    0.1502289    0.1037605 -67.61  0.000682965    1.661    0.398
       113 -11.4151    105.9256     71.2814   6.4539503586e+01   4.7707112860e+01    0.3334633    0.2852499  74.01  0.001263815    1.432    0.302
       114  -9.7883     93.0366     71.8179   6.8715278948e+01   5.0258454378e+01    0.2936054    0.1680013  59.68  0.001136442    2.612    0.617
       115  -9.0502    129.2951     70.3607   5.7899808685e+01   4.2682961715e+01    0.1519618     0.115646  10.84 0.0007031747    1.705    0.413
       116  -9.5362    100.3300     70.2581   6.5897266136e+01   4.9069092380e+01    0.1934764     0.133623 -47.36 0.0002194742    1.579    0.367
       117  -9.8435     45.0358     69.3129   8.5912945726e+01   5.8604930674e+01     0.274335    0.1592782 -48.07  0.001339306    1.611    0.379
       118  -9.7698      9.9768     68.5499   1.0110718651e+02   6.1997406153e+01    0.3056237   0.08824382 -47.56  0.001255734    2.451    0.592
       119 -10.4792      2.4611     66.6733   1.0403875131e+02   6.2821049896e+01    0.3053527    0.1134509  26.60  0.001381774    3.051    0.672
       120 -10.0465     80.9311     67.4527   7.1343841420e+01   5.3397390161e+01    0.2156891    0.1842468 -28.59 0.0003769524    1.152    0.132
       121  -9.3122     88.9848     67.4713   6.8600861533e+01   5.1865168156e+01    0.1770732    0.1287519  69.40 0.0007959163    2.102    0.524
       122 -10.9148     48.0638     79.1269   8.7642465846e+01   5.6125151777e+01    0.2521183    0.1960561  -8.32 0.0002745992    1.289    0.224
       123 -10.0624     51.3724     66.3658   8.2311146816e+01   5.8381881403e+01     0.284169    0.1759509 -23.10 0.0007771013    1.732    0.423
       124 -11.8035     15.0695     63.0996   9.7373706857e+01   6.2843923283e+01    0.8728316    0.5417396  28.12  0.004893776    1.853    0.460
       125 -13.7233     20.7748     58.5681   9.3398656698e+01   6.3350961699e+01    0.4026383    0.2924607 -39.67 0.0008401252    1.150    0.130
       126 -10.0445    104.3969     63.5982   6.2475239467e+01   4.9392942512e+01    0.3595766     0.141867 -32.75   0.00126392    2.936    0.659
       127 -10.0108     72.7313     63.9868   7.3108140689e+01   5.5513718494e+01    0.2358309    0.1614239 -43.14 0.0007693629    1.508    0.337
       128 -10.5326     96.8754     63.9709   6.4878979882e+01   5.0908694593e+01    0.3978983    0.2128557  32.09  0.001185861    2.112    0.526
       129 -10.1511     62.7785     62.6889   7.6451657130e+01   5.7412991236e+01    0.2804042    0.1809001 -48.46  0.001383594    1.688    0.408
       130  -9.9696     38.9672     61.9698   8.6168852247e+01   6.0837443526e+01    0.2190712    0.1386015 -19.85 0.0005369647    1.623    0.384
       131  -9.9628    157.1801     61.0960   4.9093724813e+01   3.7666902767e+01    0.1930942    0.1837367  32.21 0.0002808865    1.164    0.141
       132 -10.1124     48.9769     59.4487   8.0972198326e+01   6.0067354506e+01    0.2297359     0.191932 -56.45  0.001043192    1.507    0.336
       133 -12.7641     86.4336     54.6241   6.4987975817e+01   5.4599391789e+01    0.4250216    0.3356877   5.46  0.002298313    1.330    0.248
       134 -10.5747      4.8773     57.4217   1.0063827556e+02   6.4689121861e+01    0.4097203    0.1633777 -16.80  0.001723963    3.131    0.681
       135 -10.1912     71.8054     56.5419   7.0815856716e+01   5.7016570714e+01     0.228091    0.1748475 -32.05 0.0004493637    1.295    0.228
       136  -9.1317    153.7211     61.2555   4.9806636307e+01   3.8460108431e+01      0.13722    0.1066485 -79.19 -0.000275831    1.467    0.318
       137 -10.0079    103.9732     56.2802   6.0137712555e+01   5.0694931810e+01    0.1962811    0.1741816  36.19 0.0004386436    1.051    0.048
       138 -11.2347     33.2324     55.2621   8.6512191220e+01   6.2810974877e+01     0.447738    0.1981612 -29.88 0.0009408887    2.523    0.604
       139 -13.0543    114.5277     53.3337   5.6249085075e+01   4.8821105864e+01    0.3050532    0.2854184  32.28  0.000490573    1.023    0.023
       140 -12.4019     67.1504     52.7160   7.1168343931e+01   5.8484321702e+01    0.4104562    0.2175022  33.76 0.0009152612    1.831    0.454
       141 -10.2008    149.1614     52.0990   4.8070303814e+01   4.0918865061e+01    0.2392341    0.1938334  65.51 0.0005922466    1.167    0.143
       142  -9.5760      4.3191     50.8592   9.9106262061e+01   6.6077148352e+01    0.1874908   0.07824629 -48.42 0.0007213627    1.794    0.443
       143 -11.2211    119.6557     48.0349   5.3210943012e+01   4.8433067028e+01    0.3697959     0.282645 -29.17  0.001516035    1.416    0.294
       144  -9.9393     15.7340     49.7783   9.3077964696e+01   6.5526216117e+01    0.2450083    0.1683488  -8.47   0.00147805    1.360    0.265
       145 -10.4848      9.3855     47.9206   9.5674495315e+01   6.6353986933e+01    0.3426278    0.1577992   9.48  0.001628213    2.325    0.570
       146 -10.8178     38.5088     48.3441   8.1611760383e+01   6.3494557254e+01    0.2616251    0.2176913 -48.46  0.001606442    1.458    0.314
       147 -12.1814    106.0883     50.4394   5.7543484692e+01   5.1136520676e+01    0.2725262     0.236303 -16.77 0.0002582274    1.216    0.178
       148 -10.8697    137.2504     46.9793   4.8927434141e+01   4.4470171808e+01     0.326119    0.2188317  59.59  0.001479355    1.387    0.279
       149  -9.8444     52.7748     48.1001   7.5214460157e+01   6.1582877257e+01     0.270521    0.1496007  21.71  0.001281009    1.927    0.481
       150  -9.2445    154.5746     47.4783   4.5742312575e+01   4.0285886073e+01    0.1376162     0.125918  88.32 0.0001966776    1.040    0.039
       151 -10.7801     68.7861     46.7642   6.8304948193e+01   5.9178502726e+01    0.2160654    0.1698079  14.06  0.000243316    1.188    0.158
       152 -10.3985     79.3050     45.6469   6.4096694276e+01   5.7405299769e+01    0.2252208    0.1905321  36.09 0.0004056423    1.141    0.124
       153  -9.5781    241.8115     45.1487   3.4060076310e+01   2.1445207264e+01    0.1427372    0.1300058 -58.59 0.0002775448    1.268    0.211
       154 -11.0138     16.4661     43.2193   9.0495448901e+01   6.6725258079e+01    0.3811357    0.3130027  56.29  0.002375228    2.010    0.502
       155 -10.4944     25.8952     43.9283   8.5996529222e+01   6.5718829922e+01    0.2631004    0.2033112 -59.98  0.001385936    1.774    0.436
       156 -10.9524     20.9093     39.8877   8.7003306611e+01   6.6939112681e+01    0.3579133    0.2530764 -24.62  0.001580302    1.159    0.137
       157 -10.2410     94.2297     43.4562   5.8491555444e+01   5.4708227678e+01    0.3057724    0.1583149  35.05 0.0008377837    2.033    0.508
       158 -10.5054    184.7408     41.4997   3.9494083600e+01   3.4021908265e+01    0.3627751    0.2266553  82.51  0.001260545    1.644    0.392
       159  -9.6849     69.6260     42.2797   6.6256732763e+01   5.9721668074e+01    0.1916401    0.1668778  87.49 0.0008168019    1.815    0.449
       160 -10.4588     36.2467     41.6144   8.0096719418e+01   6.4957478127e+01    0.2299283    0.1752745 -20.40 0.0005863505    1.127    0.113
       161 -10.0377      4.4891     41.8222   9.6274019382e+01   6.7854742816e+01    0.1904133    0.1246778  -4.68 0.0007945281    1.446    0.308
       162 -10.5813     90.7016     40.2374   5.8374296913e+01   5.5896769832e+01    0.2677719    0.1881073  28.14 0.0006276793    1.413    0.292
       163  -9.9977     59.0026     41.4760   7.0048319768e+01   6.1682145430e+01    0.2845281    0.1201974  44.59  0.001193029    2.547    0.607
       164 -10.0055    170.6504     40.3038   4.1166113628e+01   3.7446024575e+01    0.2378251    0.1606244  69.88 0.0005678685    1.380    0.275
       165  -9.2487    139.4419     40.4667   4.6510252916e+01   4.4823298889e+01     0.136336    0.1249461  71.31 0.0001781141    1.023    0.023
       166 -10.1738    134.2621     39.6786   4.7296510587e+01   4.6151778742e+01    0.3203238    0.1547873  48.92  0.001258937    1.936    0.483
       167 -10.2035    128.2769     38.8017   4.8263285235e+01   4.7673868576e+01    0.2969316    0.1851281 -51.53  0.001095131    1.908    0.476
       168  -9.8080     44.4296     40.2796   7.5787196821e+01   6.4098874906e+01    0.2245252    0.1389023  17.15 0.0006063414    1.601    0.376
       169  -9.0893    204.7353     39.6930   3.6623567356e+01   2.9784939255e+01    0.1107876   0.09956147  31.76 0.0001884948    1.530    0.346
       170 -11.9183    121.1204     37.0514   4.9261470159e+01   4.9565578680e+01    0.4046355    0.3438509 -52.47 0.0009389676    1.328    0.247
       171  -9.2234    212.5507     37.5875   3.5311933213e+01   2.8374526684e+01    0.1259384    0.1024468 -73.58 6.078149e-05    1.029    0.028
       172  -8.8557    184.2917     36.3032   3.8270359134e+01   3.4795375263e+01    0.1213159   0.09850986  38.41 0.0003579427    1.571    0.364
       173 -10.2854     38.7594     35.4134   7.6403205590e+01   6.5656330681e+01    0.2478302    0.1569364  13.86  0.000700254    1.527    0.345
       174 -10.4610     38.4120     31.7725   7.5029599622e+01   6.6268772574e+01    0.3056256    0.2082489  -9.57   0.00149602    1.379    0.275
       175 -10.8425      4.7049     34.7151   9.3752433067e+01   6.9173925211e+01    0.4311947    0.2130366  22.22  0.002402507    2.123    0.529
       176  -9.8834    133.0773     35.0120   4.6085642603e+01   4.7015733425e+01    0.2001677    0.1451163  32.15  0.001056521    1.571    0.363
       177 -10.8299     27.5877     34.3008   8.1397325209e+01   6.7209976366e+01    0.2940812    0.1577521 -22.50   0.00109894    1.888    0.470
       178 -11.1768    144.3210     31.4859   4.2931636566e+01   4.4771400953e+01     0.333736    0.2042691 -54.90 0.0005769952    1.886    0.470
       179  -9.8915     49.8871     33.5052   7.0580296346e+01   6.4342840238e+01    0.2015028    0.1642718  25.53 0.0003451361    1.199    0.166
       180  -9.6457     45.5158     32.8456   7.2221049533e+01   6.5101482436e+01    0.2225895    0.1505955  52.22  0.001166739    2.278    0.561
       181  -9.2012    177.5317     32.4250   3.8177906220e+01   3.6832443245e+01    0.1317527    0.1112999 -84.62 0.0002355944    1.054    0.051
       182 -10.6466     90.6486     31.3295   5.5048260988e+01   5.7062430728e+01    0.2789007    0.2256372 -80.77   0.00117037    1.817    0.450
       183 -12.5780     10.7659     29.9923   8.8608622810e+01   6.9566925972e+01    0.3262161    0.2242681  29.62  0.002070265    1.754    0.430
       184 -10.2563      3.1264     26.5296   9.1600088723e+01   7.0732421688e+01    0.2162599    0.1582519 -13.99 0.0005825888    1.098    0.089
       185 -11.3604      2.1532     20.8088   8.9863376568e+01   7.1763406534e+01    0.2998675    0.2379793 -17.35  0.002193572    1.130    0.115
       186  -7.6146      6.9553     19.9603   8.6621743356e+01   7.1535297501e+01    0.3010698    0.1453759 -25.10  0.001645652    1.880    0.468
       187  -9.7518    127.9792     31.0060   4.5842892234e+01   4.8693424369e+01    0.3402761    0.1816431  77.04  0.001250904    2.423    0.587
       188 -11.6641     68.8103     26.7769   6.0274653346e+01   6.1990601746e+01    0.3996083    0.3390653 -52.98  0.002452217    1.667    0.400
       189 -10.5172    136.8241     28.6565   4.3416076954e+01   4.6875900211e+01    0.5705719     0.221679  47.40   0.00125889    2.552    0.608
       190  -9.9733    164.5574     28.5030   3.8923319989e+01   4.0326156433e+01    0.1310893    0.1141425  89.20 3.513478e-05    1.029    0.028
       191  -9.4473    147.1756     27.3754   4.1250334675e+01   4.4565391072e+01    0.3596527   0.06768668 -34.27  0.001151368    4.612    0.783
       192 -10.1266    113.8954     26.3165   4.7284047635e+01   5.2495000992e+01    0.2331662    0.1916667  -0.85 0.0006930574    1.398    0.285
       193  -9.8645     94.0745     27.3275   5.2567083685e+01   5.6803618966e+01    0.1833847    0.1535917  44.65 0.0004879517    1.064    0.060
       194  -9.8568    215.2309     26.3763   3.2633689145e+01   2.9202518725e+01    0.1700843   0.09954169  88.17 0.0009460446    1.646    0.392
       195  -9.7686    101.0980     26.3149   5.0334308323e+01   5.5382488829e+01    0.2915569   0.09070011  50.82  0.001109987    2.608    0.617
       196 -10.3882     46.4351     26.3193   6.8973370213e+01   6.5892734753e+01    0.1948847    0.1460499  48.11 0.0007985024    1.752    0.429
       197 -10.3867     59.0425     24.2409   6.2823771615e+01   6.4079997488e+01    0.2595088    0.1700408 -30.86  0.001444781    1.633    0.388
       198  -9.3624    124.6238     23.2856   4.4032479133e+01   5.0333998561e+01    0.1342207   0.09654687 -80.60 0.0007016174    1.720    0.419
       199  -9.0017    120.2707     22.6783   4.4702685471e+01   5.1411889765e+01    0.1258865   0.09738515 -71.21 0.0002842336    1.568    0.362
       200 -10.2281    225.1285    247.3189   7.6625646190e+01  -9.3139421224e+00    0.2158308    0.1342481 -21.24  0.001310592    1.414    0.293
       201 -10.2819     45.9357     21.2127   6.6887668625e+01   6.6641933488e+01    0.2130151    0.1632144  -9.73 0.0009852445    1.199    0.166
       202 -10.0378     35.6098     22.0897   7.2061170775e+01   6.8051812622e+01    0.1907179    0.1426169  25.39 0.0007679574    1.267    0.211
       203  -9.4233    229.7861    247.5969   7.5809390952e+01  -9.9020392056e+00    0.1454144   0.09910381  28.69 0.0004931021    1.543    0.352
       204 -11.3268     14.4194     21.2245   8.2843144567e+01   7.0672245512e+01    0.3317463    0.2119098  33.94  0.001580926    1.930    0.482
       205  -9.7712    170.8987    246.8491   8.7337022834e+01  -2.1158399560e+00    0.2068579    0.1525814   3.08  0.001213357    1.308    0.236
       206 -10.6729    228.7224     20.9747   3.0375649348e+01   2.7066125592e+01     0.211033    0.1411021  83.64 0.0007993445    1.365    0.268
       207  -9.8702    132.0605     20.6468   4.1809120711e+01   4.8862024982e+01    0.1906152    0.1443176  60.57 0.0005431146    1.145    0.127
       208  -9.8026    101.4324     21.1036   4.8354532483e+01   5.5865647321e+01    0.2312965    0.1894779  45.23   0.00141755    1.049    0.047
       209 -11.0645     84.4350     21.1100   5.2902636766e+01   5.9532990097e+01    0.2272616    0.1490532  40.35 0.0005559965    1.311    0.237
       210  -9.7152     33.6712    247.2929   1.1678509988e+02   1.6597309771e+01    0.1287268    0.0693895  59.79 0.0002572416    1.626    0.385
       211 -10.2004     39.0167     19.5198   6.9240826469e+01   6.7908786291e+01    0.3567055    0.2032365  54.83  0.001576371    3.694    0.729
       212 -10.5104     60.4136     18.8468   5.9925150879e+01   6.4472951443e+01    0.3204787    0.1277771  37.78  0.001432993    2.255    0.556
       213  -9.2344     20.1717     17.4813   7.7885422483e+01   7.0627607780e+01    0.1779099    0.1206685 -31.20 0.0009251836    1.407    0.289
       214  -9.4218    115.9814    246.6906   9.9195734855e+01   5.9089739423e+00    0.1613496    0.1054606  33.26 0.0008674832    1.332    0.249
       215 -11.1046    202.9404     16.4243   3.1612397771e+01   3.2971475315e+01     0.259551    0.1564423 -74.67  0.001004809    1.562    0.360
       216 -10.5164    125.0527     17.0854   4.1954221044e+01   5.0858692874e+01    0.1904501    0.1662136  63.66 0.0003537586    1.019    0.019
       217  -9.1823     86.6397    245.2515   1.0546794655e+02   1.0365832848e+01    0.1355847   0.08231787  54.65 0.0004718927    1.612    0.380
       218  -9.9339     91.5222     16.5053   4.9139445125e+01   5.8496700938e+01    0.1291323    0.1097443  42.28 -0.0001132929    1.018    0.017
       219  -9.0731     52.7212     16.7387   6.1966201366e+01   6.6065465623e+01     0.122601   0.07913177  17.25 0.0002433101    1.475    0.322
       220 -10.3982     40.3321     15.1433   6.6549878891e+01   6.8256765688e+01    0.2417218    0.1654961  26.72  0.001516229    1.239    0.193
       221  -9.4581     52.6695    244.6744   1.1269760745e+02   1.4916276702e+01    0.1139449   0.09564039 -27.10 0.0003248668    1.705    0.414
       222  -9.4844     39.6294    243.3265   1.1529927567e+02   1.6741600069e+01    0.1377844   0.07035064  60.02 0.0007032462    1.816    0.449
       223  -9.3021     26.6098     16.7330   7.4063033821e+01   6.9965872330e+01    0.1265249   0.07474831   3.62 0.0004063784    1.710    0.415
       224  -9.5970    168.8589     14.8167   3.4787674058e+01   4.0804239112e+01    0.1668195      0.12557 -73.71 0.0002405562    1.266    0.210
       225  -9.5159     99.3794     14.7708   4.6528434089e+01   5.6941678776e+01    0.1663918    0.1187674   0.62 0.0009470487    1.655    0.396
       226 -10.1574    221.3351     14.3083   2.9618028285e+01   2.9324517412e+01    0.1055062   0.08575275  50.78 0.0004951605    1.675    0.403
       227 -11.1400     29.2678    241.2626   1.1726872252e+02   1.8331088795e+01    0.2730759   0.08745066  32.96  0.001200085    2.788    0.641
       228 -10.8693    208.0059     13.0144   3.0430060057e+01   3.2253299797e+01    0.1808351    0.1446787 -78.03 0.0003580782    1.007    0.007
       229  -9.7911    155.5291     15.9656   3.6788534641e+01   4.3799170411e+01    0.1692615    0.1246157 -34.92  0.000381068    1.516    0.341
       230  -9.1171     60.9339    241.0000   1.1062582055e+02   1.4652636355e+01     0.197594    0.0645329  32.45 0.0005045536    2.802    0.643
       231 -10.4766    117.7390    239.5585   9.7887987894e+01   7.0334271949e+00    0.2482237    0.2169986  35.78 0.0006988058    1.015    0.014
       232  -9.6531    149.0000    237.9713   9.0700506765e+01   2.6474859945e+00    0.2042797   0.07652109 -50.13 0.0008076138    2.978    0.664
       233  -9.9131     49.8716    235.6846   1.1254080093e+02   1.7151842195e+01    0.1806719    0.1417422  52.75 0.0009122223    1.103    0.093
       234 -11.3687     24.8556    235.9708   1.1781710675e+02   1.9923041949e+01    0.2550521    0.1438476  42.76 0.0006813708    1.546    0.353
       235 -12.0788      4.1472    232.8732   1.2178290693e+02   2.2629351897e+01    0.3113277    0.2084011  58.81  0.002056442    1.219    0.179
       236  -9.5695    249.4815    233.5247   6.9926682843e+01  -1.0165080232e+01    0.1198815   0.08887266 -10.71 0.0001983228    1.015    0.014
       237 -11.9827      2.9135    225.6688   1.2165250162e+02   2.4290963252e+01    0.5399393    0.1894177  54.12   0.00256441    2.437    0.590
       238 -10.7585      2.3969    220.1866   1.2146293738e+02   2.5540031502e+01      0.26049    0.1332735  88.86  0.001432138    1.705    0.413
       239 -12.0393      9.6224    227.2379   1.2038475549e+02   2.3332071627e+01    0.3000237    0.2709287 -68.66  0.002180489    1.361    0.265
       240  -9.3340     47.8233    229.8473   1.1248508212e+02   1.8667737046e+01    0.1732108    0.1221267  62.43  0.000227703    1.268    0.212
       241  -9.2683     37.7870    229.9906   1.1467621403e+02   1.9804901732e+01    0.1508481   0.09231504 -77.82 0.0004652733    1.576    0.366
       242 -10.1694    134.2340     11.5680   3.8655799802e+01   4.9223727322e+01     0.194239   0.09577923  56.38 0.0009551634    1.702    0.413
       243  -9.2094    243.0036    230.2150   7.0488243542e+01  -8.9504395326e+00    0.1462534   0.08662139  24.35 0.0006214558    1.661    0.398
       244 -10.8843    140.1178    227.9818   9.1169073429e+01   5.9143923785e+00    0.3151461     0.209521 -67.05  0.001538718    2.074    0.518
       245  -9.4484     57.2327    229.6217   1.1038463388e+02   1.7563700255e+01    0.1331137   0.08460558  70.96 0.0006904858    1.618    0.382
       246  -9.8407    223.2034    226.8200   7.3507142069e+01  -6.0060529760e+00    0.1777564    0.1212296  -8.57 0.0003793751    1.321    0.243
       247  -9.7444    209.5126    229.5302   7.6612135439e+01  -4.6313503131e+00    0.1298898    0.1049049  -3.27  7.60347e-05    1.007    0.007
       248 -11.9744      4.7449    240.8445   1.2206692548e+02   2.0902974980e+01    0.5037836    0.2585745  44.22  0.003025875    1.638    0.389
       249  -9.4153    167.4634    221.5102   8.3986775786e+01   2.9043291181e+00    0.1382753    0.1219955   7.03 0.0008094349    1.012    0.011
       250 -11.0398      8.2378    218.2115   1.2014078113e+02   2.5456512655e+01    0.2398836    0.1956981 -64.01  0.001624655    1.397    0.284
       251  -9.5825    233.2193    218.6170   7.0198555532e+01  -6.0016772548e+00     0.163288    0.1037134  14.13 0.0003428066    1.555    0.357
