#   1 NUMBER                 Running object number                                     
#   2 MAG_AUTO               Kron-like elliptical aperture magnitude                    [mag]
#   3 X_IMAGE                Object position along x                                    [pixel]
#   4 Y_IMAGE                Object position along y                                    [pixel]
#   5 X_WORLD                Barycenter position along world x axis                     [deg]
#   6 Y_WORLD                Barycenter position along world y axis                     [deg]
#   7 A_WORLD                Profile RMS along major axis (world units)                 [deg]
#   8 B_WORLD                Profile RMS along minor axis (world units)                 [deg]
#   9 THETA_WORLD            Position angle (CCW/world-x)                               [deg]
#  10 FWHM_WORLD             FWHM assuming a gaussian core                              [deg]
#  11 ELONGATION             A_IMAGE/B_IMAGE                                           
#  12 ELLIPTICITY            1 - B_IMAGE/A_IMAGE                                       
         1 -10.1223    201.1787     26.0141   6.7956626240e+01   3.1567135035e+01    0.6515552    0.1994985 -29.85  0.002410085    2.727    0.633
         2 -10.5206    225.6631     23.5787   6.4885641556e+01   2.6223382526e+01    0.6076711    0.3910288 -65.85  0.003253344    1.719    0.418
         3  -9.3651    234.5239     19.6274   6.3141852417e+01   2.4709365086e+01     0.469858    0.2500788  29.33  0.002090994    2.983    0.665
         4 -10.0030    240.1815     19.1716   6.2598333811e+01   2.3567983698e+01    0.3210412    0.2941597 -20.18  0.002040286    1.133    0.117
         5  -9.5083    250.0845     18.6921   6.1776030007e+01   2.1604158442e+01    0.4130743    0.1446704 -26.08  0.001308271    2.368    0.578
         6  -9.4799    223.1820      6.5920   6.0658652759e+01   2.8402554456e+01    0.3687407    0.2632294  -3.95  0.001862724    1.603    0.376
         7  -9.5207    233.1817     10.7253   6.1008048095e+01   2.5846798427e+01     0.550352    0.2756896  16.86  0.002129004    4.062    0.754
         8  -8.7581    230.1889     15.9347   6.2543148172e+01   2.5997203802e+01    0.2748685    0.2426914  81.12  0.001808638    1.225    0.184
         9  -9.8375    220.6647     14.3308   6.2878023360e+01   2.8246208522e+01    0.5631474    0.2804317  52.78  0.002703785    2.212    0.548
        10  -8.7458    206.3603      5.9518   6.1761254351e+01   3.2304719985e+01    0.3223005    0.1265237 -29.34  0.001392584    2.205    0.547
        11  -9.3540    202.0261      5.3286   6.1941162535e+01   3.3385057130e+01    0.5695012    0.1631013  48.11  0.001859025    4.407    0.773
        12  -9.4247    198.1268     11.1489   6.3958431873e+01   3.3790721159e+01    0.2810087    0.2354798 -16.06  0.001063956    1.225    0.184
        13  -9.4058    199.8108     15.3527   6.5016519563e+01   3.2984699896e+01    0.3391119    0.2494231 -32.29  0.001015142    1.271    0.213
        14  -8.8685    202.0063     12.0000   6.3844438901e+01   3.2781516904e+01    0.2483148    0.1484912  47.69  0.001228215    1.843    0.457
        15  -9.5353    245.7807     13.8017   6.0903587031e+01   2.2935201005e+01    0.4561201    0.1987214  61.98  0.002265564    2.491    0.599
        16  -8.6063    168.6800     12.0744   6.7429287275e+01   4.1052537658e+01    0.4034194    0.1512893 -43.42  0.001487878    2.749    0.636
        17 -10.0322    212.6733      8.9556   6.2080348838e+01   3.0564921515e+01     0.468021    0.3050255 -34.37  0.002578615    1.379    0.275
        18  -9.0579    239.2554      9.4235   6.0275752896e+01   2.4684606962e+01    0.2664174    0.1412916 -55.63  0.001271887    1.842    0.457
        19  -9.3284    186.6396      9.0386   6.4444756002e+01   3.6795798837e+01    0.4418242    0.2096958 -58.37  0.001806541    2.508    0.601
        20  -9.4752    155.6792      9.1765   6.8123766050e+01   4.4690101185e+01    0.3774143    0.2311084  15.75  0.001684086    2.058    0.514
        21  -9.1111    249.5000      6.9882   5.9060318178e+01   2.2813790335e+01    0.2521439    0.1952989 -25.62 0.0009836182    1.195    0.163
        22  -9.2186    249.5123      3.5100   5.8248282251e+01   2.3121043880e+01    0.3178188     0.165522 -44.83  0.001777556    1.596    0.374
        23  -9.3912    116.5807      6.7715   7.3725242859e+01   5.5098570409e+01    0.2468133    0.1364679 -18.50  0.000515281    1.879    0.468
        24  -8.0813    192.6117      6.3194   6.3050953768e+01   3.5569429039e+01    0.1511714   0.08665196 -58.19 0.0007011656    1.848    0.459
        25  -9.2567    171.8017      5.2207   6.4794730111e+01   4.0876614219e+01    0.2425662    0.2042531  10.76  0.001252974    1.309    0.236
        26  -8.0751    132.2673      6.6558   7.0736534493e+01   5.1046115635e+01     0.145616    0.1031496 -53.59 0.0003114931    1.608    0.378
        27  -8.7473    165.1571      3.0458   6.4810607914e+01   4.2769401969e+01    0.3876646    0.1805182 -16.57  0.001625349    2.286    0.563
        28  -8.5843    143.3692      4.1851   6.8017394270e+01   4.8355701822e+01    0.2046251    0.1204387 -33.00 0.0009447091    1.717    0.417
        29  -8.8254    239.7882      2.4940   5.8560855970e+01   2.5193849166e+01    0.2867619    0.1568126 -72.63  0.001204976    1.996    0.499
        30  -9.1971    231.4721      2.9129   5.9167842513e+01   2.6916790740e+01     0.324013    0.1695775 -79.12  0.001368824    2.181    0.542
        31  -7.8467    190.1905      2.6699   6.2181627071e+01   3.6479667574e+01    0.2969551    0.2194471  50.06  0.001085144    1.430    0.301
        32  -8.5118    194.5052      2.0191   6.1616127508e+01   3.5480228402e+01    0.2719467    0.1518212 -66.13  0.001278949    1.972    0.493
        33  -8.5169     98.3353      2.6711   7.5914870648e+01   6.0072257421e+01    0.2192073    0.1641273 -60.73 0.0008184585    1.726    0.421
        34  -8.3575    214.6242      1.7295   5.9983307310e+01   3.0757297389e+01    0.1948194    0.1382533  31.33  0.001082447    1.742    0.426
        35  -8.7859     63.5259      2.0735   8.6690182063e+01   6.8078381078e+01    0.2032187    0.1746167  27.08  0.001030683    1.092    0.085
        36  -9.6792    166.6003    186.8376   1.1382760895e+02   1.4053183677e+01    0.1627829    0.1226328 -51.98 0.0009519027    1.779    0.438
        37  -8.2010    250.4926    185.5241   9.8474157572e+01   1.9022954437e+00    0.1178515   0.08571021   1.92 0.0008101469    1.007    0.006
        38  -8.5481    225.1537    184.9149   1.0249256776e+02   5.4632940731e+00     0.172275    0.1475969   2.42  0.001132029    1.268    0.211
        39 -11.4463    158.3129    180.8650   1.1455144912e+02   1.6301776952e+01    0.5496435    0.3194624 -35.14  0.002863501    1.900    0.474
        40  -7.8936    130.6940    183.3387   1.2094375396e+02   2.0188156465e+01    0.1267732   0.09610602  63.00 0.0007041321    1.678    0.404
        41  -8.7896    241.8493    180.3757   9.8908036481e+01   3.6504156025e+00     0.240361    0.1175636 -39.57  0.001227532    2.650    0.623
        42  -8.8583    226.9591    179.6435   1.0122936329e+02   5.8502261275e+00    0.1840219    0.1642554 -20.23  0.001282253    1.489    0.328
        43  -9.8593    151.7444    178.6391   1.1557872927e+02   1.7714736178e+01    0.2361996      0.18128  13.09 0.0008480314    1.274    0.215
        44  -8.4684    219.0836    178.7929   1.0242835854e+02   7.1155355025e+00    0.1614813   0.08687581  35.97 0.0008676803    1.742    0.426
        45  -9.7223    171.2434    177.3197   1.1124840669e+02   1.4799943482e+01    0.3163258    0.1695095   2.26  0.001145299    3.949    0.747
        46  -9.5732    183.4038    176.6090   1.0867158683e+02   1.2955116266e+01    0.2351201    0.1146691 -51.64 0.0009580487    3.532    0.717
        47  -8.3987    233.9974    175.5029   9.9286017714e+01   5.3375935977e+00    0.1765076    0.1044306  32.47 0.0008692334    1.583    0.368
        48  -9.7324    193.9487    174.5386   1.0624040639e+02   1.1574352080e+01    0.1975482    0.1605139 -10.04  0.001242313    1.149    0.130
        49  -8.2165    225.2169    173.5636   1.0039651915e+02   6.8671392382e+00     0.170517    0.0975025  23.52 0.0006379029    1.619    0.382
        50  -9.3142    198.9953    172.0000   1.0480840515e+02   1.1133617499e+01    0.2100115   0.06565458  39.56 0.0008073999    2.977    0.664
        51  -9.0798    212.5078    170.1261   1.0196878546e+02   9.2587429600e+00    0.2285925    0.1624573  26.28 0.0009572008    1.261    0.207
        52 -10.1068    170.2475    169.7375   1.1008588900e+02   1.6169630962e+01    0.2733521    0.2281581  71.08  0.001551938    1.872    0.466
        53  -7.8458    243.4530    169.5004   9.6626924818e+01   4.6997053127e+00    0.1249614   0.09079602   0.93 0.0001488344    1.076    0.071
        54 -10.4447    193.0594    167.2700   1.0504219143e+02   1.2781048307e+01    0.3023315    0.2026391 -25.03  0.001419697    1.470    0.320
        55  -9.7712    147.3808    168.3104   1.1475849321e+02   2.0202342992e+01    0.2408901    0.2138525  34.58 0.0004841767    1.125    0.111
        56 -10.3136    184.6849    166.7202   1.0657891770e+02   1.4246836377e+01    0.2907766    0.1924154  48.61  0.001526706    1.822    0.451
        57  -8.2082    234.6770    165.3382   9.7242321861e+01   6.4880977206e+00    0.1071066   0.09747744 -41.02 0.0003818225    1.718    0.418
        58  -9.3249    213.1450    164.7082   1.0080867506e+02   9.8952581848e+00    0.1895671      0.15925  38.13  0.001197855    1.451    0.311
        59  -9.4388    184.4942    159.0208   1.0511678631e+02   1.5475390077e+01    0.2961193     0.124679 -43.47   0.00122393    2.723    0.633
        60  -8.6982    247.1979    158.4463   9.3904036885e+01   5.4791211548e+00    0.2107861    0.1038502  34.27  0.001121479    1.992    0.498
        61  -9.6546    156.1533    157.7993   1.1086304366e+02   2.0577266441e+01    0.1976611     0.153233   4.45 0.0008111112    1.349    0.259
        62  -9.1637    146.4922    158.4729   1.1316569371e+02   2.2118961568e+01    0.1374052    0.1238259  21.19 0.0008098776    1.026    0.025
        63  -8.1803    226.3387    157.2964   9.7044097414e+01   8.7986142533e+00    0.1336562   0.08312736   7.28 0.0007022966    1.656    0.396
        64  -8.4630    243.3043    153.9062   9.3606898052e+01   6.6111970261e+00    0.1936269    0.1654411  27.31  0.001280757    1.394    0.283
        65  -9.0236    221.8070    153.5038   9.7048778449e+01   1.0029884208e+01    0.2127214    0.1667953 -58.64   0.00117244    2.289    0.563
        66 -11.5051    196.6927    147.8886   1.0044106571e+02   1.5085026229e+01      0.80516    0.2711403 -43.70  0.002824751    3.754    0.734
        67  -8.6093    118.4754    153.4972   1.1893812797e+02   2.7775976388e+01    0.1368836     0.127474  33.91 0.0008100496    1.024    0.024
        68  -8.0886    250.5114    152.4942   9.2218602927e+01   5.7076249476e+00    0.1240829   0.09506662  -4.34 0.0001155932    1.011    0.011
        69  -9.6353    244.2519    149.2390   9.2517715675e+01   7.0453130254e+00    0.2225638    0.1837699  11.13  0.001307602    1.174    0.148
        70 -10.8343    188.1358    141.9932   1.0085012122e+02   1.7537536619e+01    0.4865104    0.2784049 -56.93  0.001881621    3.492    0.714
        71  -8.8903    224.7678    146.6182   9.5121897590e+01   1.0479486353e+01     0.293678     0.184653 -18.47  0.001611922    1.446    0.309
        72 -10.1236    206.7864    147.7509   9.8521341362e+01   1.3350555517e+01    0.2734807    0.1765385 -36.62  0.001455825    1.613    0.380
        73  -8.7481    201.6559    146.3079   9.9166732561e+01   1.4454539170e+01    0.1204422    0.1111838 -81.04 0.0007043714    1.696    0.410
        74  -8.8715    172.3342    145.6597   1.0488536834e+02   1.9809559443e+01    0.1318201    0.1147752  86.78 0.0007051302    1.753    0.429
        75  -8.9814    182.4870    143.4927   1.0231080868e+02   1.8322910127e+01    0.1402198    0.1223166   5.38 0.0003099348    1.005    0.005
        76  -9.0886    230.8748    141.6641   9.3067781421e+01   1.0140493027e+01    0.2464394    0.2156633 -22.35  0.001486525    1.296    0.228
        77  -8.5117    250.2384    140.6589   8.9851851185e+01   7.1884573888e+00    0.1624513    0.1464301  11.28 0.0006972204    1.325    0.245
        78  -8.9279    220.0152    139.0000   9.4309864418e+01   1.2328789494e+01    0.2294201    0.1682641  49.39   0.00100523    1.711    0.416
        79  -9.3074    216.3926    136.1592   9.4315710750e+01   1.3358764603e+01    0.2926747    0.2102966 -46.52  0.001581507    1.807    0.447
        80  -9.0295    209.8557    138.8340   9.6053874818e+01   1.4121360828e+01    0.1694352    0.1619134 -17.98 0.0006506298    1.323    0.244
        81 -10.0069    165.0453    136.5116   1.0448103999e+02   2.2752956050e+01    0.2483908    0.2326269  60.16  0.001345226    1.320    0.243
        82  -9.1771    249.4409    135.7285   8.8940980939e+01   7.9217187919e+00    0.3144754    0.1665305 -36.12  0.001414706    1.869    0.465
        83  -8.4215    248.8011    131.0220   8.8038583839e+01   8.6101156111e+00     0.210109    0.1707666  38.58   0.00136549    1.471    0.320
        84 -10.4329    169.7438    134.5942   1.0302861654e+02   2.2202183183e+01    0.2977602    0.2370179 -20.35 0.0006397589    1.232    0.188
        85  -9.2279    242.2920    134.1760   8.9679619866e+01   9.2562114203e+00    0.2981288    0.1904691 -39.52  0.001301218    1.759    0.432
        86  -9.6395    140.7339    135.1370   1.0981242297e+02   2.7567704659e+01    0.3765582     0.158943  52.22  0.001253787    3.406    0.706
        87  -8.6753     86.9077    130.1887   1.2316490241e+02   3.7784077235e+01    0.2933836    0.1799208  87.02  0.001187404    2.711    0.631
        88  -8.5606    221.7289    129.8396   9.2010506992e+01   1.3316585210e+01    0.2169799    0.1852203  89.41  0.001227244    2.033    0.508
        89 -10.5501    192.4039    128.1923   9.6921411363e+01   1.8953952147e+01     0.373966    0.2447215  13.64  0.001786331    1.778    0.438
        90  -7.7901     61.7024    129.7174   1.3047193515e+02   4.1308314867e+01     0.130126     0.100868 -31.29 0.0001850904    1.544    0.352
        91  -8.8619    186.0369    128.5002   9.8246302629e+01   2.0121013673e+01    0.2148501    0.1346577  41.88  0.001035723    1.600    0.375
        92  -9.7027    206.9454    126.9938   9.3930788037e+01   1.6405186447e+01    0.2693521    0.1827364  37.64  0.001081666    1.482    0.325
        93 -10.1129    212.2804    124.4751   9.2409305643e+01   1.5792206547e+01    0.4586554    0.2922731  25.38  0.002329198    1.651    0.394
        94  -9.0190    171.3346    127.6632   1.0110069504e+02   2.3109381877e+01    0.1385586    0.1184501 -83.19  0.000705194    1.744    0.427
        95  -9.2969    241.8471    124.9450   8.7749764501e+01   1.0519838689e+01    0.3185251    0.2157383  33.00  0.001714382    1.525    0.344
        96  -9.1117    229.3857    125.7404   8.9845869125e+01   1.2541762730e+01    0.2656758     0.164802  32.65  0.001416076    1.647    0.393
        97  -9.2945    189.1091    123.6081   9.6494067167e+01   2.0326842436e+01    0.4068998    0.1962105 -32.25  0.001726477    2.017    0.504
        98  -9.1543    230.0168    148.5011   9.4638288071e+01   9.3730353137e+00    0.1798555    0.1182104  37.88  0.001023315    1.580    0.367
        99  -8.3706    161.4837    124.1766   1.0244773478e+02   2.5666431047e+01    0.2124811    0.1403486 -36.57  0.001005458    1.511    0.338
       100  -9.9932    196.3993    122.1706   9.4751403095e+01   1.9143734389e+01    0.3423656     0.180825  38.82  0.001541343    1.907    0.476
       101  -8.8581    222.1157    120.9164   8.9930041075e+01   1.4504264165e+01    0.2501563    0.1827007  19.29  0.001399789    1.366    0.268
       102 -10.1207    230.4282    116.3515   8.7558394921e+01   1.3638729518e+01     0.391483     0.315879  62.17  0.002295038    1.745    0.427
       103  -8.4439    249.6391     98.9664   8.0829634796e+01   1.2511245717e+01    0.2318781    0.1618649 -25.82 0.0007080358    1.194    0.162
       104  -9.9410    247.7095    111.9945   8.4036641030e+01   1.1195668033e+01     0.539637    0.3345728 -33.75  0.003021516    1.471    0.320
       105  -9.6558    248.9863    106.8503   8.2706391119e+01   1.1630205797e+01    0.2922858    0.2423294  -9.68  0.001090913    1.038    0.036
       106  -8.5780    247.9951    102.7485   8.1909843605e+01   1.2320822116e+01    0.2183375    0.2076349  73.83  0.001473502    1.453    0.312
       107  -9.1844    220.3171    115.6488   8.9005436524e+01   1.5580633777e+01    0.1708593    0.1459247  64.91  0.000466675    1.626    0.385
       108  -9.7984    212.2655    116.0997   9.0459523585e+01   1.7027173764e+01    0.3128456    0.1724693  30.87  0.001301976    2.016    0.504
       109  -8.3296    203.8632    116.1036   9.1934040852e+01   1.8639581068e+01    0.1998978     0.179847 -29.80  0.000555494    1.206    0.171
       110  -8.9678    182.8929    116.1749   9.5941811889e+01   2.2782971995e+01    0.3846733    0.1838367  43.91  0.001595991    2.102    0.524
       111  -8.3432     52.2889    113.3227   1.3081656516e+02   4.6352042723e+01     0.137999    0.0968942 -37.95 0.0003202242    1.605    0.377
       112  -9.2486    104.4043    112.0847   1.1429132294e+02   3.9052896895e+01    0.2369793    0.1998591  19.70 0.0004819728    1.252    0.201
       113  -8.5529     15.0341    112.2937   1.4274902479e+02   4.9891942196e+01    0.1643894    0.1505634  82.68    0.0004497    1.089    0.082
       114  -9.4129    183.4882    107.5026   9.3655813062e+01   2.4105313916e+01    0.2264522    0.1341298 -22.45 0.0009606684    1.790    0.441
       115  -9.2336    215.4118    108.1249   8.8024754037e+01   1.7589787796e+01    0.2888095    0.2367193  42.63  0.001441896    1.343    0.255
       116  -9.9705    241.2913    104.9618   8.3335392743e+01   1.3216788281e+01    0.4720914    0.2026936 -29.37  0.002149459    1.975    0.494
       117  -9.5746    185.3892    103.2506   9.2191734761e+01   2.4409213760e+01    0.2644654     0.179336 -39.80 0.0007922283    1.487    0.328
       118  -8.4282    196.8822    103.5116   9.0094497800e+01   2.1979038786e+01    0.2077805    0.1403017  47.15   0.00102426    1.568    0.362
       119  -8.5055    221.2630    100.6180   8.5266216092e+01   1.7529059891e+01    0.2558058    0.1486554 -38.18  0.001245027    1.660    0.398
       120  -7.8234    210.3194    101.3198   8.7202402781e+01   1.9584413289e+01    0.1458076    0.1005445   9.04 0.0006221753    1.665    0.399
       121  -7.7025    167.0000    101.0137   9.5381960031e+01   2.8702207115e+01    0.2478296   0.08239954 -36.53 0.0007536867    2.931    0.659
       122  -9.0036    244.9382     98.7069   8.1391044978e+01   1.3374222232e+01    0.3400208    0.1664037 -28.27  0.001658491    1.716    0.417
       123  -8.6697    160.6985     99.3404   9.6320811321e+01   3.0358730044e+01    0.1481615    0.1209951 -70.89 0.0004374176    1.672    0.402
       124  -8.8647    236.2835     98.0278   8.2420215081e+01   1.5035074587e+01    0.1922389    0.1566855 -17.58  0.001164927    1.034    0.033
       125  -8.8665    196.4995     97.7755   8.8695547647e+01   2.2950569429e+01    0.2767536     0.225196 -75.70  0.001417857    1.794    0.443
       126  -8.7495    129.9301     98.4834   1.0363744811e+02   3.7067378960e+01    0.2218533    0.1483796  40.62 0.0004302695    1.497    0.332
       127  -8.8355    175.9796     97.3051   9.2501238946e+01   2.7404583998e+01    0.2233768    0.1271804  72.74 0.0007034246    4.157    0.759
       128  -9.5211    230.8900     94.5037   8.2343875610e+01   1.6517529306e+01    0.3351099    0.1898034 -26.15   0.00138472    1.545    0.353
       129  -7.8283    207.6914     95.3132   8.6128547717e+01   2.1001644154e+01    0.1366853    0.1074707 -56.96 0.0007027412    1.626    0.385
       130  -9.1705    243.0912     93.2829   8.0373017339e+01   1.4401507358e+01    0.2745152    0.1677446  48.28  0.001150479    1.848    0.459
       131  -8.0646    150.4995     93.5221   9.7066496309e+01   3.3644816177e+01    0.1518957    0.1444104  -4.06 -1.728555e-05    1.022    0.022
       132  -9.0057    215.8311     89.0009   8.3219450026e+01   2.0246571788e+01    0.3306484    0.1779509 -21.06  0.001480607    1.850    0.460
       133  -9.1293    236.3253     89.3457   8.0342862047e+01   1.6167885300e+01    0.4070146    0.2313221 -56.97  0.001759677    2.924    0.658
       134  -8.4887    232.4841     85.4813   7.9926964683e+01   1.7410531181e+01    0.2180147    0.1919305 -30.99 0.0006119542    1.137    0.121
       135  -9.3499    231.4653     82.3145   7.9286880963e+01   1.8025306104e+01    0.2951942    0.2594964  43.69  0.001290463    1.285    0.222
       136 -10.0870    225.3557     86.7025   8.1224987386e+01   1.8647050021e+01    0.5209132    0.3306538  11.77  0.002490174    2.024    0.506
       137 -10.1989    235.6761     73.0584   7.6453885645e+01   1.8388631527e+01     0.771202    0.3213184 -38.16  0.003371652    2.129    0.530
       138  -9.2870    237.4882     84.0105   7.8900661257e+01   1.6638802557e+01     0.338603    0.2157718 -55.43  0.001691969    2.118    0.528
       139 -10.7749    243.1416     79.7285   7.7150675532e+01   1.6110108921e+01    0.7342165    0.6631932 -55.61  0.004786888    1.316    0.240
       140  -8.8416    165.4692     87.5119   9.1988053686e+01   3.1394810209e+01    0.1516676    0.1410709  -4.24 0.0002261072    1.008    0.008
       141  -8.2497    139.5179     87.4895   9.8019776019e+01   3.7193918760e+01    0.1533342    0.1460844  -4.35 7.007661e-05    1.010    0.010
       142  -9.0083    179.5070     85.4950   8.8563522314e+01   2.8580494959e+01    0.1485664    0.1381633 -11.20  0.000810564    1.019    0.018
       143  -8.4488    117.1221     85.1411   1.0338581760e+02   4.2456933404e+01    0.2108842    0.1891904 -75.25  0.001079722    1.327    0.247
       144  -9.1196    210.7506     81.4177   8.2047987669e+01   2.2371872406e+01     0.187746    0.1263892  39.25 0.0007206288    1.589    0.371
       145  -8.4723    196.8543     80.2673   8.3981730822e+01   2.5535963950e+01    0.2413378    0.1506898 -66.26 0.0009532009    2.827    0.646
       146  -8.7950    119.6775     78.9943   1.0077541312e+02   4.3171084959e+01    0.2258813    0.1976564 -32.33  0.001156975    1.116    0.104
       147  -8.5792    189.3942     77.7983   8.4584646965e+01   2.7565673868e+01    0.2170143    0.1337565 -18.00 0.0009567689    1.733    0.423
       148  -9.1748    175.8454     77.2905   8.6936728721e+01   3.0728514512e+01    0.2734818    0.1925404 -40.73  0.001004606    1.422    0.297
       149  -7.8876    148.3036     78.3265   9.3127636243e+01   3.6913259374e+01    0.1589544    0.1177113   8.87 0.0002356007    1.644    0.392
       150  -8.1006    224.8413     76.2343   7.8663978776e+01   2.0152233269e+01    0.3276599    0.2304449 -88.28  0.001525068    2.241    0.554
       151  -8.9738    227.1240     73.9566   7.7778897624e+01   1.9986260208e+01     0.322067    0.1879287 -40.61  0.001593859    1.634    0.388
       152  -9.3612    248.4907     86.1215   7.8004047071e+01   1.4322811099e+01    0.4114742    0.2485738 -26.79  0.001778785    1.376    0.273
       153  -9.5985    214.7818     75.8418   7.9983026924e+01   2.2295202221e+01    0.4091388    0.1821753  52.75  0.001736639    2.380    0.580
       154  -8.4566    126.4947     76.5020   9.8089434724e+01   4.2180618097e+01    0.1541725    0.1469939  -5.21 -0.0001456737    1.003    0.003
       155  -9.1135    201.7773     72.5676   8.1075935604e+01   2.5566805599e+01    0.3387031    0.1471201  60.48  0.001311331    2.706    0.630
       156  -8.4264    249.9707     70.9789   7.4261484690e+01   1.5902416914e+01    0.1546008    0.1301097 -22.32 0.0004566087    1.014    0.013
       157  -9.0249    176.1675     87.2937   8.9721089229e+01   2.9033532768e+01    0.2820232    0.1821938 -54.84  0.001157291    2.025    0.506
       158  -9.6695    221.2718     61.4159   7.5310086871e+01   2.2821598626e+01    0.3000849     0.179647 -46.77  0.001461478    1.733    0.423
       159  -8.5187    227.3806     67.8120   7.6183570053e+01   2.0726742973e+01    0.2755354    0.1563175 -23.40  0.001336852    1.610    0.379
       160 -10.2844    223.5394     66.5504   7.6354699377e+01   2.1685755691e+01    0.3641567    0.2525819 -46.68  0.001587379    1.488    0.328
       161  -9.3511    250.1027     65.8844   7.3037379058e+01   1.6484959606e+01    0.3002472    0.1549565 -31.66 0.0009799079    1.584    0.369
       162  -8.6552    238.1882     64.8417   7.4119942383e+01   1.8913284216e+01    0.2800756    0.1362719 -23.07  0.001284132    1.883    0.469
       163  -8.4249    238.4886     60.5142   7.3014189533e+01   1.9378584288e+01    0.2177022    0.1512319  31.06 0.0009659147    1.704    0.413
       164  -8.7538    235.3187     60.3111   7.3323973163e+01   2.0040309030e+01    0.2172414    0.1739248  41.90 0.0006874237    1.399    0.285
       165  -9.3600    210.3909     66.1999   7.8053564279e+01   2.4548171822e+01    0.2796543    0.1565219 -33.44   0.00130299    1.599    0.375
       166  -9.3242    206.5166     59.4680   7.6764519194e+01   2.6303291010e+01    0.2697001    0.1208978 -32.04 0.0008790642    1.973    0.493
       167  -9.2413    197.9754     64.3247   7.9379235647e+01   2.7577817200e+01    0.2845047    0.1811004 -27.34  0.001360835    1.461    0.316
       168 -10.0518    202.4257     57.8610   7.6898221635e+01   2.7440858795e+01    0.2964485    0.2152347  35.04  0.001239693    1.520    0.342
       169  -9.5489    195.0876     58.0000   7.8021047009e+01   2.9110245419e+01    0.3270745    0.2010793  60.29  0.001443457    1.750    0.429
       170  -8.9073    158.5632     62.1422   8.5781914755e+01   3.7219715960e+01    0.2980334    0.1387504 -35.20  0.001139834    2.052    0.513
       171  -8.0669    136.3793     63.1488   9.1142520711e+01   4.2370116017e+01    0.2280415    0.1356777 -44.42 0.0009446035    1.767    0.434
       172  -9.4206    171.1394     59.1215   8.2370005181e+01   3.4640333374e+01    0.3267888    0.2687105 -16.11 0.0009598395    1.210    0.173
       173  -9.1539    126.7895     59.0549   9.2189913652e+01   4.5337680864e+01    0.2713116    0.2054347 -27.45  0.000619323    1.314    0.239
       174  -9.6713    213.8852     57.7962   7.5305412791e+01   2.4882723402e+01    0.4604385    0.3245184  74.54  0.002395964    1.731    0.422
       175  -8.8129    250.5701     54.6118   7.0301526635e+01   1.7707064499e+01    0.3070724    0.1007691 -28.41  0.001266326    2.446    0.591
       176  -8.8549    131.6742     55.1216   8.9546013115e+01   4.4855365112e+01    0.3173195    0.1242767 -40.34  0.001087995    2.556    0.609
       177 -10.1562    201.0580     53.4971   7.5861052945e+01   2.8326996527e+01    0.3171559    0.2554479  -6.04  0.001545426    1.286    0.222
       178  -9.3881    197.5378     51.5121   7.5792070486e+01   2.9401102273e+01    0.3191365    0.2153396  81.23  0.001523513    1.883    0.469
       179  -9.0876    237.5249     54.0120   7.1502749217e+01   2.0346807323e+01    0.4256017    0.2588994  79.96  0.002003428    2.250    0.556
       180  -9.8427    229.1839     51.3653   7.1748822136e+01   2.2382245658e+01    0.4647783    0.3883361  74.49  0.002824985    1.390    0.280
       181  -9.0060    163.1924     53.3146   8.2018578267e+01   3.7434476792e+01    0.3011207    0.2086366 -35.38  0.001316218    1.403    0.287
       182  -9.9332    244.7394     51.7472   7.0192309831e+01   1.9167538837e+01    0.3793226    0.2529884 -56.10  0.001787481    1.671    0.401
       183  -8.7654    249.4843     48.5257   6.8949691131e+01   1.8603927392e+01    0.2389836    0.1675876  51.54  0.001421781    1.651    0.394
       184  -8.5608    249.8211     44.6508   6.7988973121e+01   1.8968255812e+01    0.3312252    0.1080845 -43.34  0.001336436    2.820    0.645
       185 -10.0608    244.2884     42.3212   6.7934581169e+01   2.0316795672e+01    0.3835925    0.3199123 -15.11  0.001694297    1.160    0.138
       186  -8.8164    221.7515     53.4012   7.3142284019e+01   2.3719360797e+01    0.1778271    0.1224407  47.78  0.000894122    1.591    0.372
       187  -9.6955    199.1063     47.0868   7.4298832340e+01   2.9599981955e+01     0.396344     0.187444 -27.00  0.001668814    1.968    0.492
       188  -9.8033    196.5685     43.7924   7.3688584730e+01   3.0608272696e+01    0.2600083    0.2026642 -76.42 0.0007799589    1.510    0.338
       189  -7.9191    158.3186     48.6362   8.1416183997e+01   3.9319932229e+01    0.1597874    0.1124258 -60.62 0.0007040667    1.774    0.436
       190  -9.1176    144.9968     48.2597   8.4014897735e+01   4.2690148161e+01     0.282968    0.1440331 -58.17 0.0009024704    3.517    0.716
       191  -9.5848    215.7671     42.5888   7.0953358965e+01   2.6331971361e+01    0.5233767    0.2772023  -5.11  0.002142155    2.662    0.624
       192  -8.2083    162.4371     46.2313   7.9841031604e+01   3.8633276582e+01    0.2184657     0.129342 -40.24 0.0009438247    1.687    0.407
       193  -8.6704    238.5710     45.1948   6.9193533082e+01   2.1151745600e+01    0.1790095    0.1518463  52.27 0.0007104937    1.344    0.256
       194 -10.8670    185.6013     37.4331   7.3299046558e+01   3.4029214801e+01    0.5820311    0.2870619 -35.68  0.001901322    1.876    0.467
       195  -9.1226    221.8499     42.4476   7.0232179333e+01   2.5003312848e+01    0.4634153    0.1408003 -46.38  0.001531087    3.806    0.737
       196  -9.8888    174.2305     40.2558   7.5880491023e+01   3.6486866774e+01    0.5107922    0.3131719 -74.24  0.002090426    2.440    0.590
       197  -8.2649     76.5152     44.0341   1.0268721475e+02   5.8871053160e+01    0.2191551    0.1370995 -39.82 0.0006567276    1.524    0.344
       198  -9.2499    205.4516     40.1849   7.1510161020e+01   2.8963887342e+01     0.335281   0.08727024 -34.83  0.001139087    3.056    0.673
       199  -8.8144    234.4448    248.1435   1.1090573388e+02  -2.4324119751e+00    0.1918924     0.112351  37.49  0.001165855    1.950    0.487
       200 -10.4106    201.2193     38.3039   7.1495059756e+01   3.0174160060e+01    0.6571868    0.2530872 -17.70  0.002298382    3.163    0.684
       201  -8.5534    207.4423     24.7909   6.6942889745e+01   3.0221902067e+01    0.4031637    0.2629627  17.22  0.001961224    2.024    0.506
       202  -7.8306    204.5109     23.5589   6.6897325702e+01   3.1038427373e+01    0.2110425    0.1488004 -60.84  0.000939124    1.495    0.331
       203  -9.4325    165.6374     40.0830   7.7238907181e+01   3.8660218949e+01    0.2343716    0.2088911 -87.42  0.000669421    1.234    0.190
       204  -9.2153    238.3854     38.5614   6.7556016023e+01   2.1928098874e+01    0.2613046    0.2070758 -61.04 0.0009605724    1.329    0.248
       205  -8.0571    209.4379     39.5717   7.0860398561e+01   2.8117538053e+01    0.1355812     0.123463 -37.56 0.0001611682    1.027    0.027
       206  -9.0235    163.7607     34.5173   7.5697416008e+01   3.9844839638e+01    0.4380299    0.1961425 -13.09  0.001501876    3.068    0.674
       207  -8.9541    230.9451     32.3112   6.6667735443e+01   2.4166054200e+01    0.2147564    0.1700123 -86.72  0.001290138    1.424    0.298
       208 -10.0524    227.5873     33.7884   6.7366722226e+01   2.4727486727e+01    0.8023325    0.3369322 -43.69  0.003520317    2.205    0.546
       209  -8.9961    224.7445    243.3957   1.1180519237e+02  -8.7338880161e-01    0.2557255    0.1881623  50.34  0.001681174    2.865    0.651
       210  -9.9378    243.9585     21.9788   6.3002207247e+01   2.2515357518e+01    0.3807297    0.2472501  79.92  0.002215849    1.760    0.432
       211  -8.5857    230.5715    237.1967   1.0998992620e+02  -9.6213401328e-01    0.1624231   0.09184286 -28.78 0.0009301457    1.960    0.490
       212  -8.5770    243.8963    237.1257   1.0786482568e+02  -2.5000814189e+00    0.1484604    0.1147652  11.20  0.001206083    1.341    0.254
       213  -8.8449    237.7905     15.5861   6.1889994324e+01   2.4413295911e+01    0.2438071    0.2063251 -69.70  0.001056466    1.193    0.162
       214  -8.7401    250.4894     27.4901   6.3832908506e+01   2.0652491814e+01    0.3150359   0.08733666 -29.58  0.001204005    2.678    0.627
       215  -8.8979    250.6660     36.3115   6.5920207638e+01   1.9703451642e+01    0.2356389    0.1291947 -34.72 0.0007266849    1.486    0.327
       216 -10.1140    248.2685     32.2140   6.5137128232e+01   2.0606688017e+01    0.4701742    0.2876963 -59.37  0.002309748    1.778    0.438
       217  -7.8587     61.3005     37.3144   1.0623629226e+02   6.2857410443e+01    0.1457986    0.1034033 -10.94 0.0006108651    1.611    0.379
       218  -9.0506    242.0603     33.7885   6.6042096830e+01   2.1689935005e+01    0.4001443    0.1547639 -39.62   0.00180193    2.145    0.534
       219  -9.2675    197.4899     28.9878   6.9239536305e+01   3.2124076771e+01    0.6009451    0.1293822 -30.14  0.001926569    3.529    0.717
       220  -9.8872    189.5090     44.0981   7.4763359420e+01   3.2254971510e+01    0.3289697    0.2227674 -27.06  0.001003236    1.399    0.285
       221  -9.8420    170.6752     30.0906   7.3133518938e+01   3.8625899738e+01    0.3049584    0.1828656 -43.60  0.001348639    1.695    0.410
       222  -9.2803    236.2832     30.8292   6.5810350410e+01   2.3195632670e+01    0.3923687    0.2009462 -45.57  0.001954762    1.803    0.445
       223  -8.8262    221.3187     31.0945   6.7270081097e+01   2.6391195688e+01    0.4049135    0.2831705 -26.19   0.00225278    1.304    0.233
       224  -9.5277    209.4824     31.5359   6.8615747370e+01   2.9020802101e+01    0.2608005     0.226524  79.31  0.001092464    1.234    0.190
       225  -9.3159    212.9942     31.3479   6.8187491317e+01   2.8235739268e+01     0.389467    0.2133172 -37.42  0.001889789    1.627    0.386
       226  -9.3266    216.7657     30.2522   6.7498664731e+01   2.7499872969e+01    0.3863792    0.2460119  22.69  0.001875941    2.110    0.526
       227  -8.8022    194.0064     30.2666   7.0033162550e+01   3.2820049533e+01    0.1735706    0.1210113  68.02 0.0005194973    1.497    0.332
       228  -8.4350    144.3232     30.6524   7.7819748417e+01   4.5298447890e+01    0.1573206     0.110523 -60.38 0.0007049498    1.743    0.426
       229  -9.3377    173.4098     26.0705   7.1421854060e+01   3.8393883116e+01    0.4430315    0.1266197 -35.20  0.001493729    3.024    0.669
       230  -9.5244    146.0991     25.9092   7.5736725063e+01   4.5421736425e+01    0.4581975    0.1684412 -43.51  0.001537406    3.086    0.676
       231  -9.7169    118.0863     24.3818   8.1017578134e+01   5.2757716181e+01    0.3867268    0.2443225 -55.65  0.001660577    2.101    0.524
       232  -8.3983    132.0000     23.4542   7.7531197357e+01   4.9346016776e+01    0.3325558   0.08344027 -24.87 0.0009489135    4.050    0.753
       233  -8.6659    205.7372    236.8885   1.1407340020e+02   2.0876801331e+00    0.1943268     0.124308  45.14  0.001236857    2.173    0.540
       234  -9.5758    171.6608     20.7341   6.9915075409e+01   3.9418760347e+01    0.2734781    0.1571635  54.06  0.001204681    1.705    0.414
       235  -9.5706    165.3703     19.3016   7.0301538168e+01   4.1179766959e+01    0.3254235    0.1696657 -40.41  0.001084543    1.908    0.476
       236  -9.0316    162.5021     15.4463   6.9383695488e+01   4.2314725858e+01    0.2672517    0.1773106 -58.92  0.001266697    1.701    0.412
       237  -8.8672    238.5925    232.1739   1.0797437962e+02  -1.4232284033e+00    0.2173172    0.1074169  42.51   0.00122705    2.808    0.644
       238  -8.7265    229.4415    228.7531   1.0894214641e+02   6.4931432022e-03    0.1759819    0.1505282 -28.44  0.001365691    1.867    0.464
       239  -9.1495    226.4762     17.5492   6.3250146393e+01   2.6647867160e+01     0.273206    0.1937672 -66.27  0.001232957    1.463    0.316
       240  -7.7851    211.6480    228.6988   1.1190669023e+02   2.2243335104e+00      0.11793   0.06616089  10.00 0.0006949143    1.699    0.411
       241  -8.7217    221.4761     17.4964   6.3647919845e+01   2.7758181474e+01    0.2587303    0.2095047   2.98  0.001064955    1.402    0.287
       242  -8.6315    248.0641    227.5085   1.0578655673e+02  -2.0847524642e+00     0.151158   0.08081299  28.10 0.0006690646    1.527    0.345
       243  -8.4367    187.1377     17.1060   6.6862920866e+01   3.5900361401e+01     0.199138    0.1787855  32.32 0.0005037351    1.197    0.164
       244  -8.2803    141.2926     17.6447   7.3494823310e+01   4.7601140836e+01    0.1528937    0.1055938 -56.27 0.0004138471    1.686    0.407
       245  -7.9642     99.4732    226.4773   1.3275935606e+02   1.7233841046e+01    0.1147125   0.08827187  42.66 0.0002939433    1.065    0.061
       246  -9.4589    239.0805    220.9660   1.0620044500e+02  -3.8278398820e-01    0.2512177    0.2283033   7.47  0.002011371    1.752    0.429
       247  -8.4592    195.0285    221.4978   1.1376874621e+02   5.2103586320e+00    0.1796531   0.09036238  33.06  0.001036151    1.606    0.377
       248  -7.8980    212.3520    219.7406   1.1045901328e+02   3.1217008522e+00    0.1005365   0.07919855  36.52 0.0005331458    1.610    0.379
       249  -8.5432    160.3228    219.1754   1.1990760406e+02   1.0249991942e+01     0.172246    0.1178796  25.55  0.001110411    1.169    0.145
       250  -9.1916    247.6312    216.9072   1.0421013108e+02  -1.0117960115e+00    0.2650596    0.1538941  17.05  0.001796329    1.334    0.250
       251  -9.2677    115.6261     15.3624   7.7720936870e+01   5.4454156335e+01    0.2292274    0.1721189 -60.45  0.001120596    1.656    0.396
       252  -7.9887    105.4647     15.4456   8.0234959100e+01   5.6975497646e+01    0.1431765     0.135453  25.09 0.0001726066    1.041    0.039
       253  -8.5850    219.3361    215.7060   1.0864280863e+02   2.6610500287e+00   0.09810393   0.08343449  33.29 0.0003579355    1.645    0.392
       254  -8.1869     58.5020     12.5053   9.5088813294e+01   6.7671470829e+01     0.137788    0.1207312  -1.53 0.0008104804    1.030    0.029
       255  -8.5977    232.4887    213.4839   1.0609398304e+02   1.2092290135e+00    0.2081213   0.09653773 -28.03  0.001043364    2.142    0.533
       256  -8.1920    112.3326     11.3219   7.6681189313e+01   5.5723396327e+01    0.1582862   0.09891062  30.59 0.0006866175    1.701    0.412
       257  -9.1479    132.4819    213.9988   1.2475180431e+02   1.4859026550e+01    0.1491913    0.1198567 -49.35 0.0006774966    1.539    0.350
       258  -8.0984     85.6571    208.3000   1.3387819540e+02   2.1963871866e+01    0.1236447   0.07321612  55.37 0.0007036793    1.674    0.403
       259  -9.4229    123.9918    205.9926   1.2550811056e+02   1.7305859104e+01    0.1724929    0.1419825  33.28   0.00115991    1.014    0.014
       260  -8.3359    188.3874    204.1949   1.1236760887e+02   8.3075014536e+00    0.1446158    0.1122682 -40.81 0.0007290684    1.694    0.410
       261 -10.1684    165.7099    202.4091   1.1646730240e+02   1.1854276832e+01    0.2925794    0.1891413  45.21  0.001694425    1.662    0.398
       262  -7.8346     65.3256    203.6712   1.3780607381e+02   2.5199937413e+01    0.1243073   0.07026699  57.67 0.0005326351    1.701    0.412
       263  -8.2103     16.1662    201.8374   1.4801829357e+02   3.0366990752e+01    0.1266486    0.1190559  83.62 0.0005502669    1.294    0.227
       264  -8.9640    145.3712    200.7940   1.2035222243e+02   1.5083812543e+01    0.1638537    0.1104843 -31.16 0.0009568499    1.737    0.424
       265  -8.7472    185.1778    197.6074   1.1192314345e+02   9.6635826196e+00    0.1815172   0.09640229  26.37 0.0009531459    1.680    0.405
       266  -9.0432    248.2784    194.1890   1.0034403402e+02   1.2500144312e+00    0.2183143    0.1729184  44.95  0.001482765    2.102    0.524
       267  -9.4614    163.5751    194.2422   1.1563805764e+02   1.3384503652e+01    0.1667368    0.1118722 -24.18  0.000954035    1.671    0.402
       268  -9.4358    238.3455    192.7907   1.0168766190e+02   2.7107414704e+00    0.2396598    0.1762575  24.30  0.001039434    1.305    0.234
       269  -8.2388    200.3243    192.6456   1.0825550467e+02   8.0961933496e+00    0.1067012   0.09878696  58.38 0.0007046652    1.764    0.433
       270  -9.4738    193.7758    188.5696   1.0877885057e+02   9.6225734534e+00    0.2165994    0.1780632  47.97 0.0009460776    1.655    0.396
       271  -8.5740    189.2909    189.3185   1.0975905384e+02   1.0197679184e+01    0.1277717   0.08333647   4.45 0.0005383865    1.601    0.375
       272  -8.7923    120.7919    187.7722   1.2379310857e+02   2.0878425682e+01    0.1777833    0.1043356 -67.59 0.0008723894    2.455    0.593
       273  -8.6182    111.3257    188.3257   1.2598837089e+02   2.2144936599e+01    0.1246187   0.09449775  -4.67 0.0002983122    1.694    0.410
