#   1 NUMBER                 Running object number                                     
#   2 MAG_AUTO               Kron-like elliptical aperture magnitude                    [mag]
#   3 X_IMAGE                Object position along x                                    [pixel]
#   4 Y_IMAGE                Object position along y                                    [pixel]
#   5 X_WORLD                Barycenter position along world x axis                     [deg]
#   6 Y_WORLD                Barycenter position along world y axis                     [deg]
#   7 A_WORLD                Profile RMS along major axis (world units)                 [deg]
#   8 B_WORLD                Profile RMS along minor axis (world units)                 [deg]
#   9 THETA_WORLD            Position angle (CCW/world-x)                               [deg]
#  10 FWHM_WORLD             FWHM assuming a gaussian core                              [deg]
#  11 ELONGATION             A_IMAGE/B_IMAGE                                           
#  12 ELLIPTICITY            1 - B_IMAGE/A_IMAGE                                       
         1 -11.2274     13.5670     73.7741   1.3214435538e+02   6.0006244431e+01    0.9704715     0.644491 -59.67  0.006130862    1.210    0.174
         2 -10.4000     81.1129     39.1953   9.5668202787e+01   5.8363716442e+01    0.9854723    0.3548237 -30.14  0.003545433    3.283    0.695
         3  -9.3606     39.3519      7.4361   9.7992408570e+01   6.9580027367e+01    0.4450147    0.2855979  -6.22  0.002361876    1.509    0.337
         4 -10.2333     50.7697     36.2622   1.0594050586e+02   6.3761051308e+01    0.8452876    0.5264972 -58.62  0.004203551    2.475    0.596
         5 -10.7032     39.0385     29.7307   1.0835591864e+02   6.6356815500e+01    0.9085627    0.4328828 -50.92  0.004381598    2.472    0.595
         6 -11.6877     43.0378     20.0424   1.0238247591e+02   6.7357165891e+01    0.8335257    0.7665125  39.83  0.004802618    1.507    0.336
         7 -10.5157    225.0862     28.7729   6.3686699860e+01   2.4806540948e+01    0.4715855    0.4125908 -64.53  0.001619755    1.052    0.049
         8 -12.1132     82.1989      7.3380   8.1809274792e+01   6.2201375058e+01     2.073664     1.127413   8.45  0.009643704    2.409    0.585
         9 -10.6147     71.4407      5.3425   8.4286779089e+01   6.4517542014e+01    0.6286843     0.362732  40.77  0.002591594    1.514    0.340
        10 -10.4216    128.1135     17.8471   7.4618845959e+01   5.0725928366e+01    0.6496049    0.3935894  44.71  0.002265351    1.527    0.345
        11 -14.0188    163.0927     10.7145   6.6238807991e+01   4.2524507724e+01     4.214682     1.884175  65.92   0.01811837    1.916    0.478
        12 -10.8691    121.1878      3.9540   7.0905880903e+01   5.3730311922e+01    0.7272155    0.4908125  72.31  0.002815557    1.473    0.321
        13  -9.2268     10.4378     24.8543   1.2017051760e+02   6.9925923779e+01    0.4673051    0.1845755 -53.04  0.002425827    2.194    0.544
        14 -10.7584    248.7237     16.2308   5.8687306145e+01   2.0821412395e+01    0.7673303    0.3321617 -32.45   0.00366105    2.215    0.549
        15  -9.4099    243.8039      2.6446   5.6111402634e+01   2.3394244812e+01    0.2417561    0.1863201 -83.87  0.001558686    1.117    0.104
        16 -10.5086    244.6983      8.7106   5.7359010289e+01   2.2551008765e+01    0.3443813     0.284072  89.79  0.002158876    1.137    0.120
        17  -9.7681    249.5994      4.7366   5.6159868240e+01   2.1889557220e+01    0.5986483    0.2360511 -36.50  0.002893913    2.216    0.549
        18 -10.4389    117.1543     16.5739   7.6515180656e+01   5.3516905722e+01    0.9218329    0.3472162 -26.69  0.003670893    2.811    0.644
        19 -10.0515    112.2077     15.2247   7.7137657200e+01   5.4824881411e+01    0.6053118    0.2469144  40.96  0.002417061    2.451    0.592
        20 -11.5038    109.7202      4.3396   7.3432527459e+01   5.6430210203e+01     1.618265    0.5150751  56.58  0.006410414    2.465    0.594
        21  -9.6927     93.7134     17.7665   8.2957583077e+01   5.8702330918e+01     0.441001    0.4074418  55.31  0.002023601    1.213    0.175
        22  -9.6169     64.2099     16.3939   9.2020246214e+01   6.4591014393e+01    0.2693284    0.2478225 -59.40  0.001582419    1.583    0.368
        23  -8.5687     20.5757     14.4354   1.1064321418e+02   7.0801865331e+01    0.2550861    0.1391556 -38.66  0.001542797    1.554    0.356
        24  -8.7354     69.4923     13.4924   8.8765866847e+01   6.4001128204e+01    0.3393475    0.1894749  45.01  0.001794312    1.685    0.406
        25  -9.7548    201.9434      8.8155   6.1066793363e+01   3.2737050743e+01    0.5456496    0.2587564 -82.09  0.002138549    2.568    0.611
        26  -9.3108     55.1503      7.6517   9.1338556151e+01   6.7164281748e+01    0.3126507    0.1897194  58.16  0.001599149    2.523    0.604
        27  -9.8965    229.6272      6.3329   5.7983244478e+01   2.6259569870e+01    0.2398753    0.2118359  82.94  0.001325734    1.165    0.142
        28  -8.1517     49.4281      6.6780   9.3183767939e+01   6.8192776347e+01    0.2519226    0.1441945   8.83 0.0009123156    2.053    0.513
        29  -8.8523     52.1587      2.4045   8.9886031288e+01   6.8234383732e+01    0.2364244    0.2055116  12.37  0.001672925    1.164    0.141
        30 -10.8494    132.1191      3.2690   6.8641185048e+01   5.1098362860e+01    0.9795498    0.3501389  65.29  0.003627109    2.395    0.582
        31 -10.2959    213.9405      5.0001   5.8982302321e+01   3.0152004567e+01    0.3224461    0.2020871  74.12  0.001746413    1.429    0.300
        32  -9.3869    204.0614      4.2402   5.9692715854e+01   3.2663383608e+01    0.2262873    0.1896791 -41.37  0.001386882    1.277    0.217
        33  -9.9665     60.8022      2.4439   8.6588750139e+01   6.6759819007e+01    0.5117286    0.2781191  40.98  0.002836932    1.629    0.386
        34  -8.5426     26.2534      2.6735   1.0189416028e+02   7.1865370668e+01     0.244393    0.1595907 -31.83  0.001620417    1.438    0.305
        35  -8.7291     16.8420      1.7197   1.0642447817e+02   7.3023814849e+01    0.1857405    0.1363141  25.97 0.0008299936    1.529    0.346
        36  -8.2601     40.1733      1.4114   9.4480989948e+01   7.0189692048e+01    0.2105968   0.09710165  36.02  0.001124258    2.033    0.508
        37  -8.3982     92.7420     57.1800   9.8488686364e+01   5.3156052924e+01    0.2774253    0.1697703  58.16  0.001228614    2.101    0.524
        38  -8.2993     66.5958     56.2167   1.0713019131e+02   5.7912016316e+01    0.1983459    0.1148484 -34.30 0.0009542032    1.700    0.412
        39  -8.3439    198.5948     54.8711   7.3740170918e+01   2.7911226607e+01    0.2394347    0.1934289  52.44 0.0005788482    1.268    0.212
        40 -10.3419      3.7055     75.7633   1.3609594996e+02   6.0155174278e+01      0.44178    0.3629758  71.87  0.002481453    1.431    0.301
        41  -8.0557     34.4899     52.5014   1.1850043810e+02   6.2721596339e+01    0.2335858    0.1195901  25.95  0.001210595    2.164    0.538
        42 -10.3340    170.7587    245.2512   1.2006270391e+02   1.4322179655e+00    0.2501867    0.1919874 -18.02  0.001626278    1.685    0.407
        43  -9.9637     86.4887     48.5125   9.7407983854e+01   5.5851731594e+01    0.3434632    0.2412316 -20.71  0.001764701    1.509    0.337
        44 -10.0852     82.9942     46.9861   9.8009145586e+01   5.6761764422e+01     0.451713    0.3791537  15.36  0.001871191    1.159    0.137
        45  -8.4152    110.7716     46.1149   8.9149425245e+01   5.1196230024e+01    0.3066361    0.1834325 -18.69  0.001335939    2.045    0.511
        46 -10.3722      4.0362     39.8965   1.2811248125e+02   6.7537916396e+01    0.5319379    0.3819388 -45.13  0.003763691    1.067    0.063
        47  -9.0953     12.3516     34.1908   1.2247905240e+02   6.8104557327e+01    0.3759255    0.1717195 -48.02  0.001907722    1.692    0.409
        48  -8.7199     97.4939     43.0408   9.1875364833e+01   5.4536686418e+01    0.2132297    0.1359058 -30.27 0.0006540701    1.602    0.376
        49  -9.8286    163.3077    244.6001   1.2136371045e+02   2.7414295363e+00    0.2278364    0.1626338  61.54  0.001242705    1.659    0.397
        50  -9.8107    182.6225    246.0476   1.1798223731e+02  -5.9964117764e-01    0.3238381    0.1373706  29.28  0.001429653    2.644    0.622
        51  -9.7407    160.1419    240.1351   1.2136601829e+02   3.9097917023e+00     0.217546    0.1716931 -39.03   0.00142848    1.602    0.376
        52 -10.4010    208.8807    225.5698   1.1006051047e+02  -2.1577649588e+00    0.3316992    0.2089543  -2.66  0.001780676    2.056    0.514
        53  -8.7755     69.2562     36.9251   9.8969190314e+01   6.0823091740e+01    0.2785136    0.2541752  37.51  0.001590575    1.259    0.206
        54  -9.8087     66.4800     30.4610   9.7353832128e+01   6.2279616564e+01    0.4520632    0.2667861 -33.35  0.002234375    1.639    0.390
        55  -9.9301     49.7849     27.3151   1.0266709213e+02   6.5336286007e+01    0.3896632    0.3228998 -50.95  0.002066229    1.595    0.373
        56  -8.3905     27.4834     35.3817   1.1579560019e+02   6.6631621167e+01    0.2012848    0.1681242  -5.34 0.0008641699    1.162    0.139
        57  -9.9204     86.8530     31.5526   9.0723254652e+01   5.8383793558e+01    0.3243215    0.2674227  15.39  0.001902241    1.145    0.127
        58  -9.6047    199.9928    226.5083   1.1185146423e+02  -8.1514148295e-01    0.1988781    0.1035124  39.06  0.001003253    1.590    0.371
        59  -8.9725    238.4933    202.9445   1.0084259590e+02  -3.9906130588e+00    0.1810332    0.1143438 -28.52  0.001035221    1.597    0.374
        60  -8.1546     21.3214    156.3234   1.4117279332e+02   4.0787881735e+01    0.1158427   0.08157962 -49.77 0.0007046234    1.678    0.404
        61  -8.8991     39.4034    140.7847   1.3490296954e+02   4.2536159364e+01    0.2082227    0.1121492 -70.66  0.001064202    1.633    0.388
        62 -11.6289      9.4368    139.7415   1.4250380648e+02   4.5496584663e+01    0.6564149    0.4437732  37.07  0.004294495    1.658    0.397
        63 -12.7176    240.8947    133.0176   8.6248872062e+01   5.8337107344e+00     1.513204     1.102014  47.97  0.005306492    1.468    0.319
        64 -10.2969     16.7511    124.2575   1.3893476791e+02   4.8440601108e+01    0.6340574    0.2389451  86.28  0.002085379    5.052    0.802
        65  -9.6311    104.7869     24.2664   8.2538750431e+01   5.5523197740e+01     0.619966    0.3334976  17.57  0.002450571    2.898    0.655
        66 -10.3197     10.5381    117.8809   1.3990858585e+02   5.0352217628e+01    0.4245069    0.2928588  76.62  0.002458332    1.447    0.309
        67  -8.3492     22.7097    125.4275   1.3743117749e+02   4.7685873787e+01    0.2224609    0.1184728 -53.78  0.001189958    1.757    0.431
        68 -10.3572     11.6787    128.3079   1.4077181369e+02   4.7906025665e+01    0.3851448    0.1734209 -68.81  0.001674463    1.760    0.432
        69  -8.5242     93.6629    118.3477   1.1569369532e+02   4.0204311640e+01    0.1544677    0.1125224  80.23 0.0007047512    1.781    0.439
        70  -8.3220     73.5097    119.4971   1.2178383386e+02   4.3200171455e+01    0.1391671    0.1292165 -73.64 0.0008106121    1.000    0.000
        71  -8.2809     14.9497    113.9207   1.3815629532e+02   5.0935902128e+01    0.1921791     0.124672  72.74  0.001124301    1.667    0.400
        72 -10.3135     17.5103    104.1238   1.3602973812e+02   5.2977251198e+01    0.6015711    0.3295528 -84.17  0.003172087    1.873    0.466
        73  -8.4779     20.3086     22.1031   1.1409910956e+02   6.9597190024e+01    0.2117766     0.158407  18.47  0.001471537    1.432    0.302
        74  -9.9906     29.3667    102.8323   1.3211712868e+02   5.2307322852e+01    0.3996218    0.2163571 -35.97  0.001981703    2.246    0.555
        75  -8.7478    124.9301     28.7399   7.9250176517e+01   5.0271261780e+01    0.2830707     0.233356  24.80  0.001555741    1.245    0.197
        76  -8.3487     89.5138    102.5053   1.1311758059e+02   4.4520718301e+01    0.1435278    0.1383351 -61.12 0.0001079468    1.012    0.012
        77  -8.8456     97.5891     27.5769   8.5850931586e+01   5.6694254679e+01     0.366363    0.2320361  -4.30  0.001752276    1.954    0.488
        78  -8.8672      2.1795     89.1528   1.3871641433e+02   5.7308043513e+01     0.286531    0.1729455 -89.74  0.001404198    1.698    0.411
        79 -11.8804     42.8900     82.4713   1.2344302765e+02   5.5580931247e+01     1.028866    0.8940341   5.77  0.005731842    1.294    0.227
        80 -10.1145    189.4807    247.0045   1.1686410023e+02  -1.8235412319e+00    0.4549503    0.2272268  17.40  0.001882558    3.647    0.726
        81  -8.7786      1.7372     81.6413   1.3774469544e+02   5.8979613038e+01    0.2310438    0.1002467 -58.72  0.001248465    1.710    0.415
        82  -8.9645    227.8084     78.8811   7.5611681206e+01   1.7201684616e+01    0.3352368    0.2614985   7.43  0.001676207    1.713    0.416
        83  -7.7352     71.2941     80.6624   1.1310144164e+02   5.2280019092e+01    0.1353382    0.1093478  88.97 0.0007028112    1.648    0.393
        84  -7.7117    204.4328     76.5423   7.8590024795e+01   2.3141053577e+01    0.1481283    0.1382251 -69.38 0.0002918515    1.046    0.044
        85  -7.9859    136.6728     76.6699   9.2455526520e+01   4.0008476478e+01    0.1600571    0.1207051  14.78 0.0005085594    1.708    0.415
        86 -10.1632     74.6431     68.7327   1.0838725965e+02   5.4215497913e+01    0.4387754    0.3836745  14.34  0.002569797    1.174    0.148
        87  -9.6182     15.8542     63.7732   1.2912586301e+02   6.1987418128e+01    0.2940351    0.1927551 -86.37  0.001678538    1.990    0.498
        88  -9.3386     47.8758     62.1856   1.1613113843e+02   5.9313761017e+01    0.4643366    0.2443276  28.10  0.002308492    2.100    0.524
        89 -10.3254     24.2645     65.9680   1.2635657186e+02   6.0896308016e+01    0.7980786    0.3421073 -57.05  0.003951969    1.893    0.472
        90  -8.2636     16.0206     57.9872   1.2767137387e+02   6.3180455379e+01    0.1707424    0.1374032  76.43 0.0007870438    1.672    0.402
