#   1 NUMBER                 Running object number                                     
#   2 MAG_AUTO               Kron-like elliptical aperture magnitude                    [mag]
#   3 X_IMAGE                Object position along x                                    [pixel]
#   4 Y_IMAGE                Object position along y                                    [pixel]
#   5 X_WORLD                Barycenter position along world x axis                     [deg]
#   6 Y_WORLD                Barycenter position along world y axis                     [deg]
#   7 A_WORLD                Profile RMS along major axis (world units)                 [deg]
#   8 B_WORLD                Profile RMS along minor axis (world units)                 [deg]
#   9 THETA_WORLD            Position angle (CCW/world-x)                               [deg]
#  10 FWHM_WORLD             FWHM assuming a gaussian core                              [deg]
#  11 ELONGATION             A_IMAGE/B_IMAGE                                           
#  12 ELLIPTICITY            1 - B_IMAGE/A_IMAGE                                       
         1 -15.6338    166.2459    143.9746   1.0412247516e+02   1.9565169706e+01     6.893251     5.599414  -6.10   0.03256282    1.579    0.367
         2 -12.3093    193.0344      8.4408   6.3735212000e+01   3.5927618581e+01     0.601241     0.395071 -27.69  0.003348136    1.779    0.438
         3 -10.3040    174.2937      2.9449   6.4604473113e+01   4.0972645024e+01    0.1770564    0.1647032  78.24  0.001115469    1.108    0.097
         4  -8.8517     98.3453      3.3142   7.8149218005e+01   5.8160211037e+01    0.1340682   0.07521209  30.73 0.0007047391    1.714    0.417
         5  -9.9007     23.6515      2.0808   1.0264406700e+02   7.0035947474e+01    0.2057204    0.1291525  15.21  0.001155708    1.406    0.289
         6 -10.8521    138.5350      3.7535   7.0123169076e+01   4.9378136899e+01    0.2738276    0.1991344  84.77  0.001566243    1.515    0.340
         7 -10.1162    203.0234    250.4596   1.1685185272e+02  -7.0341192781e+00    0.3414505     0.179648  36.10  0.001771632    1.601    0.376
         8  -9.0750    226.7991    250.5994   1.1256358204e+02  -1.0816124116e+01    0.3040219    0.1226126  36.55 0.0008727508    2.112    0.527
         9 -12.1335    245.6640    236.7630   1.0689254733e+02  -1.1899169603e+01    0.9644802    0.5204896  24.15    0.0052273    1.811    0.448
        10  -9.9988    248.5215    250.1253   1.0866217962e+02  -1.3972910900e+01    0.4082945    0.2097081  32.17  0.002345036    1.664    0.399
        11  -9.4761    243.0242    250.2920   1.0964546199e+02  -1.3201805749e+01     0.328112    0.1490963  34.59    0.0016021    1.886    0.470
        12 -10.3908    211.9887    245.4917   1.1442249993e+02  -7.8051952725e+00    0.3226563    0.1763284  28.86  0.001080632    1.726    0.421
        13 -10.0822    208.1403    249.6839   1.1579349097e+02  -7.7571699281e+00     0.489506    0.2447299  55.55  0.002124439    3.215    0.689
        14  -8.2714    184.0037    251.0000   1.2044629280e+02  -3.9664437771e+00    0.2110888   0.05960121  41.84  0.000800597    2.930    0.659
        15  -8.6768     90.9653    250.2287   1.3748991466e+02   1.1477037886e+01     0.163211   0.08220889  46.10 0.0008820615    1.665    0.400
        16  -9.0450     67.0085    249.3563   1.4158892206e+02   1.5107498259e+01    0.2243116    0.1282142  74.93  0.001330773    1.634    0.388
        17  -8.6025     52.4161    250.2744   1.4412231705e+02   1.6898331036e+01    0.2092314   0.09544909  58.49  0.001178198    1.799    0.444
        18 -11.7635     22.5060    240.8022   1.4834422423e+02   2.2281660188e+01     1.458075    0.4658047 -78.31  0.007203581    2.863    0.651
        19 -10.9297     14.8114    227.8747   1.4877778319e+02   2.5592957429e+01    0.8479512    0.3847489 -79.69  0.005082523    1.811    0.448
        20 -13.5064      6.0247    183.1606   1.4717707573e+02   3.5639615653e+01     3.184256    0.9517252 -78.53   0.01400204    2.868    0.651
        21 -11.9693    230.6527    245.3373   1.1101337464e+02  -1.0731541830e+01     1.647276    0.5636047  28.11  0.005708471    4.465    0.776
        22  -9.4938    233.4897    250.5356   1.1136255989e+02  -1.1823033468e+01    0.3418437    0.1405203  39.26  0.001195209    2.106    0.525
        23  -8.8897    216.8341    229.3452   1.1083012592e+02  -6.3052296862e+00     0.284563    0.1368616  22.37  0.001144213    3.032    0.670
        24  -9.6390    236.1008    227.0876   1.0689650851e+02  -9.1272249667e+00     0.282323    0.1653349   5.32  0.001372494    2.304    0.566
        25  -9.3941     55.4681    224.9545   1.4147930724e+02   2.1378238980e+01    0.2708449    0.1665863 -65.86  0.001160748    1.638    0.389
        26 -12.4476      5.5342    157.4903   1.4504718437e+02   4.1287322806e+01    0.9593587    0.5138026  74.98  0.005455094    1.916    0.478
        27 -11.1037    238.3412    245.5708   1.0968430996e+02  -1.1927609380e+01    0.6249662    0.2608198 -26.74  0.002922933    2.908    0.656
        28  -9.3341     45.3450    223.2578   1.4316688318e+02   2.3017953006e+01    0.2860747    0.1250137 -68.11  0.001516985    2.090    0.522
        29  -8.9350     64.2834    222.7246   1.3963619746e+02   2.0642520249e+01    0.2286908    0.1458972 -65.43  0.001192339    1.589    0.371
        30  -8.8610     33.8660    218.9577   1.4487064227e+02   2.5271389890e+01    0.2653448    0.1282629 -85.07  0.001457846    1.870    0.465
        31  -9.2052     58.8436    214.8757   1.3988635568e+02   2.2998772885e+01    0.3550631    0.1457479 -64.32  0.001723554    2.275    0.560
        32  -9.6240    248.6334    215.5623   1.0255950783e+02  -9.4845281429e+00    0.2346731    0.1830122 -10.63  0.001483992    1.160    0.138
        33  -8.9963     69.5829    214.7472   1.3780176977e+02   2.1547628236e+01    0.2870115    0.1345352 -62.22  0.001432902    2.082    0.520
        34  -9.1895     21.7868    214.1843   1.4664823275e+02   2.7589823735e+01    0.3153202    0.1385939 -54.68  0.001602922    2.961    0.662
        35  -8.3903     45.3549    214.8443   1.4242675474e+02   2.4741092720e+01    0.1650203   0.09215291 -65.95 0.0009471299    1.705    0.414
        36  -9.0631      9.3909    248.7747   1.5084305539e+02   2.2225054722e+01    0.3098709   0.07284544 -73.15  0.001472756    3.477    0.712
        37  -9.2613      1.8986    212.6824   1.4997908396e+02   2.9876136058e+01    0.2155781    0.1181081  89.47   0.00094689    1.379    0.275
        38  -8.4234     36.4578    209.9796   1.4365103709e+02   2.6824331602e+01    0.1762045   0.09617446 -78.56  0.000827205    1.561    0.360
        39  -8.8876     51.9339    208.3381   1.4056360642e+02   2.5279797402e+01    0.2399429    0.1536715 -70.06  0.001440983    1.440    0.305
        40  -9.3549    172.7949    205.0890   1.1519502615e+02   5.6953513782e+00    0.2255988    0.1819038  43.67 0.0003108091    1.140    0.123
        41  -8.8192     61.6972    204.8218   1.3828066671e+02   2.4746600604e+01    0.2536482   0.08813368 -60.05  0.001089265    2.695    0.629
        42  -9.6544    197.9426    245.0343   1.1694632177e+02  -5.4309276787e+00    0.2797445    0.1479224  22.93  0.001292208    2.420    0.587
        43  -7.8596     54.0000    200.9447   1.3940049849e+02   2.6601887148e+01    0.1955755   0.06202652 -67.90 0.0004628906    2.859    0.650
        44  -8.5756     23.7400    199.4174   1.4513077873e+02   3.0462312891e+01    0.1298031    0.1119396  39.66 0.0009394019    1.557    0.358
        45  -8.6613     39.7917    195.4318   1.4166596088e+02   2.9545670019e+01    0.2303693    0.1413798 -78.24 0.0009478878    1.370    0.270
        46 -12.8547      5.1749    141.9039   1.4354382789e+02   4.4780803605e+01     1.419309    0.6079847 -75.42  0.007423691    1.848    0.459
        47  -8.9142      4.2356    248.8389   1.5161787105e+02   2.2746401484e+01    0.1820215   0.09785621  81.47 0.0007769329    1.373    0.272
        48 -11.2302    215.5990    130.1926   9.0669431387e+01   1.1358416332e+01    0.7433348    0.2739946 -35.90  0.002480991    2.838    0.648
        49 -13.2710      6.0930     91.5586   1.3641392072e+02   5.5797347856e+01     2.795785     1.249318 -82.75   0.01222807    3.304    0.697
        50  -9.6637    221.6915    136.9886   9.1122528747e+01   8.7504378541e+00    0.3519132    0.2244524 -39.12  0.001200354    1.485    0.327
        51 -10.8448     17.9102    141.5357   1.4050868852e+02   4.3876857545e+01    0.2870592    0.1757828  61.45  0.001678575    1.828    0.453
        52 -10.0037    230.2157    135.0358   8.9143942242e+01   7.3153147398e+00    0.3152498    0.2691855 -75.17 0.0005766039    1.380    0.276
        53  -8.7741     25.9708    134.7096   1.3763775572e+02   4.4742135157e+01    0.1713265    0.1455657 -84.92  0.001026133    1.110    0.099
        54  -8.3140     26.3149    169.2952   1.4177412484e+02   3.6811270023e+01    0.1144489   0.08218492 -51.17 0.0005961247    1.602    0.376
        55  -9.9912     21.1408    132.1666   1.3850167886e+02   4.5740126528e+01    0.2285019    0.1393774 -75.65  0.001107587    1.375    0.273
        56  -9.2572    224.5016    127.9488   8.8525601615e+01   9.8434829006e+00    0.3888369    0.1385758 -39.37  0.001338784    2.633    0.620
        57 -11.5518    136.3837    126.2676   1.0697126079e+02   2.9967843729e+01    0.4908203    0.3998862   1.06  0.002314719    1.612    0.380
        58 -11.0115    195.3986    165.9689   1.0276769341e+02   8.7195371150e+00    0.3539175    0.2693519  -7.10  0.001171013    1.662    0.398
        59  -7.7617     33.2965    191.3617   1.4256016567e+02   3.1171668479e+01    0.1156747   0.08182371 -53.20 0.0007032694    1.711    0.415
        60 -12.6664      5.0732    125.6945   1.4169167169e+02   4.8400786705e+01     1.051819    0.7139331  89.29  0.006857488    1.391    0.281
        61  -9.4442     74.9747    242.9300   1.3962640889e+02   1.5178325487e+01    0.3630048     0.183477 -81.06  0.001921094    2.179    0.541
        62  -9.9853    216.2351    121.4428   8.8484080352e+01   1.2883214090e+01    0.3027229    0.2385242 -55.50  0.001054296    1.295    0.228
        63  -9.7657    225.2833    115.7568   8.5534038697e+01   1.1936789033e+01    0.3833784    0.2164983 -45.67  0.001508257    1.681    0.405
        64  -9.9370     25.0101    164.1525   1.4150298676e+02   3.8100399859e+01    0.2284621    0.1486025  89.91 0.0009633892    1.340    0.254
        65  -9.2911     54.8118    242.9797   1.4314572920e+02   1.7943548815e+01    0.2809442    0.1355371 -70.67   0.00144542    1.997    0.499
        66 -10.4680     19.4945    164.5354   1.4274306277e+02   3.8532797209e+01    0.2661273    0.1501476  83.12 0.0009710595    1.727    0.421
        67  -8.3419     34.0000    161.4558   1.3919191389e+02   3.7815102756e+01    0.2772103   0.05919082 -67.91  0.000926475    3.868    0.741
        68 -12.9682      5.7399    112.8091   1.3981938062e+02   5.1210828777e+01     1.712678    0.8374736  88.45   0.00826745    2.687    0.628
        69 -14.3743      5.3684     61.0294   1.3050706004e+02   6.2062072112e+01     6.657682    0.5481793 -58.49   0.02101907    5.516    0.819
        70  -8.8315     49.1141    232.5152   1.4327515693e+02   2.0697888559e+01    0.2131971    0.1346881 -81.78  0.001010443    1.399    0.285
        71  -9.8139     24.4954    158.9925   1.4104305819e+02   3.9320117515e+01     0.190499   0.09779006 -72.13 0.0007612771    1.561    0.359
        72  -8.7213     38.3432    242.3151   1.4586619843e+02   2.0152117888e+01    0.2955138   0.08422481 -70.03   0.00137158    3.167    0.684
        73 -10.8174    226.3623    240.4122   1.1096481982e+02  -9.4127654563e+00    0.4087629     0.238469   8.37  0.002046688    2.296    0.564
        74  -9.4068     24.0634    189.5487   1.4421481278e+02   3.2550426765e+01    0.2846216     0.129438 -84.17  0.001451393    1.998    0.500
        75  -8.8417    210.9530    241.4810   1.1396325658e+02  -7.0779600552e+00     0.193968    0.1052653  36.98  0.001022852    1.578    0.366
        76  -8.0699    206.2968    240.3328   1.1463977198e+02  -6.1451909512e+00    0.1268088   0.08818039   9.07 0.0004690776    1.644    0.392
        77 -10.7254    119.2560    149.9870   1.1662321578e+02   2.7983680528e+01    0.2859396    0.2438154  73.81 0.0006825617    1.220    0.180
        78 -10.0560     65.0018    237.0119   1.4085522963e+02   1.7710442625e+01    0.3951807    0.2173968 -60.73  0.001964697    1.995    0.499
        79  -9.4175     75.9462    228.3741   1.3802150538e+02   1.7853493622e+01    0.3369329    0.1558747 -59.54  0.001704327    2.270    0.559
        80  -9.0298     45.5718    239.3473   1.4443343384e+02   1.9823113489e+01    0.2543195   0.09292126 -69.77  0.001285636    2.542    0.607
        81  -9.5422     29.6227    172.5708   1.4141478990e+02   3.5739380353e+01    0.2400529    0.1708684  88.91 0.0008803585    1.171    0.146
        82  -8.1441      9.2602    240.6309   1.5042212042e+02   2.3737441960e+01    0.1131323   0.05472008  73.43 0.0006977633    1.647    0.393
        83  -9.3908     28.0000    147.9366   1.3890649711e+02   4.1517205207e+01    0.2074857   0.05791357 -68.01 0.0005351768    2.889    0.654
        84  -7.8955     36.3553    172.7144   1.3998359035e+02   3.4994682946e+01    0.1297646   0.07864139  71.24 0.0004806264    1.670    0.401
        85  -7.5977     37.3421    180.3084   1.4060967086e+02   3.3172197929e+01    0.1165955   0.08743835 -47.60 0.0007043898    1.692    0.409
        86 -11.2935    212.2582    138.2102   9.3169963288e+01   1.0548436806e+01    0.4182534    0.3538828 -21.06  0.001902187    1.242    0.195
        87  -9.3682    215.0138    239.2878   1.1285249039e+02  -7.4341532005e+00    0.1846953    0.1388275  30.48 0.0006966669    1.129    0.114
        88  -9.6429    220.6381    237.7961   1.1156872929e+02  -8.1398880231e+00    0.1773777    0.1349412  22.61 0.0008228133    1.130    0.115
        89  -8.4539     28.2874     52.6402   1.1982561017e+02   6.2002610013e+01    0.1052814   0.09024972 -76.38 0.0007023719    1.685    0.406
        90 -10.7813     23.6300     47.5354   1.2004254211e+02   6.3316044787e+01    0.3204443    0.1807729 -57.66  0.001828515    1.947    0.486
        91  -9.7074    225.0140    236.0054   1.1046474306e+02  -8.5962941746e+00    0.1999817    0.1321804   9.37 0.0008201691    1.661    0.398
        92 -10.5934    231.3019    234.4967   1.0906298332e+02  -9.3902971304e+00    0.2586928    0.1805274  18.34  0.001563379    1.318    0.241
        93  -8.7577    138.4733     36.0719   8.0375669709e+01   4.6004622352e+01    0.1930034    0.1376671 -26.50   0.00041949    1.518    0.341
        94  -9.1058     40.2438    233.0047   1.4485502876e+02   2.1709152995e+01    0.3558415   0.08474412 -64.01  0.001502868    3.713    0.731
        95 -10.9959    245.7850    244.4433   1.0818619628e+02  -1.2887900381e+01    0.7723868    0.3561361  29.73  0.004010116    2.000    0.500
        96  -8.8013      4.1992    243.6386   1.5135843643e+02   2.3698161022e+01    0.2910247    0.1025684  86.80  0.001492574    2.740    0.635
        97  -8.1454     58.3101    248.3331   1.4298361562e+02   1.6479244937e+01   0.09570418   0.08898649 -59.78 0.0007042935    1.674    0.403
        98  -9.2149     45.8374    246.5754   1.4493517118e+02   1.8425303765e+01     0.304572    0.1399095 -74.14  0.001754643    2.041    0.510
        99 -10.3110    219.2894    244.9269   1.1299705157e+02  -8.8999167767e+00    0.3611243    0.2090609  24.51  0.001415999    1.693    0.409
