#   1 NUMBER                 Running object number                                     
#   2 MAG_AUTO               Kron-like elliptical aperture magnitude                    [mag]
#   3 X_IMAGE                Object position along x                                    [pixel]
#   4 Y_IMAGE                Object position along y                                    [pixel]
#   5 X_WORLD                Barycenter position along world x axis                     [deg]
#   6 Y_WORLD                Barycenter position along world y axis                     [deg]
#   7 A_WORLD                Profile RMS along major axis (world units)                 [deg]
#   8 B_WORLD                Profile RMS along minor axis (world units)                 [deg]
#   9 THETA_WORLD            Position angle (CCW/world-x)                               [deg]
#  10 FWHM_WORLD             FWHM assuming a gaussian core                              [deg]
#  11 ELONGATION             A_IMAGE/B_IMAGE                                           
#  12 ELLIPTICITY            1 - B_IMAGE/A_IMAGE                                       
         1 -13.9466     18.7150     39.3702   8.3295146453e+01   6.8403947028e+01    0.7175413    0.5773528 -49.21  0.004619476    1.201    0.167
         2 -13.5317      5.9105     28.2995   8.6880857508e+01   7.1626068261e+01    0.7995926    0.5777015  49.52  0.004917089    1.981    0.495
         3 -13.8889     61.5716     31.3084   5.8853045815e+01   6.3872139984e+01     0.743156    0.4866587 -41.60  0.003960502    1.626    0.385
         4 -13.4416     49.9300     20.3863   5.8746322099e+01   6.7554306705e+01    0.4187156    0.3755972 -86.89  0.002643754    1.645    0.392
         5 -13.4126     42.6967     32.7438   6.7936460921e+01   6.6769011786e+01    0.6946198    0.4995071  57.31  0.003666238    2.030    0.507
         6 -12.9196     39.8923     17.8556   6.2270585722e+01   6.9561337946e+01    0.4849842    0.4217376   1.59  0.002585953    1.031    0.030
         7 -13.4328     95.8519     14.1592   4.0263073919e+01   5.8871793338e+01    0.6234116    0.5973786  40.06  0.001800003    1.071    0.066
         8 -11.9962     48.2738      9.8973   5.4099792642e+01   6.9224712132e+01    0.2515311    0.2021734  81.88  0.001472332    2.055    0.513
         9 -11.8315      4.4698      2.0037   7.5622843200e+01   7.6368212954e+01    0.2500488    0.1456281  24.06  0.001567743    1.683    0.406
        10 -10.1763    145.9903      1.2103   2.6871040803e+01   4.8000790893e+01    0.1778637   0.09149006  74.07  0.000681804    1.703    0.413
        11 -10.7176    142.2293    171.5913   7.3604418535e+01   1.8525282601e+01    0.2035297    0.1351974  27.13  0.000663846    1.620    0.383
        12 -12.4811     55.3150    168.5573   9.5710333783e+01   3.3006478823e+01    0.5317001    0.2755566  87.61   0.00216265    2.477    0.596
        13 -11.3738    234.8227    163.3270   5.3819775930e+01   4.4625062270e+00    0.4453763    0.3301465 -84.45  0.002263739    2.949    0.661
        14 -13.0742    227.4351    157.3740   5.3847959104e+01   6.5441079660e+00    0.5633065    0.3548035 -54.17  0.002917867    2.002    0.501
        15 -11.4949     13.3293    166.6480   1.0692448066e+02   3.7896363330e+01    0.4449847    0.2237855  83.38  0.002138671    1.913    0.477
        16 -13.2437    218.2124    154.9875   5.4900653478e+01   8.4158555506e+00    0.6191679    0.2795418 -47.80  0.002684281    2.362    0.577
        17 -13.8902    211.4014    144.8708   5.4001036671e+01   1.1306374588e+01     1.168635    0.5615427 -52.19  0.004852224    2.553    0.608
        18 -12.6698     49.4590    154.1395   9.5523991363e+01   3.7359353662e+01     0.501143    0.2743004  80.51  0.002090388    2.302    0.566
        19  -9.9311     11.6824    151.7071   1.0620247869e+02   4.1735761889e+01    0.1272521   0.08988995 -47.59 0.0003870065    1.603    0.376
        20 -11.6293     40.2809    147.8264   9.7417919966e+01   4.0033792657e+01    0.3812742    0.2072091  60.40  0.001688981    2.043    0.510
        21 -10.9488    106.3509    144.4406   7.7449420257e+01   3.1182737237e+01    0.3440061    0.2206208  83.65  0.001321648    2.537    0.606
        22 -11.3339     54.8041    144.3336   9.2542484774e+01   3.9209394030e+01    0.3561325    0.1892972 -86.91  0.001414826    2.386    0.581
        23 -10.6929     87.9750    143.7254   8.2523634505e+01   3.4514904645e+01    0.2719939    0.1533339  78.99 0.0008883678    3.478    0.712
        24 -10.4431     92.3231    159.6796   8.4168005941e+01   2.9867231226e+01    0.1558199    0.1093241  69.31 0.0005328944    1.675    0.403
        25 -13.1398    132.0006    129.4952   6.7335268346e+01   2.9787363513e+01    0.9399917    0.4451682 -61.67  0.003104469    3.078    0.675
        26 -10.5643    105.3194    157.6599   8.0280479248e+01   2.8187181702e+01    0.1570832    0.1133303  73.19 0.0006336482    1.714    0.416
        27 -10.5621     82.9095    131.5718   8.1652594719e+01   3.8389847602e+01    0.3110096    0.2017034 -81.22  0.001136622    1.944    0.485
        28 -11.4376     99.5741    128.2375   7.5947692764e+01   3.6341047294e+01    0.7128916    0.4209861  77.00  0.002367452    3.423    0.708
        29 -10.5414     58.7757    123.3774   8.7731936735e+01   4.4091117582e+01    0.3170053    0.1622653  81.82 0.0009546727    4.284    0.767
        30 -11.3220     43.2948    122.0756   9.2687998369e+01   4.6354633153e+01     0.581511    0.2780274  88.41  0.001965915    3.518    0.716
        31 -11.2987     27.8476    121.3326   9.7816899561e+01   4.8135554052e+01    0.4557977    0.1978485  83.89   0.00150794    3.836    0.739
        32 -10.4324    166.8381    119.6015   5.6848737319e+01   2.4681947274e+01    0.2066523    0.1420691  61.24 0.0009418797    1.690    0.408
        33 -12.4281    143.5473    130.9524   6.4807276835e+01   2.7124027208e+01    0.4370791    0.2655155 -56.82  0.001847413    1.802    0.445
        34 -10.8951      2.4240    116.1569   1.0582528589e+02   5.1353701860e+01    0.3202199    0.1090252 -88.30  0.001145201    3.312    0.698
        35 -12.7767    122.3519    111.7227   6.5541672754e+01   3.5779812607e+01    0.6188883    0.2997398 -52.37  0.002322278    2.132    0.531
        36 -11.0422     92.4050    112.5328   7.4464910288e+01   4.1461555345e+01    0.3736885    0.2246087 -68.67  0.001499777    2.061    0.515
        37 -11.0336     78.5207    112.0136   7.8787079133e+01   4.3999936811e+01    0.4081393    0.2464777 -83.40  0.001536267    2.622    0.619
        38 -12.9840     29.2849    103.4983   9.4483963380e+01   5.2576406665e+01      1.17642    0.4004249  34.00  0.002309072    2.918    0.657
        39 -11.7019     44.9321    101.7301   8.8290339665e+01   5.1368803408e+01    0.5210921    0.2777647  71.63  0.001830557    3.541    0.718
        40 -12.0459      7.2507    101.8709   1.0247924148e+02   5.4673874384e+01     0.577962    0.2713834 -69.17  0.002752092    1.754    0.430
        41 -13.5423    240.2412     89.6335   3.8019974969e+01   1.5297509297e+01    0.4041788    0.3012085 -36.53  0.002469236    1.192    0.161
        42 -11.1106     34.6892     89.3114   8.9602410451e+01   5.5598066410e+01    0.4755619     0.202223 -79.22  0.001520499    4.085    0.755
        43 -11.1582    107.9785     98.5063   6.6091558510e+01   4.1720174346e+01     0.284041    0.2178325  84.27  0.001292659    1.696    0.410
        44 -11.6012     48.9525     84.4783   8.2718077480e+01   5.5109129319e+01    0.4810749    0.2909442  71.67  0.001900554    2.957    0.662
        45 -13.6830     67.0849     86.9708   7.6412047015e+01   5.1899880075e+01     0.838649    0.7398646 -13.29  0.004598654    1.228    0.185
        46 -10.0291    223.7935     82.5913   3.8507894525e+01   1.9503332323e+01    0.1639624    0.1233301  85.08 0.0004517835    1.536    0.349
        47 -12.7592    175.2403     77.5714   4.4560815206e+01   3.0747676140e+01    0.3559935    0.3120805  70.18 0.0005266646    1.163    0.140
        48 -10.6952     92.0387     76.5466   6.4576576063e+01   4.9721553689e+01     0.220366    0.1992539 -45.64 0.0004220403    1.101    0.092
        49 -11.8220     62.6025     73.3698   7.4144714526e+01   5.5703225534e+01     0.545895    0.2368842 -57.49  0.002053636    2.592    0.614
        50 -11.7572    222.6503     72.7344   3.6426494508e+01   2.1253715870e+01    0.3003285    0.2520989 -71.09  0.001065687    1.149    0.129
        51 -12.5534     38.0576     70.8299   8.3619612854e+01   5.9634439930e+01     0.516168    0.3890696 -31.91  0.001821765    1.315    0.240
        52 -12.5983    228.6127     69.6292   3.5028843496e+01   2.0530493105e+01    0.4280164    0.2291089 -54.87 0.0008828364    1.789    0.441
        53 -12.5362     30.0407     69.7574   8.6900822148e+01   6.0742164027e+01    0.5413808     0.409733 -69.10  0.002800438    1.366    0.268
        54 -12.7885     58.3556     42.1351   6.4786791275e+01   6.2645018946e+01    0.7193361    0.3621041 -59.88  0.002573315    3.967    0.748
        55 -13.8607     79.9380     52.6600   6.0531982432e+01   5.6797274086e+01    0.8241994    0.5740952  51.63  0.001369949    1.505    0.336
        56 -13.5778     67.7774     53.1302   6.5227984552e+01   5.8994558539e+01    0.8670286    0.5604733  52.77  0.002091603    1.805    0.446
        57 -12.3371     25.3086     59.3995   8.6267727815e+01   6.3549524119e+01    0.4136396    0.2903743  13.49  0.001704671    1.536    0.349
        58 -12.5067      7.8561     53.0288   9.3322682133e+01   6.6328306110e+01    0.6039914     0.111286 -59.91   0.00214827    3.513    0.715
        59 -12.8299    100.1050     49.5274   5.2876494933e+01   5.3099674011e+01     1.258264    0.4270759  53.24   0.00229002    2.943    0.660
        60 -11.0149     91.4575     44.2438   5.3527819482e+01   5.5853780605e+01    0.4027559    0.2361932 -31.59  0.001583379    1.839    0.456
        61 -11.4297     37.0128    247.8375   1.0674643187e+02   1.7670970149e+01    0.2384624    0.1889016  53.21  0.001069719    1.070    0.066
        62 -12.6081    221.9880    227.2925   6.7168114072e+01  -3.2913209443e+00    0.6406747    0.5585316  73.21  0.004255599    2.326    0.570
        63 -12.7496    215.0256    228.1467   6.8514733553e+01  -2.5438381639e+00    0.4864608    0.3665554  55.75  0.002964261    2.378    0.580
        64 -12.9493     69.1988     26.6337   5.3815174963e+01   6.3109701306e+01      0.53545    0.3682642  67.20  0.002451737    1.961    0.490
        65 -13.0652     66.8196     21.9474   5.2564816131e+01   6.4218624817e+01    0.6336594    0.3168022  55.70  0.002899539    2.173    0.540
        66 -12.7859    216.5184     34.7504   2.8378023247e+01   2.7871445104e+01    0.2642251    0.2619609  -9.85   0.00184315    1.344    0.256
        67 -11.6776    148.8114    222.0976   8.0429131298e+01   7.5873247989e+00    0.2993286    0.1823123 -63.29  0.001507951    2.338    0.572
        68 -10.3808     26.9904    214.4990   1.0687342629e+02   2.5499589886e+01    0.1784873    0.0650143  50.85 0.0005305102    2.273    0.560
        69 -11.7864    132.1433    212.7376   8.2682524180e+01   1.1820186123e+01    0.2426296    0.1636239 -73.74  0.001228509    2.094    0.523
        70 -10.3200    243.2997     27.8361   2.4666954694e+01   2.3276964251e+01    0.1620536      0.11827 -51.09 0.0005523693    1.107    0.097
        71 -11.1908     79.4101     21.9291   4.8215189411e+01   6.1636771838e+01    0.3157702    0.2489105  89.65  0.001268674    1.730    0.422
        72 -11.8570    117.0020    210.0413   8.5709376268e+01   1.4660982739e+01    0.2968146     0.188448  86.46  0.001334673    2.620    0.618
        73 -12.2063      5.1277     39.8421   9.1190783824e+01   6.9340337250e+01    0.4966713    0.1779164 -66.91  0.002078207    3.006    0.667
        74 -12.9072     69.1763     39.5811   5.9381543829e+01   6.1136952816e+01     0.566798    0.3320915 -46.98  0.002715149    1.904    0.475
        75 -10.6472     94.5164    186.0078   8.7724050422e+01   2.3284493156e+01    0.2028793    0.1194211  85.86 0.0008103839    2.640    0.621
        76 -10.9705     34.8159    173.0141   1.0174999115e+02   3.4283182797e+01    0.2363309     0.126566  70.57  0.001083795    1.988    0.497
