#   1 NUMBER                 Running object number                                     
#   2 MAG_AUTO               Kron-like elliptical aperture magnitude                    [mag]
#   3 X_IMAGE                Object position along x                                    [pixel]
#   4 Y_IMAGE                Object position along y                                    [pixel]
#   5 X_WORLD                Barycenter position along world x axis                     [deg]
#   6 Y_WORLD                Barycenter position along world y axis                     [deg]
#   7 A_WORLD                Profile RMS along major axis (world units)                 [deg]
#   8 B_WORLD                Profile RMS along minor axis (world units)                 [deg]
#   9 THETA_WORLD            Position angle (CCW/world-x)                               [deg]
#  10 FWHM_WORLD             FWHM assuming a gaussian core                              [deg]
#  11 ELONGATION             A_IMAGE/B_IMAGE                                           
#  12 ELLIPTICITY            1 - B_IMAGE/A_IMAGE                                       
         1 -12.8199    125.5234     28.1371   4.1632242790e+01   5.0130794097e+01    0.9483768    0.4949137  69.91   0.00360645    2.002    0.501
         2 -13.4479    120.3468     40.5147   4.7145479691e+01   4.9718710039e+01     1.262494    0.9907577 -45.66  0.006727959    1.324    0.245
         3 -12.5910    105.8112     22.9224   4.4011333374e+01   5.5511683748e+01    0.5102289    0.4408067  23.84  0.001435706    1.224    0.183
         4 -12.2968    107.6615     30.6876   4.6573276862e+01   5.4096762389e+01    0.7318602    0.4096625  15.38  0.002645451    3.601    0.722
         5 -13.1683    160.0997     29.6042   3.6160534680e+01   4.1390017916e+01    0.5941956    0.4965472 -48.00 0.0003006259    1.187    0.157
         6 -10.6618    139.9379     10.6967   3.3130332896e+01   4.8504076044e+01    0.7984992    0.5244338 -30.40  0.004273654    1.630    0.386
         7 -12.4383    104.7186     12.9620   4.0300453131e+01   5.6877296459e+01    0.5330685    0.3478201 -15.06  0.001616382    1.778    0.437
         8 -12.6057    106.9630      2.6993   3.5720266861e+01   5.7305428670e+01     1.085725    0.4335568  75.09  0.004240866    2.866    0.651
         9 -13.2324    163.9082     18.9752   3.2465356779e+01   4.1699940754e+01    0.4128453    0.2857152  43.43  0.001195429    1.697    0.411
        10 -11.9949    154.1229     24.6505   3.5524513436e+01   4.3469302819e+01    0.8491346    0.4212401  83.13  0.003497157    2.404    0.584
        11 -12.0855    155.7532     19.7292   3.3771887114e+01   4.3629548975e+01     1.368549    0.4780977  80.21  0.004263152    4.255    0.765
        12 -11.7884    118.1807      1.9246   3.3422728235e+01   5.4662411459e+01     0.520707    0.1679574  61.92  0.002085155    2.470    0.595
        13 -12.7508    133.2918     24.0458   3.8723321522e+01   4.8712857158e+01     1.571851    0.7126169 -68.21  0.004518487    5.462    0.817
        14 -13.3061    128.1327     13.5663   3.5978445714e+01   5.1138620021e+01    0.9850159    0.7157993 -59.75  0.005380666    1.497    0.332
        15 -12.5266    139.4809     20.9729   3.6620635782e+01   4.7532026975e+01    0.6998416    0.3397046  65.25  0.003120082    1.877    0.467
        16 -10.7745    206.7661     17.4733   2.7576368055e+01   3.1713666250e+01    0.3513307    0.1776984 -48.30  0.001790264    1.714    0.416
        17 -11.4296    214.2200     25.3763   2.8828179502e+01   2.9132979432e+01    0.4636393    0.3204639 -69.61  0.002453761    1.311    0.237
        18 -11.9394     26.6568     27.9010   7.6636747662e+01   6.9554344711e+01    0.4889745    0.3603249 -27.70  0.002046287    1.211    0.174
        19 -12.2321     35.6762     18.7354   6.7416021542e+01   6.9908235156e+01    0.8579911    0.3899273 -31.36  0.004042489    2.292    0.564
        20 -12.6195     35.7735      8.9435   6.2119909174e+01   7.1300832269e+01    0.7421388    0.3122554  52.14  0.002160399    3.809    0.737
        21 -11.8510     29.2334      3.0951   6.2207472091e+01   7.3048596843e+01    0.3081131    0.2638394  64.76  0.001456101    1.879    0.468
        22 -11.0719    198.1965     25.0404   3.0259672859e+01   3.2790304057e+01    0.3732973    0.2349024 -52.97  0.001589263    1.429    0.300
        23 -12.7127    232.0360     23.9772   2.7037679877e+01   2.5488924327e+01     1.105199    0.6922297  -9.41  0.005588221    2.709    0.631
        24 -11.8704    233.6139      7.3639   2.3295308529e+01   2.7033646356e+01    0.6150257     0.224109 -60.46  0.002773565    2.643    0.622
        25 -12.6638    246.8608      5.6116   2.2159074286e+01   2.4561120640e+01    0.6070509    0.3175427 -84.46  0.002567463    1.856    0.461
        26 -12.0662    237.0689      4.6785   2.2515591959e+01   2.6612287170e+01    0.6652163    0.2034337 -51.89  0.003005058    2.593    0.614
        27 -12.6114    223.6597     11.4848   2.4858038986e+01   2.8673776397e+01    0.4757917    0.2407224 -57.59  0.001253472    1.714    0.416
        28 -12.2782    245.9377     22.5692   2.5729967199e+01   2.2847631839e+01     0.429847     0.223773 -65.13  0.001610857    1.793    0.442
        29 -12.2624    246.6684     16.7160   2.4458912522e+01   2.3378540924e+01    0.4152012    0.3462261  65.02   0.00272632    1.502    0.334
        30 -12.4717     20.0918     22.2582   7.7829800264e+01   7.1288527315e+01    0.6335854    0.2548515 -45.42  0.002959288    2.209    0.547
        31 -12.5950     16.3601     14.0451   7.6109572486e+01   7.3084553927e+01    0.6334449    0.3225524 -22.60  0.002527309    2.296    0.565
        32 -12.2136     22.8201     11.5874   7.0827669717e+01   7.2729059392e+01    0.4735188    0.3054524  -5.94  0.002005358    1.668    0.400
        33 -11.2929     14.0430      8.4970   7.4649790702e+01   7.4224641464e+01    0.3262503    0.2049123 -17.31 0.0006822285    1.553    0.356
        34 -12.4502     89.8697     19.6173   4.6765307753e+01   5.9569638965e+01      1.24259     0.550395 -43.34  0.005204577    2.664    0.625
        35 -11.3059     85.9616     13.5648   4.5211677916e+01   6.1127749043e+01    0.3658269    0.2704379   0.50  0.001254848    1.536    0.349
        36 -11.2665     90.7866     11.3987   4.2966592249e+01   6.0272861498e+01    0.3762369     0.220724  71.14  0.001193255    1.905    0.475
        37 -11.2110     88.4434      7.7643   4.1968411592e+01   6.1166676151e+01    0.3899397     0.273043  17.54   0.00208734    1.623    0.384
        38 -11.4774     46.5993     19.9388   6.2659477099e+01   6.8044620973e+01     0.469322    0.2347408 -28.19  0.002255954    2.127    0.530
        39 -12.7038     68.7064     17.9581   5.2680652011e+01   6.4269172305e+01    0.5736445    0.4390535  35.49  0.002121062    1.207    0.171
        40 -13.0787    121.4640      8.7762   3.5402106715e+01   5.3248524330e+01    0.7318177    0.5539466 -16.38    0.0030432    1.516    0.341
        41 -11.1628    176.7646      5.7345   2.7264137942e+01   3.9953613694e+01    0.3761081    0.1889616  89.76 0.0007886022    2.023    0.506
        42 -11.4248    201.9532      2.6103   2.4338162518e+01   3.4378675762e+01    0.2715574     0.221279  64.59  0.001218405    1.371    0.271
        43 -13.5355    185.2161      8.1657   2.7127891944e+01   3.7697452403e+01    0.9059929     0.405401 -57.83  0.002918949    2.262    0.558
        44 -12.1827    195.2053      5.2833   2.5521953218e+01   3.5654499418e+01    0.5855311     0.381771  45.89  0.002514858    1.984    0.496
        45 -10.4171    114.6205     16.3388   3.9518820810e+01   5.4152659199e+01    0.3161314    0.1599914 -34.00  0.001458188    2.055    0.513
        46 -11.6895    211.5846     11.1775   2.5671886988e+01   3.1332162153e+01    0.4540977    0.3375615   3.03  0.002617889    2.115    0.527
        47 -10.9206    157.5513     11.4201   3.0997804329e+01   4.4069240096e+01    0.2309628    0.2234194 -27.43 0.0009984027    1.207    0.171
        48 -10.4120      6.0354     12.5266   8.2162696600e+01   7.4322922381e+01    0.2343651    0.1387541  24.79  0.001259096    1.773    0.436
        49  -9.9163      5.3034      9.3475   8.1082024772e+01   7.4927348482e+01    0.1185251   0.09515739 -20.88 0.0006350518    1.022    0.021
        50 -10.8112    176.8729     10.7282   2.8628584395e+01   3.9425648642e+01    0.2113473    0.1932732  85.48 0.0006145388    1.122    0.109
        51 -10.2032    162.0204     11.0517   3.0349057430e+01   4.3006459542e+01    0.2176394    0.1477308  37.31  0.001133228    1.868    0.465
        52 -10.7705     65.6124     10.3366   5.0059802869e+01   6.5794205018e+01    0.3162219    0.1718357  56.26  0.001583095    1.858    0.462
        53 -10.7124     62.5443      6.7053   4.9302081032e+01   6.6802780035e+01    0.3116604    0.2127326  14.43  0.001760286    1.584    0.369
        54 -10.1201    145.5672      9.3162   3.1887990593e+01   4.7243154024e+01    0.1600695    0.1311134   0.10 0.0005998754    1.524    0.344
        55 -10.6233    153.6463      7.0802   3.0147932952e+01   4.5459782198e+01    0.2304625     0.163689 -89.64 0.0008224436    1.323    0.244
        56 -12.3835     75.1155      4.4928   4.4108137360e+01   6.4420190462e+01    0.5119302    0.4351976 -76.23  0.002620383    1.510    0.338
        57 -10.4048     68.7203      3.4646   4.5560086213e+01   6.5871235606e+01    0.3447246      0.17763 -13.08  0.001665402    2.304    0.566
        58 -12.3985    157.8200      3.7681   2.8654173067e+01   4.4743097630e+01    0.4138197    0.2806081 -57.18  0.001431464    1.449    0.310
        59 -11.1114    142.1245      4.8975   3.0915013069e+01   4.8511216345e+01    0.3374638    0.2481347 -59.93  0.001259798    1.387    0.279
        60 -11.1942    137.7770      4.4089   3.1340623022e+01   4.9630534769e+01    0.2463958    0.2038767  65.81 0.0005065977    1.112    0.100
        61 -11.5783    133.7906      2.5325   3.1260241394e+01   5.0780309271e+01     0.412294    0.2193338  66.12  0.002039383    1.630    0.386
        62 -12.6475     48.0935     12.7563   5.8283540311e+01   6.8784972538e+01    0.6484079    0.2931269  49.15  0.003045208    2.330    0.571
        63 -10.3741    218.6133      3.1857   2.3320169247e+01   3.0634024582e+01    0.1882337    0.1443419  46.61  0.001186322    1.773    0.436
        64 -11.6606    224.4474      1.9009   2.2664310303e+01   2.9517806782e+01    0.5230126    0.1914091  82.14  0.002224139    2.730    0.634
        65  -9.9600    207.4671      3.4572   2.4142488529e+01   3.3054083563e+01    0.1248568    0.1006484 -69.84  0.000410714    1.005    0.005
        66 -11.7031      3.2011      1.8083   7.8498510284e+01   7.6338080394e+01    0.4086049    0.1756638  15.93  0.002093217    2.609    0.617
        67 -10.3885     13.4567      1.6341   7.1038240791e+01   7.5321048737e+01      0.26126   0.09866156  27.51  0.001238136    2.777    0.640
        68 -10.7866     55.7812      5.5964   5.1237564884e+01   6.8238636496e+01    0.2518014    0.1959852 -87.41 0.0009536774    2.134    0.531
        69 -12.3149    240.9569    102.5199   4.3491085819e+01   1.2710855575e+01    0.4732957    0.1866337 -40.42  0.002084733    2.083    0.520
        70 -11.4396    236.6220    100.5972   4.3637852388e+01   1.3799050469e+01    0.3434604    0.2394153 -39.62  0.001837438    1.209    0.173
        71 -12.2232    180.8415    102.7503   5.2932050426e+01   2.4749763715e+01    0.6812032    0.5165435  83.55  0.003263179    1.665    0.399
        72  -9.5615    148.6840    105.7058   6.0397576482e+01   3.1277701182e+01    0.1507871    0.1226414   5.34 0.0002484505    1.602    0.376
        73 -10.2943    189.8378    103.7858   5.1544130651e+01   2.2617785934e+01    0.2833845    0.1620919 -26.83 0.0009781814    2.082    0.520
        74 -10.1146     15.7206    109.2228   1.0246174871e+02   5.2088607951e+01    0.2926251    0.1112852  40.54  0.001227937    2.774    0.639
        75 -10.8246     35.6500    103.5545   9.4468064602e+01   5.1742838365e+01    0.2471849    0.1419002  16.18  0.001145563    2.159    0.537
        76 -10.6286    194.6378    101.8821   5.0242397260e+01   2.1936865641e+01    0.2511641    0.2147288  74.47 0.0008562351    1.302    0.232
        77 -11.2286     50.8601    100.0485   8.8256168519e+01   5.0860829284e+01    0.8096702    0.2612864 -45.44  0.002639465    3.424    0.708
        78 -12.2973     17.6447    100.6627   1.0053699421e+02   5.4089470881e+01    0.2734667    0.2248062 -63.91 0.0005467506    1.063    0.059
        79 -11.9051    225.9771     99.3090   4.4790421401e+01   1.6009619454e+01    0.6206362    0.3869359 -82.06  0.002749481    2.794    0.642
        80 -10.7833    220.5391    101.0874   4.5965695166e+01   1.6777494379e+01    0.2101181    0.1184983 -39.10  0.001012618    1.545    0.353
        81 -11.6926      9.6585     97.4699   1.0300795844e+02   5.5448175615e+01    0.4438343     0.303545  56.95 0.0005751626    1.631    0.387
        82 -11.0157     80.1812     98.2189   7.7610717464e+01   4.6899695974e+01    0.3762324    0.2420054  49.22  0.001702612    1.682    0.405
        83 -11.6555     68.9813     95.7600   8.0787813783e+01   4.9328300330e+01    0.3503927    0.2771271 -46.76 0.0005997683    1.217    0.179
        84 -11.0735    210.5401     97.2685   4.6568307562e+01   1.9414723393e+01    0.4074314    0.2766643  33.62  0.002020594    1.931    0.482
        85 -10.2296    190.8117     96.5950   4.9604043622e+01   2.3695294683e+01     0.249942     0.159808 -44.18  0.001185592    1.447    0.309
        86 -10.7629    199.5005     94.8832   4.7731035061e+01   2.2126225949e+01     0.415308    0.1746662  45.79  0.001600951    2.778    0.640
        87 -11.0985    114.9904     94.0802   6.5793742153e+01   4.1096111656e+01    0.9544304    0.5611811  16.96  0.003019064    3.898    0.743
        88 -11.2055    125.7640     94.2991   6.2939267539e+01   3.8721368655e+01     0.342617      0.32541 -11.15 0.0008078873    1.143    0.125
        89 -11.0560    121.6000     94.1947   6.4014494398e+01   3.9652419290e+01    0.3182416    0.2604516 -18.41  0.001166411    1.464    0.317
        90 -10.9843     43.1204     94.3349   8.9845890199e+01   5.3217410509e+01    0.2754761    0.2627944 -62.78  0.001675319    1.049    0.047
        91 -11.3598     23.0481     94.7346   9.7536722733e+01   5.5131766262e+01    0.2883461    0.2219601 -17.34  0.001331334    1.529    0.346
        92 -12.2589     18.1022     90.5855   9.8710180803e+01   5.6555438087e+01    0.4170282    0.2742066 -65.64 0.0005262329    1.299    0.230
        93 -13.0023    236.2418     91.4978   4.1692175494e+01   1.5283834100e+01    0.5689332    0.3870266 -46.65    0.0022012    1.271    0.213
        94 -11.3392     35.3922     93.1091   9.2511239694e+01   5.4371998573e+01     0.340707    0.2352205 -62.22  0.001226576    1.289    0.224
        95 -11.0587     82.5255     93.4853   7.5568133013e+01   4.7601026090e+01    0.3905324    0.1488228  38.06  0.001157795    2.740    0.635
        96 -10.6972     78.4100     92.0390   7.6555375521e+01   4.8656257651e+01    0.4196024    0.2587112 -40.96  0.001865891    1.677    0.404
        97 -11.6795    217.3708     91.3722   4.4184517196e+01   1.8995359461e+01    0.3096703    0.1868885 -51.52   0.00152332    1.605    0.377
        98 -10.9953    151.9011     92.1706   5.6050393816e+01   3.3262286678e+01    0.3363875    0.2247458  46.26  0.001135173    1.557    0.358
        99 -12.5701     89.0862     89.9566   7.2429943056e+01   4.7212960729e+01    0.3696603    0.2999421 -46.03 0.0004310126    1.202    0.168
       100 -10.4969     98.6752     91.0028   6.9702544729e+01   4.5127311742e+01    0.2540303    0.2174192  42.41 0.0004443822    1.195    0.163
       101 -10.7965     49.3432     91.2371   8.6794409471e+01   5.3216570413e+01    0.2924314    0.1890604  41.81   0.00143534    1.675    0.403
       102 -12.1183      6.8887     89.0557   1.0283501830e+02   5.7692696660e+01    0.4670957    0.3344847  11.77  0.001270373    1.663    0.399
       103 -11.1834    184.0628     87.6319   4.8512414940e+01   2.6766045190e+01    0.5159934    0.2337411 -44.52  0.002054785    2.072    0.517
       104 -10.3115     65.8170     89.2307   8.0203644556e+01   5.1373721311e+01    0.2911605    0.1832803   5.18  0.001176773    2.599    0.615
       105 -10.8374     24.6721     86.4738   9.5345500072e+01   5.7026395634e+01    0.4719381    0.2688791  85.85  0.002093389    2.430    0.588
       106 -10.9723     28.8670     84.3837   9.3226723878e+01   5.7154062323e+01    0.3712455    0.2580784 -62.52  0.001822136    1.273    0.215
       107 -10.4218    212.4938     87.5449   4.3982046951e+01   2.0618448751e+01    0.2913898     0.205209  10.59  0.001361403    2.362    0.577
       108 -10.2811    103.9719     87.6927   6.7137770103e+01   4.4782194285e+01     0.214093    0.2081741  48.82   0.00116659    1.046    0.044
       109 -12.4272    246.9544     85.4960   3.9106364734e+01   1.4205650558e+01    0.4056668    0.2679266  61.37  0.001863374    1.802    0.445
       110 -10.9362     36.6982     86.1025   9.0477512815e+01   5.5947369213e+01    0.3568785    0.2268254   7.00  0.001717113    2.020    0.505
       111 -11.3576     80.1890     83.9980   7.3671067679e+01   5.0184164169e+01    0.4142728    0.3312747 -48.58  0.001942356    1.207    0.171
       112 -11.0517     76.4519     77.9682   7.3165319999e+01   5.2186363009e+01    0.6865637    0.3522229 -62.52  0.002579226    2.647    0.622
       113 -10.8246     72.8390     78.4076   7.4586985885e+01   5.2714875559e+01    0.4370523    0.2978067 -79.65  0.001897873    2.225    0.551
       114 -11.3124     44.7132     84.8808   8.7028967751e+01   5.5325323554e+01    0.4393535    0.3254543 -17.64   0.00215568    1.615    0.381
       115 -11.0166    142.9247     84.5505   5.5937638807e+01   3.6806757969e+01    0.3796254     0.274208  39.43 0.0006509081    1.523    0.343
       116 -10.9534    113.6358     83.0397   6.2953343582e+01   4.3720532923e+01     0.410646    0.2566795 -60.78   0.00170718    1.957    0.489
       117 -10.9339    217.8894     83.2367   4.2211764055e+01   2.0194348026e+01    0.2720298    0.2017134 -61.41 0.0008248977    1.361    0.265
       118 -10.5710    165.6373     83.7651   5.0892449800e+01   3.1669544118e+01    0.3086283    0.2145868 -54.81  0.001056221    1.475    0.322
       119 -10.8494     19.7261     82.7409   9.6605049897e+01   5.8345796773e+01    0.2695069    0.1832381 -75.66 0.0008779158    1.416    0.294
       120 -12.2177    234.8096     60.7748   3.5015568567e+01   2.0122332299e+01    0.4987853    0.3278535 -51.83  0.001873308    1.308    0.235
       121 -11.0433    250.2083     76.2138   3.6767812915e+01   1.4966659971e+01    0.2541621    0.1935411 -66.58 0.0008486423    1.335    0.251
       122 -12.5407    237.9277     69.0341   3.6523530170e+01   1.8324277147e+01    0.6842185    0.6042371  33.29   0.00387838    1.483    0.326
       123 -13.5625    242.9615     77.2761   3.7780253127e+01   1.6157511472e+01    0.6173245    0.5283096 -55.89  0.002468619    1.075    0.070
       124 -11.7847    234.8661     78.1135   3.8890783955e+01   1.7583629535e+01    0.3361896    0.2634497 -78.59  0.001110819    1.398    0.285
       125 -10.4628     66.9026     82.0143   7.7808192930e+01   5.2880185418e+01    0.3270208    0.2306202 -32.43  0.001587555    1.553    0.356
       126 -10.0958      1.3146     80.8348   1.0382237823e+02   5.9992562886e+01    0.1766486   0.08854149 -62.65            0    1.577    0.366
       127 -11.6265     53.1988     76.6470   8.1493241703e+01   5.6154327813e+01    0.6116343     0.331637 -62.87  0.002672013    2.001    0.500
       128 -11.2828     58.2678     77.7742   7.9836260205e+01   5.5172063640e+01    0.2889269    0.2395508 -32.65 0.0009667967    1.207    0.172
       129  -9.9174    140.5544     77.5067   5.4432175216e+01   3.8696532247e+01    0.1509675    0.1439777 -73.41 0.0001062516    1.025    0.024
       130 -10.9345     95.0284     76.5218   6.6490274773e+01   4.8979099673e+01    0.5648428    0.2634404  44.72  0.001996233    2.175    0.540
       131 -12.3925     87.2071     73.1259   6.7947882756e+01   5.1234019733e+01    0.6830358     0.559649  37.05   0.00227844    1.250    0.200
       132 -11.6136     13.4940     74.5975   9.7603938324e+01   6.0763004972e+01    0.4863762    0.2234509 -72.05  0.001948774    2.077    0.519
       133 -10.4945     14.0078     67.6831   9.5914717871e+01   6.2353913309e+01    0.2607563    0.1799858  24.26  0.001514073    1.637    0.389
       134 -10.1008    197.4424     74.7394   4.3055894507e+01   2.5940383993e+01     0.191962    0.1322192 -26.17  0.000892541    1.607    0.378
       135 -11.0177    199.3685     64.3374   4.0146712030e+01   2.7145381467e+01    0.4695989    0.2885105 -52.71  0.002002148    1.555    0.357
       136 -13.3527    185.4877     68.7369   4.3340229352e+01   2.9623645682e+01     1.396484    0.5688736 -48.59  0.005258819    2.503    0.600
       137 -11.8254    192.6337     66.1144   4.1564157965e+01   2.8396947863e+01    0.4926097    0.3088301 -82.71  0.001756413    2.112    0.527
       138 -11.1577    200.5928     69.8254   4.1359366158e+01   2.6020677367e+01    0.3282064     0.238756  74.21 0.0002479681    1.484    0.326
       139 -13.5616    217.5063     66.8974   3.8401791344e+01   2.2794792991e+01      1.50164    0.4500895  52.50  0.005428156    3.751    0.733
       140 -10.3623    103.9853     74.9709   6.3249249954e+01   4.7441546932e+01    0.2353224    0.2279102  25.15  0.001300376    1.058    0.054
       141  -9.7012     24.5237     74.4651   9.2819824598e+01   5.9925220244e+01    0.1313762    0.1161926 -55.18 0.0006680781    1.024    0.023
       142 -11.8422    162.1544     71.2357   4.8078382568e+01   3.4699830937e+01    0.4383143    0.3470289 -81.22  0.001868801    1.401    0.286
       143 -11.4780     41.1936     72.6636   8.5265015012e+01   5.8617586995e+01     0.413842    0.2620289 -57.46   0.00146137    1.461    0.316
       144 -11.5324     35.1334     71.8306   8.7606824206e+01   5.9498439097e+01    0.6685607    0.1753829  28.10  0.002289966    3.965    0.748
       145 -11.1812      2.0103     71.5583   1.0202653833e+02   6.2168849333e+01    0.3349884    0.1699367 -67.93  0.001143796    1.624    0.384
       146 -10.1073    112.1495     75.3694   6.1012456595e+01   4.5596844928e+01      0.21511    0.1409795  59.77 0.0009399297    1.700    0.412
       147 -11.0581    130.7096     72.0384   5.5108020089e+01   4.2018427071e+01    0.3851474    0.2076065 -39.38 0.0004092251    1.859    0.462
       148 -10.4991    132.6786     69.3700   5.3808559135e+01   4.2045876353e+01    0.3782436    0.2489631 -84.22  0.001189454    2.399    0.583
       149 -11.9506    122.6890     68.8465   5.6111780937e+01   4.4470874399e+01    0.4769774      0.33825  48.48  0.001314464    1.407    0.289
       150 -11.2094    171.2231     68.2282   4.5575030106e+01   3.3050424995e+01    0.4307007    0.2946723 -45.57  0.002017325    1.392    0.282
       151 -10.5587    110.7145     69.0041   5.9381222815e+01   4.7152251290e+01    0.2495575    0.2093861  52.86  0.001288267    1.195    0.163
       152 -11.3733     79.1372     68.1612   6.9088392236e+01   5.3792530642e+01    0.4436336    0.3424392  66.59  0.002200471    1.636    0.389
       153 -11.7831     10.0848     62.3852   9.6533718526e+01   6.3844028350e+01    0.3655689    0.2675188 -57.58  0.001254057    1.150    0.131
       154 -12.0137      4.4925     62.0701   9.9094712373e+01   6.4250031662e+01    0.5083361    0.2897364 -54.14   0.00227268    1.414    0.293
       155 -11.8318     59.2237     63.6589   7.5078692418e+01   5.8133318057e+01    0.3157629    0.2692298 -66.00 0.0004716833    1.319    0.242
       156  -9.8857     21.1299     65.1135   9.2063257759e+01   6.2395319750e+01    0.1650685    0.1393783 -78.05 0.0004731227    1.272    0.214
       157 -10.4273     87.6324     49.5570   5.9575159342e+01   5.5666305820e+01    0.7358598    0.1595388 -43.74  0.002012425    4.949    0.798
       158 -11.6511     91.4520     62.5970   6.3037531160e+01   5.2496414712e+01    0.5397791     0.365836  72.03   0.00217522    2.187    0.543
       159 -11.5317     90.0372     58.0781   6.1910720022e+01   5.3639544306e+01    0.5498381    0.3292699  42.87  0.002511716    1.672    0.402
       160 -11.7422    159.0777     62.3315   4.6094198390e+01   3.6928307330e+01    0.6574078    0.6035317  10.85  0.003121227    1.295    0.228
       161 -12.2251    160.8543     56.2899   4.4000102202e+01   3.7461975332e+01    0.5998284    0.3423836 -82.84  0.002245499    2.887    0.654
       162 -12.4006    153.9951     52.8729   4.4225656068e+01   3.9664116911e+01    0.6877057    0.6266207  82.88   0.00270912    1.056    0.053
       163 -10.4172     51.0731     56.9019   7.6154995341e+01   6.0768967970e+01    0.2765825    0.2603387 -71.85   0.00135821    1.230    0.187
       164 -11.1452     52.0100     61.7857   7.7412876018e+01   5.9610127439e+01    0.3850251    0.2294953  46.21  0.001828697    1.959    0.489
       165 -12.6306     44.0874     61.6150   8.0742985200e+01   6.0728195033e+01    0.5569315    0.3092901 -32.45 0.0008315714    2.043    0.510
       166 -11.3715     40.7885     57.1867   8.0767168658e+01   6.2098249012e+01    0.3705041    0.2122161  43.43  0.001791811    2.053    0.513
       167 -12.7174     75.1347     52.8885   6.5144117261e+01   5.7538607347e+01    0.8800558    0.6503829 -26.05 0.0009859905    1.435    0.303
       168 -11.0685     72.6959     47.3436   6.3927285955e+01   5.9006437758e+01     0.365442    0.2408831 -51.82  0.001353493    1.724    0.420
       169 -10.3759     65.2275     61.9306   7.2125512955e+01   5.7525468074e+01    0.1990458    0.1858509 -75.75 0.0009160397    1.226    0.184
       170 -11.8297    126.7148    241.6867   9.0399775826e+01   7.7861097717e+00    0.2580585    0.2083057  74.50  0.001399477    1.541    0.351
       171 -11.7166     92.6337     41.2436   5.4810196631e+01   5.5977802008e+01    0.7761873     0.303515  43.94  0.002923992    2.577    0.612
       172 -12.3026    120.1837     58.2634   5.3298222841e+01   4.6941834269e+01    0.9021378    0.5524641 -78.08  0.003281908    3.129    0.680
       173 -12.6521    105.8238     42.6506   5.1559960321e+01   5.2812465913e+01    0.9632227    0.4929146  48.93  0.002240638    1.866    0.464
       174 -11.6105    113.8425     38.1765   4.7852918006e+01   5.1606102279e+01    0.2673075    0.2533701 -89.20 0.0002994013    1.087    0.080
       175 -11.8554    114.7233     49.1914   5.1580341841e+01   4.9725582366e+01    0.5708019    0.3391367  36.82  0.002099172    1.961    0.490
       176 -11.8923     68.3937    240.4182   1.0216770899e+02   1.5893979653e+01    0.3132248    0.2435598 -17.60  0.001945894    2.087    0.521
       177 -11.5618    145.9629    237.3233   8.5998959747e+01   5.7609380198e+00    0.3935065    0.1854611  54.13  0.001655174    3.315    0.698
       178  -9.8095     98.6817    237.7046   9.5694466524e+01   1.2391905990e+01    0.1132195   0.09207921   2.53 0.0004061818    1.609    0.379
       179 -12.3677    113.8717     25.0389   4.2969223338e+01   5.3338872681e+01    0.5725567    0.2977878  60.57  0.001418769    1.783    0.439
       180 -10.1912    113.7683     60.8611   5.5845256466e+01   4.7968614649e+01    0.2983731     0.180752 -42.87  0.001326992    1.665    0.400
       181 -11.4071    249.6398     58.4870   3.3047965356e+01   1.7560213540e+01    0.4594384    0.2055965 -29.67  0.002144155    2.287    0.563
       182 -10.2586     29.6507     59.7588   8.6669033591e+01   6.2807372222e+01    0.3789449     0.278241  53.76  0.001607293    1.754    0.430
       183 -10.8339     24.9800     59.4863   8.8771123735e+01   6.3325325638e+01    0.3323124    0.2132122  56.48  0.001642343    2.226    0.551
       184 -11.0531     25.6340     55.6791   8.7349847831e+01   6.4102921753e+01    0.3006475    0.1601178 -35.07  0.001008079    1.916    0.478
       185 -12.3972    218.8219     57.1517   3.5931088269e+01   2.3942098222e+01    0.5752391    0.3324042  88.82  0.002097753    2.194    0.544
       186 -11.4342    215.4825     52.5380   3.5209872825e+01   2.5314630005e+01    0.4107316    0.2343545 -33.22  0.001670513    1.685    0.406
       187 -11.1533    136.4709     56.0141   4.8728138334e+01   4.3438542275e+01    0.4354739    0.2649563 -22.86  0.001351631    2.063    0.515
       188 -10.6369    139.4862     54.5383   4.7609974931e+01   4.2945559992e+01    0.2854083    0.2342388  85.66 0.0007209935    1.295    0.228
       189 -10.5687    126.8567     55.9167   5.0883315385e+01   4.5763266072e+01     0.377473    0.2467924  75.00  0.001664443    1.888    0.470
       190 -10.4054     66.8940     55.3274   6.9141140261e+01   5.8563760094e+01    0.2306007    0.1882754 -53.83 0.0005699358    1.317    0.241
       191 -11.2357     99.7998     53.8710   5.7369211745e+01   5.2324513631e+01    0.3828111    0.3140503  45.36  0.001559033    1.198    0.165
       192 -12.1192    205.1629     52.6581   3.6452828589e+01   2.7572020899e+01    0.7941042    0.4828835 -68.25  0.002515092    1.830    0.454
       193 -11.2104    194.3102     46.4171   3.6212747595e+01   3.0927150147e+01    0.5720623      0.28087 -87.04  0.002131465    3.257    0.693
       194 -12.1653    197.9014     43.3522   3.4977673687e+01   3.0519468489e+01    0.6776035    0.4158658  72.46  0.003276779    1.657    0.396
       195 -12.0818    205.0820     37.3857   3.2651855261e+01   2.9674842346e+01    0.4652856      0.33516 -45.31  0.001897768    1.248    0.199
       196 -12.1625    198.8350     36.1230   3.3018190033e+01   3.1264273623e+01    0.4167475     0.395225  51.62  0.001499911    1.281    0.219
       197  -9.9888     13.8137     54.1943   9.2706264452e+01   6.5433795943e+01    0.1688771    0.1210488 -36.96 0.0002352698    1.256    0.204
       198 -10.2032      7.8123     53.9703   9.5640723998e+01   6.5890943653e+01    0.2311454   0.09755099 -41.94  0.001085285    2.103    0.525
       199 -12.0705     60.7816     46.4506   6.8213916459e+01   6.1293053568e+01     0.834138      0.36158 -37.74  0.003430557    2.370    0.578
       200 -10.6987     59.2860     41.6418   6.6903411573e+01   6.2415777443e+01    0.3148539    0.2091987  38.05  0.001634017    1.512    0.339
       201 -11.6884    245.6422     51.4114   3.1899771649e+01   1.9280352524e+01    0.3676618    0.2071459  89.51  0.001882521    2.194    0.544
       202 -10.2608    230.1554     51.2807   3.3349646932e+01   2.2388510953e+01    0.2624413    0.1228547 -54.46 0.0009599171    2.059    0.514
       203 -11.2527    145.9233     46.9624   4.3915460033e+01   4.2537040861e+01    0.4406559    0.2177554 -29.90  0.001805841    2.210    0.548
       204 -10.3877     33.9884     52.5185   8.2356871100e+01   6.3900918847e+01    0.1880056    0.1274178  21.45  0.001025927    1.580    0.367
       205 -11.0129    176.7428     43.5744   3.7807679976e+01   3.5480768982e+01    0.3598453    0.2806442  54.61  0.001970199    1.366    0.268
       206 -11.7580    175.5184     48.4960   3.9363640097e+01   3.5078901323e+01    0.3520017    0.3127319  57.15  0.001498171    1.211    0.174
       207 -12.2455    171.9895     47.7136   3.9677646559e+01   3.6043649812e+01    0.5648433    0.3560804  64.39  0.002166219    1.563    0.360
       208 -12.1292     44.8283     46.4602   7.5127442803e+01   6.3754806912e+01    0.6107183    0.3739289 -56.40  0.003060534    1.835    0.455
       209 -10.8143     39.1982     43.8216   7.6754004334e+01   6.5029112286e+01    0.2334947    0.1669641   6.17  0.001071004    1.551    0.355
       210 -10.2270     51.9481     48.4798   7.2720361763e+01   6.2325414482e+01    0.2090401    0.1674313 -38.41  0.000552499    1.180    0.153
       211 -11.4916     20.4667     46.5163   8.7059751858e+01   6.6548610089e+01     0.293056     0.225981 -73.76 0.0007372675    1.547    0.354
       212 -11.6238    103.7019     63.8798   5.9699713777e+01   4.9662630806e+01    0.5147946    0.3869693  33.41 0.0009152119    1.440    0.306
       213 -11.1935    133.2014     45.9887   4.6164558829e+01   4.5800053252e+01    0.5457651    0.2245763  55.51  0.002099557    2.277    0.561
       214  -9.9497    139.5979     43.7229   4.4107370258e+01   4.4567674473e+01     0.287258    0.1726466  38.95 0.0008725518    2.005    0.501
       215 -10.8399    248.3492     45.0818   3.0308640210e+01   1.9593610000e+01    0.1812454    0.1638732  79.17 0.0005352782    1.307    0.235
       216 -10.3108    161.7210     43.7661   4.0151347089e+01   3.9111551870e+01    0.2946255    0.1896697  77.02  0.001403269    1.630    0.387
       217 -11.8412    155.2342     42.0692   4.0717543250e+01   4.0946847518e+01    0.5350855    0.3342595 -59.67   0.00225038    1.777    0.437
       218 -10.6555    152.8081     36.3881   3.9375047150e+01   4.2322719125e+01    0.2492008    0.1653887  57.16 0.0006050573    1.462    0.316
       219 -10.7210     33.1235     42.6348   7.9265912468e+01   6.6018493187e+01    0.2712042     0.172925 -42.44  0.001487606    1.410    0.291
       220 -11.1040     26.2072     42.8859   8.2860203796e+01   6.6739720964e+01     0.214001    0.1804078 -77.17 0.0009405554    1.526    0.345
       221 -11.2004     22.3777     37.2731   8.2813342023e+01   6.8251183766e+01    0.4792547    0.2293562  42.80  0.002220524    2.816    0.645
       222 -12.7355    227.1498     37.4916   3.0491493378e+01   2.4843083032e+01    0.6949733    0.3373928 -88.58  0.003145901    2.646    0.622
       223 -11.4143    183.9786     38.1670   3.5337053300e+01   3.4479594758e+01    0.2772696    0.2231902 -74.13 0.0008482558    1.165    0.142
       224 -11.2853    133.4923     37.7268   4.3340152836e+01   4.6916839889e+01    0.4245415    0.2971679 -79.19  0.001731049    1.748    0.428
       225 -11.7956     78.4864     38.0007   5.8106572636e+01   5.9453204867e+01    0.6780407    0.4507748 -85.73  0.002677899    3.447    0.710
       226 -11.6162     78.7528     33.9691   5.6339236178e+01   6.0022612124e+01    0.6362595    0.3515067  22.87  0.002545669    2.834    0.647
       227 -10.4708    217.9448     39.2354   3.1772798168e+01   2.6583434201e+01    0.2057979     0.151045 -67.99 0.0009237149    1.244    0.196
       228 -10.4755    178.6792     29.3343   3.3580798603e+01   3.6881450644e+01    0.2245557    0.1762374 -69.61 0.0009879183    1.190    0.159
       229 -11.1209    176.6625     37.0612   3.5996516617e+01   3.6382019532e+01    0.3860527    0.2591848 -18.85  0.001916967    1.856    0.461
       230 -11.3412    181.6184     32.7469   3.4156800769e+01   3.5747262076e+01    0.3717239    0.2845409  49.31  0.001857185    1.491    0.329
       231 -10.7727    142.5683     39.1162   4.2042349812e+01   4.4487694439e+01    0.3608519    0.2052889  69.08  0.001612721    1.788    0.441
       232 -11.3570     60.9261     36.6875   6.4160215494e+01   6.2986490705e+01     0.399844    0.2828988 -29.97  0.001380921    1.402    0.287
       233 -11.1104      4.9982     36.2805   9.2197826686e+01   6.9866414823e+01    0.2510883    0.2152841  21.76 0.0008163727    1.361    0.265
       234 -11.3749    170.2737     30.1238   3.4887473628e+01   3.8824541117e+01    0.5491412    0.4287329  11.40  0.002942284    1.794    0.443
       235  -9.9320    199.6536    234.6938   7.5379055624e+01  -1.3252715208e+00    0.1221922    0.0772837   3.70 0.0007042557    1.697    0.411
       236 -12.0016    164.1602     27.7822   3.5037783289e+01   4.0612430238e+01    0.4797865     0.230321 -42.75  0.001335422    1.999    0.500
       237 -10.5191     94.2515     35.8022   5.2189068467e+01   5.6447878980e+01    0.2392492    0.1878283  67.67  0.001062812    1.405    0.288
       238 -10.6202    248.2029     33.4196   2.7850734425e+01   2.1100053274e+01    0.3485062   0.09693073 -47.81  0.001450617    2.789    0.641
       239 -10.6697    108.7646    229.3080   9.2675312877e+01   1.2501818984e+01      0.22891    0.1674277  52.59  0.001327379    1.271    0.213
       240 -10.4738     58.3350    226.3192   1.0312204190e+02   1.9863472414e+01    0.1100725   0.09483643 -20.30 0.0007049185    1.701    0.412
       241 -11.0954     63.8487    222.8430   1.0165076780e+02   1.9870255472e+01    0.1749016    0.1676082  42.58 0.0008174585    1.260    0.206
       242  -9.7361    164.5066    212.0060   7.8646113787e+01   7.1955521441e+00    0.1746026    0.1257655 -42.52 0.0006357693    1.518    0.341
       243 -10.4649    172.5239    211.5112   7.6955428094e+01   6.0485429672e+00    0.1271287     0.111507  17.26  1.11541e-06    1.019    0.018
       244  -9.5411    132.6958    207.6779   8.4701838256e+01   1.2951572979e+01    0.1302265    0.1006267  -4.65 0.0007030544    1.636    0.389
       245  -9.1766     61.3247    206.6682   1.0073819962e+02   2.3561929397e+01    0.1400468   0.08078003  62.31 0.0007050694    1.706    0.414
       246  -9.6233     83.6736    195.7202   9.4315227463e+01   2.2908012370e+01    0.1250235    0.1056502 -12.12 0.0004039093    1.595    0.373
       247  -9.7811     16.4457    191.5056   1.0987727711e+02   3.1942059558e+01    0.1233075   0.09902839  73.87 4.436788e-05    1.016    0.016
       248 -10.7392    170.0920    191.3128   7.4080001947e+01   9.9295431549e+00    0.3943371    0.1657108  25.75  0.001365273    3.626    0.724
       249 -10.7737    238.5778     33.0269   2.8515505535e+01   2.3052765560e+01    0.3430099     0.167505  70.83  0.001794357    2.170    0.539
       250 -11.7059      4.6166    185.7764   1.1227194142e+02   3.4288944921e+01    0.3149232    0.2470365  59.23  0.002008737    1.132    0.116
       251 -10.7689    210.5902     29.1987   3.0080782833e+01   2.9473627012e+01     0.551695    0.1205474 -38.59  0.001996893    3.297    0.697
       252 -10.6573    240.3497    185.0353   6.0095535996e+01   1.4908097898e-01    0.2032924    0.1669759  26.69 0.0005783599    1.326    0.246
       253 -10.2652     67.8830     32.1168   5.9448531328e+01   6.2448258755e+01    0.1893606    0.1876007  79.22 0.0005983521    1.198    0.165
       254 -11.9153     57.5138     30.4111   6.2820501326e+01   6.4605215998e+01    0.4041125    0.2927174   6.12 0.0008653692    1.569    0.363
       255 -12.6072     48.2845     29.9311   6.6645569504e+01   6.6220403547e+01    0.6129173    0.3284379  37.43  0.002855744    1.860    0.462
       256 -10.4311     12.4891     48.1654   9.1697446625e+01   6.6848749213e+01    0.2864136    0.1135994 -38.81  0.001253143    2.423    0.587
       257 -10.5047    100.0241     30.7686   4.8574515352e+01   5.5856722048e+01    0.2781402    0.1682565  80.74  0.001157297    2.569    0.611
       258  -9.7357    250.3309    177.3293   5.7143047020e+01  -1.2025218459e-01    0.1244948   0.07947935  -5.02 0.0007051693    1.715    0.417
       259 -10.1142    170.5051    171.9743   7.0447249293e+01   1.3442381060e+01    0.2044471    0.1342482 -42.60 0.0006553002    1.534    0.348
       260 -11.5414      8.9872    166.8815   1.1006495746e+02   3.8317580509e+01    0.2674578    0.1750085  33.36  0.001276922    1.609    0.378
       261 -10.6967    204.9940    163.2064   6.1961035394e+01   9.0188957334e+00    0.2315923    0.1803859 -31.36 0.0006864759    1.189    0.159
       262 -10.6578    197.1633     29.1497   3.1415770940e+01   3.2531100928e+01    0.2614454    0.1925134 -81.99 0.0009070642    1.285    0.222
       263 -10.1599     19.1854    164.6064   1.0726741816e+02   3.7979659751e+01    0.1607286    0.1250714   6.99 0.0009512509    1.727    0.421
       264  -9.8480     78.5429    159.7761   9.0640168650e+01   3.2012469382e+01    0.2005318    0.1335387 -81.66 0.0009420288    1.657    0.396
       265 -11.5895    223.8650     22.1930   2.7273905789e+01   2.7418002606e+01    0.3738145    0.2055539 -81.33  0.001868534    1.894    0.472
       266 -10.7879     14.0265    158.8632   1.0816166436e+02   3.9826130443e+01    0.2164172    0.1563498 -86.00 0.0003281612    1.179    0.152
       267  -9.7794     46.4871    154.5327   9.8795209017e+01   3.7616696355e+01    0.1385596     0.121124  81.74 8.994159e-05    1.019    0.019
       268 -10.8555    224.7453    151.0242   5.6093227143e+01   7.7393767531e+00    0.2020088    0.1806593  10.03 0.0004666095    1.150    0.130
       269 -11.2489    228.5104     15.5450   2.5425017016e+01   2.7197861128e+01    0.2116654     0.175425 -81.43 0.0005229983    1.141    0.123
       270 -11.8491     23.2360    148.7055   1.0471461745e+02   4.1514319369e+01    0.4819825    0.2561145 -38.62  0.002169657    2.648    0.622
       271 -10.6685    239.9148     27.6429   2.7242290005e+01   2.3442219578e+01    0.2416563    0.1550912 -12.29  0.001273782    2.447    0.591
       272  -9.5688    185.2924    150.3095   6.3048637376e+01   1.4851307832e+01    0.1412088     0.107279  -4.14 0.0005443907    1.585    0.369
       273 -10.5946     15.8440    147.9807   1.0673516475e+02   4.2344528524e+01    0.2117842    0.1822061  44.93  0.000938451    1.251    0.201
       274 -10.4319     97.0109     26.1839   4.7548109638e+01   5.7148073260e+01    0.2450424    0.1702993 -46.39  0.001259117    1.613    0.380
       275 -11.5456    250.0041    144.0790   5.0850997422e+01   4.8012934659e+00    0.6328413    0.1812156 -36.54      0.00248    2.929    0.659
       276 -10.9544     48.7696    146.0485   9.7018470513e+01   3.9473731127e+01    0.3942728    0.2349477  19.25   0.00124184    2.117    0.528
       277 -11.1699     33.2493    144.5480   1.0137001657e+02   4.1583257967e+01    0.2694304    0.2141074  84.42 0.0006605237    1.142    0.124
       278 -11.4869      2.0453    141.2763   1.1007437030e+02   4.5044805032e+01    0.3808877    0.1870968 -78.57  0.001149883    1.692    0.409
       279 -10.8069    182.3319     25.5732   3.2109461941e+01   3.6460383843e+01     0.247189    0.2181576  65.86  0.000984108    1.211    0.174
       280 -10.9221    203.5458     24.2040   2.9525419959e+01   3.1663684499e+01    0.2805328    0.1625702 -63.35 0.0008322517    1.664    0.399
       281 -10.4598    177.6176     24.7890   3.2446731085e+01   3.7687556873e+01    0.2478309    0.2036748 -63.24 0.0006383741    1.115    0.103
       282 -10.7090    178.0217     21.4753   3.1478923743e+01   3.7976762304e+01    0.3427114    0.1713145  44.26   0.00146601    2.675    0.626
       283 -10.9902    217.2088    138.2996   5.4694583379e+01   1.1151288239e+01    0.2381075    0.2372499 -75.52 0.0007847804    1.180    0.152
       284 -11.4210    189.2499    135.4626   5.9057336838e+01   1.6879309512e+01    0.2875943    0.2823365  69.59 0.0008950575    1.124    0.110
       285 -11.5171     22.3845    135.5431   1.0355878718e+02   4.4893770223e+01    0.4457173    0.2883151  42.44  0.002422544    1.583    0.368
       286 -11.6786     29.9745    133.0665   1.0093641352e+02   4.4816476759e+01    0.3515825    0.2324352 -41.72 0.0004608965    1.748    0.428
       287 -10.0288     59.6518     23.7831   5.8882165633e+01   6.5222681780e+01     0.172423    0.1155613 -40.47   0.00043556    1.603    0.376
       288 -11.5563    245.7061    134.4771   4.9535624896e+01   6.9386763730e+00     0.457112    0.2759158  64.81  0.002295195    2.725    0.633
       289 -10.6503     13.9503     23.3097   8.1999135562e+01   7.1711164857e+01    0.1953324    0.1450334 -36.30 0.0006144118    1.149    0.130
       290 -10.4211    170.0613     23.0799   3.2886865684e+01   3.9724334371e+01    0.2782822     0.180773  63.84  0.001371394    1.472    0.321
       291 -10.9136     11.6000    136.5282   1.0689577115e+02   4.5534246916e+01     0.371667    0.1468241 -45.31  0.001491906    3.164    0.684
       292 -10.8524     73.6705     19.3374   5.1610301167e+01   6.3088252113e+01     0.203464    0.1664999  57.71  0.001203116    1.291    0.226
       293 -13.2278    241.4617    123.9345   4.7962530785e+01   9.2782259165e+00    0.8385953    0.4594156 -50.11  0.003731468    1.926    0.481
       294 -12.3490    143.3687     25.0712   3.7333297344e+01   4.6091674455e+01    0.6038533    0.3643135  54.78  0.002116988    1.587    0.370
       295 -10.7976    189.1387     28.1255   3.2021912625e+01   3.4533194052e+01    0.3712841    0.2420068 -12.48  0.001836886    2.154    0.536
       296  -9.8716    194.2748     19.4018   2.9204549041e+01   3.4357330762e+01    0.1785231    0.1119443 -89.31 0.0009399147    1.555    0.357
       297 -10.1092     79.4972     19.0673   4.9591979428e+01   6.1901270649e+01    0.1934114    0.1291044 -25.61   0.00102807    1.576    0.366
       298 -11.0758    186.6960     15.1906   2.8848640282e+01   3.6606755131e+01    0.5167015    0.1491388  70.01  0.001940237    3.133    0.681
       299 -11.3514    188.1731    128.2964   5.7648121969e+01   1.8433406201e+01    0.3687837    0.2547429 -18.06  0.001729581    1.795    0.443
       300  -9.5738    103.7037    130.7363   7.8183483809e+01   3.4890611088e+01     0.143985    0.1203788 -11.42 0.0002108871    1.509    0.337
       301 -11.6647    223.2572    123.6214   5.0571723411e+01   1.2528694017e+01    0.5909342    0.2883033 -48.33   0.00262461    2.098    0.523
       302 -10.9838     22.8412    127.0406   1.0240994598e+02   4.7004818371e+01    0.1952018    0.1860389 -85.97 0.0003738371    1.125    0.111
       303 -13.0764    103.7984    122.4910   7.6300978643e+01   3.6841682600e+01    0.3509708    0.3309604 -37.85 0.0006793315    1.113    0.101
       304  -9.9861    173.6940     16.3435   3.0536242349e+01   3.9598272589e+01     0.175113    0.1105387  66.46 0.0005741274    1.493    0.330
       305 -10.3010     49.9798    122.7660   9.3017607499e+01   4.5245306845e+01    0.1769374    0.1197848  29.96 0.0006518593    1.608    0.378
       306 -10.2848    203.3198    121.3196   5.3314149406e+01   1.6702538913e+01    0.1407228    0.1079977  -0.06 0.0007043003    1.665    0.400
       307 -10.7992     43.8097    116.8122   9.4016345220e+01   4.7495697963e+01    0.3094495    0.1670766 -79.38 0.0009963991    2.050    0.512
       308 -11.3414     21.8002    114.3204   1.0107579606e+02   5.0318376508e+01    0.4435015    0.2656808  -6.78  0.001781061    2.443    0.591
       309 -10.8985     28.0295    113.0993   9.8769381436e+01   5.0077462844e+01    0.2518241    0.2078258  -3.70 0.0007660017    1.485    0.327
       310 -12.1159     24.2701    109.3835   9.9502807946e+01   5.1355641207e+01    0.9450147    0.3090948 -75.60  0.003269058    3.295    0.696
       311 -11.6634     26.9871    106.7391   9.8128106834e+01   5.1781893235e+01    0.3765056    0.2592322  78.26  0.001972682    1.604    0.376
       312 -10.3111      7.1887    114.8009   1.0604854732e+02   5.1286046431e+01    0.1974216    0.1561777  75.78 0.0007307209    1.221    0.181
       313  -9.6083     67.3454    114.6589   8.5758784994e+01   4.4939008392e+01    0.1567711     0.109615  72.78 0.0007047001    1.786    0.440
       314 -12.0380      2.4474    111.9235   1.0731805300e+02   5.2296983619e+01    0.4000026    0.2078968 -78.34   0.00064218    1.620    0.383
       315 -11.2624      3.9589    105.1190   1.0604651160e+02   5.3899923933e+01    0.3484835    0.3180655   0.18  0.002172608    1.328    0.247
       316 -10.2691     93.8911    112.3687   7.6821110368e+01   4.1093086262e+01    0.2646635    0.2074468 -69.01 0.0008004516    1.344    0.256
       317 -12.4357    248.7134    108.2149   4.3711151113e+01   1.0474211530e+01    0.5435411    0.3246613 -55.41  0.002779979    1.866    0.464
       318 -11.0661    170.4241    110.4527   5.6893193804e+01   2.5554517610e+01    0.3283759    0.2768857 -34.58  0.001002604    1.176    0.150
       319 -10.0954     48.8013    112.3036   9.1498097603e+01   4.8047004260e+01    0.2221806    0.1704219  55.18  0.001041855    1.399    0.285
       320 -10.7540    211.8259    110.2396   4.9378555431e+01   1.6958336663e+01    0.3278056    0.2492852  86.87  0.001720537    1.762    0.433
       321 -11.0992    214.6707    107.3044   4.8262366874e+01   1.6895915071e+01    0.3326873    0.2009613 -45.84 0.0008864187    1.518    0.341
       322 -10.7746    101.3131    110.2929   7.4081725317e+01   4.0197108564e+01    0.3062105    0.2395617 -39.06  0.001026774    1.340    0.254
       323 -11.5134     80.0695    107.9633   8.0088768866e+01   4.4579246445e+01    0.4309455     0.278178  27.90 0.0007241318    1.778    0.438
       324 -10.7024    228.4251    107.3428   4.6236776989e+01   1.4247513065e+01    0.2332251    0.1714186  59.50 0.0008129666    1.603    0.376
       325 -10.9401    143.7778    106.2284   6.1681699663e+01   3.2251267373e+01    0.3536452    0.2644961  85.91  0.001124035    1.785    0.440
       326 -10.6737      6.8962     30.3671   8.9088311014e+01   7.0936240221e+01      0.27285    0.1511665 -12.49  0.001471008    2.035    0.509
       327 -10.9855    145.4239    100.5175   5.9782991874e+01   3.3064205549e+01    0.4765625    0.2778907 -26.62  0.001184524    2.341    0.573
