#   1 NUMBER                 Running object number                                     
#   2 MAG_AUTO               Kron-like elliptical aperture magnitude                    [mag]
#   3 X_IMAGE                Object position along x                                    [pixel]
#   4 Y_IMAGE                Object position along y                                    [pixel]
#   5 X_WORLD                Barycenter position along world x axis                     [deg]
#   6 Y_WORLD                Barycenter position along world y axis                     [deg]
#   7 A_WORLD                Profile RMS along major axis (world units)                 [deg]
#   8 B_WORLD                Profile RMS along minor axis (world units)                 [deg]
#   9 THETA_WORLD            Position angle (CCW/world-x)                               [deg]
#  10 FWHM_WORLD             FWHM assuming a gaussian core                              [deg]
#  11 ELONGATION             A_IMAGE/B_IMAGE                                           
#  12 ELLIPTICITY            1 - B_IMAGE/A_IMAGE                                       
         1 -12.9792    180.7389     39.5407   6.0516177208e+01   3.4994942734e+01     1.368775     1.042456  12.46  0.004100945    1.589    0.371
         2 -12.7901    201.2661      7.8485   4.7977408915e+01   3.3342856306e+01     0.968509    0.9338164 -39.28  0.004011536    1.111    0.100
         3  -8.6442    167.7715    230.9259   1.0696969270e+02   5.0217086923e+00    0.1504783     0.136048  43.92 0.0004749995    1.148    0.129
         4 -19.4886     37.7874    148.5257   1.2247780224e+02   3.9945710288e+01     18.37671     3.270104 -70.83   0.05669071    5.406    0.815
         5  -9.0722     11.2146    205.3779   1.3190136920e+02   3.1154284334e+01     0.249932    0.1336566  56.26  0.001781473    1.484    0.326
         6  -9.8576     86.1392    201.7748   1.1834770538e+02   2.2916450528e+01    0.4641446     0.222701  63.02  0.002320739    2.187    0.543
         7 -10.5039    141.0015    200.0005   1.0761712543e+02   1.4406681227e+01    0.3072192    0.1544479  32.99  0.001377394    2.405    0.584
         8  -9.7885    193.5114    196.0135   9.6994857270e+01   5.4973383796e+00    0.6919864    0.3546105 -62.89  0.002055893    7.220    0.862
         9  -8.3377    161.4022    199.5350   1.0363071807e+02   1.0845552294e+01    0.1279229    0.1110269  47.21 6.278519e-05    1.017    0.017
        10  -9.9652    151.8626    196.6725   1.0502382474e+02   1.3046153620e+01    0.1983318    0.1846734 -23.94  0.001036924    1.307    0.235
        11  -9.3998     81.6031    194.9596   1.1848211740e+02   2.4858515826e+01    0.2570898    0.2341586  72.05  0.001849493    1.243    0.196
        12  -8.9638     65.3268    192.8965   1.2138488017e+02   2.7477009568e+01    0.1950906    0.1616807  83.24 0.0009880665    1.116    0.104
        13  -9.6842    148.6829    186.0982   1.0398684461e+02   1.5467502591e+01    0.2090204     0.167922 -88.01  0.001201525    1.473    0.321
        14 -10.6800     99.4312    181.0301   1.1325864600e+02   2.4921426389e+01    0.2508781    0.2197961 -77.54 0.0007335515    1.181    0.154
        15  -9.0265    204.1166    175.6533   9.1273802213e+01   6.5749432780e+00      0.24818    0.1947879 -20.63  0.000795798    1.366    0.268
        16  -8.1638    197.1986    176.6276   9.2770756505e+01   7.7709630328e+00    0.2079559    0.1133073  36.20 0.0009542332    1.760    0.432
        17 -10.9613    125.3120    172.4007   1.0658004923e+02   2.2295212436e+01    0.5892982    0.3473515 -89.42  0.002321328    2.973    0.664
        18 -11.5812    104.0114    172.2202   1.1107145697e+02   2.5965390788e+01    0.4528735    0.3843615  29.76  0.002756547    1.461    0.316
        19  -8.7021    139.7883    167.8002   1.0273354077e+02   2.0544270640e+01    0.1944398     0.153236  71.16 0.0006723141    1.343    0.256
        20 -11.8025     73.7945    211.6361   1.2157979876e+02   2.2825939807e+01    0.4358203     0.273639 -49.30 0.0008449746    2.365    0.577
        21 -10.3418     96.7425    158.1557   1.1053478388e+02   3.0077296539e+01    0.2578635    0.2250592 -54.77  0.000378592    1.287    0.223
        22 -11.2413    101.3529    151.8045   1.0846366882e+02   3.0694080248e+01    0.5349755    0.4184318 -29.21  0.001790733    1.812    0.448
        23 -11.8920     86.0392    152.3127   1.1205241758e+02   3.2998104458e+01    0.3525284    0.3096443 -50.14 0.0009980354    1.339    0.253
        24  -9.1013    188.7454    154.3327   8.9923184242e+01   1.3201863441e+01    0.2889373    0.1832684  61.20  0.001287631    1.945    0.486
        25  -8.2680    124.6939    152.3420   1.0324554015e+02   2.6490954546e+01    0.1460452    0.1053459  82.11 0.0007042098    1.686    0.407
        26  -9.8789    133.9391    145.8520   9.9902196627e+01   2.6092406335e+01    0.8064033    0.2113906 -55.66  0.002034809    5.904    0.831
        27 -10.2767    110.8266    137.8043   1.0370902845e+02   3.2121173276e+01    0.4232098    0.2754596 -35.93  0.001675231    1.993    0.498
        28 -10.6513    100.2005    137.3501   1.0618024965e+02   3.4050368979e+01    0.2614688    0.2580976 -72.06 0.0004550194    1.171    0.146
        29  -9.9196    106.0376    130.9540   1.0351743991e+02   3.4473371408e+01    0.3464793    0.2833295 -76.12  0.001264642    1.216    0.177
        30  -9.1588    117.0009    128.9962   1.0042162938e+02   3.2928616958e+01    0.2200568    0.1805983 -12.73 0.0007008923    1.666    0.400
        31  -9.4241    105.2467    124.7358   1.0243694535e+02   3.5994299915e+01    0.2426993     0.224617 -36.81  0.000432946    1.212    0.175
        32  -8.7262    111.9340    118.2723   9.9334633267e+01   3.6228618405e+01    0.1990269    0.1828711  52.00 0.0003560839    1.127    0.113
        33  -9.2391    168.3925    113.3353   8.4631893680e+01   2.5364557885e+01    0.2955305    0.2600921 -78.77 0.0008399195    1.301    0.231
        34  -8.7976    205.7831    110.1915   7.6194570850e+01   1.7193505935e+01    0.2132861    0.1761986  12.18 0.0005933358    1.333    0.250
        35  -9.5065     15.5199    220.0867   1.3195355935e+02   2.8113773469e+01   0.08147762   0.05108403  37.20 -3.848578e-05    1.959    0.489
        36 -11.2413     60.1337    215.0758   1.2427565003e+02   2.3989865989e+01    0.3223563    0.1599992  51.32 0.0004099177    1.626    0.385
        37 -11.3691     65.1372    210.1137   1.2298890154e+02   2.4249195868e+01    0.3867819    0.2420834  60.13  0.001900048    1.282    0.220
        38  99.0000     59.1557    206.9897   1.2378991206e+02   2.5588247249e+01    0.3925767    0.1635743 -59.81  0.001435293    2.626    0.619
        39  -8.1248    150.6872     81.3018   7.9788151449e+01   3.5742301745e+01    0.1563831    0.1238523 -76.94 0.0003183028    1.611    0.379
        40 -11.1292    171.4515     70.8708   7.2035156159e+01   3.2534421724e+01    0.5537364    0.3716556 -82.00  0.001305629    2.365    0.577
        41  -9.3263     19.0075    213.9364   1.3108511576e+02   2.8850269051e+01    0.1333223   0.09400222  71.96    0.0003272    1.056    0.053
        42 -11.8977    166.5385     54.5930   6.7962901701e+01   3.6476855167e+01    0.5672671      0.53668 -71.19  0.001017863    1.119    0.106
        43 -11.3792    248.9407    245.8934   9.5564663194e+01  -9.5662397094e+00     0.454702    0.2353861 -35.00  0.002827855    2.504    0.601
        44 -11.6247    185.2916     32.8462   5.7670082783e+01   3.4683544948e+01    0.6114035    0.4512922  28.91  0.001571916    1.567    0.362
        45 -11.2690     69.1503    218.2530   1.2297272457e+02   2.2261171722e+01    0.2745611    0.1656459  67.56 0.0009286188    1.388    0.279
        46 -10.4863     15.4811    206.5156   1.3126102949e+02   3.0537801294e+01    0.1758398    0.1403104  46.52  0.001438421    1.555    0.357
