#   1 NUMBER                 Running object number                                     
#   2 MAG_AUTO               Kron-like elliptical aperture magnitude                    [mag]
#   3 X_IMAGE                Object position along x                                    [pixel]
#   4 Y_IMAGE                Object position along y                                    [pixel]
#   5 X_WORLD                Barycenter position along world x axis                     [deg]
#   6 Y_WORLD                Barycenter position along world y axis                     [deg]
#   7 A_WORLD                Profile RMS along major axis (world units)                 [deg]
#   8 B_WORLD                Profile RMS along minor axis (world units)                 [deg]
#   9 THETA_WORLD            Position angle (CCW/world-x)                               [deg]
#  10 FWHM_WORLD             FWHM assuming a gaussian core                              [deg]
#  11 ELONGATION             A_IMAGE/B_IMAGE                                           
#  12 ELLIPTICITY            1 - B_IMAGE/A_IMAGE                                       
         1  -9.8787     39.0790      8.1242   7.9623602920e+01   6.9546459284e+01    0.5146815    0.2827527 -12.50  0.002770036    1.950    0.487
         2  -8.8186     40.0885      1.8983   7.5858866052e+01   7.0188378762e+01    0.2579437    0.1635027  18.62  0.001239767    1.460    0.315
         3 -10.4692     50.5552     36.4577   8.7510516772e+01   6.3685282879e+01    0.8518752    0.6636318 -85.17  0.004478305    2.657    0.624
         4 -10.6603     39.4163     29.8803   8.9597948795e+01   6.6202147529e+01    0.5178307    0.2942232 -43.08  0.002478849    1.586    0.369
         5 -12.0295     44.7185     22.3174   8.3958662416e+01   6.6772185577e+01     1.024515    0.8550141 -53.56  0.006456488    1.724    0.420
         6 -11.9719    129.4960     15.3537   5.4369444785e+01   5.0999890406e+01     1.315924     1.186307  52.13  0.007549846    1.038    0.037
         7 -11.6736     78.3935     15.9657   6.8006589389e+01   6.2187831323e+01     1.021411     0.625178 -28.10  0.005495244    1.613    0.380
         8 -11.1774    131.2521      3.6372   4.9709983653e+01   5.1669570885e+01     1.325068    0.3089916  60.51  0.004524859    3.191    0.687
         9 -11.5827     84.4182      3.9570   6.0601399290e+01   6.2275734072e+01     1.243547    0.4427696  54.60  0.005230697    2.596    0.615
        10 -10.1674     71.5346      5.5081   6.5368760960e+01   6.4638725046e+01      0.49975    0.3434497  38.39  0.002154553    1.315    0.240
        11 -10.6499    120.8345      4.0811   5.1849447805e+01   5.4154396828e+01    0.6042564    0.4392447  64.45  0.002765061    1.307    0.235
        12 -11.3242    108.6776      4.8614   5.4751683633e+01   5.6931692749e+01     1.385479    0.4564419  63.71  0.005080196    3.125    0.680
        13 -11.4570    155.6076     20.7420   5.1417501750e+01   4.3870849936e+01    0.7388626    0.4986774  73.57  0.002496602    1.478    0.323
        14 -13.6947    165.8779     10.3802   4.6501970516e+01   4.2315012986e+01     3.136863     2.016094  69.31   0.01589208    1.415    0.293
        15 -10.1229    116.0067     16.9497   5.7920619683e+01   5.4055610804e+01    0.9099389    0.3865317 -41.17  0.003631987    2.793    0.642
        16  -8.9270    111.2217     16.4087   5.8845950938e+01   5.5220107768e+01    0.2712738    0.2553585 -10.24  0.001511294    1.137    0.120
        17  -9.4759     94.0039     17.4088   6.3824512578e+01   5.8894367549e+01    0.4376976    0.3357853 -88.95  0.002294292    2.085    0.520
        18  -8.5507     20.4244     14.2421   9.1829499545e+01   7.0765915055e+01    0.4736374    0.1985242 -26.46  0.002246266    2.615    0.618
        19 -10.6889    248.3616     14.9274   3.9039145029e+01   2.1616343767e+01    0.4932551    0.2164935 -29.80  0.002295375    2.272    0.560
        20 -10.3363    250.1420      7.4472   3.7249098430e+01   2.2068291079e+01    0.3547428    0.2154846 -34.07  0.001635349    1.593    0.372
        21  -9.0362    226.9904     14.6068   4.0768855363e+01   2.6556792427e+01     0.396862    0.1866411  85.45  0.001738581    2.316    0.568
        22  -9.8761    104.5593     12.3752   5.8846550915e+01   5.7150117620e+01    0.4488319    0.2933588  -4.96  0.001802725    1.675    0.403
        23  -8.9578     60.4742      9.9749   7.1538818803e+01   6.6101005089e+01    0.3189351    0.1434891 -25.40  0.001536213    2.145    0.534
        24  -8.1337     55.5310      7.3739   7.2164769295e+01   6.7218434967e+01    0.3166901      0.16289  36.48  0.001686517    1.834    0.455
        25  -9.8005     60.8906      2.5530   6.7643881749e+01   6.6854119292e+01    0.4903634    0.2899027  30.70  0.002790052    1.533    0.348
        26  -9.5453    199.8005      8.2049   4.1774093395e+01   3.3888380685e+01    0.2411114    0.2087664 -82.00  0.000964805    1.030    0.029
        27 -10.2357    203.7652      4.7224   4.0454374754e+01   3.3252554376e+01    0.3980445    0.3000099  36.29  0.001865968    1.661    0.398
        28  -8.3681     49.1068      7.0924   7.4654911526e+01   6.8254188844e+01    0.1963797    0.1378743   4.81   0.00114136    1.274    0.215
        29  -9.9374    217.8167      1.9972   3.8494199494e+01   3.0094024404e+01    0.2796981       0.1809  78.17  0.001541965    1.412    0.292
        30  -9.4854    193.2031      5.3696   4.1697085969e+01   3.5829411452e+01    0.3600293    0.1983068 -80.49  0.001640189    2.030    0.507
        31  -8.3034     27.1345      3.1153   8.2780154136e+01   7.1693849117e+01    0.2266636    0.1083292 -28.56  0.001260708    1.804    0.446
        32  -8.6782     17.3355      2.1429   8.7453548725e+01   7.2875665789e+01    0.2219207    0.1543328 -47.75  0.001451185    1.940    0.485
        33  -8.7383     52.7911      2.0549   7.0505460728e+01   6.8258236892e+01    0.2896135    0.1735047  32.61  0.001701434    1.519    0.342
        34  -9.6224     69.8635     14.6962   7.0347553205e+01   6.3912139603e+01     0.305145     0.256999 -83.70  0.001779847    2.088    0.521
        35 -11.6804     46.2651     80.6101   1.0332788355e+02   5.5222774190e+01    0.8878543    0.5706663 -51.64  0.004830197    1.302    0.232
        36  -9.1648     45.1795     62.9528   9.8902884231e+01   5.9205096136e+01    0.4983026    0.2016796 -45.25  0.002196972    2.073    0.518
        37  -9.7900     68.3127     62.8244   9.0276947761e+01   5.6222012342e+01    0.5000308    0.2768344 -10.82  0.001742406    3.941    0.746
        38  -8.3637     76.4890     59.5163   8.6266335529e+01   5.5598162235e+01    0.1405218    0.1252252 -22.06 9.315509e-05    1.006    0.006
        39  -8.2523     93.5965     57.7265   7.9914632538e+01   5.2895663704e+01    0.2014869    0.1309411 -46.94 0.0009462209    1.605    0.377
        40  -9.0103    199.2960     55.7011   5.4941106588e+01   2.7995125909e+01    0.2577039    0.2451805  33.78 0.0004602879    1.161    0.139
        41  -8.0176    138.5128     55.4671   6.6624110801e+01   4.3415801616e+01    0.1529362    0.1427027  21.73 0.0003209599    1.075    0.070
        42  -8.9830     66.2538     53.3561   8.7772849917e+01   5.8391621887e+01    0.4863062    0.1705336 -51.11  0.001707882    3.339    0.700
        43  -8.4088     35.0080     52.6718   9.9773503174e+01   6.2392849523e+01     0.170566    0.1468281 -18.03 0.0009553782    1.148    0.129
        44  -8.2922     23.2657     52.2061   1.0448085387e+02   6.3520987599e+01    0.1549864    0.1380074 -74.25  0.001066339    1.357    0.263
        45  -9.8217     82.6330     46.5810   7.9426042119e+01   5.6917412655e+01    0.5127842    0.4838423  13.95  0.003135377    1.132    0.117
        46  -9.5294     82.2031     40.3202   7.7131106746e+01   5.8041655611e+01    0.3214224    0.2740843  32.49  0.001890118    1.201    0.167
        47 -10.2443      3.3336     40.6794   1.0985042201e+02   6.7145819501e+01      0.38747    0.3730735  86.23  0.002529117    1.397    0.284
        48  -8.1719    111.4646     42.4827   6.8953224640e+01   5.1769333171e+01     0.144953    0.1333306  12.59 0.0002155673    1.022    0.021
        49  -9.6886    203.5003    226.5163   9.3177939629e+01  -2.0003524857e+00    0.2100407    0.1115224 -24.36  0.001039957    2.419    0.587
        50  -8.7517    212.6602    216.3293   8.9794907718e+01  -2.0887911516e+00    0.1158977   0.09996591  66.97 0.0005671601    1.738    0.425
        51  -8.7385    243.3234    201.3272   8.1606573886e+01  -4.9928178221e+00    0.1325291   0.08349895   6.17 0.0007048948    1.692    0.409
        52  -8.2594     20.4947    155.9936   1.2265821253e+02   3.9991408897e+01    0.1889075   0.09682167 -75.47   0.00102845    1.578    0.366
        53 -11.6103     10.6330    141.6567   1.2364703855e+02   4.4089891152e+01    0.5393598    0.3808623 -81.23   0.00356266    1.095    0.087
        54  -9.4047     11.7912     33.9836   1.0392868142e+02   6.7968366114e+01    0.3908849    0.1943919 -52.70  0.001935928    1.592    0.372
        55  -8.5714      6.6040     35.6330   1.0688907403e+02   6.7968084902e+01    0.1958346    0.1548911  71.62  0.001308027    2.000    0.500
        56  -9.2393     68.6205     36.3937   8.0381270930e+01   6.1026784338e+01    0.3906874    0.3193488  51.83   0.00229599    1.586    0.369
        57  -8.2538     27.9958     34.9865   9.6760288914e+01   6.6492245933e+01    0.1893745    0.1515515 -26.35  0.001282787    1.042    0.040
        58  -9.6961     85.9917     31.3188   7.2198217730e+01   5.8709179347e+01    0.2927779    0.2069442 -11.92  0.001005799    1.445    0.308
        59  -9.1456     97.2706     28.8873   6.7687820112e+01   5.6778423497e+01     0.576699    0.2550831 -20.54  0.002231195    2.787    0.641
        60  -9.3670     90.5456     28.5109   6.9573693851e+01   5.8207832428e+01    0.3235341    0.2538917 -32.47  0.001834488    1.323    0.244
        61  -9.3490     40.3861    141.7869   1.1624582620e+02   4.1365529357e+01    0.2645619    0.2064295 -87.49  0.001204929    1.104    0.095
        62 -12.7883    241.8085    130.6177   6.7105208992e+01   5.9516649330e+00     1.410308     1.338319  33.93  0.006196888    1.178    0.151
        63 -11.2179     10.7608    127.9802   1.2225283668e+02   4.7237927649e+01    0.4988493    0.1911281 -65.89  0.002456855    1.963    0.491
        64 -10.2745     16.4561    126.3065   1.2057324504e+02   4.7204782594e+01    0.3188542    0.1756167  43.76  0.001798406    1.996    0.499
        65  -9.4782     23.2079    125.9152   1.1872042081e+02   4.6754668466e+01    0.3057866    0.1442247 -42.53  0.001424654    2.654    0.623
        66  -8.8205     58.7734    124.4261   1.0861833427e+02   4.3419060397e+01     0.172677    0.1366211  11.54 0.0009528857    1.668    0.401
        67  -8.4348     73.3368    118.6845   1.0333878501e+02   4.2846105966e+01    0.1461074    0.1053096  77.58 0.0007047628    1.696    0.410
        68  -9.3431      2.2209    116.2327   1.2326437988e+02   5.0515406068e+01    0.2181437    0.1564277  85.92  0.001448087    1.245    0.197
        69  -9.8042     15.1463    113.1950   1.1931854669e+02   5.0373463433e+01     0.364437    0.1070797 -52.29  0.001507697    2.925    0.658
        70  -9.2584     75.3365     26.9836   7.3963371765e+01   6.1311973802e+01    0.3147944     0.219566  -8.15  0.001719025    1.457    0.313
        71  -7.8220     61.2816     25.3470   7.8455969607e+01   6.3919169809e+01    0.1336311   0.08809801  -3.11 0.0003918582    1.642    0.391
        72  -9.2618    104.4313     26.2741   6.4584704043e+01   5.5586171575e+01    0.3708296    0.3014312  63.23  0.002066554    1.398    0.285
        73  -8.0031     45.0244     39.4669   9.0998037093e+01   6.3849980809e+01    0.1745341    0.1201599  22.75  0.000722083    1.558    0.358
        74  -9.6250     20.7225    109.6778   1.1722484205e+02   5.0784833712e+01    0.4566393     0.183462 -74.42  0.002047327    2.225    0.551
        75  -9.4458     17.2154    104.8895   1.1756852869e+02   5.2169226767e+01    0.3173829    0.2882241  59.88  0.002257561    1.290    0.225
        76  -9.9764    225.7165     28.8233   4.4394424814e+01   2.5169096110e+01    0.5031181    0.2751704  66.03  0.001736153    1.798    0.444
        77  -9.0836     53.5822    143.2900   1.1305595392e+02   3.9517459761e+01    0.2094365    0.1699176 -12.40  0.001198596    1.791    0.442
        78  -9.6983     46.6578     99.4899   1.0747992473e+02   5.0808483546e+01    0.3178875    0.1503282 -66.46  0.001407844    1.994    0.498
        79  -9.3568     29.7786    102.0889   1.1328880894e+02   5.1835269162e+01     0.277742    0.1703272 -53.43  0.001160614    1.393    0.282
        80  -8.3447     90.5090    102.5153   9.4527500991e+01   4.3982518786e+01    0.1477647    0.1372493 -49.21 0.0008103657    1.017    0.017
        81  -8.2285     63.6338     97.7735   1.0168357402e+02   4.9167020508e+01    0.2079183    0.1222827 -65.80 0.0009580528    1.730    0.422
        82  -9.3143      2.6078     88.2439   1.1966791563e+02   5.6908118913e+01    0.6962678    0.1999912 -74.61  0.002760615    3.140    0.682
        83  -9.8112     66.2021     29.2744   7.8289446963e+01   6.2541189911e+01    0.4003913    0.2583181  17.51  0.002117139    1.689    0.408
        84 -10.1581     25.0494     65.5264   1.0733887231e+02   6.0558236926e+01    0.5589928    0.2438426 -52.79  0.002505505    1.744    0.427
        85 -11.1015      4.1524     75.9842   1.1721075622e+02   5.9588288425e+01    0.6559352     0.444379  56.60   0.00412793    1.905    0.475
        86 -11.5987     14.7037     71.9525   1.1267700599e+02   5.9881654874e+01    0.7585395     0.669808  71.66  0.005374042    1.387    0.279
        87  -9.5875     64.4069     16.0651   7.2989732866e+01   6.4689038074e+01    0.2623877    0.1864307  50.73  0.001513168    1.730    0.422
        88  -9.6544     20.5549     87.7830   1.1371306212e+02   5.5902353859e+01     0.415565    0.1602596 -62.25     0.001944    1.956    0.489
        89 -11.5894     42.3399     84.0026   1.0551196010e+02   5.4867251826e+01    0.9210019    0.6060773  54.75  0.004876744    2.010    0.502
        90  -8.2518    100.8246     83.3986   8.6079019515e+01   4.6389328012e+01    0.2088128    0.1420106  28.68  0.000947157    1.689    0.408
        91  -9.0578    227.9317     79.3485   5.6895683147e+01   1.7363941540e+01    0.3727419    0.2538821   9.54     0.001612    2.347    0.574
        92  -7.9375    139.3595     78.1378   7.3760005455e+01   3.9169907059e+01    0.4359674    0.1475733 -28.57  0.000948978    6.467    0.845
        93  -9.7368     75.3735     68.9291   8.9786745643e+01   5.3886774136e+01    0.5210328    0.4026641 -11.33  0.002776977    1.449    0.310
        94  -8.7545     83.2562     68.8139   8.7083278479e+01   5.2613539800e+01    0.2968485    0.2610426 -73.86  0.001646963    1.400    0.286
        95  -8.2393     34.3274     68.3328   1.0452956474e+02   5.9152575784e+01    0.1370979   0.08018173 -34.05  0.000705157    1.715    0.417
