#   1 NUMBER                 Running object number                                     
#   2 MAG_AUTO               Kron-like elliptical aperture magnitude                    [mag]
#   3 X_IMAGE                Object position along x                                    [pixel]
#   4 Y_IMAGE                Object position along y                                    [pixel]
#   5 X_WORLD                Barycenter position along world x axis                     [deg]
#   6 Y_WORLD                Barycenter position along world y axis                     [deg]
#   7 A_WORLD                Profile RMS along major axis (world units)                 [deg]
#   8 B_WORLD                Profile RMS along minor axis (world units)                 [deg]
#   9 THETA_WORLD            Position angle (CCW/world-x)                               [deg]
#  10 FWHM_WORLD             FWHM assuming a gaussian core                              [deg]
#  11 ELONGATION             A_IMAGE/B_IMAGE                                           
#  12 ELLIPTICITY            1 - B_IMAGE/A_IMAGE                                       
         1 -12.9498     11.2411     23.8878   9.6110913579e+01   7.0100218905e+01    0.8350121    0.3129369 -29.23  0.003805496    2.800    0.643
         2 -11.6065      7.9280      2.0225   8.7975097257e+01   7.3856118478e+01    0.7198278    0.2145101  25.26  0.003413038    3.446    0.710
         3 -12.5392     24.4073      4.3505   7.9855845103e+01   7.1882856467e+01    0.5722538    0.3299062  15.39  0.003495267    1.658    0.397
         4 -11.6748     15.3276      7.2010   8.6334661738e+01   7.2443680555e+01    0.4646353    0.2403544  -9.34  0.002525934    2.165    0.538
         5 -11.6835     19.2873     14.4943   8.7721429938e+01   7.0974296756e+01    0.3511564    0.1850029 -18.88  0.001952948    1.882    0.469
         6 -12.0620    248.5300      6.7704   3.3323580800e+01   2.3539653037e+01    0.4808939    0.2279207 -50.61  0.002606512    1.751    0.429
         7 -11.1532     40.7652      2.6379   7.0856231838e+01   6.9942527201e+01    0.3715018     0.154181  24.06  0.001621191    3.039    0.671
         8 -12.4888      5.9874     11.3692   9.3710250045e+01   7.2584467335e+01     0.750636     0.377526 -26.43  0.004472452    1.685    0.406
         9 -11.3663     12.8697     13.0077   9.0543177523e+01   7.1784460407e+01    0.3167151    0.1896917 -16.29  0.001656917    1.473    0.321
        10  -9.6999    164.3212    244.3199   9.8384778797e+01   1.2438508507e+00    0.1238758   0.08758515   8.65 0.0004043672    1.669    0.401
        11 -11.5587    250.0180    232.6546   8.0655241271e+01  -9.6907652018e+00    0.3500758    0.1925393 -17.41    0.0020319    1.756    0.430
        12 -12.0276    242.7178    246.3158   8.4176249618e+01  -1.0375599118e+01    0.5750258    0.2912376 -10.52  0.003034911    2.380    0.580
        13 -11.9415    247.4807    239.2720   8.2202837367e+01  -1.0159931298e+01    0.4322208    0.2349394 -10.16  0.002297837    1.952    0.488
        14 -10.6340    248.8120    250.1200   8.3744059594e+01  -1.1587050303e+01     0.385053    0.1727954  27.07  0.002161879    1.915    0.478
        15 -10.5144    249.0024    245.2174   8.2920450179e+01  -1.1052601923e+01    0.2846254     0.180612  -3.91  0.001863602    1.392    0.282
        16 -12.2685    234.5972    244.3737   8.5278242969e+01  -9.0751086462e+00    0.4694912    0.2542751   9.21  0.002550398    2.046    0.511
        17 -11.8196    240.1470    239.2666   8.3471435079e+01  -9.1948135073e+00    0.2722399    0.1660775 -14.56  0.001629048    1.567    0.362
        18 -10.8800    169.0147    250.3549   9.8311067043e+01  -3.7600888639e-01    0.2979791   0.09503134  37.88  0.001259589    2.552    0.608
        19 -11.0864     64.8818    249.2363   1.1802772716e+02   1.4922807266e+01    0.3443282    0.1467937  47.16  0.001874825    1.825    0.452
        20 -10.4217     50.5472    250.1417   1.2067401816e+02   1.6535403519e+01    0.3247427    0.1332675  39.25  0.001770322    2.071    0.517
        21 -10.7724     36.6959    248.8872   1.2302654181e+02   1.8375559407e+01    0.3579915    0.1553618  57.10  0.002066369    1.848    0.459
        22 -10.7741     20.1154    249.0941   1.2586301290e+02   2.0134328320e+01    0.3205771    0.1461706  57.31  0.001942351    1.660    0.398
        23 -10.6411     11.9713    249.0265   1.2720853982e+02   2.0974585304e+01    0.3197078    0.1381094  53.51  0.001834383    1.702    0.413
        24 -10.0670      3.0346    250.5267   1.2871670407e+02   2.1575432634e+01    0.2357652   0.08384625  35.74  0.001341343    2.651    0.623
        25 -10.8334     97.2197    244.3606   1.1151111107e+02   1.1412749078e+01    0.2372184     0.126808  46.64  0.001317471    1.523    0.343
        26 -11.3019     84.5094    243.8280   1.1390227460e+02   1.3294041887e+01    0.3067786    0.1302885  42.71  0.001564702    1.892    0.471
        27 -10.3724    178.0094    243.4942   9.5616786180e+01  -7.4493238624e-01    0.1834998   0.09300671  19.82 0.0008106593    2.620    0.618
        28 -11.7837    226.2678    240.5288   8.6137526649e+01  -7.4593115103e+00    0.2991347    0.1731046  -2.17  0.001633808    2.003    0.501
        29 -11.1634     56.2180    241.6016   1.1904022561e+02   1.7408404144e+01    0.3941197    0.1385037  47.94  0.001953294    2.223    0.550
        30 -11.1781     15.6132    240.2767   1.2619063196e+02   2.2210663616e+01    0.4647152    0.1794309  51.36  0.002699408    1.946    0.486
        31 -10.5559    128.5769    240.3798   1.0490973974e+02   7.4349031541e+00    0.2626097   0.07776923  47.56 0.0009571176    3.362    0.703
        32 -11.0269    107.4684    240.1123   1.0906255715e+02   1.0676727736e+01    0.2771439    0.1248995  49.89  0.001343991    1.993    0.498
        33  -9.5105     37.9917    240.4882   1.2228393129e+02   1.9777446663e+01    0.1663175   0.08989751  43.35   0.00102829    1.586    0.369
        34 -10.7097     29.0348    240.3176   1.2386541643e+02   2.0801909527e+01    0.3835422    0.1615854  64.53  0.002091104    2.130    0.531
        35 -10.8017      6.4386    236.2343   1.2756080170e+02   2.3863221470e+01    0.3135958    0.1617868  72.49  0.001527112    1.527    0.345
        36 -10.7502     72.9877    240.0042   1.1575943358e+02   1.5555504061e+01    0.2083171    0.1136167  63.69  0.001151804    1.783    0.439
        37 -10.4969    203.2335    249.4454   9.1736917031e+01  -5.3379330258e+00    0.2352238   0.09537257  32.40  0.001135361    2.100    0.524
        38 -10.2628     14.1769    231.9323   1.2602149070e+02   2.3931274482e+01    0.3080731    0.1378426  61.32  0.001819245    1.805    0.446
        39 -10.2508     39.7185    230.8571   1.2133288126e+02   2.1423625105e+01    0.2482261   0.09906605  56.48  0.001260379    2.184    0.542
        40 -11.1887     25.6370    228.5367   1.2378246644e+02   2.3421513207e+01    0.4114783    0.1683078  79.02  0.002026443    2.623    0.619
        41 -11.3450    237.4507    227.3836   8.1940493876e+01  -7.3243176083e+00    0.2792973    0.1600893  -1.71  0.001486698    1.990    0.497
        42 -11.5586    249.0555    224.7831   7.9463020773e+01  -8.5804303829e+00    0.3231977    0.1636186 -27.95   0.00179512    1.852    0.460
        43 -10.0736     10.8185    225.6844   1.2629655644e+02   2.5468590640e+01    0.2533328    0.1398099  61.56  0.001508356    1.420    0.296
        44 -10.5069     18.4469    221.6693   1.2469698818e+02   2.5516893062e+01    0.2439646     0.117754  60.19  0.001432084    1.714    0.417
        45 -10.7666      2.0703    220.7992   1.2761239999e+02   2.7238407258e+01    0.2678457    0.1272972 -89.71  0.001626334    1.738    0.425
        46 -10.7451     12.0129    216.6941   1.2560382666e+02   2.7142382940e+01    0.3028176    0.1763688  65.72  0.001726807    1.372    0.271
        47  -9.5784     56.1415    216.6146   1.1702044425e+02   2.2326736792e+01    0.1847607    0.1237541 -73.24  0.000707312    1.463    0.317
        48 -10.8642      4.6934    228.0306   1.2748755023e+02   2.5588704490e+01    0.3372672    0.1481048  68.18  0.001980803    1.882    0.469
        49 -11.2804    248.6336    214.4894   7.7706861663e+01  -7.1800996364e+00     0.342142    0.1901214 -20.33  0.001892346    1.714    0.417
        50 -10.7076      2.2192    212.2700   1.2717501697e+02   2.8930953343e+01    0.2506541    0.1357409  82.99   0.00159234    1.475    0.322
        51  -9.5451     21.6592    211.3181   1.2345900320e+02   2.7302557564e+01    0.1263813   0.06436682  64.80 0.0004656688    1.712    0.416
        52  -9.5879    233.4801    210.4470   7.9645572087e+01  -4.4348191213e+00    0.1271565    0.1029572   2.87 3.491607e-05    1.009    0.009
        53 -11.3561     12.6663    205.0756   1.2481040980e+02   2.9472972643e+01    0.3247449    0.1459623  65.68  0.001752891    2.007    0.502
        54  -9.8805    250.3803    200.4174   7.4808752193e+01  -5.4988870805e+00    0.2489672   0.09501608 -23.95 0.0009577668    3.321    0.699
        55 -10.9606      3.1824    196.7523   1.2617161217e+02   3.2069670170e+01    0.3372195    0.1404652  64.71  0.001771305    2.180    0.541
        56 -10.7726      4.3825    189.1231   1.2548608364e+02   3.3607594549e+01     0.247074    0.1292846  69.84  0.001441028    1.664    0.399
        57  -9.7359     11.6684    184.3230   1.2366638689e+02   3.4043430650e+01    0.1275922   0.06809092  66.83 0.0003814756    1.701    0.412
        58 -10.6963      1.7677    177.7830   1.2532028117e+02   3.6307223820e+01     0.297042    0.1096711 -89.40  0.001370273    2.497    0.599
        59 -10.8928    248.5545    129.7303   6.0550501315e+01   5.7962827189e+00    0.2732246    0.1192333 -32.62  0.001142773    2.086    0.521
        60 -11.2828    248.7752    118.7087   5.8071701229e+01   7.5698579643e+00    0.2953081    0.1656587 -43.30  0.001423369    1.609    0.379
        61 -10.5958    248.5972    106.8268   5.5431860466e+01   9.5481222969e+00    0.2081036    0.1081102 -44.42 0.0009534642    1.734    0.423
        62 -10.9627    249.4179     97.6925   5.3256331001e+01   1.0865074485e+01    0.2786815    0.1084971 -40.19  0.001137229    2.156    0.536
        63 -10.8750    249.5068     87.9832   5.1049351955e+01   1.2388160129e+01    0.2175801    0.1160883 -37.63  0.001035732    1.603    0.376
        64 -10.9286    248.8036     75.1654   4.8236870411e+01   1.4509211787e+01    0.3177958    0.0697934 -40.08   0.00103806    3.475    0.712
        65 -10.2944    249.4752     52.5201   4.3079723138e+01   1.7669628785e+01    0.1310599     0.109181 -56.61 6.625482e-05    1.014    0.013
        66 -10.7605      2.9958     50.3236   1.0855973002e+02   6.5481227680e+01    0.3672312   0.09172056 -52.63  0.001625279    2.443    0.591
        67 -10.2875    248.1926     37.6045   3.9915369179e+01   1.9941841546e+01    0.1681155    0.1100186  59.52 0.0008181308    1.713    0.416
        68 -11.6967    226.3329    247.8676   8.7298888164e+01  -8.3842754578e+00    0.3182316    0.2093017  21.81  0.001875145    1.220    0.181
        69 -10.4164     18.1401     31.1260   9.5367315341e+01   6.8281586089e+01    0.2020196    0.1282462 -26.52  0.001248003    1.321    0.243
        70 -11.3885      1.6393     25.1881   1.0171518001e+02   7.0476681168e+01    0.3973195    0.1248455 -57.65  0.001794353    2.904    0.656
        71 -11.2544     25.8416     16.6574   8.5296378491e+01   6.9979516042e+01    0.2646346     0.146043 -18.74  0.001477737    1.766    0.434
        72 -12.0857    213.0504    247.7569   8.9677171178e+01  -6.5237991831e+00    0.4357412     0.247626  13.01  0.002397911    1.897    0.473
        73  -9.7643     27.1258    248.6649   1.2465863763e+02   1.9470572260e+01    0.1833287    0.0931736  56.62  0.001030997    1.496    0.331
        74 -12.0428    143.0411    248.0642   1.0302116613e+02   3.9431868104e+00      0.44073    0.1551623  36.25  0.001908709    2.434    0.589
        75 -10.0343     34.4785     16.5143   8.0913821267e+01   6.9008882084e+01    0.2116081   0.09989773  20.60  0.001034723    2.386    0.581
        76 -11.4722    127.2594    247.9878   1.0607865934e+02   6.3574816835e+00     0.292793    0.1376701  45.14  0.001494827    1.769    0.435
        77 -11.3963    195.0818    245.4003   9.2647821919e+01  -3.5991765220e+00    0.3331384    0.1684794  14.70  0.001462455    2.955    0.662
        78 -11.2463      3.3063    243.2008   1.2838053464e+02   2.2869149014e+01    0.3774892    0.1773179  66.99  0.002441114    1.636    0.389
        79 -10.5221     44.4067    244.9571   1.2142339964e+02   1.8207544844e+01    0.3008442    0.1330917  49.60  0.001724058    1.756    0.431
