#   1 NUMBER                 Running object number                                     
#   2 MAG_AUTO               Kron-like elliptical aperture magnitude                    [mag]
#   3 X_IMAGE                Object position along x                                    [pixel]
#   4 Y_IMAGE                Object position along y                                    [pixel]
#   5 X_WORLD                Barycenter position along world x axis                     [deg]
#   6 Y_WORLD                Barycenter position along world y axis                     [deg]
#   7 A_WORLD                Profile RMS along major axis (world units)                 [deg]
#   8 B_WORLD                Profile RMS along minor axis (world units)                 [deg]
#   9 THETA_WORLD            Position angle (CCW/world-x)                               [deg]
#  10 FWHM_WORLD             FWHM assuming a gaussian core                              [deg]
#  11 ELONGATION             A_IMAGE/B_IMAGE                                           
#  12 ELLIPTICITY            1 - B_IMAGE/A_IMAGE                                       
         1 -12.3823    199.6501     39.4173   4.4675270029e+01   3.0472423035e+01    0.9444746     0.930961  53.81  0.003728119    1.148    0.129
         2 -12.3609    210.6201     28.2089   4.0505360887e+01   2.9272027254e+01    0.8825766    0.7177829  34.82  0.002532955    1.559    0.359
         3  -9.6338     22.0030     26.0120   9.0544662811e+01   6.8606925095e+01    0.1522767    0.1154892 -21.34  0.001019005    1.006    0.006
         4  -9.6951     33.0000     20.9676   8.2858439351e+01   6.8269603146e+01    0.2215323    0.1099955 -37.50  0.001025721    1.806    0.446
         5  -9.7565     22.2786      9.9990   8.3104922659e+01   7.1085242064e+01    0.2023781    0.1417407  47.10  0.001185354    2.642    0.621
         6 -10.4291    232.3314      3.6758   3.2881496961e+01   2.7090220649e+01    0.5419561    0.2631383 -60.59  0.002809692    1.951    0.487
         7 -10.5536    239.2265      2.5876   3.2161281577e+01   2.5726849578e+01    0.5189915    0.3982041  71.12  0.003506953    1.357    0.263
         8  -8.2499     59.0810    220.4942   1.1613309805e+02   2.1048033874e+01    0.3039314    0.1818981  13.97  0.001447878    3.082    0.676
         9 -11.4808     28.0067    215.4326   1.2193053300e+02   2.5651300764e+01     1.217939    0.3843421 -79.06  0.005288417    3.181    0.686
        10 -11.6029     13.7229    189.9171   1.2304723155e+02   3.2457332607e+01    0.4644145    0.3082721 -68.29  0.000380832    1.427    0.299
        11 -11.9843     43.6463    201.3764   1.1763318060e+02   2.6923300527e+01    0.8119315    0.5735142 -80.71  0.001420277    1.287    0.223
        12 -13.8634     54.0663    189.5177   1.1416908951e+02   2.8330870836e+01     5.794928     2.655754  65.96   0.02401786    2.872    0.652
        13 -14.3820     35.0121    249.5098   1.2280425400e+02   1.8311928835e+01     9.535705       2.9686  26.20   0.02453259   12.233    0.918
        14  -9.3569    194.5648    197.7368   8.3631217819e+01   3.8394306363e+00    0.6242152    0.2866693 -57.13  0.001857681    5.817    0.828
        15  -7.3528     24.3769    194.2574   1.2112915662e+02   3.0514622778e+01    0.1065303   0.08787801 -41.55 0.0006971186    1.659    0.397
        16  -8.7919     92.0867    216.3284   1.0878174397e+02   1.7405028096e+01    0.2179366    0.1732104 -87.12 0.0003082438    1.311    0.237
        17  -8.3527     99.5026    180.8903   1.0223460007e+02   2.3917673789e+01    0.2125186    0.1974299 -11.25 0.0006569551    1.268    0.212
        18  -7.5387    151.3700    180.6874   8.9790101028e+01   1.4880913351e+01    0.1502048    0.1146993  71.16 0.0007035467    1.775    0.437
        19 -10.4371     68.7906    175.0091   1.0891847540e+02   2.9805571424e+01     0.499857    0.2736517 -43.07  0.002243725    2.312    0.567
        20 -10.3158     73.1077    170.1467   1.0716179955e+02   3.0367382419e+01    0.3631369    0.2590832 -55.25 0.0006833481    1.400    0.286
        21  -9.2049    109.8300    201.4722   1.0290334362e+02   1.7754408105e+01     0.234697    0.1837586 -62.96 0.0005176672    1.366    0.268
        22 -15.1560      2.7588    200.0229   1.2588980605e+02   3.1230129960e+01     20.88844          nan -75.64   0.04160928   15.189    0.934
        23  -8.2837    144.4448    178.7254   9.1030112247e+01   1.6574347807e+01    0.2737521    0.1462088 -52.83  0.001141861    2.048    0.512
        24  -8.6019    114.6247    173.8168   9.7332376476e+01   2.3013343132e+01    0.2085038    0.1382345 -67.82 0.0009558935    1.730    0.422
        25  -9.3185    104.4066    171.7066   9.9511846596e+01   2.5226714623e+01    0.3122986    0.2112949 -71.39  0.001479883    1.664    0.399
        26  -7.9581    137.4873    169.4481   9.0899316774e+01   1.9865508451e+01    0.1476559    0.1421535  38.59 9.159982e-05    1.021    0.020
        27 -11.8448     58.3615    131.8557   1.0504050786e+02   4.1649436600e+01     1.709634    0.6150892 -73.95  0.004644668    5.309    0.812
        28 -11.9955     70.1071    156.4785   1.0587505565e+02   3.4068020550e+01    0.6082113    0.4654045 -32.81  0.001468995    1.598    0.374
        29 -12.0176     68.7782    144.3416   1.0423813935e+02   3.7221886786e+01    0.9274036    0.6268992  75.51  0.002769383    1.844    0.458
        30 -10.6653     88.4979    154.4566   1.0061429429e+02   3.1878364414e+01    0.6314348    0.4491539 -15.32  0.002129583    2.105    0.525
        31  -9.4976     32.6551    155.7435   1.1557687871e+02   3.8588213898e+01    0.3709264   0.09698885 -67.81  0.001357139    3.091    0.676
        32  -9.7648     54.6799    150.2911   1.0906857734e+02   3.7547377735e+01    0.3567872    0.1922225  63.12  0.001532232    2.417    0.586
        33  -8.8679    134.4400    148.7483   8.7351322687e+01   2.5075758523e+01    0.4232115    0.1497753 -49.31  0.001372571    2.858    0.650
        34  -8.8778    133.6222    143.7876   8.6455014440e+01   2.6364195872e+01     0.330682    0.1545611 -49.33 0.0009448642    2.154    0.536
        35  -9.1412     39.0203    146.4481   1.1275885620e+02   4.0211047597e+01    0.3034949    0.1898008  55.73  0.001045081    1.736    0.424
        36  -9.5597    102.4234    139.8924   9.3956808229e+01   3.3108776217e+01    0.5661731    0.3206867 -24.98  0.001953383    3.209    0.688
        37 -10.5340     89.8861    139.5555   9.7398260362e+01   3.5283046710e+01    0.2949257    0.2501969 -38.21 0.0004022731    1.228    0.186
        38  -8.2640     83.5523    143.0228   9.9859691382e+01   3.5424371946e+01    0.2224476    0.1374146 -60.60   0.00043538    1.554    0.357
        39  -8.6591    106.1868    130.8601   9.0911863150e+01   3.4606800615e+01    0.2984493    0.2610842  40.45  0.001545204    1.177    0.150
        40  -9.2883    111.8797    130.0590   8.9127447925e+01   3.3751839035e+01    0.3569334    0.2298862  27.02  0.001478062    1.799    0.444
        41 -12.5796     57.5904    240.5089   1.1809644505e+02   1.7324017020e+01    0.7953046    0.3808309  50.28  0.003636357    1.699    0.411
        42  -9.7549     32.7183    128.3090   1.1199388318e+02   4.5256838623e+01    0.3286911    0.1368455 -67.17  0.001435826    2.025    0.506
        43  -9.2536     98.9078    126.2071   9.1927168177e+01   3.7010377765e+01    0.3382823    0.2636772  -6.95  0.001602736    1.632    0.387
        44  -7.6708     93.4722    125.9548   9.3455894613e+01   3.7999908130e+01    0.1989749     0.132428 -83.14  0.000631483    2.238    0.553
        45  -7.5166    155.7285    157.3648   8.4004376054e+01   1.8951242790e+01     0.150747    0.1228125 -85.29 0.0005976548    1.661    0.398
        46  -8.7674    120.6050    122.2177   8.4801902234e+01   3.3902323282e+01    0.2324295    0.1426212 -38.22 0.0009572623    1.692    0.409
        47  -9.5933     33.2500    119.4938   1.1048067043e+02   4.7366252421e+01    0.3089146    0.1099582 -55.37  0.001279665    2.233    0.552
        48  -8.3968    108.0057    119.0297   8.7569004575e+01   3.7070452475e+01    0.2264671    0.2159761 -22.49  0.001206688    1.043    0.041
        49 -11.1842     81.5627    161.0891   1.0359088010e+02   3.1327516690e+01    0.8834316    0.4370809  58.95 0.0003772686    2.823    0.646
        50  -8.1818    205.7305    110.2496   6.1982575796e+01   1.7744624150e+01    0.2014293    0.1714282   4.45 0.0004922556    1.317    0.240
        51  -9.5856    115.9081    109.1629   8.2742320722e+01   3.7813123996e+01    0.3084117    0.2397336 -31.20  0.001461033    1.326    0.246
        52  -8.9728    134.6376    105.2435   7.6502800625e+01   3.4761454955e+01    0.4539832    0.1470327 -44.72  0.001373217    3.067    0.674
        53  -9.5765     45.4943    105.7695   1.0408244672e+02   4.9514197561e+01    0.2260389    0.1955941  18.90 0.0009006386    1.320    0.243
        54  -8.8495    246.6700    103.3179   5.3705911093e+01   1.0469512665e+01    0.1385735   0.09793661 -62.14  0.000452001    1.685    0.407
        55  -9.8166     33.5894    100.0273   1.0691930631e+02   5.2049733371e+01    0.3608494    0.1780046 -68.90  0.001645329    1.953    0.488
        56  -9.1474     32.6134     94.5864   1.0616543890e+02   5.3428553728e+01    0.3955212    0.1115497 -48.80   0.00147366    2.820    0.645
        57  -8.0900    128.0593     96.2326   7.5724642900e+01   3.8099814276e+01    0.2085958    0.1302488  42.74 0.0004785624    1.620    0.383
        58  -8.4476    117.0515     86.0000   7.5776743657e+01   4.2572100259e+01    0.2524273   0.08740469  44.60  0.000799788    2.924    0.658
        59  -7.7235     56.6792     66.3525   8.9854282689e+01   5.7151238047e+01    0.1293827    0.1103562  87.17 0.0007047455    1.750    0.428
        60 -11.9146    190.1335     46.5798   4.7924485605e+01   3.1817873781e+01    0.7688867    0.5744258  26.19  0.001490276    1.735    0.424
        61  -9.2516     59.3895    231.0504   1.1698805586e+02   1.8907555230e+01    0.2441532    0.1819669 -75.98  0.001240828    1.374    0.272
        62  -8.9198    143.2375     48.1931   5.6921456698e+01   4.3166918066e+01    0.2933149    0.2287354 -84.75  0.000876022    1.631    0.387
        63  -8.5121     44.1782    229.9252   1.1984027376e+02   2.0959903585e+01    0.2285507     0.136867  82.32  0.001387754    1.581    0.368
        64  -8.5256    145.8012     42.3443   5.4479867317e+01   4.3358975823e+01    0.2321441    0.1912275 -41.82 0.0005031247    1.292    0.226
        65 -13.1235     10.4630    206.5170   1.2476903836e+02   2.9202083182e+01    0.7168122    0.6812813  55.97  0.003298252    1.392    0.282
        66  -7.8835     67.3334     51.7190   8.0709129477e+01   5.8448735850e+01    0.1223407    0.1121567  79.00 0.0004892114    1.612    0.380
        67  -8.6114     33.6239    227.4425   1.2166856402e+02   2.2634257429e+01    0.1971308    0.1388623 -67.56 0.0005656208    1.537    0.349
        68  -8.5904     77.4696    226.3348   1.1293781022e+02   1.7469347805e+01    0.2120355    0.1615431  60.44 0.0006738607    1.128    0.114
        69  -7.5555    189.6606     15.3266   3.9597754699e+01   3.5710610004e+01    0.1424203   0.08852239 -66.66 0.0007051533    1.730    0.422
        70 -15.0287      7.2804    244.2318   1.2726037685e+02   2.2132067056e+01     2.241723     1.932779  39.20  0.008742496    1.539    0.350
        71 -10.1103     49.3987    217.9416   1.1787359396e+02   2.2751993938e+01    0.6541466    0.4028274  84.18  0.003854335    1.575    0.365
