#   1 NUMBER                 Running object number                                     
#   2 MAG_AUTO               Kron-like elliptical aperture magnitude                    [mag]
#   3 X_IMAGE                Object position along x                                    [pixel]
#   4 Y_IMAGE                Object position along y                                    [pixel]
#   5 X_WORLD                Barycenter position along world x axis                     [deg]
#   6 Y_WORLD                Barycenter position along world y axis                     [deg]
#   7 A_WORLD                Profile RMS along major axis (world units)                 [deg]
#   8 B_WORLD                Profile RMS along minor axis (world units)                 [deg]
#   9 THETA_WORLD            Position angle (CCW/world-x)                               [deg]
#  10 FWHM_WORLD             FWHM assuming a gaussian core                              [deg]
#  11 ELONGATION             A_IMAGE/B_IMAGE                                           
#  12 ELLIPTICITY            1 - B_IMAGE/A_IMAGE                                       
         1 -14.9911      6.5401     70.9438   7.7933088282e+01  -8.5557275223e+01   0.03314212   0.02487271  15.71   0.00566416    1.352    0.260
         2 -13.3920      8.8845      2.9070   8.3852306803e+01  -8.5500193777e+01   0.02519823   0.01300408 -58.90  0.004399917    1.863    0.463
         3 -16.0316     11.3049     23.1119   8.2084567945e+01  -8.5500368854e+01   0.06542505   0.03252802  46.73   0.01112634    2.003    0.501
         4 -14.1607     26.1691     13.4671   8.2775485074e+01  -8.5389306840e+01   0.02692234   0.01197508  73.89  0.004210274    2.378    0.579
         5 -13.9046    122.3771     36.7652   8.0270055206e+01  -8.4733515403e+01   0.02725358    0.0106707  57.09  0.003398137    2.605    0.616
         6 -13.0576     43.2758     32.5690   8.1045551610e+01  -8.5283719311e+01   0.02590065    0.0207376 -83.48  0.005588559    1.216    0.178
         7 -14.3159    166.6996     29.4420   8.0579585998e+01  -8.4419833306e+01   0.02684064   0.01983439 -81.74   0.00404006    1.317    0.241
         8 -14.2728    147.6573     29.6855   8.0658973423e+01  -8.4553001936e+01   0.03311695   0.01803325 -79.27  0.005010308    1.774    0.436
         9 -13.8400    188.0089     24.2350   8.0831157687e+01  -8.4267992991e+01   0.03697672   0.01615787 -29.90  0.005762292    2.482    0.597
        10 -12.5832    187.9617      9.7375   8.1816718357e+01  -8.4258937325e+01    0.0115542  0.009703632 -50.05  0.002132606    1.197    0.165
        11 -15.1385     99.0485     11.7362   8.2295227125e+01  -8.4880282618e+01   0.03722474   0.02488899  87.75  0.004683025    1.471    0.320
        12 -12.2485     85.5576     13.8581   8.2237341319e+01  -8.4975914336e+01   0.01149795   0.01028246 -27.32  0.001816778    1.154    0.134
        13 -11.6424     71.1157     16.1922   8.2167938268e+01  -8.5078327530e+01  0.009133145  0.005148659  15.00  0.001651455    1.777    0.437
        14 -11.4086     74.9068     10.1993   8.2609118463e+01  -8.5047276058e+01  0.008565222  0.005217645  28.91  0.001151091    1.617    0.382
        15 -12.0403     60.4419     15.3640   8.2319702365e+01  -8.5152090226e+01   0.01338361   0.00709185  57.06  0.002214622    1.918    0.479
        16 -13.5498    214.8293     10.1620   8.1624212656e+01  -8.4071834481e+01   0.02599446   0.01186605 -77.33  0.003250104    2.092    0.522
        17 -11.5899    175.9545     13.9179   8.1605864875e+01  -8.4345587620e+01  0.005159041  0.005013002 -69.20 0.0002982496    1.028    0.028
        18 -13.9564     41.7675      4.5819   8.3364165432e+01  -8.5273179189e+01   0.02162057   0.01578927  43.01  0.003498132    1.360    0.265
        19 -11.4069    123.3100     10.8366   8.2179606254e+01  -8.4710508243e+01  0.008539462  0.004555282 -49.17  0.001439136    1.878    0.467
        20 -11.8979     46.6659     13.0185   8.2626930301e+01  -8.5246220559e+01  0.009478886  0.006988929 -53.85  0.001517353    1.349    0.258
        21 -11.7654    152.8339      8.3850   8.2144603498e+01  -8.4502881877e+01  0.007160108  0.005471965  40.02 0.0007859023    1.299    0.230
        22 -11.8587    120.4244      3.2350   8.2761638779e+01  -8.4724660287e+01   0.01646031  0.003897266 -61.14  0.002046727    3.623    0.724
        23 -11.0269     67.6844      2.8117   8.3255732507e+01  -8.5091360776e+01  0.008168521  0.004579248  57.02   0.00145011    1.817    0.450
        24 -11.7471     79.3777      1.7805   8.3227481747e+01  -8.5009116279e+01   0.02060421  0.004312915  86.34  0.001967401    6.274    0.841
        25 -10.6564    232.9555      1.5195   8.2075320435e+01  -8.3939311718e+01  0.005487487  0.003409239 -85.14 0.0007825124    1.569    0.363
        26 -11.2803     61.2216      1.4654   8.3424664334e+01  -8.5135116499e+01  0.009808206  0.003412935 -83.73  0.001380158    2.809    0.644
        27 -15.3244      8.1301    183.2796   6.8101038720e+01  -8.5508135488e+01    0.0449402   0.03022866  38.89  0.008874583    1.497    0.332
        28 -13.0619    107.5476    246.1758   6.4571411830e+01  -8.4752029528e+01   0.02380344   0.01365651 -31.54  0.004380179    1.727    0.421
        29 -13.3872     98.2783    239.2451   6.4936062240e+01  -8.4824626637e+01    0.0215186   0.01571652  68.17  0.004445468    1.309    0.236
        30 -14.1576     91.3347    231.2363   6.5427747721e+01  -8.4882369833e+01   0.02091687   0.01837812  20.49   0.00472366    1.164    0.141
        31 -12.6353     50.7545    248.4992   6.3413726436e+01  -8.5136927488e+01   0.02115567   0.01054258  43.12  0.003570301    2.039    0.510
        32 -12.6507     57.5989    246.4646   6.3699571167e+01  -8.5093181022e+01   0.01886697   0.00941544  65.95   0.00326233    1.848    0.459
        33 -13.1423     28.5028    246.2569   6.3164228250e+01  -8.5291876163e+01   0.01550711   0.01130279 -29.39  0.002704052    1.380    0.276
        34 -12.1683      2.9112    249.5650   6.2361790594e+01  -8.5460779174e+01   0.01191278  0.008840959  80.69  0.001757125    1.337    0.252
        35 -13.8231      9.3755    245.5560   6.2834089880e+01  -8.5423114001e+01   0.02679527   0.01676463 -65.01  0.003804207    1.773    0.436
        36 -15.5334     10.3550    175.3754   6.8811354731e+01  -8.5499638397e+01   0.04843413   0.03842207 -28.03    0.0104159    1.280    0.219
        37 -12.6407    164.4845    195.5758   6.8904288861e+01  -8.4413413418e+01   0.01291259  0.004230845 -38.31  0.001794028    3.009    0.668
        38 -11.9658    201.0267    191.3209   6.9523640771e+01  -8.4162981604e+01  0.008255598  0.006251171  69.14  0.001456599    1.269    0.212
        39 -11.8492     48.7056    181.3630   6.8760154461e+01  -8.5228578195e+01    0.0103912  0.006779336  24.73  0.002001996    1.597    0.374
        40 -12.2940    198.6663    181.3952   7.0168170690e+01  -8.4186446860e+01  0.007714202  0.006539662 -51.35  0.001491325    1.200    0.166
        41 -11.0879    121.9317    180.8111   6.9558775386e+01  -8.4720521754e+01   0.01052598  0.003107497 -40.11  0.001375193    3.380    0.704
        42 -12.4264    124.1803    166.5480   7.0629950661e+01  -8.4714602436e+01   0.01642931  0.008417422 -28.35  0.002851762    1.943    0.485
        43 -12.4983     23.9104    159.3685   7.0328796133e+01  -8.5417349717e+01   0.01075737  0.006014818  17.79  0.001579951    1.888    0.470
        44 -11.9509     77.2832    156.9113   7.0993806390e+01  -8.5047111850e+01   0.01144748  0.007494347  68.93  0.001244159    1.461    0.315
        45 -13.1251     73.3477    153.0396   7.1269245207e+01  -8.5076713770e+01   0.01871718   0.01087623  80.36  0.002154987    1.661    0.398
        46 -12.8271      7.7657    148.7603   7.1096280931e+01  -8.5536270968e+01    0.0170973   0.01093652 -49.39  0.003281707    1.598    0.374
        47 -11.3963     12.6643    148.6758   7.1145454950e+01  -8.5502174944e+01  0.006415787  0.004823371  23.00  0.001104771    1.359    0.264
        48 -11.3931    103.3751    149.7749   7.1735509320e+01  -8.4868944089e+01  0.009076807  0.005520701  32.57  0.001492269    1.670    0.401
        49 -12.0037     60.7919    147.2782   7.1637686054e+01  -8.5167293051e+01   0.01158061  0.004674409  52.79  0.001787247    2.355    0.575
        50 -11.8029    111.3765    155.6604   7.1345069287e+01  -8.4810118000e+01   0.01343449  0.004797969 -43.64  0.001915869    2.870    0.652
        51 -10.6606     38.2566    145.6017   7.1610533530e+01  -8.5325346771e+01  0.005063043   0.00305873  67.88 0.0005187338    1.579    0.367
        52 -11.9495    246.2857    135.0026   7.3472037894e+01  -8.3876186569e+01  0.008199969  0.003165105 -59.66   0.00118937    2.715    0.632
        53 -10.3954     10.5992    133.8460   7.2420185200e+01  -8.5523750711e+01  0.004757127   0.00310449 -25.65 0.0003609956    1.553    0.356
        54 -12.5103     44.1587    132.8137   7.2714045061e+01  -8.5289741051e+01   0.01030931  0.005443502  40.97  0.001796873    1.886    0.470
        55 -11.0129      5.2707    128.8522   7.2824753105e+01  -8.5562887084e+01  0.007769596  0.003499944  52.36  0.001253156    2.137    0.532
        56 -14.7330    105.9785    104.3920   7.5205265125e+01  -8.4863568733e+01   0.03206107   0.02929179 -81.19   0.00611922    1.077    0.071
        57 -13.1508     28.6827    121.3663   7.3595503034e+01  -8.5401587494e+01   0.02554818   0.01003272  24.60  0.003816414    2.651    0.623
        58 -12.1972    181.1136    120.4908   7.4222417837e+01  -8.4335473571e+01  0.006075695  0.004714011 -41.35 0.0009214756    1.311    0.237
        59 -12.7948      5.2007    118.5386   7.3733507692e+01  -8.5566531082e+01   0.02347582   0.01417381  28.79  0.004390951    1.679    0.404
        60 -11.9379     42.6356     90.4509   7.6235722380e+01  -8.5307348989e+01  0.009846389  0.006702411 -19.70 0.0006741919    1.511    0.338
        61 -12.4711     36.7434     92.9022   7.6026126816e+01  -8.5348689251e+01   0.01435384   0.00813167  65.38  0.001724505    1.715    0.417
        62 -13.0374     20.5735     86.1200   7.6596490222e+01  -8.5461550271e+01   0.02087568   0.01072579  77.40  0.003606805    1.893    0.472
        63 -13.5773      2.2728     96.9692   7.5633336514e+01  -8.5590026211e+01   0.03030102   0.01187747 -12.75  0.004203169    2.616    0.618
        64 -14.1869     18.4883    111.3245   7.4416026073e+01  -8.5475105500e+01   0.02422264   0.01856532  43.29  0.003473457    1.292    0.226
        65 -13.9093     11.6075    103.1027   7.5111219454e+01  -8.5524327455e+01    0.0210648   0.01814358 -89.93  0.004712268    1.133    0.118
        66 -14.5195     22.9595     95.1218   7.5823054168e+01  -8.5445221068e+01    0.0419028   0.01865498  84.68  0.006749404    2.181    0.541
        67 -12.8421     84.3524    114.9640   7.4332699163e+01  -8.5013585746e+01   0.02475363   0.01144936  72.62  0.004083012    2.066    0.516
        68 -11.7311    121.7023    111.9777   7.4668652863e+01  -8.4752669843e+01  0.006865215  0.005128582 -78.14 0.0007129706    1.322    0.244
        69 -11.7156     62.3730    110.2747   7.4640166150e+01  -8.5168165185e+01   0.01240561  0.005349925 -50.35   0.00194248    2.370    0.578
        70 -10.9498     45.9557    110.1839   7.4599831501e+01  -8.5283077172e+01  0.007564554  0.003565663  36.45  0.001237927    2.123    0.529
        71 -12.7869     29.5801     89.4023   7.6317500827e+01  -8.5398717003e+01   0.01520219   0.00806635 -37.98  0.001910042    1.926    0.481
        72 -12.2867    136.0659    103.0268   7.5360443732e+01  -8.4653005411e+01   0.01336753  0.006042351 -88.05  0.001957355    2.165    0.538
        73 -13.9554    104.6034    121.5877   7.3890069844e+01  -8.4870527682e+01   0.03365477   0.02440792 -76.41  0.006899437    1.369    0.270
        74 -10.6049     64.5152    101.5302   7.5352498943e+01  -8.5154060656e+01  0.005650837  0.005205931 -88.04 0.0005418755    1.062    0.058
        75 -12.1462     61.7805     97.9228   7.5640089056e+01  -8.5173361964e+01   0.01304602  0.007157971 -39.35  0.001950045    1.857    0.462
        76 -11.8802     49.0658     93.1493   7.6016321960e+01  -8.5262408656e+01   0.01150527  0.006762909 -45.50  0.002114624    1.727    0.421
        77 -11.8362     47.3323     99.8940   7.5456097832e+01  -8.5274450834e+01   0.01718168  0.007769211 -46.85  0.002768981    2.251    0.556
        78 -11.8134     52.4998     97.5659   7.5656230167e+01  -8.5238352666e+01   0.01270966  0.004999546  51.08  0.001829503    2.474    0.596
        79 -11.8652    163.7110     98.0503   7.5755747483e+01  -8.4459605940e+01  0.006712744  0.005189965  86.70 0.0004275596    1.259    0.206
        80 -12.8138    137.2349     94.8317   7.5961600546e+01  -8.4645007228e+01   0.01219523  0.008057005 -66.76  0.001403674    1.505    0.336
        81 -12.1936     78.6003    110.7791   7.4645373492e+01  -8.5054519257e+01   0.00979748  0.007451531 -29.44  0.001637167    1.344    0.256
        82 -13.1023    112.5675    116.7071   7.4287643337e+01  -8.4815827901e+01   0.01510109  0.007671362  65.00   0.00260455    1.887    0.470
        83 -11.7419     88.1710    108.8215   7.4824442301e+01  -8.4987789971e+01   0.01326499  0.005525586 -13.20  0.002061656    2.445    0.591
        84 -13.1694    188.2452     84.0962   7.6738058813e+01  -8.4287138512e+01   0.01607198  0.007301817  71.40  0.002032157    2.144    0.534
        85 -12.3708    242.1133     83.7976   7.6749366620e+01  -8.3909901565e+01   0.01128436  0.004373749 -61.65  0.001680378    2.571    0.611
        86 -11.8748    158.8789     64.5176   7.8134072197e+01  -8.4489113381e+01    0.0166333  0.005026863 -24.81  0.002134775    3.615    0.723
        87 -13.0899    163.7889     71.5945   7.7625091126e+01  -8.4456435767e+01   0.02903723   0.01075238  82.10  0.004245087    2.651    0.623
        88 -13.1054    160.5133     80.8760   7.6971011342e+01  -8.4480963003e+01   0.02421896  0.007720503  48.36  0.002718515    3.065    0.674
        89 -14.1281    169.2982     76.8543   7.7249191332e+01  -8.4418843983e+01   0.03306105   0.01249301  84.10  0.004541623    2.585    0.613
        90 -13.4003     65.9882     48.9823   7.9586037992e+01  -8.5133667586e+01   0.02439621   0.01564664  18.17  0.004723256    1.567    0.362
        91 -13.9723     53.8838     67.2440   7.8144632970e+01  -8.5224896842e+01     0.038395   0.02582517  53.95  0.007597514    1.465    0.317
        92 -13.5360     91.5972     57.6398   7.8809690169e+01  -8.4957933906e+01   0.01448648    0.0119223 -38.72  0.002480072    1.240    0.194
        93 -12.7782     55.1581     81.3671   7.6986299123e+01  -8.5218840192e+01   0.01504595   0.01012236  30.32  0.002321608    1.487    0.327
        94 -13.7673     61.1493     75.7074   7.7442238728e+01  -8.5175973635e+01    0.0184963   0.01177527  26.25  0.002166009    1.574    0.365
        95 -10.5257     98.3265     83.6963   7.6784639743e+01  -8.4916814823e+01  0.003863429  0.002376811 -47.64 0.0004287876    1.645    0.392
        96 -13.4690    214.3636     79.1994   7.7059350331e+01  -8.4103634599e+01   0.02536971  0.009385743 -66.55  0.003719994    2.663    0.625
        97 -11.8280    114.2046     79.5711   7.7091798819e+01  -8.4805086774e+01   0.01187395  0.007446034 -13.32   0.00225609    1.648    0.393
        98 -11.2746     42.6165     79.7579   7.7127491118e+01  -8.5306434171e+01  0.009622855  0.005166467 -25.66  0.001463527    1.927    0.481
        99 -11.2058     41.8042     75.7813   7.7460033095e+01  -8.5311443107e+01  0.008230366  0.005416448 -32.14  0.001239316    1.562    0.360
       100 -12.5710    135.4172     79.2515   7.7101868130e+01  -8.4656485704e+01   0.01743617  0.007803928 -84.47  0.002808161    2.178    0.541
       101 -13.7019    171.6630    242.3984   6.5768276951e+01  -8.4316675983e+01   0.02283138   0.01411657  62.63   0.00436059    1.525    0.344
       102 -14.1810      4.5505     63.3256   7.8609680692e+01  -8.5569016735e+01   0.02226215   0.01543951  85.96  0.003280192    1.406    0.289
       103 -11.6186     27.4035     75.8453   7.7473190456e+01  -8.5412286297e+01   0.01253402  0.004863688 -28.92   0.00185314    2.702    0.630
       104 -13.4179    199.3661     69.8729   7.7697899754e+01  -8.4206962644e+01    0.0197979   0.01000298  69.43  0.002486836    1.944    0.486
       105 -12.1857     39.2558     67.9845   7.8116180346e+01  -8.5327497316e+01   0.02024442   0.00819862 -88.53  0.003102015    2.406    0.584
       106 -12.4925    134.4197     66.4643   7.8040155452e+01  -8.4660867308e+01   0.01432259  0.007911758  71.66  0.002019641    1.778    0.438
       107 -11.5135     99.7288     64.8634   7.8230999815e+01  -8.4903300869e+01  0.009579969  0.004945565 -53.23  0.001648179    1.936    0.484
       108 -13.0401     78.7262     59.8183   7.8677578387e+01  -8.5048756777e+01   0.01714877   0.01190167 -10.34  0.003434269    1.494    0.331
       109 -12.2508     36.1398     54.2993   7.9273058745e+01  -8.5344693514e+01   0.01341745  0.005915877  24.28  0.002165595    2.222    0.550
       110 -11.1302     34.7346     60.4504   7.8761058126e+01  -8.5356831814e+01  0.009632463  0.005280354  19.07  0.001717689    1.825    0.452
       111 -12.0260     38.7045     59.7256   7.8808963683e+01  -8.5328800775e+01  0.009746145  0.005383544 -43.08   0.00173083    1.846    0.458
       112 -13.4753    177.9505     57.4545   7.8587633926e+01  -8.4353515145e+01   0.01941729    0.0138338 -29.17  0.002474266    1.449    0.310
       113 -11.7811     24.8067     59.3046   7.8891561478e+01  -8.5425895987e+01   0.01001132  0.007248402  19.66  0.001874888    1.393    0.282
       114 -14.5754    119.1000     54.4270   7.8968980875e+01  -8.4764318614e+01   0.02892749   0.01495733  83.12  0.002773088    1.901    0.474
       115 -13.4656    103.3384     50.3880   7.9327597553e+01  -8.4873018108e+01   0.02190789   0.01102152 -20.55  0.001294636    2.108    0.526
       116 -13.3233     97.9615     50.1478   7.9366084796e+01  -8.4910531537e+01    0.0190642  0.009673733  -9.82   0.00259219    2.076    0.518
       117 -11.2355     17.7855     55.2891   7.9262973670e+01  -8.5473480531e+01  0.008954148  0.004933183  -6.26  0.001584412    1.894    0.472
       118 -12.3195    136.0318     50.9792   7.9168638140e+01  -8.4644534038e+01   0.01347034  0.009794728  14.36  0.001994614    1.395    0.283
       119 -13.7665     74.3169     73.5843   7.7595664752e+01  -8.5083352287e+01   0.03893489    0.0103349  63.05  0.004793356    3.768    0.735
       120 -13.1731     87.3437     65.2438   7.8229271018e+01  -8.4990110004e+01   0.01382166  0.009186053  44.73  0.001425145    1.488    0.328
       121 -10.9504     85.0686     49.2929   7.9482505036e+01  -8.5000353858e+01  0.006959368   0.00442166  41.99 0.0008454572    1.557    0.358
       122 -10.4977     23.5396     49.9814   7.9693534970e+01  -8.5430957301e+01  0.005021384   0.00348291   6.17 0.0004404317    1.476    0.322
       123 -12.3995    154.6304     46.1758   7.9450309039e+01  -8.4512459807e+01   0.01264905  0.006285178  68.14  0.002127478    2.013    0.503
       124 -12.6331    158.8319     43.0766   7.9654720135e+01  -8.4481716223e+01   0.01685412   0.01074016  79.58  0.003233369    1.543    0.352
       125 -10.8859     38.7098     46.0060   7.9955720474e+01  -8.5323022765e+01  0.004972298   0.00462436   5.14 0.0008213069    1.104    0.094
       126 -13.3625      5.9577     42.8756   8.0402127410e+01  -8.5550316572e+01   0.02815765   0.01155976 -84.72  0.004356397    2.362    0.577
       127 -12.5785    147.3138    238.8087   6.5686842852e+01  -8.4488411627e+01   0.00715267  0.004859943 -44.86 0.0008787934    1.510    0.338
       128 -11.8831     16.4184    235.6300   6.3800461447e+01  -8.5389771663e+01  0.009504648  0.004956672 -42.19  0.001640567    1.963    0.491
       129 -12.9346     23.8553    216.4368   6.5527462147e+01  -8.5364153854e+01   0.03275004   0.01416556 -74.63  0.004794252    2.837    0.647
       130 -13.2014    205.1837     39.9896   7.9692560548e+01  -8.4156182744e+01   0.03462404  0.005893857 -62.42  0.003692129    4.998    0.800
       131 -12.7502    212.4971     43.0023   7.9466086363e+01  -8.4106367946e+01    0.0138607  0.007077673  72.38  0.002184271    1.952    0.488
       132 -13.4371    219.5724     41.4468   7.9544647579e+01  -8.4056214884e+01   0.01718858   0.01087999 -72.66  0.001960611    1.537    0.350
       133 -11.6262    134.8336     39.4790   8.0012651284e+01  -8.4647821647e+01   0.01252807  0.006017299 -67.82  0.001504006    2.004    0.501
       134 -12.3340    109.8959     41.9552   7.9940238731e+01  -8.4823378626e+01   0.01132525  0.004904602 -82.45 0.0008889002    2.230    0.552
       135 -13.1600    113.8551     37.7451   8.0238388769e+01  -8.4793588908e+01   0.01148542  0.009304167  50.11  0.001398968    1.221    0.181
       136 -13.6283     26.5575    225.9827   6.4784379280e+01  -8.5333555189e+01   0.02588872   0.01249224  22.30   0.00412315    2.429    0.588
       137 -12.6985    131.4105     33.3700   8.0475406260e+01  -8.4668569740e+01   0.01279416  0.009078091  37.43  0.001532585    1.398    0.285
       138 -13.9025     20.9271    223.9559   6.4852896446e+01  -8.5374788424e+01   0.01923804   0.01622562  38.63  0.002656003    1.186    0.157
       139 -12.2416     40.2651     40.2433   8.0427623597e+01  -8.5309189132e+01   0.01475468  0.007636722 -84.54  0.002555939    1.877    0.467
       140 -12.7416     32.9900     40.1983   8.0473162917e+01  -8.5359995754e+01  0.009066061   0.00737676  69.79 0.0004748913    1.207    0.171
       141 -10.9496    147.1142     40.4990   7.9885748003e+01  -8.4562457611e+01  0.005194836  0.003408767 -86.00 0.0003425311    1.484    0.326
       142 -12.5133     75.9628     37.0143   8.0490217601e+01  -8.5058000847e+01   0.01125836  0.007197001  73.54  0.001392464    1.551    0.355
       143 -11.7108     70.8473     36.2628   8.0578198354e+01  -8.5093324547e+01   0.00833602  0.005952828 -67.96 0.0009814085    1.368    0.269
       144 -11.3580    104.7844     36.7381   8.0359467015e+01  -8.4856452224e+01  0.007792134  0.004810267   1.92  0.001273741    1.671    0.402
       145 -12.5765    242.2530     36.0676   7.9812958449e+01  -8.3895193961e+01    0.0154264  0.007546872 -78.41  0.002135655    1.971    0.493
       146 -11.5481     27.8041    235.6353   6.4015378283e+01  -8.5311986651e+01  0.006108855  0.005341792 -21.45  0.001365225    1.167    0.143
       147 -13.6233     65.7711    223.2321   6.5650384413e+01  -8.5067805954e+01   0.02477042   0.02013204  82.77  0.005380704    1.210    0.174
       148 -12.7149    140.3270     21.4327   8.1293605241e+01  -8.4599184442e+01   0.01993283  0.007964558 -86.27  0.002072641    2.446    0.591
       149 -11.3532    194.6977     23.2283   8.0865029590e+01  -8.4220685003e+01   0.00864042   0.00553957  71.55  0.001651162    1.552    0.356
       150 -13.7724     64.4054    214.3448   6.6326189072e+01  -8.5087558739e+01     0.014963   0.01165289 -57.28    0.0029005    1.325    0.245
       151 -12.6492     94.2882    218.2094   6.6451566325e+01  -8.4877286979e+01   0.00784812  0.006498033  85.00  0.001355237    1.190    0.160
       152 -12.8502    216.6557     28.6234   8.0400050101e+01  -8.4070350691e+01  0.008196278  0.006776622 -15.59  0.001625247    1.255    0.203
       153 -12.4998    120.0597     26.5682   8.1038722689e+01  -8.4743906641e+01   0.01539364  0.009640461  77.17   0.00287942    1.586    0.370
       154 -13.3530     57.6102     26.7729   8.1422361279e+01  -8.5179968442e+01   0.02798088  0.009572533  87.57  0.003118522    2.975    0.664
       155 -12.0409     30.3783     25.6237   8.1716347154e+01  -8.5369176812e+01   0.01074808  0.006264164  72.40   0.00187697    1.729    0.422
       156 -12.4399     36.0742     22.8054   8.1907812396e+01  -8.5327465445e+01  0.009855934  0.006084587  48.30  0.001588122    1.612    0.380
       157 -10.7676      5.5107    219.0860   6.4989023920e+01  -8.5486782314e+01  0.005342491   0.00350773  -8.84 0.0006760017    1.569    0.363
       158 -13.3161     59.3966    212.7931   6.6375664294e+01  -8.5123816335e+01   0.02174984  0.008527949  47.00  0.002476896    2.495    0.599
       159 -11.0273     51.5066     20.5075   8.1975682806e+01  -8.5218205264e+01  0.007965451  0.004600473 -64.46  0.001454788    1.672    0.402
       160 -11.7842     46.3859     20.0177   8.2056199323e+01  -8.5253548414e+01   0.01226087  0.006279885  75.75  0.002079108    1.994    0.499
       161 -11.1512    156.6837    214.6703   6.7491439235e+01  -8.4450182476e+01  0.003929335  0.002347425  41.34 0.0007046077    1.681    0.405
       162 -12.1556      4.6133    213.7948   6.5424788309e+01  -8.5499592504e+01  0.008235422  0.006042697 -47.45  0.001432171    1.401    0.286
       163 -10.7823    136.6151    210.8222   6.7531765748e+01  -8.4592749423e+01  0.005185526  0.003048723 -25.73 0.0009460542    1.693    0.409
       164 -13.0457    218.9954     15.4922   8.1250841389e+01  -8.4046285688e+01  0.009152075  0.006579743  75.35  0.001244182    1.374    0.272
       165 -12.8539     72.2578    207.6901   6.6957270236e+01  -8.5040640749e+01   0.01391964  0.007296399 -15.38  0.002441275    1.910    0.476
       166 -11.7492     45.8908    207.9032   6.6569877908e+01  -8.5222339126e+01   0.01094098  0.002487471 -22.98  0.001362983    3.680    0.728
       167 -12.5005     57.5283    201.8312   6.7220632628e+01  -8.5148440934e+01   0.02235368  0.006639293 -16.21  0.003042057    3.166    0.684
       168 -12.8903      9.6255    205.1772   6.6243731314e+01  -8.5475315028e+01   0.01427396   0.00718766 -67.82   0.00233405    2.253    0.556
       169 -13.2598     17.1448    195.7298   6.7160567870e+01  -8.5433668757e+01    0.0228931  0.009006338  16.07  0.003226536    3.087    0.676
       170 -11.8057     41.1891    205.1951   6.6721316168e+01  -8.5257714987e+01     0.005244  0.003957666 -56.86  0.001076665    1.369    0.270
       171 -11.8680    223.4172     20.9382   8.0871842979e+01  -8.4018771514e+01  0.007235452  0.005098006  77.22  0.001186643    1.400    0.286
       172 -13.1528     39.0151    194.8985   6.7533252509e+01  -8.5283355659e+01   0.01798213   0.01126886 -68.21  0.003377748    1.689    0.408
       173 -13.1459     22.1790    165.7252   6.9770961525e+01  -8.5425020626e+01   0.01400365  0.008557831  85.78  0.001950001    1.608    0.378
       174 -13.5788     29.9739    169.2332   6.9556363272e+01  -8.5368264353e+01   0.02855244   0.01229411  44.52  0.003908136    2.302    0.566
       175 -13.5054     22.4183    180.9159   6.8485059348e+01  -8.5411254346e+01   0.02138988    0.0120797  15.51  0.003407573    1.900    0.474
