#   1 NUMBER                 Running object number                                     
#   2 MAG_AUTO               Kron-like elliptical aperture magnitude                    [mag]
#   3 X_IMAGE                Object position along x                                    [pixel]
#   4 Y_IMAGE                Object position along y                                    [pixel]
#   5 X_WORLD                Barycenter position along world x axis                     [deg]
#   6 Y_WORLD                Barycenter position along world y axis                     [deg]
#   7 A_WORLD                Profile RMS along major axis (world units)                 [deg]
#   8 B_WORLD                Profile RMS along minor axis (world units)                 [deg]
#   9 THETA_WORLD            Position angle (CCW/world-x)                               [deg]
#  10 FWHM_WORLD             FWHM assuming a gaussian core                              [deg]
#  11 ELONGATION             A_IMAGE/B_IMAGE                                           
#  12 ELLIPTICITY            1 - B_IMAGE/A_IMAGE                                       
         1 -16.7590    234.9113    184.5829   9.5409549050e+01  -2.0813550728e+00     4.546705     2.733287 -34.74   0.01497466    1.588    0.370
         2 -14.4293      4.6405     17.5047   1.1511935100e+02   6.9391225617e+01     2.321962    0.3863146 -44.30  0.009464266    4.191    0.761
         3 -14.6129    207.5859     14.9411   6.1552027933e+01   3.1244704205e+01     1.113478    0.8381613  37.49  0.006611666    1.776    0.437
         4 -14.6221    240.7048      7.1548   5.6839117242e+01   2.4683949872e+01     1.953316     0.944644  85.85   0.01023912    1.957    0.489
         5 -12.3683    167.0903      3.1779   6.3543134822e+01   4.1953996769e+01    0.3732606     0.226225  84.39  0.001999725    1.632    0.387
         6 -11.4700     69.2639    186.7921   1.3206491024e+02   2.7852763128e+01    0.2497035    0.2207522 -48.66 0.0004619402    1.336    0.252
         7 -14.3135    122.8052    247.2685   1.2866613721e+02   6.9374770164e+00     3.042492    0.9089987  41.96   0.01191881    2.767    0.639
         8 -14.6651    119.7999    230.9379   1.2714419409e+02   1.0459515383e+01      3.30685    0.8496192  42.51   0.01150872    3.276    0.695
         9 -10.9257     91.1785    247.5643   1.3479289044e+02   1.1921436045e+01    0.4581883    0.2206542  74.03  0.001855371    3.531    0.717
        10  99.0000     56.5286    246.6254   1.4109102785e+02   1.7044989975e+01     2.039697     1.851813  45.15   0.01514398    1.452    0.311
        11 -13.7079     55.0593    235.2574   1.4036771296e+02   1.9441007692e+01     1.248507    0.6676044 -79.65  0.006992966    1.849    0.459
        12 -15.4474     42.5442    217.6103   1.4114018090e+02   2.4615609579e+01     1.966624    0.9046062  44.48   0.01047427    1.982    0.495
        13 -14.8536     30.1074    211.2630   1.4297435734e+02   2.7392260008e+01    0.9979264    0.6781878  44.15  0.004317887    1.515    0.340
        14 -14.9928     24.0504    197.4602   1.4295391329e+02   3.0983173097e+01     1.357767    0.6656415  86.26  0.006964226    2.103    0.524
        15 -14.9187      5.5260    220.9724   1.4819340646e+02   2.7943419189e+01    0.8965217    0.6196426  58.02   0.00399912    1.301    0.231
        16 -14.4270     10.0398    209.0367   1.4657516411e+02   2.9934185514e+01    0.9004745    0.5825706  81.20  0.003950821    1.237    0.191
        17 -15.7486      9.6445    180.8674   1.4440968147e+02   3.5962523213e+01     1.950121     1.082935 -53.24  0.005266244    1.949    0.487
        18 -16.3629      5.0752    166.7481   1.4410007405e+02   3.9438285262e+01     8.754699     1.020146 -68.90    0.0112904    4.872    0.795
        19 -13.5926      3.9070    248.7137   1.5007284164e+02   2.2785382332e+01     0.542531     0.264201  56.96  0.003611222    1.604    0.376
        20 -11.0864     78.8488    174.7087   1.2806958246e+02   2.9234731812e+01    0.2467276    0.2156527 -84.18 0.0003754683    1.050    0.048
        21 -13.2859     66.0493    172.3656   1.3078226084e+02   3.1618442688e+01    0.5201037    0.2973865 -46.80  0.001619952    1.963    0.491
        22 -12.5568     86.1375    166.1325   1.2489304092e+02   3.0112614520e+01    0.6162701    0.5034734  66.41  0.002332465    1.238    0.192
        23 -14.0415     67.7029    144.3046   1.2579897369e+02   3.7975299956e+01     1.042435    0.6492662 -88.44  0.002929772    2.195    0.544
        24 -13.5083     58.4318    133.9947   1.2643057808e+02   4.1611011432e+01     1.023408    0.4281938 -74.41  0.003218476    4.407    0.773
        25 -12.5329     39.7356    146.7892   1.3352900325e+02   4.0793814607e+01    0.2349927    0.2280124  58.79  0.001237897    1.197    0.164
        26 -12.1191     87.4673    149.4919   1.2154219731e+02   3.3809796986e+01    0.2963261    0.2641712 -49.20 0.0004188085    1.134    0.119
        27 -10.5273     97.4540    133.0554   1.1548293286e+02   3.5980997211e+01    0.2449787    0.2063963   6.62 0.0006500088    1.425    0.298
        28 -13.1728     27.4873    244.8561   1.4600788023e+02   2.0970267680e+01    0.6212068    0.3293644  69.46  0.002777613    1.602    0.376
        29  -9.7894     98.5516    150.4915   1.1884627565e+02   3.1733810485e+01    0.1452848    0.1381946 -75.98 0.0001487907    1.007    0.007
        30  -9.3838    107.2830    123.2511   1.1053917056e+02   3.6444495789e+01    0.1408318    0.1162743  -6.65 0.0002050884    1.467    0.318
        31 -11.0955    168.0856    113.1592   9.2771057928e+01   2.5572251854e+01    0.3695753    0.2926636 -81.59  0.001013699    1.580    0.367
        32 -11.7225     24.4251    231.4064   1.4559861715e+02   2.3916923097e+01    0.6149969    0.2539284  54.34  0.003360342    2.070    0.517
        33 -10.4658     33.8920    233.2526   1.4405853726e+02   2.2473179476e+01    0.2485537    0.1758255 -79.03  0.001095074    1.304    0.233
        34 -10.7936     63.6738    194.2964   1.3428754694e+02   2.6937112200e+01    0.2626464    0.2030239 -45.71   0.00153135    1.598    0.374
