#   1 NUMBER                 Running object number                                     
#   2 MAG_AUTO               Kron-like elliptical aperture magnitude                    [mag]
#   3 X_IMAGE                Object position along x                                    [pixel]
#   4 Y_IMAGE                Object position along y                                    [pixel]
#   5 X_WORLD                Barycenter position along world x axis                     [deg]
#   6 Y_WORLD                Barycenter position along world y axis                     [deg]
#   7 A_WORLD                Profile RMS along major axis (world units)                 [deg]
#   8 B_WORLD                Profile RMS along minor axis (world units)                 [deg]
#   9 THETA_WORLD            Position angle (CCW/world-x)                               [deg]
#  10 FWHM_WORLD             FWHM assuming a gaussian core                              [deg]
#  11 ELONGATION             A_IMAGE/B_IMAGE                                           
#  12 ELLIPTICITY            1 - B_IMAGE/A_IMAGE                                       
         1 -11.7970     57.5476     17.4258   9.2975171856e+01   6.4111437020e+01    0.2984737    0.2151754 -14.93  0.001017199    1.279    0.218
         2 -10.8190      6.6802     17.4968   1.1425238124e+02   6.9882831521e+01    0.2255604    0.1724422 -47.08  0.001255111    1.650    0.394
         3 -11.2794    116.0094     15.9753   7.5837165711e+01   5.3261708158e+01    0.3225094    0.2123549  30.56  0.001788794    1.546    0.353
         4 -12.2592     10.6307      4.1005   1.0673672680e+02   7.1350980701e+01    0.4988431    0.3001418 -36.03  0.002980484    1.621    0.383
         5 -12.7835     20.9094      9.1880   1.0421340421e+02   6.9744750966e+01     0.585166    0.4460188  51.96  0.002417224    2.843    0.648
         6 -12.4709    211.5709      9.4360   5.9763407205e+01   3.1478250482e+01    0.6174356    0.3875629   3.17  0.002863873    3.485    0.713
         7 -11.9619    208.8780      5.1172   5.9069459004e+01   3.2557306566e+01    0.2706659    0.1919084 -76.75 0.0003422699    1.251    0.200
         8 -11.8448    220.1266     14.1932   5.9968854143e+01   2.8979108089e+01    0.2670784    0.2058924  10.00  0.001368807    2.221    0.550
         9 -11.3514     86.0648     14.1366   8.2608784421e+01   5.9566989049e+01    0.2080317    0.1631595  19.15 0.0003267202    1.139    0.122
        10 -11.9671     65.5793     13.1878   8.8473156869e+01   6.3298934708e+01    0.3977109    0.2461435  28.32  0.001773024    1.424    0.298
        11 -10.9918    173.2600     13.7315   6.5235421770e+01   4.0130247135e+01    0.2734388    0.1993909  33.30 0.0004029715    1.707    0.414
        12 -11.6753     74.8634     10.1405   8.4300615904e+01   6.2009465463e+01    0.3285256    0.2103379 -39.45  0.001380287    2.017    0.504
        13 -11.0219    149.5273     11.6686   6.8169243439e+01   4.6006855814e+01    0.2808128    0.1729346  44.27 0.0006972579    1.599    0.375
        14 -10.7839     51.0012     12.1761   9.3151032999e+01   6.5669373522e+01    0.1599938    0.1353015  58.79  0.001085928    1.943    0.485
        15 -10.0521     32.7033     12.1266   1.0035951975e+02   6.8090027565e+01    0.2096433    0.1050173  23.74  0.001223953    1.925    0.481
        16 -11.7148     24.7884      7.0566   1.0153241303e+02   6.9590655029e+01     0.214586    0.1557641 -32.82 0.0005294709    1.573    0.364
        17 -10.6719     87.2797      8.1186   7.9973671675e+01   5.9894903613e+01    0.3097951    0.1594879   9.06  0.001454698    2.718    0.632
        18 -10.8692     46.2483      8.9748   9.3553525253e+01   6.6692783654e+01    0.2111598    0.1342196  23.97 0.0003479917    1.355    0.262
        19 -11.4359    248.3538      7.5300   5.6190837447e+01   2.3505930841e+01     0.220279    0.1686755 -78.25 0.0005400538    1.014    0.014
        20 -11.6436    107.4183      7.5528   7.4838827410e+01   5.5870316141e+01     0.248895    0.2058719  54.76 0.0007058153    1.133    0.117
        21 -11.6803    231.1155      6.0675   5.7273973752e+01   2.7409418878e+01    0.2745377    0.2397462  14.38 0.0008881256    1.829    0.453
        22 -10.9564    176.0286      7.0394   6.3141197780e+01   4.0125396630e+01    0.1934896    0.1614927  77.10 0.0003712213    1.012    0.012
        23  -9.8880     61.6181      6.7964   8.7127497240e+01   6.4580702261e+01    0.1511269   0.09868151 -29.79 0.0009507812    1.702    0.412
        24 -10.7775    191.2767      5.9705   6.1083448875e+01   3.6598186689e+01    0.1740694      0.14958 -82.87 0.0004371801    1.086    0.079
        25  -9.6922     52.0000      5.9414   9.0096888686e+01   6.6167159544e+01     0.163099   0.05819263 -27.18 0.0003513538    2.786    0.641
        26 -12.3361    217.7257      3.5687   5.7911338040e+01   3.0686189312e+01     0.338636     0.244393 -83.31   0.00213908    1.149    0.129
        27 -11.3523     76.7726      4.3717   8.1422792477e+01   6.2185914116e+01     0.332362    0.1436773  38.63  0.001497146    1.983    0.496
        28 -11.2685     73.6341      2.1834   8.1448754382e+01   6.2936035682e+01     0.268961    0.2289045  34.96  0.001940443    1.169    0.144
        29 -11.4920    160.6673      2.6818   6.3996367670e+01   4.4178576905e+01    0.3112277    0.2533574  84.20  0.001987186    1.126    0.112
        30 -11.2141     30.9198      3.6460   9.7327986956e+01   6.9265984967e+01    0.1975289     0.131866 -16.47 0.0006142421    1.281    0.219
        31 -10.5284      1.3724      3.1681   1.1087771683e+02   7.2228496068e+01    0.2502086   0.08232697 -43.86 0.0008548883    2.923    0.658
        32 -10.6342    195.4804      3.4872   6.0045265017e+01   3.5849823967e+01    0.1270737    0.1037227  85.04 0.0002711983    1.016    0.016
        33 -11.7859    180.3693      1.7801   6.1295074858e+01   3.9582890666e+01     0.266062    0.1901073  74.24            0    1.158    0.137
        34  -9.7204    123.6068      3.4956   7.0159739758e+01   5.2682398160e+01    0.1230817     0.105013  51.31 0.0001149983    1.024    0.024
        35 -11.0091     90.3246      2.2413   7.6945998727e+01   5.9794158994e+01    0.3323758    0.1743626  57.02 0.0009690544    1.753    0.430
        36 -11.1938     37.2883      2.4999   9.4170206429e+01   6.8581184592e+01    0.2744499    0.1352924  25.69 0.0009609635    1.872    0.466
        37 -10.0432    138.2517      1.3275   6.6933362653e+01   4.9534152368e+01    0.1678652    0.1020451  72.28 0.0003183248    1.512    0.339
        38 -10.5718    172.7060    226.7375   1.1592503908e+02   1.4084518718e+00    0.3778429    0.2634575  59.72  0.001968571    1.666    0.400
        39 -11.3981    157.8349    249.4067   1.2234450751e+02   1.3639874695e-01    0.4079522    0.2323761  57.12  0.001561268    1.973    0.493
        40 -12.1190    164.3038    244.8832   1.2042923247e+02  -2.2298272880e-01    0.5239527    0.2903012  31.41  0.001857769    1.833    0.454
        41 -10.6673    139.6884    249.6802   1.2590830884e+02   3.1776779541e+00    0.2056952    0.1413295  45.77  0.001033281    1.211    0.174
        42 -11.4665    129.7876    247.5456   1.2755517044e+02   5.2241341122e+00    0.3098758    0.2822289   1.00  0.001463635    1.461    0.315
        43 -11.8326    129.0847    239.9245   1.2670155524e+02   6.7264041653e+00    0.7083333    0.3162818 -46.73  0.003153669    2.812    0.644
        44 -11.9940    122.8357    240.8717   1.2806381402e+02   7.6119292282e+00    0.4897846    0.3747315  29.60  0.001857403    1.504    0.335
        45 -11.9201    121.4408    247.2264   1.2913562664e+02   6.6779181838e+00    0.4493695    0.2199786  52.50  0.001358685    1.836    0.455
        46 -11.4986    115.2385    238.9448   1.2932191416e+02   9.2492011951e+00    0.3354795    0.2683355 -34.90  0.001484776    1.781    0.439
        47 -11.5411    118.8670    233.5112   1.2790010612e+02   9.6817323364e+00    0.3465878    0.2336369  85.27   0.00131002    1.815    0.449
        48 -11.3081    113.4446    232.8662   1.2890888797e+02   1.0722511875e+01    0.4687283    0.3652696  -5.17  0.002489774    2.268    0.559
        49 -12.0333    115.5069    244.4306   1.2994590470e+02   8.1740232927e+00    0.2686013    0.2668087 -67.32   0.00158299    1.313    0.238
        50 -11.6122     95.0504    230.0043   1.3224872372e+02   1.4305176787e+01     0.613071    0.2253568 -63.69 0.0003016076    2.960    0.662
        51 -12.5377     80.5588    209.2478   1.3270842875e+02   2.0959153324e+01    0.5165271    0.3128878 -88.91  0.002528625    1.819    0.450
        52 -11.9120     69.0318    201.0603   1.3415650884e+02   2.4488002436e+01    0.8031604    0.2897238  51.61  0.001926911    2.809    0.644
        53 -11.7601     96.0659    248.1094   1.3409471972e+02   1.0613929260e+01    0.4982767    0.4449929   9.92  0.002147007    1.700    0.412
        54 -11.3623     88.1437    231.0845   1.3374786845e+02   1.5172178280e+01      0.58588    0.1887166  49.74  0.002324483    2.783    0.641
        55 -10.7447     85.7910    226.3208   1.3367216592e+02   1.6511929172e+01    0.3413458    0.1872018  41.88 0.0006638794    1.720    0.419
        56 -12.5680     85.2147    218.9442   1.3292198935e+02   1.8147611504e+01     1.063101    0.6406841  65.58  0.002543663    1.648    0.393
        57 -11.6707     90.0552    217.0325   1.3168734794e+02   1.7796610701e+01    0.6058667    0.2756418  57.02  0.002489694    2.299    0.565
        58 -11.6215     67.8131    184.7558   1.3233545691e+02   2.8405814202e+01    0.3710302    0.2408215 -64.10  0.001115452    1.432    0.301
        59 -12.5758    103.1638    234.7182   1.3119593965e+02   1.2057227773e+01    0.5117175    0.2585152  53.55  0.001635729    1.786    0.440
        60 -12.8802    101.8596    239.6023   1.3203168170e+02   1.1315213731e+01    0.4001744    0.2804324 -71.49 0.0009245902    1.521    0.342
        61 -13.4624     94.1328    237.2844   1.3327353327e+02   1.2997080194e+01    0.7463552    0.3568556  62.84  0.003359114    2.375    0.579
        62 -12.3768     71.5030    194.9696   1.3285601056e+02   2.5513607772e+01    0.2627071     0.221976  73.55 0.0003337943    1.057    0.054
        63 -12.2676     69.3566    191.0981   1.3282933630e+02   2.6712965498e+01     0.433811     0.219953 -56.08  0.001385903    1.968    0.492
        64 -12.3609     66.2064    190.6017   1.3346628659e+02   2.7274768545e+01    0.3231164    0.2761651 -34.93  0.001025954    1.620    0.383
        65 -13.7042     53.2378    195.4974   1.3688633148e+02   2.7904022222e+01     1.421946    0.4469814 -61.93  0.003156013    2.773    0.639
        66 -13.3498     41.0723    199.4728   1.3986214677e+02   2.8524472335e+01     1.425485    0.6475226 -74.27   0.00703024    1.962    0.490
        67 -12.5860     47.2753    244.4413   1.4267621241e+02   1.8311597052e+01    0.3157959    0.1877937  44.45  0.001086898    1.603    0.376
        68 -13.7193     17.7075    202.2352   1.4476326372e+02   3.0500446932e+01      1.01575    0.5825579 -45.39  0.005488358    2.732    0.634
        69 -13.2643     30.9443    202.5915   1.4220555633e+02   2.9007800801e+01    0.6602996    0.3174729  60.73  0.001509495    2.010    0.502
        70 -13.5464     15.6979    194.6996   1.4454185200e+02   3.2344868572e+01     1.569333    0.5942187 -70.94  0.007835957    2.114    0.527
        71 -13.7215     38.8621    247.2559   1.4434789611e+02   1.8829941897e+01    0.7510421    0.4157339  60.98  0.004693202    1.437    0.304
        72 -13.8873     31.0388    213.9475   1.4317243289e+02   2.6537978443e+01     1.273111    0.6639712  57.00   0.00725522    1.703    0.413
        73 -13.6444      2.7117    198.1069   1.4730353313e+02   3.2822574239e+01     0.975179    0.2150472 -67.05  0.004142534    3.273    0.694
        74 -10.9762     41.4225    237.3177   1.4315312742e+02   2.0459704272e+01    0.9462581    0.2934831  38.25  0.004231831    3.171    0.685
        75 -13.1611     22.6946    224.6415   1.4554092801e+02   2.5236503561e+01    0.8483809    0.2345862 -74.01  0.002935717    3.142    0.682
        76 -13.1461      7.9871    206.7778   1.4693440650e+02   3.0487170203e+01     1.167611    0.4434997  82.86  0.003196283    2.933    0.659
        77 -12.7014     41.5320    230.7987   1.4261134807e+02   2.1762013801e+01    0.8853343     0.312329  37.34  0.004106435    2.930    0.659
        78 -13.9165     38.3480    222.3403   1.4249818474e+02   2.3901935227e+01    0.8266208    0.5346101  70.98  0.004935807    1.282    0.220
        79 -14.9127      9.8153    216.6465   1.4728164251e+02   2.8240874273e+01     1.071375     0.657077  53.64  0.005695899    1.480    0.324
        80 -15.1695     13.1935    229.0489   1.4750426722e+02   2.5363469756e+01     1.244179    0.7574962 -56.03  0.007864359    2.178    0.541
        81 -12.9197     26.0483    249.3393   1.4664041220e+02   1.9968841798e+01    0.2101112    0.1418729  67.85 0.0005264032    1.097    0.089
        82 -14.2338     19.0411    249.6435   1.4780271131e+02   2.0710310313e+01    0.4067475    0.3577555  29.61  0.003165932    1.884    0.469
        83 -14.6999      4.7236    246.0066   1.4988503796e+02   2.2935921982e+01    0.6297969    0.3363489  88.32  0.004037538    1.451    0.311
        84 -14.2563      9.1899    249.6207   1.4937418304e+02   2.1788456006e+01     0.377329    0.2686716 -86.14  0.001331139    1.280    0.219
        85 -14.7201     14.7722    246.1533   1.4828738222e+02   2.1844329255e+01    0.7828037    0.3505119 -62.43  0.003314593    2.493    0.599
        86 -10.8200    249.0616    226.2655   1.0122276581e+02  -1.1261130040e+01    0.3060372    0.1411346 -34.22 0.0008658679    2.113    0.527
        87 -11.5779    123.9086    224.9458   1.2570271929e+02   1.0496151426e+01    0.4677794    0.2465758  54.15  0.002164713    1.842    0.457
        88 -10.0481    125.4576    221.1936   1.2484312533e+02   1.0976031035e+01    0.2135199    0.1657963  83.12 0.0006832056    1.397    0.284
        89  -9.9233    111.3757    227.4881   1.2863008145e+02   1.2136680026e+01    0.1916452    0.1400518  75.75 0.0001147773    1.403    0.287
        90 -11.2669    106.3160    223.7116   1.2917409648e+02   1.3751092635e+01    0.4048567    0.2583117  57.36  0.001506225    1.437    0.304
        91 -11.2541    111.9868    223.9536   1.2803488390e+02   1.2747810917e+01    0.2563245    0.1793649  39.21 0.0003199316    1.420    0.296
        92 -11.6658    225.1224    225.1325   1.0537726002e+02  -7.3890993430e+00    0.2020186    0.1815707  16.76  0.001322643    1.123    0.110
        93 -10.0393    202.6216    226.1766   1.0986668648e+02  -3.7859115948e+00    0.1778819    0.1174228 -24.30 0.0005548653    1.738    0.425
        94 -10.4716    100.2925    225.7740   1.3067369333e+02   1.4321828621e+01    0.2653778     0.189255 -69.58   0.00145279    1.453    0.312
        95 -10.4910    164.2887    225.0074   1.1735912616e+02   3.2410489120e+00    0.2122113    0.1876371  37.54  0.000405675    1.034    0.032
        96  -9.7284    162.3154    221.7169   1.1722874425e+02   4.2061539240e+00     0.197202    0.1414921 -56.15 0.0004803617    1.605    0.377
        97 -10.8817    148.5578    222.7959   1.2025659974e+02   6.5149662366e+00    0.4157621    0.2825812  -6.65  0.001554331    2.854    0.650
        98 -10.6577     78.2180    222.3728   1.3474336227e+02   1.8487995107e+01    0.3304833    0.1906303  83.51  0.001169017    1.976    0.494
        99 -10.5244    216.9599    223.1055   1.0655581105e+02  -5.7317051053e+00    0.1897791    0.1655902  11.34 0.0003592163    1.010    0.010
       100 -11.0896    132.2097    220.4046   1.2330975202e+02   9.9349149983e+00    0.4521383    0.3045142  12.81  0.001642345    2.608    0.616
       101  -9.9794    169.1662    220.7802   1.1565955918e+02   3.1233607936e+00    0.1740504    0.1508625   2.50 0.0002840296    1.306    0.234
       102 -10.0897     54.2520    220.9505   1.3933884930e+02   2.2176353593e+01    0.2043721    0.1268677  86.11  0.001164626    1.484    0.326
       103 -11.4764    196.2916    219.4445   1.0992947755e+02  -1.5581860666e+00    0.2385833    0.2218288  60.31 0.0001748247    1.265    0.209
       104 -11.2042     62.6044    219.7587   1.3758042935e+02   2.1295860138e+01    0.2074072    0.1564352  62.14 0.0004046504    1.144    0.126
       105 -10.5990    115.8951    218.9873   1.2653583810e+02   1.3096102131e+01    0.4125539    0.1280092  50.28  0.001222388    3.339    0.700
       106 -10.9940    217.6869    217.4690   1.0539588556e+02  -4.9581288530e+00    0.2927911    0.2100627  -5.66  0.001109983    1.558    0.358
       107 -11.0098    217.0362    212.9512   1.0468739347e+02  -4.1128434200e+00    0.2182648    0.1963196 -35.26 0.0004205416    1.238    0.192
       108 -11.0970    176.5040    216.5050   1.1341877970e+02   2.5552697807e+00    0.3564223    0.2468433  32.45  0.001204144    1.393    0.282
       109 -11.1267    162.6285    217.2558   1.1642381349e+02   4.9843961291e+00    0.2914905     0.213762  38.86  0.001557763    1.250    0.200
       110 -10.4420    117.0744    211.6414   1.2522440291e+02   1.4425321350e+01    0.2547141    0.1685753  55.69  0.000574933    1.418    0.295
       111 -11.3431     95.2782    212.0920   1.2995323210e+02   1.8019516335e+01    0.3254956    0.2723311  45.30  0.001216014    1.246    0.197
       112 -11.4038    105.2703    208.9127   1.2737439471e+02   1.7047948513e+01    0.5905797    0.3554795  60.13    0.0028534    1.685    0.407
       113 -10.4496    112.9858    210.4733   1.2593355114e+02   1.5387668311e+01    0.2845249    0.1686583  36.95 0.0008654395    1.740    0.425
       114 -12.2708    108.7888    215.3425   1.2752644143e+02   1.5075741959e+01    0.6996483    0.3877397  38.57   0.00249918    1.793    0.442
       115 -10.6802    100.2436    215.3978   1.2934186652e+02   1.6496914468e+01    0.2880866     0.205954  67.43  0.001576592    1.335    0.251
       116 -14.2787     27.8126    242.0224   1.4586465593e+02   2.1172424555e+01     1.159541    0.5057823 -82.55  0.006388098    2.084    0.520
       117 -10.5277    209.4086    216.3809   1.0679456159e+02  -3.3561059253e+00    0.2241195    0.1251396 -34.80 0.0005779022    1.898    0.473
       118  -9.4125    142.2978    217.2841   1.2070275116e+02   8.7299771037e+00    0.1299677    0.1087122   7.40 0.0003279619    1.547    0.353
       119 -10.4927     77.2028    217.0408   1.3434088673e+02   1.9773260930e+01    0.2173484    0.1613991  57.67 0.0004634732    1.188    0.158
       120 -10.4402     71.7458    217.3979   1.3549366266e+02   2.0501313091e+01    0.3108091    0.1303841  42.19 0.0007103112    2.201    0.546
       121  -9.9011     67.2174    216.7267   1.3633651021e+02   2.1296745498e+01    0.1497934    0.1326413 -76.28 0.0004075809    1.270    0.213
       122 -11.6044     58.8987    216.0676   1.3793738533e+02   2.2595195134e+01    0.2263041     0.169285  54.24 0.0003434957    1.249    0.200
       123 -12.2203     58.7946    211.0418   1.3743297858e+02   2.3699705828e+01    0.5071757     0.278951  70.41  0.002564887    1.881    0.468
       124  -9.5886     48.3393    217.2540   1.4013709503e+02   2.3733742655e+01    0.1029201   0.09612709 -47.06 0.0002412093    1.574    0.365
       125 -11.7429    146.1307    215.0984   1.1954151361e+02   8.4587311696e+00     0.251895    0.2199297 -47.49 0.0004339431    1.279    0.218
       126 -10.8615    125.8936    215.8927   1.2396979748e+02   1.1977641470e+01    0.2293898    0.1796749  49.61 0.0005152391    1.149    0.130
       127 -11.4769    193.1154    214.1285   1.0961322992e+02  -6.6548324832e-02    0.2689334    0.2155187 -46.32 0.0002986084    1.389    0.280
       128 -11.2341    230.5160    212.3208   1.0202195939e+02  -6.2874356255e+00    0.3405139    0.2443604 -42.52  0.001935703    1.537    0.349
       129 -11.6930     70.4292    211.6713   1.3511606584e+02   2.1932150066e+01    0.5039084    0.2740769  77.88  0.001705006    2.183    0.542
       130 -10.7107    207.7655    211.0152   1.0612776707e+02  -2.1652659487e+00    0.1897738     0.148876  59.25 0.0006170736    1.607    0.378
       131 -11.5696    237.5466    208.7827   1.0006006661e+02  -6.8834247513e+00    0.3298066    0.2210331 -22.63  0.001342814    1.474    0.322
       132 -10.3097    160.6945    212.6851   1.1605634896e+02   6.2189695530e+00    0.2211323    0.1721101  41.25 0.0004039322    1.177    0.150
       133 -11.4293    184.2169    209.9947   1.1067557930e+02   2.3158166704e+00    0.2282864    0.1981044  28.59 0.0004191875    1.079    0.073
       134 -12.6157    183.3164    204.2086   1.0980017113e+02   3.5598319704e+00     0.440882    0.2685388 -36.71 0.0003904536    1.806    0.446
       135 -11.8447    190.4697    200.4970   1.0762491260e+02   2.8963909385e+00     0.271186    0.2611123 -10.07 0.0001293276    1.069    0.065
       136 -12.9575    188.4435    196.2533   1.0723028437e+02   4.0840960109e+00    0.4956769    0.2871487 -44.72 0.0003858045    1.809    0.447
       137 -10.9143    130.0311    206.2635   1.2158382064e+02   1.3236643017e+01    0.2238653    0.1871224 -62.18 0.0007492324    1.264    0.209
       138 -10.7621    210.9364    207.0511   1.0476370816e+02  -2.0531450932e+00     0.209725    0.1861317   9.79 0.0004617091    1.038    0.036
       139 -10.8676    188.6519    207.0065   1.0921843952e+02   2.0353161264e+00    0.1880338    0.1781961 -12.26 0.0004821777    1.089    0.081
       140 -11.7585    144.8551    205.8316   1.1828260861e+02   1.0568738701e+01    0.3440957    0.2357941 -47.84 0.0005837507    1.590    0.371
       141 -10.2524    195.2948    206.3251   1.0773942903e+02   9.2226696027e-01    0.1405006     0.104976   1.64 0.0004255834    1.623    0.384
       142 -11.4008    116.5167    205.0508   1.2435329907e+02   1.5933951974e+01    0.2712815    0.2118033  51.45  0.000362219    1.177    0.150
       143 -10.4726    112.6707    204.7443   1.2515078238e+02   1.6677765403e+01    0.2338143    0.1957229 -22.48 0.0007157132    1.694    0.410
       144 -10.8731    200.0477    204.8021   1.0649552799e+02   3.1675408957e-01    0.2158419    0.1934629 -34.29 0.0004908216    1.174    0.148
       145 -11.3712    101.0486    199.4645   1.2692960214e+02   1.9842263106e+01    0.4210729    0.3714948  41.13  0.002461872    1.251    0.201
       146 -12.1079    108.6378    196.7004   1.2481314252e+02   1.9158969024e+01    0.5603494    0.4121554  76.37  0.001273608    1.444    0.308
       147 -12.4109     96.3370    202.6204   1.2842684778e+02   1.9923581336e+01    0.4606493    0.2963291  78.94  0.001369899    1.804    0.446
       148 -11.6213     90.1207    201.3851   1.2961830768e+02   2.1209843973e+01    0.4285307    0.3525089 -18.29  0.002022355    1.910    0.476
       149 -10.6970    121.4761    203.4930   1.2302005415e+02   1.5384458703e+01    0.2762861    0.2308395  61.41 0.0006700521    1.100    0.091
       150 -10.9354    121.4976    199.4462   1.2236881513e+02   1.6260210081e+01    0.2573441    0.2241156 -89.77 0.0006370501    1.136    0.120
       151 -11.3887    122.9830    195.9955   1.2147108279e+02   1.6746952583e+01    0.2380423    0.1980587 -65.84 -0.007547014    1.230    0.187
       152  -9.2806    235.2932    203.2748   9.9420899998e+01  -5.6372294082e+00    0.1304426   0.09338512   2.50 0.0002077901    1.522    0.343
       153  -9.9623    137.4834    203.5450   1.1950664638e+02   1.2429065595e+01    0.1453694    0.1290716  64.23 0.0001607411    1.063    0.059
       154  -9.2639     59.6499    203.6919   1.3645376222e+02   2.5207362710e+01    0.1185001   0.09965067 -38.67 0.0003946334    1.711    0.415
       155 -12.4840    206.0202    197.4215   1.0388554007e+02   5.3454985217e-01    0.6132067    0.3679651  53.69  0.001700991    1.996    0.499
       156 -10.9231    170.5126    198.5296   1.1144100848e+02   7.1193967644e+00    0.6071472    0.2926355 -54.62  0.002405006    2.499    0.600
       157 -11.8823    242.2273    200.3859   9.7603081342e+01  -6.3196519322e+00    0.3901418    0.3069935  75.23  0.002095083    2.255    0.557
       158 -11.8434    246.1268    198.8594   9.6610589476e+01  -6.7114845837e+00    0.2730528    0.2576611 -52.86 0.0002822516    1.389    0.280
       159  -9.8060    160.9304    200.0611   1.1378353066e+02   8.6726497934e+00    0.1677111    0.1609648  54.32 0.0003888014    1.033    0.032
       160  -9.8574    177.9982    199.1936   1.0997573563e+02   5.5369654192e+00    0.1942523    0.1063046  42.15 0.0003685375    1.724    0.420
       161 -10.4113     76.1267    198.8252   1.3233997469e+02   2.3954525213e+01    0.1998643    0.1566319  80.71 0.0003973506    1.145    0.126
       162 -11.4617    224.4834    196.9248   1.0020279964e+02  -2.7287507128e+00    0.3503975    0.2170373 -24.02 0.0009075126    1.770    0.435
       163 -11.5037    139.6635    195.4932   1.1764292166e+02   1.3728452323e+01    0.5179033    0.2332495 -43.72  0.001464015    2.580    0.612
       164 -10.2847    116.7742    198.1372   1.2321397973e+02   1.7400082858e+01    0.2110631    0.1752741  77.78  0.000346189    1.184    0.155
       165 -11.2977    178.3515    192.3416   1.0859284956e+02   6.8121802605e+00    0.5768474    0.2109518 -50.06  0.001247203    3.103    0.678
       166 -13.3106    246.5733    190.6423   9.4921056968e+01  -5.4650971370e+00    0.5945373    0.4520348  -3.99 0.0007387611    1.338    0.252
       167 -10.4037    233.5011    193.4684   9.7837254366e+01  -3.7200413799e+00    0.2155075    0.1219963 -47.58 0.0005035849    1.998    0.499
       168  -9.8703    229.5295    194.5057   9.8778413734e+01  -3.2044638081e+00    0.1344446    0.1220344  -4.47 -3.625394e-05    1.027    0.026
       169 -10.6758    128.6194    209.8408   1.2245802850e+02   1.2742224860e+01    0.2399862    0.1822465  37.57 0.0007264051    1.327    0.246
       170 -10.9496    113.6737    194.0927   1.2326249719e+02   1.8854900988e+01    0.2510905    0.1971846  43.13  0.000345523    1.267    0.211
       171 -11.1392    210.5372    192.4874   1.0202077480e+02   5.8308767280e-01    0.2455855    0.2099143  59.22  0.000843992    1.390    0.281
       172 -11.9919    214.4114    190.7596   1.0091755907e+02   1.7345714166e-01     0.387786    0.3603318 -40.94  0.001360015    1.173    0.147
       173 -10.7102    164.0160    192.4170   1.1169585957e+02   9.6281652818e+00    0.4028629    0.2425608  23.38 0.0009512641    2.337    0.572
       174 -10.9536    164.1855    188.6643   1.1094198071e+02   1.0369865301e+01     0.361261    0.2917941  29.72  0.000925551    1.291    0.225
       175 -11.5616    154.7182    192.3645   1.1372856495e+02   1.1472127346e+01    0.2726207    0.2579651 -27.92 0.0008041775    1.158    0.137
       176 -10.7154     33.4295    191.0179   1.4060078838e+02   3.1307980770e+01    0.3752332    0.1149371 -62.12  0.001589599    2.734    0.634
       177 -11.1317    149.4071    191.2734   1.1470643702e+02   1.2745356769e+01     0.270423    0.2534059  25.00 0.0005077298    1.143    0.125
       178 -11.5316     86.4854    191.6094   1.2905042527e+02   2.4010041884e+01    0.7535249    0.2795131  55.83  0.002525577    3.615    0.723
       179 -11.9436     72.1480    169.7511   1.2915375034e+02   3.1335869064e+01    0.3718372    0.2575705  48.25 0.0009216217    1.466    0.318
       180 -13.2518     74.4912    180.5462   1.3020765061e+02   2.8427379983e+01    0.6588279    0.3989898 -81.63  0.003158819    1.759    0.431
       181 -10.9182     76.8792    174.0925   1.2868186708e+02   2.9600958684e+01     0.253765    0.2033371 -86.74 0.0004454041    1.157    0.136
       182 -10.0327    126.7673    190.9870   1.1976582453e+02   1.7154731143e+01    0.1993907    0.1816806 -75.75    0.0011111    1.104    0.094
       183 -11.4254    130.9911    189.0451   1.1846249450e+02   1.6789896792e+01    0.3109596    0.2207417  49.57 0.0003183656    1.340    0.254
       184 -11.4154    127.5140    187.5330   1.1899108210e+02   1.7784962478e+01    0.3062576     0.237901 -31.65  0.001038921    1.640    0.390
       185 -11.1226    119.6312    189.9902   1.2122541700e+02   1.8699303589e+01    0.3699217    0.2910398  16.30  0.001847987    1.725    0.420
       186 -10.1509     91.6405    189.7985   1.2761203588e+02   2.3599774757e+01    0.2261599     0.161682 -61.19 0.0006714968    1.380    0.276
       187 -10.8687    196.5405    186.6577   1.0366722845e+02   4.3437251989e+00    0.5424361    0.2971544  31.99  0.001214408    2.044    0.511
       188 -11.1744    105.0591    187.4927   1.2416628478e+02   2.1872030117e+01     0.410242    0.2226532  51.04  0.001809615    1.816    0.449
       189 -11.6519    104.0249    178.0955   1.2284413461e+02   2.4234399918e+01    0.3085979    0.2487085 -67.16 0.0004473675    1.204    0.170
       190 -11.6777    103.5074    182.4572   1.2370163567e+02   2.3306009971e+01    0.3527828    0.2814144 -56.59 0.0007898128    1.283    0.221
       191 -11.5934    107.2805    180.7493   1.2252579574e+02   2.3042309909e+01    0.4384682    0.2949645 -40.12  0.002050688    1.838    0.456
       192 -11.9681     50.4859    163.2167   1.3344648975e+02   3.5794045944e+01    0.7350956    0.3314107 -87.61  0.002588234    3.678    0.728
       193 -11.0109     52.0554    172.0129   1.3427097145e+02   3.3510493269e+01    0.4345467    0.2280271  68.55  0.001531287    2.397    0.583
       194 -11.5747     56.7646    167.9028   1.3259125098e+02   3.3888184651e+01     0.386224    0.2761169  61.88  0.001017171    1.415    0.293
       195 -12.1090     55.8285    181.2231   1.3459852760e+02   3.0861153754e+01    0.4835259    0.2748645  60.75 0.0004258134    1.841    0.457
       196 -10.6417     54.5019    175.4811   1.3415890623e+02   3.2381577187e+01    0.3006491    0.2677338  57.27  0.001555808    1.221    0.181
       197 -11.4561     60.2280    186.8330   1.3431942786e+02   2.8970588373e+01    0.3331026    0.2057686 -55.03  0.001335412    1.681    0.405
       198 -11.1285     62.4996    180.4408   1.3297094465e+02   3.0156082194e+01    0.4543335    0.2311675 -68.20  0.001347019    1.798    0.444
       199 -10.0835    234.0152    185.9866   9.6248857897e+01  -2.5406417730e+00    0.1631614    0.1464488 -10.08 0.0003571726    1.004    0.004
       200 -11.2247     32.7989    184.9993   1.4012180426e+02   3.2743914160e+01    0.3190849    0.2046346  29.46  0.001623855    1.989    0.497
       201  -9.5997    140.3204    184.3059   1.1546589547e+02   1.6039232993e+01    0.1456212    0.1202064  -2.67 0.0007031084    1.636    0.389
       202 -11.9065    122.1592    183.0827   1.1944084186e+02   1.9795842974e+01    0.5637177    0.3099335  61.69  0.002228119    2.314    0.568
       203 -10.2112     89.1223    184.1143   1.2733111231e+02   2.5327572902e+01    0.3788964    0.2014774  62.24   0.00158082    2.276    0.561
       204 -11.6991     92.6237    181.0176   1.2602742472e+02   2.5482885304e+01    0.2671472      0.24069 -49.79 0.0003862907    1.273    0.214
       205 -11.1545     94.2959    177.6175   1.2508144689e+02   2.6006534782e+01    0.3154741    0.2078741  62.42 0.0009434855    1.613    0.380
       206 -11.5288     47.3584    181.5011   1.3654265717e+02   3.1864184752e+01      0.57138    0.1910285 -59.08  0.002311094    2.614    0.617
       207 -11.5365     43.0326    179.3174   1.3725189967e+02   3.2890730317e+01     0.335318    0.2462333  73.38  0.001289806    1.261    0.207
       208 -10.4722    176.4011    184.2749   1.0742270432e+02   8.8220456897e+00    0.3479304    0.2439491  -7.22  0.001502687    2.172    0.540
       209 -10.0416      7.8473    183.3175   1.4516835533e+02   3.5588443147e+01    0.1330364    0.1106946   9.49 0.0006357715    1.872    0.466
       210 -11.2234      1.5992    182.9286   1.4639249710e+02   3.6211002985e+01     0.224571    0.1738141  74.76 0.0008149501    1.165    0.142
       211 -10.3977      1.2655    179.3030   1.4617385069e+02   3.7036131455e+01    0.1716021   0.08727754 -75.57 0.0002177862    1.507    0.336
       212 -10.6395    155.5452    181.5078   1.1147092386e+02   1.3619151232e+01    0.4319437    0.2081728  42.79  0.001698594    2.005    0.501
       213 -10.1997    190.7305    180.6126   1.0363987613e+02   6.6719441464e+00    0.2626713    0.1834187  52.83  0.001248452    1.530    0.346
       214 -10.2880     36.5148    172.5114   1.3792388528e+02   3.5218682104e+01    0.1816701    0.1432185 -51.25 0.0006763369    1.454    0.312
       215 -11.3864     27.0855    179.0603   1.4073876470e+02   3.4709062779e+01    0.2862889    0.2362801  88.08  0.001891517    1.068    0.064
       216 -11.2562     31.2097    175.4586   1.3945084827e+02   3.5106674550e+01     0.297345     0.251121  87.01  0.001249667    1.084    0.078
       217 -10.5731    130.5607    177.1063   1.1637592876e+02   1.9558362066e+01    0.4967272    0.2589623 -72.23  0.001414198    3.272    0.694
       218 -10.3942    247.0065    178.4856   9.2408234949e+01  -3.5250669326e+00    0.1839798    0.1303072  39.17 0.0003732273    1.506    0.336
       219  -9.7885    163.3901    178.2073   1.0905584228e+02   1.2732401077e+01    0.2101326    0.1429477 -59.73 0.0009421061    1.663    0.399
       220 -10.7941      9.4951    177.4541   1.4432820644e+02   3.6749245858e+01    0.2125862     0.152812  68.68  0.001027725    1.284    0.221
       221 -12.0616      3.4497    174.2498   1.4531060129e+02   3.7977200051e+01    0.5493736    0.2416969  67.87  0.002718214    2.515    0.602
       222 -11.6135      3.2064    167.7119   1.4479467820e+02   3.9457859428e+01    0.2536052    0.1801101 -59.49  0.001236646    1.421    0.296
       223 -10.6158    221.9329    176.2778   9.6514961474e+01   1.3865279507e+00    0.2194228    0.1881399 -46.94 0.0001664773    1.233    0.189
       224 -11.1987    167.1520    174.8428   1.0753297484e+02   1.2675750449e+01    0.2310208    0.2089147  84.64 0.0006163418    1.207    0.171
       225 -10.9982    136.5792    176.3933   1.1482880244e+02   1.8542877356e+01    0.2636222    0.2204101 -62.21 0.0006204064    1.217    0.178
       226 -10.0103     87.8250    179.1848   1.2686962784e+02   2.6693765150e+01    0.1840435    0.1587868 -51.14 0.0004089679    1.295    0.228
       227  -9.5767     38.2996    177.2997   1.3807687021e+02   3.3905107000e+01    0.1197108   0.08963486 -49.15 0.0001859439    1.580    0.367
       228 -11.5620     66.8209    173.4901   1.3099024805e+02   3.1203155711e+01     0.542541    0.2309623 -64.69  0.002288138    2.156    0.536
       229  -9.9282    203.9525    174.6908   9.9698330503e+01   5.1816434494e+00    0.1962276    0.1801942  31.67 0.0003032178    1.085    0.078
       230 -10.5926    195.0110    174.6022   1.0150310186e+02   6.9975866754e+00    0.2313173    0.1947629 -39.16 0.0005302156    1.189    0.159
       231 -10.4111     16.5671    174.5727   1.4256314015e+02   3.6761567340e+01    0.2126159    0.1482631  82.85 0.0006037236    1.226    0.184
       232  -9.9575    188.1456    174.3842   1.0289034575e+02   8.4408997004e+00    0.2138473    0.1380255  53.97 0.0009466741    1.692    0.409
       233 -11.9939    173.5005    172.6043   1.0566725698e+02   1.1833688962e+01    0.4824977    0.3528091   6.26  0.002130523    1.969    0.492
       234 -10.2040    144.1478    173.8432   1.1256409095e+02   1.7606029428e+01     0.204981     0.185449  -6.16 0.0006557979    1.317    0.241
       235 -10.9592    237.8686    173.0711   9.2910509659e+01  -9.8767087036e-01    0.2129481    0.1931052  21.92 0.0003242209    1.136    0.120
       236 -11.5292    156.0599    172.2522   1.0949807521e+02   1.5526828355e+01    0.3590643    0.2587807  51.55 0.0009803923    1.383    0.277
       237 -12.5525     87.7668    171.2497   1.2560200983e+02   2.8586810392e+01    0.5251799    0.3396206 -52.25  0.002563018    1.562    0.360
       238 -10.7037     12.8412    170.2101   1.4294830261e+02   3.8088791319e+01     0.332627    0.1984691  17.34  0.001885025    2.561    0.610
       239  -9.9525     36.0101    165.4696   1.3719432196e+02   3.6922488293e+01    0.1605312    0.1238873  42.27  4.38138e-05    1.463    0.316
       240 -10.9014     19.7398    170.1127   1.4142568346e+02   3.7483371874e+01    0.2389091    0.1856572 -62.30  0.001207713    1.300    0.231
       241 -11.2566     31.3521    169.5170   1.3875196128e+02   3.6470025440e+01    0.3743702    0.2614641 -51.54   0.00148583    1.569    0.363
       242 -11.3008     24.2819    171.9435   1.4061024597e+02   3.6625513895e+01    0.3384586    0.2587755 -23.19  0.002066505    2.057    0.514
       243 -10.6544     24.4520    167.4727   1.4009008639e+02   3.7640593220e+01    0.2361295    0.1700169 -72.69 0.0005216424    1.150    0.130
       244 -10.2455     27.5183    166.4900   1.3928205868e+02   3.7565912647e+01    0.1910272    0.1699017  64.77 0.0005682216    1.237    0.192
       245  -9.7959    208.6073    171.2363   9.8040335707e+01   4.9188605384e+00    0.1414822     0.114033  75.85 0.0006914955    1.653    0.395
       246 -10.2840    100.7924    170.3636   1.2227750393e+02   2.6621951974e+01    0.1908347    0.1394165  32.06 0.0005635786    1.570    0.363
       247  -9.9125    106.5603    172.4674   1.2125091285e+02   2.5111161639e+01    0.1478245    0.1347652  86.41 0.0001917921    1.017    0.017
       248 -11.0799    135.3833    168.9673   1.1365188751e+02   2.0469256497e+01    0.3184089    0.2214104  25.87 0.0006931348    1.807    0.447
       249 -10.2451    108.6249    168.9694   1.2011380664e+02   2.5567928868e+01    0.2054994    0.1768765 -70.35 0.0004516679    1.120    0.107
       250  -9.9556    194.1963    168.3400   1.0034363705e+02   8.4132404701e+00    0.2154693    0.1366089  53.23 0.0009459607    1.716    0.417
       251 -13.1234      9.4309    164.9491   1.4318659815e+02   3.9575432507e+01    0.3488105    0.1870658 -62.54 0.0009532276    1.584    0.368
       252 -10.2643    185.9648    165.9513   1.0155848011e+02   1.0613705091e+01    0.2773637    0.1679284 -67.13  0.001035886    2.646    0.622
       253 -10.1042    179.4044    164.5907   1.0267354053e+02   1.2279772095e+01    0.3116445    0.1340933 -57.03 0.0009587739    3.485    0.713
       254 -12.6466     62.7590    170.1176   1.3147070396e+02   3.2566348783e+01    0.4405465    0.2724691 -80.20 0.0003941802    1.608    0.378
       255 -10.4379    202.7756    163.6598   9.7579967143e+01   7.5755483419e+00    0.3852664    0.2366978 -39.43  0.001728336    1.606    0.377
       256 -10.5336    104.8207    163.9697   1.2012155504e+02   2.7437187182e+01    0.2217881    0.2138496 -77.26 0.0005811093    1.090    0.083
       257 -11.1424    100.4810    162.6052   1.2094752353e+02   2.8526971265e+01     0.394662    0.2449538  67.13  0.001468897    2.046    0.511
       258 -10.3896     87.4693    162.9190   1.2425662096e+02   3.0632263498e+01    0.2180903    0.1332765 -60.62 0.0004793309    1.538    0.350
       259  -9.9120    242.9518    160.9793   8.9490467139e+01   2.1814537001e-01    0.1659793    0.1503962 -23.41  0.000380198    1.011    0.011
       260 -10.8608    224.3066    161.0915   9.2854208531e+01   3.7344078476e+00     0.257708    0.2090044  59.74 0.0008872075    1.443    0.307
       261 -12.1955     34.2312    158.3552   1.3672319993e+02   3.8785344073e+01    0.3509246    0.2453265  78.30 0.0003466321    1.421    0.296
       262 -10.9238     18.4151    160.7586   1.4073202444e+02   3.9757333314e+01    0.1935529    0.1665847 -65.48 0.0003838231    1.231    0.188
       263 -12.5466    107.1850    157.9203   1.1837069553e+02   2.8456971030e+01      0.41149    0.2869459 -69.80 0.0005261764    1.509    0.337
       264  -9.8333    123.6297    163.7625   1.1544486284e+02   2.3986922654e+01    0.2071026    0.1412741 -64.11 0.0005022535    1.542    0.351
       265 -10.6912    136.7224    151.5776   1.0968401767e+02   2.4203157368e+01    0.3802463     0.229943  43.74  0.001170811    1.659    0.397
       266 -10.8943    140.8174    157.4971   1.0997422043e+02   2.1994725487e+01    0.4540291    0.2625319  66.78 0.0009926435    2.645    0.622
       267 -10.0716    136.6912    155.6626   1.1057810507e+02   2.3266266728e+01    0.3256376    0.2070265 -32.49  0.001329249    2.024    0.506
       268  -9.9603     66.1525    158.1683   1.2881141074e+02   3.4969691718e+01    0.1909771    0.1483542  80.60 0.0004120341    1.302    0.232
       269 -11.9000     41.0172    166.1876   1.3610781914e+02   3.6200872100e+01     0.302312    0.2483007 -53.32  0.001426253    1.342    0.255
       270 -10.5700      1.6311    157.3927   1.4419237284e+02   4.1898972232e+01    0.2222135    0.1075789 -73.00 0.0006556152    1.564    0.361
       271 -10.3797    209.8273    157.1743   9.4762028775e+01   7.3959349061e+00    0.2131685    0.2006814 -83.51 0.0004221088    1.186    0.157
       272 -10.5616     24.8792    157.2650   1.3882329127e+02   3.9971477515e+01    0.1614993    0.1390267  87.91 0.0005171698    1.111    0.100
       273 -10.1141    183.7266    155.3243   9.9701160933e+01   1.3299542697e+01     0.252179    0.1821161  -0.23  0.001058112    2.087    0.521
       274 -10.0147    176.2231    155.0114   1.0125930879e+02   1.4989745769e+01    0.2081606    0.1936144 -45.90            0    1.074    0.069
       275 -10.6798    113.7882    154.6826   1.1605609112e+02   2.8009816933e+01    0.2978108    0.2271556 -89.23 0.0001492439    1.529    0.346
       276 -10.7943     85.1720    154.9011   1.2340559615e+02   3.2934403485e+01    0.3708438    0.2023481  36.60  0.001131242    1.985    0.496
       277 -10.4375     44.7214    154.4949   1.3362843572e+02   3.8555203334e+01    0.2352154    0.1529378 -68.50 0.0003871024    1.307    0.235
       278 -12.6919     18.8848    153.8609   1.3984567796e+02   4.1310898471e+01    0.2964382    0.2444496 -49.75 0.0005830826    1.373    0.272
       279 -10.2032     37.0392    153.9434   1.3545715001e+02   3.9532361921e+01    0.2163365    0.1351596  74.42  0.001128998    1.789    0.441
       280 -11.0768    235.4127    152.3404   8.8959870111e+01   3.1898340793e+00    0.3099996    0.2389157  47.60   0.00166226    1.417    0.294
       281  -9.6135    144.2908    153.6752   1.0831035831e+02   2.2144771283e+01    0.1582763    0.1222019  88.70  0.000264665    1.613    0.380
       282  -9.7863     26.5960    153.2426   1.3792061392e+02   4.0748262833e+01    0.1266062   0.08073549  66.15 0.0006926293    1.689    0.408
       283 -11.1765    249.2768    151.4803   8.6417444814e+01   7.3592144738e-01    0.2615272    0.1735671 -38.91 0.0007639268    1.345    0.257
       284 -10.4670    224.9424    150.8166   9.0502705010e+01   5.5356450915e+00    0.3769397    0.2455845 -67.16 0.0008319913    2.325    0.570
       285 -10.9606    156.5615    152.0666   1.0504995268e+02   1.9894202785e+01    0.2520143    0.2180741  15.28 0.0006643768    1.356    0.262
       286 -10.9386    104.1934    150.0780   1.1756721026e+02   3.0874035426e+01    0.3172386    0.1596234 -38.33  0.001152592    2.662    0.624
       287 -10.4837    123.1452    150.0917   1.1273269907e+02   2.7293617888e+01    0.2287795    0.2107307 -88.32 0.0003893249    1.075    0.070
       288 -11.8109    164.8924    147.0387   1.0198617645e+02   1.9191386131e+01    0.4925874    0.3897211 -86.45  0.001155331    1.575    0.365
       289 -10.6298    154.6577    147.7547   1.0452041831e+02   2.1269052204e+01    0.3695952    0.2230861 -26.26  0.001366446    2.481    0.597
       290 -10.5376     35.9140    147.7001   1.3487431791e+02   4.1128609929e+01    0.2339711    0.1495394 -59.19 0.0008368738    1.358    0.263
       291 -11.0064     92.1655    146.8875   1.2006003987e+02   3.3729082844e+01     0.240863    0.2218398 -10.42 0.0007229077    1.311    0.237
       292 -10.6233     17.9693    145.9892   1.3912871213e+02   4.3214787377e+01    0.2645661    0.1833599 -21.79  0.001428965    2.147    0.534
       293 -10.8653     14.8061    143.5052   1.3960488572e+02   4.4051234195e+01    0.2685544    0.1593078 -67.30 0.0007202313    1.323    0.244
       294 -12.2591     52.8265    144.0649   1.2994743157e+02   4.0096413045e+01    0.7526166    0.3644684  64.41 0.0006708456    3.498    0.714
       295 -11.1594     47.7016    142.4517   1.3103534433e+02   4.1089385223e+01    0.3709542    0.1862813  47.26  0.001736768    2.234    0.552
       296 -11.7076     23.3151    144.6319   1.3763105051e+02   4.3064831593e+01    0.3379144    0.2069942  35.68   0.00142933    1.895    0.472
       297 -10.6698    187.9251    150.1047   9.7630999784e+01   1.3478032012e+01     0.265627    0.2236748  30.60 0.0008506408    1.273    0.215
       298 -10.4044     85.0552    143.9852   1.2136802819e+02   3.5590551093e+01     0.216259    0.1912486 -84.88  0.001198453    1.100    0.091
       299 -10.1421    225.8003    142.8247   8.8580716092e+01   6.8696110005e+00    0.2062914    0.1885094 -12.84 0.0004437951    1.138    0.121
       300 -10.0679     99.2999    143.3193   1.1745207419e+02   3.3363863456e+01    0.1476304    0.1166938 -23.95 0.0002752132    1.621    0.383
       301  -9.8141    123.5358    142.5206   1.1097180323e+02   2.8994511809e+01    0.1547853     0.147097 -83.39 0.0001564542    1.022    0.022
       302 -10.0904     92.4659    142.5338   1.1910289322e+02   3.4726808631e+01    0.1469907    0.1368924 -67.30 -4.317222e-06    1.029    0.028
       303 -11.2603    132.3455    140.0899   1.0818734487e+02   2.7766253656e+01     0.354427    0.2638873 -65.62  0.001626839    1.458    0.314
       304 -10.6603     62.7534    140.8559   1.2675375817e+02   3.9605570936e+01    0.1974934    0.1880019 -28.49 0.0002869398    1.225    0.183
       305  -9.2194      3.4641    141.4900   1.4214316419e+02   4.5366394526e+01    0.1201235    0.0913284 -76.50 0.0008095058    1.003    0.003
       306 -11.3141     54.6111    139.1251   1.2863961038e+02   4.1062147340e+01    0.2568752    0.1940336  77.97 0.0008802934    1.459    0.315
       307 -11.4632     35.8472    138.5086   1.3354531684e+02   4.3309542254e+01    0.2354534    0.1796933 -67.06 0.0003138213    1.088    0.081
       308 -10.8846     24.0509    138.9467   1.3668458462e+02   4.4326027594e+01     0.194432    0.1293058 -43.27  0.001123831    1.640    0.390
       309 -10.2635    180.3681    137.1579   9.6237859097e+01   1.7867857049e+01    0.2187889    0.1423765 -53.57 0.0004707613    1.615    0.381
       310  -9.9974    157.0029    136.7313   1.0139678040e+02   2.3208083835e+01    0.2220203    0.2069195  57.17 0.0004376805    1.074    0.069
       311 -11.5480     77.1449    135.3591   1.2179205869e+02   3.8890928971e+01    0.2942824     0.229991 -58.98 0.0005165469    1.166    0.142
       312 -11.6351     76.5550    129.6659   1.2078846871e+02   4.0339127037e+01    0.3389775    0.2556484 -41.89  0.001172174    1.352    0.261
       313 -11.1579    195.9321    133.6951   9.2172232178e+01   1.5083867893e+01    0.2974556    0.2191276 -38.33 0.0005778494    1.345    0.257
       314 -10.2020    121.8769    135.1015   1.0970580391e+02   3.1059966174e+01    0.2392205    0.2040453 -81.76 0.0008175811    1.268    0.212
       315  -9.6869     44.6689    135.7148   1.3074462104e+02   4.3036854188e+01    0.1307462   0.09242848 -37.74 0.0006313073    1.615    0.381
       316 -10.0582     29.8926    134.8492   1.3457012764e+02   4.4751173244e+01    0.1640693    0.1321482  76.23 0.0003724327    1.304    0.233
       317 -12.1257     44.3329    131.6778   1.3015617476e+02   4.4030586041e+01    0.5689853    0.3464952  -3.28  0.001802658    2.952    0.661
       318 -10.9241     23.4980    133.2771   1.3603420563e+02   4.5694958947e+01    0.3252029    0.1643849  80.73   0.00107979    2.998    0.666
       319 -10.7101    143.5009    132.8241   1.0369959994e+02   2.7053322091e+01    0.2990659    0.2373178  75.61 0.0004992544    1.479    0.324
       320 -10.4386    199.7654    130.8809   9.0743709630e+01   1.4793441961e+01    0.2149849    0.2027932 -12.05   0.00044777    1.140    0.123
       321 -10.5046    147.0668    129.9767   1.0213762272e+02   2.6910251311e+01    0.2299262    0.2238438  74.50 0.0002962305    1.022    0.021
       322 -10.9015    122.6255    128.9729   1.0806319773e+02   3.2328689644e+01    0.2408857    0.2161567  25.53 0.0004779535    1.228    0.186
       323 -11.3988     68.0341    128.5896   1.2296214712e+02   4.1823997278e+01    0.3215429    0.2597267   8.74  0.001511735    1.571    0.363
       324 -10.6965     35.2443    128.5329   1.3213269819e+02   4.5716679969e+01    0.2466024    0.1299881 -40.28  0.001126623    2.166    0.538
       325 -10.3125     29.0491    126.0905   1.3344747630e+02   4.6873071101e+01    0.2763174    0.1479047  36.48 0.0007561393    2.146    0.534
       326 -10.0561    191.7672    125.4260   9.1040462831e+01   1.7705813666e+01    0.2214297    0.1462276  39.81  0.000956836    1.668    0.401
       327  -9.6749    140.9759    125.0382   1.0241614068e+02   2.9348486642e+01    0.1860938    0.1817622 -81.90 0.0003186372    1.004    0.004
       328 -12.2011     69.9070    123.4626   1.2136849802e+02   4.2774577566e+01    0.4932766    0.3645986  55.56   0.00134357    1.553    0.356
       329 -10.8352     63.3304    122.6996   1.2310068919e+02   4.3854695988e+01    0.2810543    0.1678308  50.87  0.001330183    1.995    0.499
       330 -10.2195     55.0125    124.6896   1.2588603553e+02   4.4445201983e+01    0.1773431    0.1670287 -56.94 0.0004177506    1.093    0.085
       331 -10.1286     19.9251    125.1863   1.3581323587e+02   4.7864887603e+01    0.1873713    0.1443204 -89.08 0.0006235371    1.281    0.220
       332  -9.8130    206.2263    124.6233   8.8015181307e+01   1.4587929261e+01    0.1979148    0.1423223  41.55 0.0003107363    1.516    0.340
       333 -10.2942    127.5524    123.6965   1.0549187960e+02   3.2520175740e+01     0.216794    0.1475617 -59.48 0.0009395296    1.578    0.366
       334  -9.8612      3.2596    124.1279   1.4013843666e+02   4.9306856359e+01    0.2010703    0.1134174  81.85  0.001088376    2.051    0.512
       335 -10.1725    178.5398    123.1590   9.3244064038e+01   2.1219118178e+01    0.2307208    0.1516282 -44.89 0.0009953286    1.496    0.332
       336 -11.3365     14.0537    122.5372   1.3702731440e+02   4.8925063974e+01    0.2170744    0.1612115 -66.66 0.0003433799    1.059    0.055
       337 -12.0878     19.3384    118.7670   1.3499715447e+02   4.9381697183e+01     0.603488    0.3472913  -7.81  0.003075229    2.798    0.643
       338 -10.3810     14.5333    115.5507   1.3585329544e+02   5.0474854355e+01    0.1727282    0.1302035  81.63 4.093457e-05    1.463    0.317
       339 -11.6504     31.6859    119.6988   1.3164772714e+02   4.8111342281e+01    0.3029175    0.2583385 -72.09 0.0001611046    1.080    0.074
       340 -11.5827     27.5037    117.4889   1.3246840239e+02   4.8996522276e+01    0.3176679    0.2029241 -12.78  0.001699349    2.275    0.560
       341 -10.1291    138.7376    121.5807   1.0210851809e+02   3.0605542308e+01    0.2030022    0.1957895 -25.09 0.0005441398    1.091    0.083
       342 -11.0974     83.3605    119.7826   1.1668817746e+02   4.1616795177e+01    0.3638224      0.28358  73.89  0.001464156    1.584    0.369
       343 -10.8590     58.3071    119.7571   1.2395151534e+02   4.5193983329e+01    0.5012317    0.1577176 -46.77  0.001761747    3.086    0.676
       344 -11.4548     62.2572    114.1060   1.2158998646e+02   4.5998150781e+01    0.4728877    0.3220979 -24.44   0.00235106    1.867    0.464
       345 -11.0463     93.2149    118.4603   1.1356145499e+02   4.0292011962e+01    0.3488897    0.2981477 -57.88  0.001872919    1.120    0.107
       346  -9.8106    105.6996    119.6833   1.1035835078e+02   3.7768795609e+01    0.1508007    0.1184709 -16.05 0.0005312606    1.616    0.381
       347 -10.0129     46.0088    119.4813   1.2747759633e+02   4.6710082944e+01    0.1650316    0.1331901  29.53 2.777406e-05    1.448    0.309
       348  -9.9333    173.3755    120.1921   9.3624364816e+01   2.3034804592e+01    0.2279916    0.1422001 -53.53  0.000510308    1.697    0.411
       349  -9.6645      2.6893    117.7169   1.3945226896e+02   5.0779661018e+01    0.1178937   0.07008239 -47.12  0.000321449    1.570    0.363
       350  -9.9927    156.1534    116.1122   9.6487111535e+01   2.7883786911e+01     0.209974    0.1822165 -84.73  0.000266171    1.270    0.213
       351  -9.7144    125.9800    114.4638   1.0356430743e+02   3.4913828288e+01    0.2235251    0.1523947  46.44  0.000295957    1.493    0.330
       352 -10.8518     87.9017    113.7669   1.1395519656e+02   4.2266792087e+01    0.2464149    0.1915637 -49.28  0.000393025    1.200    0.167
       353 -11.1441     33.8647    113.3853   1.2988960630e+02   4.9358133960e+01    0.3528884    0.1043493 -50.81  0.001388881    2.707    0.631
       354 -10.6472     95.5809    111.6138   1.1120671390e+02   4.1442869727e+01     0.357306    0.1802817 -57.14  0.001233672    2.116    0.527
       355 -10.6485     73.3796    111.4914   1.1768296496e+02   4.5054702415e+01    0.3896291     0.176991  44.84  0.001584593    2.530    0.605
       356 -11.2568     48.8488    111.9263   1.2513709986e+02   4.8138227962e+01    0.2184087    0.1895897 -42.33 0.0002967549    1.113    0.102
       357 -11.6301     21.5897    109.6595   1.3284997431e+02   5.1268252159e+01     0.299746    0.2061479 -35.43 0.0008306553    1.532    0.347
       358 -10.3460      1.5148    110.5117   1.3878348198e+02   5.2450329927e+01    0.1189821   0.09018134 -64.21  0.000356508    1.015    0.015
       359  -9.9777     85.1993    109.4015   1.1367457726e+02   4.3701654194e+01    0.1867337    0.1348707  50.60 0.0003849189    1.560    0.359
       360 -10.9626     44.4731    107.3728   1.2551679665e+02   4.9658140458e+01    0.3879477    0.2007402   7.67  0.001611535    3.385    0.705
       361 -11.1557     27.1267    107.7714   1.3086231938e+02   5.1237376941e+01    0.2374199    0.1346518 -56.42 0.0005755811    1.406    0.289
       362 -10.7219     29.0271    103.9430   1.2956257133e+02   5.1931468725e+01    0.1908017    0.1524401 -51.75 0.0003286877    1.054    0.051
       363 -10.4161     74.2527    107.4630   1.1646187752e+02   4.5840450629e+01    0.4026471    0.1176051  41.37  0.001336564    3.729    0.732
       364 -10.7256     91.9735    105.7776   1.1076727267e+02   4.3376549515e+01    0.2620828     0.207467  83.77  0.001298607    1.675    0.403
       365 -10.4460     50.9657    105.5948   1.2314139502e+02   4.9335031347e+01     0.231649    0.1318245  14.35  0.001074789    2.455    0.593
       366 -10.1515    106.0082    104.4924   1.0638828193e+02   4.1109499610e+01    0.2114495    0.1480459  40.10 -5.252966e-05    1.482    0.325
       367 -12.0749    233.9447    102.4137   7.8089405932e+01   1.2620073007e+01    0.2532331    0.2382562 -62.89 0.0002632265    1.059    0.056
       368 -10.7573    166.8798    102.7127   9.0561318869e+01   2.8135417884e+01    0.3220183    0.2041268  40.51  0.001357884    1.724    0.420
       369 -11.5479     76.1572    101.8129   1.1448495772e+02   4.6815949184e+01    0.3358679    0.2521147  -2.70  0.001713112    1.700    0.412
       370 -10.4076      2.4511    101.9684   1.3724671417e+02   5.4271693753e+01    0.1621508    0.1460107 -47.38  0.000778653    1.204    0.169
       371 -10.8058    135.4729    101.1641   9.7567326221e+01   3.5712296092e+01    0.2652462    0.2174769  48.44 0.0004063237    1.223    0.183
       372 -10.6595     67.3973     99.9735   1.1672275822e+02   4.8494298000e+01    0.3675006    0.1498652 -55.36  0.001455733    2.344    0.573
       373 -10.7197     46.1067    101.0806   1.2365426024e+02   5.0893144749e+01    0.2582164    0.1812166  34.26  0.001151772    1.636    0.389
       374 -10.8914     25.4390    100.2922   1.2996423930e+02   5.3046899883e+01    0.2269211    0.1879865 -47.76 0.0005461241    1.076    0.071
       375 -11.2037     85.1712     99.6759   1.1119678727e+02   4.5861147228e+01    0.3805533     0.208386 -50.64 0.0006211429    1.732    0.423
       376 -10.6379     88.2150     95.5516   1.0917385787e+02   4.6240384646e+01    0.2401311    0.2001919 -17.62 0.0007809049    1.284    0.221
       377 -10.9341      9.5195     99.6650   1.3475286466e+02   5.4347673009e+01    0.2105303    0.1808789  72.62  0.001495425    1.397    0.284
       378 -10.6873    106.3502     98.6186   1.0470182775e+02   4.2305410210e+01    0.2225315    0.1796656  89.14 0.0007097924    1.633    0.387
       379 -11.7647     55.3096     97.1320   1.1982892348e+02   5.0699030775e+01    0.2899099    0.2200847 -74.15 0.0001787346    1.537    0.349
       380 -10.6275     16.1211     98.7934   1.3257409037e+02   5.4092416345e+01    0.1695924    0.1417893 -72.19 0.0004645706    1.171    0.146
       381 -10.0818    124.9002     97.8750   9.9401023258e+01   3.8693127737e+01    0.2235858    0.2020355  -7.36            0    1.207    0.172
       382 -10.9467      5.5731     95.4778   1.3524833791e+02   5.5498430807e+01    0.4106264    0.0941299 -54.73  0.001256344    2.702    0.630
       383 -10.0416    118.5194     96.9169   1.0084654263e+02   4.0231417768e+01    0.2248904    0.1463911 -43.50 0.0004292506    1.515    0.340
       384 -10.8040     47.5471     96.2082   1.2208741925e+02   5.1808602089e+01    0.2683348     0.172359 -60.50 0.0008772286    1.463    0.316
       385 -11.1462     32.6591     96.6116   1.2694129384e+02   5.3229127109e+01    0.2463748    0.1377991 -61.06 0.0006791221    1.553    0.356
       386 -10.3032    147.9832     96.0222   9.3079565396e+01   3.3914993929e+01    0.2210388    0.2176496  88.25  0.001189088    1.003    0.003
       387 -10.5848     23.0432     95.9793   1.2987029291e+02   5.4187169185e+01    0.1736314     0.137174  80.18 0.0003802835    1.585    0.369
       388 -11.3209     25.4854     92.0177   1.2827951156e+02   5.4849618753e+01    0.3560716    0.1938621  -2.89  0.001755043    2.753    0.637
       389 -10.0585     60.6842     95.3217   1.1767366243e+02   5.0415201133e+01    0.1301904    0.1052213  84.60 0.0002396977    1.661    0.398
       390  -9.8303    181.8198     93.8691   8.5122718081e+01   2.6265268806e+01    0.2084429    0.1751327 -89.51 0.0008860238    1.277    0.217
       391 -10.5191    135.8643     92.1576   9.4968441417e+01   3.7448694074e+01    0.2074561    0.1818619  12.29 0.0003642617    1.291    0.225
       392 -11.0759    113.4362     90.6372   1.0046843468e+02   4.2556310838e+01    0.3991491    0.2952165 -87.80 0.0005369783    2.081    0.519
       393 -11.3237     88.7673     88.3500   1.0700188755e+02   4.7650521086e+01    0.4303444    0.3172301  -9.45  0.001294834    1.687    0.407
       394  -9.8086    202.6858     89.2791   8.0077212866e+01   2.2098283634e+01    0.1514726    0.1112163 -76.87 0.0002586156    1.569    0.363
       395 -11.2375     64.1938     87.6748   1.1455961143e+02   5.1577693756e+01    0.3999377    0.2734719  54.58   0.00165199    1.978    0.494
       396 -10.8578     19.0518     88.9466   1.2973716233e+02   5.6009388650e+01     0.193826    0.1485263 -35.16 0.0003425813    1.233    0.189
       397 -10.4261      6.5371     89.4499   1.3388242231e+02   5.6731988407e+01    0.1739585   0.09769748  36.24  0.000512626    2.254    0.556
       398 -10.4016     77.7385     87.9790   1.1031265796e+02   4.9534183231e+01    0.2577615    0.1770388 -26.83 0.0003315952    1.582    0.368
       399 -10.2936     80.9207     84.7095   1.0838748638e+02   4.9698706293e+01    0.2079043    0.1749677 -15.03  0.001168911    1.210    0.174
       400 -10.2683    180.7742     86.7639   8.3471611280e+01   2.7833819948e+01    0.2113539    0.1707909 -76.18 0.0004897238    1.351    0.260
       401 -10.0181    130.9929     86.9855   9.4730353845e+01   3.9546400070e+01    0.2080148    0.1986985  51.75 0.0003270489    1.047    0.045
       402 -11.0775    127.5163     85.9125   9.5316828819e+01   4.0518589058e+01    0.2963456    0.2275453  45.41  0.000774412    1.293    0.226
       403  -9.9340     51.9992     87.2387   1.1844046230e+02   5.3223231377e+01    0.1517004    0.1102781  25.60 0.0003670557    1.535    0.348
       404 -11.1610     27.9001     85.5995   1.2608520318e+02   5.6017601833e+01    0.2947726    0.2084833  31.98  0.001827871    1.690    0.408
       405 -10.8529    155.0267     85.3284   8.8483605019e+01   3.4316941466e+01    0.2146922    0.1947097  55.01 0.0004517285    1.082    0.075
       406 -12.2176    118.6493     82.7212   9.6734406511e+01   4.3033939831e+01    0.5723227    0.2871799 -55.69  0.001790038    2.755    0.637
       407  -9.8900    190.1949     84.2032   8.1023911677e+01   2.6007026090e+01    0.2014744     0.164764 -72.49 0.0002769254    1.273    0.214
       408  -9.7794    105.5079     84.4992   1.0092527195e+02   4.5353905797e+01    0.1442313    0.1385641 -12.05 -0.0002330809    1.004    0.004
       409 -10.0648     98.2516     83.9813   1.0288799641e+02   4.6835768210e+01    0.1869521    0.1190295 -43.29  0.000433266    1.528    0.345
       410 -11.3692     85.4842     82.6886   1.0637803092e+02   4.9352386168e+01    0.2691768    0.2315062  62.05 0.0005236714    1.430    0.301
       411 -11.0914     20.3902     82.1577   1.2784568744e+02   5.7341655038e+01    0.1971301    0.1730102 -40.06 0.0004341807    1.109    0.098
       412 -10.5155     10.8163     85.4979   1.3174415451e+02   5.7305679144e+01    0.2884514    0.1657443 -33.90  0.001699507    1.716    0.417
       413 -10.9966    154.2064     79.2804   8.6968917424e+01   3.5617753051e+01    0.3282989    0.2166669 -50.76  0.001475678    1.619    0.382
       414 -10.7702    148.6434     79.0726   8.8166607230e+01   3.6976145713e+01    0.4350461    0.2280917 -39.69   0.00172642    1.945    0.486
       415  -9.4979    162.3503     80.6973   8.5592598062e+01   3.3406083669e+01    0.1580995    0.1176703 -81.90 0.0007039813    1.698    0.411
       416 -10.6006    130.3736     79.8137   9.2798980047e+01   4.1039547466e+01    0.2609594     0.201725  48.95 0.0004384369    1.275    0.216
       417 -10.5589    113.7175     79.7372   9.7195412611e+01   4.4626240830e+01    0.2640029    0.1796704  42.04  0.001260479    1.466    0.318
       418 -10.9167     94.3808     79.4103   1.0268443676e+02   4.8438473804e+01    0.3519371    0.2389689 -14.42 0.0008541005    1.908    0.476
       419 -10.9417     86.2858     78.0339   1.0474840328e+02   5.0129761163e+01    0.2283677    0.1976501  39.75 0.0002779319    1.234    0.190
       420 -10.7487      4.8439     68.0042   1.3012249864e+02   6.1236788737e+01    0.2989945    0.1849224   3.70  0.001927392    1.920    0.479
       421 -10.7787      3.5273     77.9642   1.3268336690e+02   5.9301724717e+01    0.1883342     0.167633 -68.68 0.0005470437    1.238    0.193
       422 -11.3206      1.4798     74.0920   1.3260473831e+02   6.0199735003e+01    0.3226871    0.1208804 -56.06 0.0007983134    1.867    0.464
       423 -10.0752    107.8760     77.4933   9.8155328439e+01   4.6230590788e+01    0.2078712    0.1402771  43.34 0.0005047736    1.484    0.326
       424 -12.0865     58.9164     74.5552   1.1264420783e+02   5.4942300005e+01     0.394157    0.3121795  60.58 0.0008949662    1.800    0.444
       425 -11.1548     52.9336     75.1229   1.1485371712e+02   5.5587921744e+01    0.3243749      0.26181 -42.54  0.001068161    1.120    0.107
       426  -9.9296     68.9646     73.9962   1.0910212387e+02   5.3656438847e+01    0.1820481    0.1616887 -82.80 0.0004155862    1.517    0.341
       427 -10.3333     29.0264     74.1716   1.2295886914e+02   5.8277442444e+01    0.1668204    0.1546251 -69.51 0.0007668482    1.302    0.232
       428 -11.0192     53.6255     83.2391   1.1685251117e+02   5.3862049147e+01    0.3013865    0.2334236  66.01  0.001107904    1.884    0.469
       429 -10.4385     37.7878     72.4071   1.1939267534e+02   5.7808259746e+01    0.2692617    0.1545493  17.33  0.001396869    2.037    0.509
       430 -10.0538     35.3228     70.3083   1.1970111782e+02   5.8465295862e+01    0.2328191     0.127697 -46.86  0.001218267    1.504    0.335
       431 -10.4643    106.7051     70.5329   9.6346230399e+01   4.7734585556e+01    0.2714488    0.1320996  39.61  0.001114516    2.100    0.524
       432  -9.9204     53.1499     69.5265   1.1315607925e+02   5.6651211738e+01    0.2086108     0.150189 -27.92 0.0006136638    1.284    0.221
       433  -9.6497    205.3568     69.5127   7.4745992338e+01   2.4845017733e+01    0.1426611    0.1287323 -68.07  6.55019e-05    1.043    0.042
       434 -11.6498    129.8141     67.7383   8.9319969179e+01   4.3302834925e+01    0.4410165    0.2845849  70.56 0.0006205527    2.097    0.523
       435 -11.3914     88.1957     69.1028   1.0140125096e+02   5.1470608479e+01    0.3747798    0.2090789  24.88  0.001463215    2.270    0.559
       436 -10.7184     93.1757     67.2460   9.9283532857e+01   5.0909203757e+01    0.2806417    0.1882338 -20.42  0.001372863    1.693    0.409
       437  -9.5227     65.3134     68.3050   1.0859421976e+02   5.5263178943e+01    0.1350863   0.09383269 -12.98 0.0007023372    1.619    0.382
       438 -10.6517     26.5407     67.8866   1.2222321035e+02   5.9738231941e+01    0.2027842    0.1359381 -42.94 0.0006639133    1.198    0.165
       439  -9.9488     15.1478     64.8844   1.2562560786e+02   6.1202822895e+01    0.1623385    0.1085313 -29.53 0.0005138236    1.346    0.257
       440  -9.7117     98.7191     62.9861   9.6257547550e+01   5.0608222597e+01    0.1676167    0.1195461 -34.48 0.0004248184    1.395    0.283
       441 -10.8125     44.4339     81.0416   1.1937646652e+02   5.5371733469e+01    0.2293152    0.1790815  32.63 0.0006910651    1.479    0.324
       442 -11.2966     78.3594     60.8965   1.0188400273e+02   5.4592997833e+01    0.3339148    0.2339734 -15.76  0.001612258    1.544    0.352
       443 -11.5081      5.7062     60.4607   1.2804402747e+02   6.2657325931e+01    0.3194158    0.2392791 -54.75 0.0008683946    1.194    0.163
       444 -10.4704      1.3423     61.3019   1.2987443006e+02   6.2735250291e+01     0.225768    0.1000591 -42.11  0.001239062    1.735    0.424
       445 -10.7855     70.1245     61.0952   1.0467614202e+02   5.5860517173e+01     0.196705    0.1596416  -8.19 0.0004658857    1.178    0.151
       446  -9.4688     53.9138     62.0000   1.1058893092e+02   5.7961185631e+01    0.1904331   0.07042169  32.84 0.0007951278    2.892    0.654
       447  -9.5144     39.4246     61.4953   1.1568776306e+02   5.9735915545e+01    0.1241856    0.1004866 -29.09 4.246518e-05    1.017    0.017
       448 -10.0284     31.4775     59.4487   1.1803900378e+02   6.0906489233e+01    0.1187176   0.09952244 -32.28 1.944768e-05    1.071    0.067
       449 -10.9276    106.8886     57.3607   9.2083714315e+01   4.9919370368e+01    0.3011484    0.2396111  63.70  0.001438997    1.500    0.333
       450 -10.0713     53.8600     57.8672   1.0928959608e+02   5.8708950409e+01    0.1566353    0.1506673 -53.12 0.0004931995    1.356    0.263
       451 -12.2844     19.6586     57.1404   1.2186728909e+02   6.2345885152e+01    0.2305609    0.2196433   6.60 0.0007426809    1.335    0.251
       452 -11.7577     43.0510     53.5437   1.1185519050e+02   6.0773840953e+01    0.4919682    0.3554005 -76.01  0.002477153    2.755    0.637
       453 -10.1886     37.6383     57.1214   1.1502097657e+02   6.0724529197e+01    0.1694003    0.1280284 -32.60 0.0003891733    1.094    0.086
       454 -11.4958     26.6920     55.0557   1.1855821407e+02   6.2148659355e+01    0.4176639    0.2376525 -26.81  0.002399059    1.688    0.407
       455 -10.6799    118.8281     55.4464   8.8259925690e+01   4.7712596376e+01    0.2212592    0.1640678 -24.92 0.0005095916    1.436    0.304
       456 -11.3442     93.1022     54.3018   9.5061823600e+01   5.3093736409e+01    0.3689381    0.2335412  32.61   0.00158806    1.587    0.370
       457 -10.1827     97.0345     53.4877   9.3619358226e+01   5.2476813145e+01     0.231788    0.1830741  -5.07  0.001292689    1.327    0.246
       458 -10.1118     54.2127     53.7369   1.0780434027e+02   5.9380888710e+01    0.3170807    0.1398353  23.80  0.001276931    2.843    0.648
       459 -11.5724      4.7892     52.2356   1.2630741671e+02   6.4256700229e+01    0.3169565   0.09094957 -42.16  0.001490075    2.568    0.611
       460 -10.5495     60.6525     52.0774   1.0493907537e+02   5.8787095795e+01    0.1774942    0.1428267 -21.69 0.0006976945    1.095    0.087
       461 -12.1327     11.5632     49.7708   1.2294579673e+02   6.4281957400e+01    0.4440235    0.1812546 -44.32  0.002421933    1.828    0.453
       462 -10.8628     19.2110     49.6411   1.1986109215e+02   6.3746228825e+01    0.2424482    0.1482478  12.20  0.001199422    1.783    0.439
       463 -11.5380     16.9741     47.0094   1.1995867278e+02   6.4384982744e+01    0.3225703     0.203904 -19.36  0.002078881    1.486    0.327
       464 -10.7445     33.0585     51.0898   1.1487303734e+02   6.2262535901e+01    0.1803868    0.1464179 -25.56 0.0004500487    1.028    0.027
       465 -10.1835    151.4647     49.4850   7.8932784594e+01   4.1084850695e+01    0.1419354     0.131922  63.89 8.804825e-05    1.010    0.010
       466 -10.0500     46.6176     48.7779   1.0893193759e+02   6.1171364180e+01    0.1605309    0.1063595 -47.51 0.0004466865    1.600    0.375
       467 -10.9456    196.0458     47.9805   7.0803789518e+01   3.0391554078e+01    0.2067355    0.1852628 -88.90  0.001210797    1.012    0.012
       468 -11.4348     75.0370     53.1464   1.0037683551e+02   5.6432409243e+01    0.3957447    0.2489233  55.92  0.001838408    2.338    0.572
       469  -9.2838    185.2777     45.3480   7.1762501985e+01   3.3395628807e+01    0.1359017    0.1075353  28.90 0.0004470338    1.637    0.389
       470  -9.8806    115.1960     44.8378   8.5733878464e+01   5.0048466440e+01    0.1874248    0.1487616  20.61  0.000421364    1.307    0.235
       471 -11.6910     34.7091     44.7248   1.1213304845e+02   6.3182700645e+01     0.226806    0.1892613  37.11 0.0006730139    1.592    0.372
       472 -10.9523     37.2721     40.1326   1.0952682800e+02   6.3656455721e+01    0.2154664    0.1641318 -11.86 0.0003859673    1.113    0.101
       473 -10.9977     26.0157     44.1621   1.1540783311e+02   6.4122440639e+01     0.182378     0.137149 -31.26 0.0003858679    1.076    0.071
       474 -10.5366    199.3659     43.8400   6.9295533107e+01   3.0165832830e+01    0.2209067    0.1688179  84.34 0.0003549927    1.226    0.184
       475 -10.9560    138.9812     44.0385   7.9895992404e+01   4.4805587727e+01    0.2194863    0.1956568  44.26 0.0005612763    1.059    0.056
       476  -9.7235     80.2774     44.3445   9.5595267569e+01   5.6918244407e+01    0.1333777   0.09218318   2.00 0.0003567387    1.628    0.386
       477  -9.9637     54.3145     44.3209   1.0452024944e+02   6.0913709997e+01     0.128725   0.08403309  -7.64 0.0006000453    1.656    0.396
       478 -10.6637    164.2269     42.9752   7.4631853374e+01   3.8887695571e+01    0.2515321    0.1881452  63.14 0.0006922555    1.221    0.181
       479 -12.3600     61.8767     44.7149   1.0193480063e+02   5.9793502436e+01    0.3145733    0.2146862 -26.50 0.0003164857    1.351    0.260
       480  -9.9072     69.2951     42.2995   9.8488553452e+01   5.9034064722e+01    0.1283035   0.08819441   1.68 0.0002241177    1.570    0.363
       481 -10.4811     20.1221     41.6423   1.1697896814e+02   6.5058906282e+01    0.1591808    0.1181753 -19.24  0.001116162    1.123    0.110
       482 -10.7720     23.1714     38.5950   1.1470053418e+02   6.5303085511e+01    0.2660865     0.224016  15.60  0.001981249    1.375    0.273
       483 -11.7179      9.9309     39.7873   1.2062100306e+02   6.6142683065e+01    0.3499615    0.2145582   2.83  0.001977531    1.713    0.416
       484 -11.3525      3.5256     36.0636   1.2217505369e+02   6.7185077691e+01      0.25621    0.1934739 -61.80  0.001009346    1.669    0.401
       485  -9.6586      5.2911     32.3107   1.2020402132e+02   6.7697094280e+01    0.1546325   0.09828332   4.39 0.0004505883    1.603    0.376
       486  -9.1811      2.2775     30.6677   1.2098941948e+02   6.8153615578e+01    0.1338795    0.0979766 -55.94 0.0009628332    1.599    0.375
       487 -10.0115    186.6645     38.8212   6.9860098617e+01   3.3938496287e+01    0.1864808    0.1167724 -46.88 0.0002584336    1.633    0.388
       488 -10.7317    175.2778     38.8316   7.1619526482e+01   3.6728372597e+01    0.2734003     0.190824 -86.47   0.00122881    1.591    0.372
       489 -10.4642    166.3651     37.8667   7.2829449770e+01   3.9036508903e+01    0.2260379    0.1763775  77.86 0.0003426797    1.235    0.190
       490 -10.3121    129.2230     36.6395   7.9710236569e+01   4.8023684127e+01    0.1725553    0.1707639 -87.76 0.0004565365    1.120    0.107
       491  -9.7249    110.6741     37.2790   8.4355600568e+01   5.2020922473e+01    0.1253126    0.1057993 -86.27 0.0001988422    1.592    0.372
       492 -10.3554     41.3591     36.3986   1.0656415112e+02   6.3771720000e+01    0.1944011    0.1709354 -74.02  0.001029554    2.008    0.502
       493 -10.1772     30.4349     36.4581   1.1096316105e+02   6.4957455073e+01    0.2704461    0.2066501 -81.47  0.001477306    3.281    0.695
       494  -9.9529    239.4883     36.5243   6.2807736236e+01   2.1820497726e+01    0.1303647    0.1072594 -75.89 0.0001954956    1.012    0.011
       495 -11.4151     60.7176     34.2673   9.8502615091e+01   6.1501147388e+01    0.2646775    0.1811145 -30.84 0.0006534141    1.406    0.289
       496  -9.8953     17.4967     34.9642   1.1583230729e+02   6.6375401789e+01    0.1688721   0.08961768 -43.08   0.00102378    1.564    0.360
       497 -10.3001     92.0773     33.5398   8.8109898445e+01   5.6245901538e+01    0.1860907    0.1624518  -4.49 0.0003387919    1.119    0.106
       498 -11.8218     79.0124     33.1225   9.1913308359e+01   5.8693528233e+01     0.447183    0.2527615  39.43   0.00237842    1.642    0.391
       499 -10.5477     56.1726     34.0018   1.0004233836e+02   6.2198066729e+01    0.2313462    0.1459787 -15.87 0.0006021477    1.579    0.367
       500 -10.1251    117.7384     33.0238   8.1175172401e+01   5.1032148481e+01    0.1776745    0.1645216  21.24 0.0003600635    1.069    0.064
       501 -10.1653    183.0562     31.6891   6.8545581406e+01   3.5730554900e+01    0.1902005    0.1575476  69.12 0.0004567227    1.094    0.086
       502 -10.8185    142.6378     31.2142   7.5217399453e+01   4.5570079105e+01    0.2259226    0.1790346  -7.88 0.0009134086    1.505    0.336
       503 -11.0134    106.2266     32.0624   8.3709507418e+01   5.3602725878e+01    0.2063929    0.1615319  20.76 0.0005986341    1.264    0.209
       504  -9.6815    206.2732     31.6515   6.5440253249e+01   3.0121252168e+01    0.1403229   0.08857468 -66.85  0.000274625    1.629    0.386
       505  -9.2116     46.5659     30.4632   1.0229287322e+02   6.3996361631e+01    0.1183056    0.0954795  -6.51 0.0002301903    1.022    0.022
       506 -11.2976     32.6702     27.8428   1.0683005347e+02   6.6020532890e+01    0.3263167    0.1883335 -44.72  0.001822169    1.904    0.475
       507  -9.8134     24.2865     30.6129   1.1139293084e+02   6.6461163218e+01    0.1440862   0.09096074   4.48 0.0003469342    1.565    0.361
       508 -10.2732     70.3035     28.9967   9.3182123341e+01   6.0701213898e+01    0.1763712    0.1449807  -4.47 0.0008015491    1.095    0.086
       509 -11.7877    187.2018     27.1677   6.6805959386e+01   3.5269924619e+01    0.2628987    0.2008497  78.59 0.0004261532    1.161    0.139
       510 -10.1486    134.8629     32.8267   7.7285757083e+01   4.7196174933e+01    0.1770665    0.1501656  81.53 0.0002612483    1.287    0.223
       511 -10.3369    100.6627     25.9676   8.3016599368e+01   5.5457343977e+01    0.3277042    0.1847402   3.33   0.00147178    2.642    0.622
       512 -11.3259     38.3302     26.9744   1.0417920866e+02   6.5501454342e+01    0.2216381    0.1564752  43.70  0.001404462    2.000    0.500
       513 -11.0446      1.9988     25.7146   1.1944115351e+02   6.8962793900e+01     0.212814    0.1273365 -35.92 0.0003935115    1.239    0.193
       514 -10.7344      8.8137     23.4315   1.1552411634e+02   6.8849436633e+01    0.1949809    0.1391253 -22.05 0.0004823475    1.034    0.033
       515 -11.3850      5.5260     23.5064   1.1704917257e+02   6.9073021207e+01    0.1939499     0.145621 -24.62 0.0005249069    1.063    0.059
       516 -10.3389     65.6204     24.2130   9.2898343390e+01   6.2054365544e+01    0.1657351     0.102805 -16.37 0.0005525531    1.613    0.380
       517 -11.2799     17.8959     22.9334   1.1125665062e+02   6.8185865780e+01    0.2709011    0.1888867  16.22   0.00175567    1.441    0.306
       518 -11.2201     76.1007     27.6006   9.0757652986e+01   5.9896495854e+01    0.1943094    0.1620719 -24.14 0.0006138319    1.279    0.218
       519  -9.7744     61.3114     23.3411   9.4042164552e+01   6.2837852075e+01     0.126924   0.07974596   7.25 0.0007045786    1.696    0.411
       520 -10.0457    138.0280     21.9398   7.3263766089e+01   4.7686394155e+01     0.243618    0.1571764  21.81  0.001067869    2.002    0.501
       521 -10.3113    140.3006     18.2887   7.1720224509e+01   4.7532438287e+01     0.239967    0.1836425 -80.16  0.001104058    1.554    0.356
       522  -9.9350    132.5220     22.4833   7.4507728529e+01   4.8903024306e+01    0.1322072    0.1165809  54.09 4.219777e-06    1.017    0.017
       523 -11.0542     73.9579     20.4890   8.8687897219e+01   6.1099167254e+01    0.2172768    0.1633181 -12.23 0.0005042781    1.286    0.223
       524 -10.4796     39.1504     20.8789   1.0139897885e+02   6.6222537444e+01    0.1641066    0.1417402  -8.56 0.0009309347    1.257    0.204
       525 -10.2539    182.4465     18.7821   6.5313114258e+01   3.7380690746e+01     0.155193    0.1318309  -3.73 0.0003846108    1.562    0.360
       526 -10.5427     61.3340     18.3273   9.2013410014e+01   6.3424311791e+01     0.274264    0.1158824  34.70  0.001341826    2.233    0.552
       527 -10.5625    178.4959    232.3831   1.1568263758e+02  -6.0026377471e-01    0.3678353    0.1634028  36.25  0.001534578    2.109    0.526
       528 -11.1990     33.6630     17.7993   1.0237393376e+02   6.7274807543e+01     0.246122    0.1806736 -20.23  0.001020433    1.181    0.153
       529 -10.8260    181.6559    235.3775   1.1553951543e+02  -1.6554894663e+00     0.266277    0.1986291   9.73 0.0006267541    1.579    0.367
       530  -9.9187    200.3286     17.3199   6.2759643874e+01   3.3252084003e+01    0.1279715   0.09202603  44.77 0.0007047767    1.687    0.407
       531 -10.3835    157.8595     17.1977   6.8427182999e+01   4.3480887377e+01    0.1873343    0.1615773  87.68 0.0003605399    1.135    0.119
       532 -10.3032    146.2271     16.5806   7.0158550896e+01   4.6311409696e+01    0.2116638    0.1499528  21.85 0.0008115003    1.753    0.430
       533 -11.0324    131.9255     16.3707   7.2694269930e+01   4.9660676050e+01    0.3718892    0.1487926  46.87  0.001232076    2.234    0.552
       534 -12.2258    189.2356    245.4862   1.1566774839e+02  -4.5643814877e+00    0.6876417    0.3605044 -29.97  0.003294807    2.542    0.607
       535 -10.2371    112.6486     15.3224   7.6360914923e+01   5.4052928524e+01    0.2072924    0.1607386 -43.73  0.001251297    1.567    0.362
       536 -11.8139    180.6644    245.4389   1.1731855350e+02  -3.1123507743e+00    0.4105611     0.303869 -22.70  0.001865908    1.648    0.393
       537 -10.2114     25.5424     16.5675   1.0532189335e+02   6.8329602015e+01    0.1616613    0.1146764 -26.66 -7.246766e-06    1.255    0.203
       538 -13.2209    184.6703    240.0474   1.1569482289e+02  -2.9368843961e+00    0.3674727    0.2973554 -14.21 0.0008192174    1.415    0.293
       539 -11.0686    190.9499    235.0375   1.1365420538e+02  -3.2089967773e+00    0.3332723    0.2106034  18.12 0.0008845648    1.908    0.476
       540 -11.2837    192.9897    230.9370   1.1257066262e+02  -2.8957165540e+00    0.6268548    0.3528297  61.65  0.002548223    3.258    0.693
       541 -10.2336     96.7897     16.0335   8.0435496907e+01   5.7287623342e+01    0.1723302    0.1677496  62.21 0.0005609831    1.266    0.210
       542 -12.9357     76.4147    241.6712   1.3712936262e+02   1.4832220676e+01    0.5589427    0.3046063  80.60  0.002073949    2.111    0.526
       543 -10.4335     82.4645    245.9755   1.3642569018e+02   1.3100566402e+01    0.1559995    0.1118046 -75.32 0.0003205952    1.428    0.300
       544 -12.9861     84.3550    239.0632   1.3535800829e+02   1.4158749024e+01    0.5213808    0.3367392 -76.12 0.0006402674    1.578    0.366
       545 -10.2733     42.2268     15.5507   9.7946315996e+01   6.6495857534e+01    0.1878481    0.1001889  38.08 0.0005937055    1.918    0.479
       546 -11.1363    105.8328    246.8092   1.3209402996e+02   9.3086905781e+00     0.199525    0.1792733 -79.31 0.0003160569    1.263    0.208
       547 -11.4112     80.1932     14.3971   8.4394932563e+01   6.0634362667e+01     0.317745    0.1466787  54.55  0.001538655    2.291    0.564
       548 -11.3520    108.9632    244.2459   1.3119413531e+02   9.2814348427e+00    0.2048883     0.177975  66.53  0.000260989    1.080    0.074
       549  -9.9843     13.4883     14.4643   1.0986394124e+02   6.9760917523e+01    0.1082914    0.0787986 -14.48  4.56193e-05    1.004    0.004
       550  -9.9409    179.5210     13.5198   6.4353007869e+01   3.8645004010e+01    0.1316266    0.1107393  82.12 2.212884e-05    1.019    0.018
       551 -12.3658    139.6407    242.6758   1.2497879559e+02   4.4153514535e+00    0.3538776    0.3074753  73.22 0.0009378516    1.184    0.156
       552 -11.4765    174.8230    243.3642   1.1813930827e+02  -1.7831437711e+00    0.2982521    0.2005229 -51.62   0.00167038    1.806    0.446
       553 -12.1043    203.4819    240.6502   1.1215379068e+02  -6.1958937288e+00    0.3494241    0.2443388  41.33 0.0009829442    1.330    0.248
       554  -9.8751    168.6989     10.2842   6.4945063819e+01   4.1568210197e+01    0.1286215   0.08932059 -75.66 0.0002520704    1.553    0.356
       555 -10.2722    197.6180    241.2101   1.1336998229e+02  -5.3086663998e+00     0.319577    0.1892754   5.75  0.001411382    2.846    0.649
       556 -11.2406    147.6183    241.2747   1.2320234107e+02   3.2845649290e+00    0.2777167    0.2529116 -14.07  0.001086435    1.361    0.265
       557 -11.4268    144.0097    238.3014   1.2349987544e+02   4.4432607071e+00    0.3347443    0.2096507  53.85  0.000608101    1.506    0.336
       558  -9.6884     92.6853    241.7349   1.3404807556e+02   1.2355511375e+01    0.1082536    0.0986428  21.54 0.0006948694    1.545    0.353
       559 -10.3499    233.6910    239.5250   1.0632075895e+02  -1.0813104895e+01    0.1910461    0.1437967  18.77 0.0004156599    1.136    0.119
       560 -10.7979    168.5122    239.0893   1.1872836365e+02   1.7438543665e-02    0.2454773    0.2147477 -78.29  0.000801879    1.423    0.297
       561 -10.1486    142.8938    250.6625   1.2541667508e+02   2.4664624593e+00    0.2039961    0.1065111  43.61 0.0005995344    1.590    0.371
       562 -10.9106     66.8520    238.8665   1.3864699438e+02   1.6764322252e+01    0.2107372    0.1725921  42.43  0.001055373    1.437    0.304
       563 -11.7477    219.0292    233.0181   1.0791135012e+02  -7.5899715238e+00    0.2993963    0.2234654  -8.90 0.0006907168    1.384    0.277
       564 -11.0004    154.0770    232.7673   1.2065901486e+02   3.6683769744e+00    0.4553811    0.2519162  59.07  0.001674632    2.210    0.547
       565 -11.9329    142.5567    232.3039   1.2292940850e+02   5.7971794183e+00      0.36826    0.2446831  48.38  0.001629298    1.319    0.242
       566  -9.9002    230.6736    232.6829   1.0568555252e+02  -9.3868239892e+00    0.1304388   0.08585861   5.34 0.0006141762    1.675    0.403
       567 -11.0612    161.5501    231.7436   1.1898810160e+02   2.5204997641e+00    0.2545018    0.1925738  20.44 0.0007469977    1.501    0.334
       568 -10.5407     71.5916    225.1010   1.3636178428e+02   1.8892570421e+01    0.2121521     0.154498  53.09    0.0007963    1.238    0.192
       569 -11.0706     79.4268    231.2708   1.3548178959e+02   1.6463474207e+01    0.3756342    0.2315399  27.80  0.001226063    2.324    0.570
       570 -12.6746     74.2763    229.9038   1.3634148701e+02   1.7506332175e+01    0.3199565    0.2714641 -52.86  0.001098334    1.568    0.362
       571 -10.9796     58.8146    231.0150   1.3941893285e+02   1.9465472412e+01    0.2310797    0.1377063 -88.91 0.0008253091    1.598    0.374
       572 -10.5490    212.0735    229.3399   1.0859175784e+02  -5.8894129035e+00    0.1881914    0.1776864  86.46 0.0004285662    1.464    0.317
       573 -10.3478     89.2291    244.0538   1.3495610559e+02   1.2443230403e+01    0.2173088    0.1633011  47.25 0.0004279204    1.258    0.205
       574  -9.7984    104.4736    229.6805   1.3031438917e+02   1.2844878359e+01    0.3532727    0.1616128  64.82  0.001331285    3.261    0.693
       575  -9.8855    242.3010    228.6192   1.0285062343e+02  -1.0585970442e+01    0.1095035     0.100751 -75.92 0.0007023168    1.772    0.436
