#   1 NUMBER                 Running object number                                     
#   2 MAG_AUTO               Kron-like elliptical aperture magnitude                    [mag]
#   3 X_IMAGE                Object position along x                                    [pixel]
#   4 Y_IMAGE                Object position along y                                    [pixel]
#   5 X_WORLD                Barycenter position along world x axis                     [deg]
#   6 Y_WORLD                Barycenter position along world y axis                     [deg]
#   7 A_WORLD                Profile RMS along major axis (world units)                 [deg]
#   8 B_WORLD                Profile RMS along minor axis (world units)                 [deg]
#   9 THETA_WORLD            Position angle (CCW/world-x)                               [deg]
#  10 FWHM_WORLD             FWHM assuming a gaussian core                              [deg]
#  11 ELONGATION             A_IMAGE/B_IMAGE                                           
#  12 ELLIPTICITY            1 - B_IMAGE/A_IMAGE                                       
         1 -12.1257    221.0576     38.0061   3.5689108768e+02   2.6549192476e+01     1.991779    0.4074453 -48.91  0.006700223    4.216    0.763
         2 -11.7110    244.2678     24.3450   3.5233028515e+02   2.3747843655e+01    0.4729824    0.2844935 -46.09 0.0006165346    1.220    0.180
         3 -13.3691    190.4410     23.8135   3.5590433805e+02   3.4720913021e+01     2.589231    0.6343194  60.36  0.009365384    3.972    0.748
         4 -12.4659    191.1119     13.2589   3.5308118127e+02   3.5725618576e+01     1.250968    0.5286129 -28.32   0.00299604    2.282    0.562
         5 -14.0833    237.1019      6.4052   3.4889300475e+02   2.6958557780e+01     3.982636     1.346436  78.63   0.01967289    3.127    0.680
         6  -9.8499    145.4566     15.1315   3.5786383102e+02   4.6493824184e+01    0.4489729    0.2690374  73.17  0.002249223    1.550    0.355
         7 -10.1992    120.2849      9.4570   3.5915645245e+02   5.3521674486e+01    0.3398874    0.2824576 -30.76  0.001073491    1.307    0.235
         8 -11.1958    213.3557      2.1029   3.4901175312e+02   3.2053500383e+01    0.8943148    0.2382573  79.22  0.003667463    3.739    0.733
         9  -8.7196    154.8229      7.1043   3.5428634073e+02   4.4943301694e+01    0.1684727     0.150003  51.67  0.000408937    1.320    0.242
        10 -10.5132    161.4043      4.0465   3.5277336715e+02   4.3609767125e+01    0.4151961    0.2257217  58.12  0.001520091    1.948    0.487
        11 -10.1035    171.3956      2.7151   3.5162066357e+02   4.1326695832e+01    0.2452042    0.1359913 -81.58  0.001090789    1.691    0.408
        12  -8.7684    139.6369    232.2432   5.0772764187e+01   8.2730805117e+00    0.1495452    0.1075598 -32.53 0.0007942912    1.534    0.348
        13 -16.1583    182.0023    172.5173   3.2634762305e+01   1.2425350498e+01     2.926077     1.871886  46.88   0.01539422    1.906    0.475
        14 -19.0170    236.9466    147.4498   1.8658511828e+01   8.3478196359e+00      5.64569     4.463133 -29.73   0.02516042    1.100    0.091
        15 -11.3293    111.5161    153.4918   4.5250287200e+01   2.8001044365e+01    0.5745776    0.2536535  34.31  0.002172886    2.240    0.554
        16 -10.9352    113.3374    148.8596   4.3854217784e+01   2.8756832781e+01    0.3121717    0.2634543 -52.00 0.0006430912    1.211    0.174
        17 -10.7236     69.5080    145.5055   5.6219799699e+01   3.6726371405e+01    0.4490668     0.358016  84.13  0.001252868    1.337    0.252
        18 -11.1522     66.3139    143.6343   5.6937275587e+01   3.7672106034e+01    0.5548921    0.3637389 -79.93  0.002101352    1.685    0.407
        19 -10.5331    124.9500    133.2882   3.7439462161e+01   3.0190299438e+01    0.4861963    0.2354286 -36.60  0.001214777    2.519    0.603
        20 -11.8299    112.7517    130.0008   4.0016920595e+01   3.3274195863e+01    0.9876921    0.5526069 -27.97  0.003075214    2.875    0.652
        21 -11.9068    119.1431    121.7658   3.6311202720e+01   3.3945418265e+01    0.5792046    0.4688981 -56.80   0.00183821    1.258    0.205
        22 -10.8503    121.0450    117.3160   3.4700466037e+01   3.4577626780e+01    0.3911474    0.2954644  76.91 0.0003779962    1.740    0.425
        23 -10.5607    111.9346    137.5717   4.1913812344e+01   3.1645537383e+01     0.284286    0.2460207 -49.19 0.0005746213    1.165    0.142
        24 -10.3437      4.6632    137.4461   7.6975555180e+01   4.5744637976e+01    0.2356263    0.2121895 -80.67 0.0002434552    1.107    0.096
        25 -13.3164    121.0603    138.6245   3.9648803117e+01   2.9713997694e+01     2.244117    0.4840034 -44.62  0.005570451    5.211    0.808
        26  -8.5641    101.0045    133.4620   4.4177901639e+01   3.4620259816e+01     0.223252    0.1496092  37.58 6.007502e-05    1.477    0.323
        27 -10.0382    110.2592    123.9983   3.9341049002e+01   3.5166941476e+01    0.2425736    0.2138934 -18.28 0.0006467738    1.271    0.213
        28 -10.5224    106.5644    129.4607   4.1666325294e+01   3.4567245282e+01    0.6261024    0.2687891 -49.61  0.001941399    2.311    0.567
        29  -9.7791    105.1437    124.0702   4.0850596898e+01   3.6129466806e+01    0.3353195     0.213024 -41.45  0.001429622    1.674    0.403
        30  -8.5332    108.4720    117.4503   3.8284827315e+01   3.7065176435e+01    0.1540866    0.1512102  85.65 0.0001475752    1.014    0.014
        31  -8.3654     97.0000    113.9492   4.0905219812e+01   4.0138117392e+01    0.2568315   0.08863436 -52.51 0.0007938264    2.883    0.653
        32 -10.7879    114.1502    111.6548   3.5184091488e+01   3.7277277496e+01    0.4473523     0.203098 -56.69  0.001532195    2.585    0.613
        33 -10.7269     83.1752     91.4664   3.9514129392e+01   4.8280927683e+01    0.9979511    0.6547659 -36.36  0.004260287    1.733    0.423
        34 -10.8362     58.2217    101.2375   5.1549480851e+01   5.0102176299e+01    0.4193367     0.293328 -43.68 0.0009849626    1.489    0.329
        35 -13.6624     67.9738     96.7353   4.6617716142e+01   4.9722478368e+01      1.84591     1.279661  59.56  0.008178186    1.686    0.407
        36 -10.5398    111.2412    103.5697   3.3881683477e+01   3.9734816565e+01    0.3855639    0.2631504 -84.01  0.001206353    2.281    0.562
        37 -12.4897     55.9948     91.9919   5.0184049495e+01   5.2856942164e+01     0.632891    0.5676199  78.44  0.000760466    1.178    0.151
        38  -9.1557    162.7447    217.4167   4.3981182181e+01   7.6792190208e+00    0.1660146    0.1016841  18.89 0.0002913271    1.499    0.333
        39 -10.0035    126.2053     92.9519   2.6786950024e+01   3.8812616177e+01    0.2779119    0.2305654  47.67  0.001101844    1.232    0.189
        40 -13.3211     32.7263     86.4508   5.9144086724e+01   5.7335860535e+01     1.056556    0.9821656   3.18  0.003462222    1.154    0.133
        41  -8.0886    111.2746     91.6480   3.0498181921e+01   4.2402233525e+01     0.159804    0.1226716 -81.05 0.0007003408    1.639    0.390
        42  -9.2963    174.6574     85.1530   1.4361006378e+01   2.9451463825e+01     0.234474    0.1952226  -9.05 0.0002790571    1.452    0.311
        43  -9.1775    148.1970     85.1396   1.9385576726e+01   3.5369291899e+01    0.3227093    0.2003502 -27.80  0.001052577    1.886    0.470
        44  -8.7457    249.3454     83.5379   4.3433646587e+00   1.5533187648e+01    0.1694875    0.1182505  76.17 0.0007666016    1.926    0.481
        45  -9.6243    144.6031     82.5197   1.9402366616e+01   3.6686829632e+01    0.2616158    0.2413245 -21.81 0.0006492327    1.181    0.153
        46 -10.6782    160.2351     85.6027   1.7089029668e+01   3.2556630846e+01    0.6590129    0.4197016 -28.67  0.002410831    1.728    0.421
        47  -9.2313    139.7917     79.1614   1.9470323476e+01   3.8435960497e+01     0.201355    0.1819571   4.39 0.0005334414    1.316    0.240
        48 -10.4512    250.1925    215.2256   2.8473962403e+01  -2.1162130327e+00    0.2373481    0.1081107 -21.38  0.001098337    1.952    0.488
        49 -11.0024    236.0640     66.9433   2.0951707230e+00   2.0004292532e+01    0.4113645    0.2067079 -39.71  0.000618949    1.529    0.346
        50  -8.3375    243.2753     69.3040   1.9369342202e+00   1.8436993599e+01    0.1079015   0.08617131 -11.38 0.0006068576    1.543    0.352
        51 -11.1764     11.2456     67.7920   6.6139203669e+01   6.4112936720e+01    0.3266844    0.1692715 -57.68  0.001512022    1.656    0.396
        52  -9.6173    214.2428     66.3084   4.1687398544e+00   2.4163223559e+01    0.3969206    0.2705787  87.80  0.001896097    1.769    0.435
        53 -10.6430    217.4384     62.3062   2.8875537437e+00   2.4097847751e+01    0.3809069    0.2370691 -83.46  0.001244922    2.033    0.508
        54 -11.0845      2.6973     64.2045   7.0293864988e+01   6.5507897220e+01    0.4633912    0.1406616 -68.71  0.001744042    2.634    0.620
        55  -9.0578    193.5609     64.8847   6.2787968275e+00   2.8605474425e+01     0.200531    0.1781424  58.41 0.0003363225    1.294    0.227
        56  -9.3177    243.2166     61.2110   2.2242626965e-01   1.9504602969e+01    0.1608234    0.1579022 -75.96   0.00059891    1.306    0.234
        57  -9.9211    143.8861     58.7605   1.2357982037e+01   4.1037664630e+01    0.4440617    0.2341054 -50.53  0.001834304    1.956    0.489
        58  -8.1050    120.2393     58.6720   1.7463646066e+01   4.6863621005e+01    0.1512462    0.1113555 -65.67 0.0001741072    1.530    0.347
        59  -9.1604    227.4711     64.9800   2.4862886700e+00   2.1826115582e+01     0.195891    0.1705173  37.70 0.0008354462    1.518    0.341
        60 -10.5887    233.2443     56.8970   1.4751489898e-01   2.1838382813e+01    0.2195035    0.1925549 -79.77 0.0004997352    1.247    0.198
        61  -9.4829    233.3391     52.9138   3.5925931967e+02   2.2335113897e+01    0.2193809    0.1675524  84.71 0.0005313617    1.486    0.327
        62 -10.2809    220.1268     55.9538   1.1390134864e+00   2.4436880623e+01    0.2087693    0.1745667  62.55 0.0004405653    1.437    0.304
        63  -9.4335    195.2982     55.9877   3.7904174776e+00   2.9520368804e+01    0.2854846    0.1859673  66.43  0.001083778    1.669    0.401
        64  -9.8891    172.9980     55.5413   6.5623047267e+00   3.4575876413e+01    0.2608814    0.1859766 -51.59 5.657716e-05    1.283    0.220
        65 -10.0924    169.5195     55.4831   7.0500867225e+00   3.5394867936e+01    0.3535644    0.2522966  24.02  0.001683522    2.132    0.531
        66  -9.3478    141.5822    212.7493   4.7733706818e+01   1.1276457450e+01     0.216788     0.179758  38.67  0.000511618    1.268    0.211
        67 -11.6758     16.6439     49.6808   5.8408193209e+01   6.8268806964e+01    0.5466975    0.2442833 -29.08  0.002103907    2.882    0.653
        68 -10.4960    210.4183     34.0121   3.5680348056e+02   2.9192138935e+01    0.4370302     0.365332  46.50  0.001061514    1.581    0.368
        69  -9.7216    221.7015     44.5723   3.5835854719e+02   2.5607261586e+01    0.2635981    0.1968831  76.45  0.001328185    1.496    0.332
        70 -11.6944    168.7865    209.4309   4.1561634386e+01   8.1572323540e+00    0.4502399    0.3601543  65.61    0.0021433    2.156    0.536
        71 -10.3182    193.0892     39.1449   3.5967866288e+02   3.2270896338e+01    0.3713731    0.2281853  53.31  0.001428792    1.931    0.482
        72 -10.3029    200.6994     36.8348   3.5834875523e+02   3.0901236629e+01    0.4201053    0.2315774  57.17  0.001687405    2.089    0.521
        73  -9.0850    204.7749     36.3514   3.5785870217e+02   3.0090261938e+01    0.1975817     0.178945 -37.85 0.0005612844    1.219    0.180
        74 -10.7899    163.1133    202.1369   4.1567971844e+01   1.0126308810e+01    0.3003243    0.2163842 -52.20  0.001316283    1.730    0.422
        75  -9.3284    185.6429     45.0623   2.0526370782e+00   3.3159139323e+01    0.1860359    0.1582558 -47.72 0.0005446177    1.084    0.077
        76  -9.7089     70.4056    225.6646   6.5534277606e+01   1.8103867335e+01    0.2103881    0.1869698  16.35 0.0005456873    1.209    0.173
        77  -9.6666    239.1754     40.8915   3.5617812557e+02   2.2760477673e+01    0.1983219    0.1574916  79.98 0.0006074728    1.459    0.314
        78  -9.4940    180.5014     36.8592   4.0066219951e-01   3.5411966106e+01    0.3410574    0.2308205  36.48  0.001716047    2.118    0.528
        79  -8.3876     79.6045     36.5702   2.0547292986e+01   6.0372579404e+01    0.1416345    0.1358658  36.84 0.0001132431    1.026    0.025
        80  -9.6276    228.5268    247.4292   3.6515539640e+01  -3.7026868377e+00    0.2384488   0.09933824  27.59  0.001166065    2.132    0.531
        81 -10.9491     55.0186    199.1863   6.6998528302e+01   2.5488639741e+01    0.3614973    0.2142199  50.97  0.001829393    1.534    0.348
        82  -9.0405     14.9704    199.8490   7.7335250397e+01   2.9439317892e+01    0.1695156    0.1604067  44.15 0.0004093348    1.212    0.175
        83 -10.2854    248.3837    240.7962   3.2543756897e+01  -4.8039645168e+00    0.1825713    0.1323166  -8.05 0.0005509559    1.167    0.143
        84  -9.0222     11.4975     17.4504   4.8892495377e+01   7.5872005327e+01    0.1274258    0.1100361 -16.55 0.0001441458    1.005    0.005
        85 -12.1085    175.2283    221.6935   4.2145935113e+01   5.4337966393e+00    0.6653792    0.3228943  22.55    0.0026382    1.949    0.487
        86 -10.3275     91.3287    184.1299   5.5716952913e+01   2.4151663759e+01     0.343286    0.2415143 -19.33  0.001235114    1.933    0.483
        87 -15.4833    203.1684    174.4265   2.9086583399e+01   9.0046696844e+00     1.382092    0.8519732  19.02  0.007640059    1.772    0.436
        88  -8.1604     50.5320    177.4851   6.6145819695e+01   3.1105259066e+01    0.1398388    0.1240063  57.26 3.065576e-05    1.004    0.004
        89 -10.7398    107.7842    173.5452   4.9788208074e+01   2.4049824929e+01     0.258393    0.2016902 -56.02 0.0009036784    1.368    0.269
