#   1 NUMBER                 Running object number                                     
#   2 MAG_AUTO               Kron-like elliptical aperture magnitude                    [mag]
#   3 X_IMAGE                Object position along x                                    [pixel]
#   4 Y_IMAGE                Object position along y                                    [pixel]
#   5 X_WORLD                Barycenter position along world x axis                     [deg]
#   6 Y_WORLD                Barycenter position along world y axis                     [deg]
#   7 A_WORLD                Profile RMS along major axis (world units)                 [deg]
#   8 B_WORLD                Profile RMS along minor axis (world units)                 [deg]
#   9 THETA_WORLD            Position angle (CCW/world-x)                               [deg]
#  10 FWHM_WORLD             FWHM assuming a gaussian core                              [deg]
#  11 ELONGATION             A_IMAGE/B_IMAGE                                           
#  12 ELLIPTICITY            1 - B_IMAGE/A_IMAGE                                       
         1 -12.4070     60.4733     45.6354   1.0885978514e+02   5.9941355676e+01     1.112614    0.4820864 -48.87  0.004884348    1.992    0.498
         2 -12.4821    104.9888     12.9848   7.9842497226e+01   5.7344007360e+01    0.8490841     0.411786 -27.32  0.003637056    1.943    0.485
         3 -12.4669    124.5898     27.8192   8.1162658267e+01   5.0873587273e+01     1.643678    0.9738814  24.79  0.006854927    2.050    0.512
         4 -12.2959    130.7938     13.7829   7.3899586425e+01   5.1120619905e+01     1.470057    0.7344627  76.60  0.005232651    3.157    0.683
         5 -11.0643    119.7563     17.8503   7.8178676338e+01   5.3330388719e+01    0.9068576    0.5171651  66.60  0.003848722    2.166    0.538
         6 -12.8652    112.8188     24.7854   8.2954390702e+01   5.4024305353e+01      1.24013    0.5677671  47.25  0.005018297    2.139    0.532
         7 -11.8718    145.5402     48.1334   8.3872958891e+01   4.2828901590e+01     1.213075    0.5178785 -22.62   0.00409013    2.780    0.640
         8 -11.8013    182.2396     25.3415   6.8910138574e+01   3.6474967815e+01    0.6803333    0.3493597  45.80  0.001135241    1.947    0.486
         9 -11.4174    178.3062     21.0996   6.8068274428e+01   3.7981561571e+01    0.5893391     0.361632  30.42  0.001541407    1.828    0.453
        10 -11.5046    163.4404     27.7902   7.2885447337e+01   4.1119226952e+01    0.6243298    0.3368205  49.38  0.001843169    1.777    0.437
        11 -10.3730     60.5996     24.9114   1.0063870401e+02   6.3919984079e+01    0.6261836    0.2405339 -41.32  0.001940412    2.262    0.558
        12 -11.4608     26.1523     27.6866   1.1702336057e+02   6.7388434689e+01    0.4860068    0.4527421 -82.26  0.002646195    1.372    0.271
        13 -11.0836     22.7113     11.0994   1.1210033950e+02   7.0954548997e+01     1.352386    0.6065752   2.32  0.005274914    4.713    0.788
        14 -11.5140     19.9123     23.2813   1.1845199522e+02   6.8788561004e+01    0.5783279    0.2429685 -52.11  0.002640879    1.761    0.432
        15 -11.0691     14.7397     23.4219   1.2105027636e+02   6.9126232195e+01    0.5201467    0.3891484 -75.05  0.002275754    1.528    0.345
        16 -11.8907     16.8271     13.5046   1.1628924190e+02   7.0975296774e+01    0.5526658    0.2268355 -38.29  0.002149142    2.078    0.519
        17 -10.4399    146.6104     16.0195   7.1596628653e+01   4.6856051446e+01    0.6450722    0.2659459  48.25  0.001283012    2.255    0.557
        18 -11.0430    140.5365     20.5383   7.4587143276e+01   4.7893242277e+01    0.8211823    0.3063114  45.81  0.002888657    2.590    0.614
        19 -11.2669    214.9398     23.4813   6.3947186123e+01   2.8224039106e+01      0.49651    0.3574569  -4.44  0.001581259    1.470    0.320
        20  99.0000     88.0097      7.4415   8.2152790198e+01   6.1683075002e+01    0.6984513    0.3950171  51.98  0.003343961    1.873    0.466
        21 -11.4282     90.7057     20.4290   8.7565824759e+01   5.9377808109e+01    0.6435194    0.4408078 -25.06  0.002398703    1.340    0.254
        22 -11.5017     86.1055     14.2891   8.6161448231e+01   6.1172278454e+01    0.5932083    0.3189545 -15.56  0.001953998    2.032    0.508
        23 -11.3916    154.5426     24.8107   7.3444330988e+01   4.3791972546e+01    0.7704672    0.5188344  27.89   0.00350587    1.596    0.373
        24 -10.8927     46.7029     18.5171   1.0370061583e+02   6.6985722802e+01    0.4359192    0.3614318  43.10  0.002398584    1.596    0.374
        25 -12.2069     49.2648     13.0105   9.9886790686e+01   6.7602082189e+01    0.6503752    0.3517675  40.29  0.003357142    2.194    0.544
        26 -10.8049     42.0408     14.4505   1.0393643511e+02   6.8295887022e+01    0.3280363    0.1931597  38.85  0.001792572    2.090    0.522
        27 -10.9413     38.7657     20.5604   1.0827705915e+02   6.7561928007e+01     0.710089    0.1678467 -49.67  0.002441294    3.750    0.733
        28 -11.6567     35.5041     18.9674   1.0913002851e+02   6.8219797233e+01    0.5841476    0.1873932 -44.50  0.002163274    2.442    0.591
        29 -10.3667    206.4726     19.9092   6.3869758076e+01   3.0748479086e+01    0.5803952    0.2738764 -25.74  0.002397426    1.980    0.495
        30 -10.8496     66.3490     10.5779   9.1417712852e+01   6.5349736540e+01    0.5409235    0.3077216  33.91  0.002337567    1.857    0.461
        31 -10.3076     62.7269      6.5823   9.0747142850e+01   6.6541092472e+01     0.371957    0.2090619 -16.80  0.001152914    1.816    0.449
        32 -11.0735     77.2685      4.8050   8.4338483304e+01   6.4153702809e+01    0.5935643    0.3444445 -18.97  0.002948865    1.606    0.377
        33 -10.6764     71.7202      3.1358   8.5414981360e+01   6.5413881624e+01    0.4291659    0.3104288  -3.86  0.002046948    1.263    0.208
        34 -11.9093     68.2415     17.5721   9.4180756176e+01   6.3956217014e+01    0.7853237    0.4463695  51.80   0.00373658    2.361    0.576
        35 -12.2593    239.1336     15.8433   5.9270121132e+01   2.3083144944e+01    0.9403595    0.4976798  57.55    0.0035553    1.944    0.485
        36 -11.9092    244.8469      6.9562   5.6405283258e+01   2.2581101815e+01    0.7715666    0.4407538 -53.17  0.003699643    1.791    0.442
        37 -11.1829    165.3042     17.2191   6.8749260620e+01   4.1835107519e+01    0.4582029    0.2720368  35.69 0.0007171776    1.780    0.438
        38 -11.1929    239.1730      7.5267   5.7015064829e+01   2.3856626430e+01    0.3938339    0.2184242 -58.18 0.0009266104    1.990    0.498
        39 -10.3884    198.9957      5.5384   6.0251794455e+01   3.4066038778e+01    0.3219583    0.1419268  73.27 0.0003480703    2.352    0.575
        40 -11.4368    192.2547      7.8314   6.1752492762e+01   3.5624351590e+01    0.7400666    0.4808505  38.94  0.002401093    1.609    0.379
        41  -9.9446    193.9500      1.4571   5.9502667698e+01   3.5739637880e+01    0.2414556    0.1782215  62.88 0.0006729166    1.317    0.240
        42 -11.5998    211.2689     10.0952   6.0342928706e+01   3.0485251484e+01     0.527699    0.3416461  23.79  0.001739765    1.824    0.452
        43  -9.3586    157.7021     11.1198   6.7747726158e+01   4.4469977744e+01    0.2946584    0.1111576 -28.64  0.001065648    2.484    0.597
        44  -9.2161     32.0429     12.2881   1.0779655473e+02   6.9827755109e+01    0.1561463    0.1361327 -10.88 0.0003972051    1.191    0.160
        45  -9.4237      4.1426     10.6212   1.2213383944e+02   7.2361885874e+01    0.3574117    0.1709264 -40.96  0.001281481    1.633    0.388
        46 -10.4653    169.1138      9.9731   6.5546044314e+01   4.1558572677e+01    0.4028854    0.2241471  41.98   0.00172689    1.803    0.445
        47  -9.2108    162.7866     10.2466   6.6606245673e+01   4.3211539801e+01    0.3064377    0.2006159  20.67  0.001387657    1.693    0.409
        48 -10.0387    157.9088      2.5015   6.4469330362e+01   4.5215825701e+01    0.4073676    0.2332208  54.47  0.001575934    1.603    0.376
        49 -10.0304    162.6002      5.7427   6.4975197898e+01   4.3684050826e+01    0.4342789    0.2680551   7.33  0.001920541    1.854    0.461
        50  -9.5803    162.6868      1.3042   6.3325435484e+01   4.4049384590e+01    0.2488161    0.1438403  76.82 0.0005784476    1.870    0.465
        51 -12.1667    120.1045     57.6167   9.3641789330e+01   4.7066895988e+01     1.674533     1.218949 -89.06  0.007205269    2.358    0.576
        52 -10.3439    151.2977      7.5427   6.7451030040e+01   4.6502785333e+01    0.4640448    0.2486716  58.68  0.001068048    1.740    0.425
        53 -10.1990      1.3022      7.2761   1.2250941465e+02   7.3174389377e+01    0.1940262   0.07540373 -57.17   0.00024035    1.850    0.460
        54 -11.4527    225.2690      2.5324   5.6807476287e+01   2.7657060600e+01    0.6784699    0.3671399 -80.98  0.002889864    2.282    0.562
        55 -10.9518    218.5931      3.1521   5.7574866316e+01   2.9260935319e+01    0.3211144    0.2979504 -39.05  0.001002576    1.040    0.038
        56 -10.5998    174.1177      4.5009   6.2905378713e+01   4.0730165019e+01    0.6679318    0.3092009  79.05  0.002517163    2.560    0.609
        57 -10.4323     42.6557      3.4629   9.7925911237e+01   7.0048833275e+01    0.4710564    0.2567279 -11.22   0.00221183    2.423    0.587
        58 -10.3555    141.7676      3.6994   6.7575013434e+01   4.9345994399e+01    0.4745326    0.2398823  57.77  0.001471768    1.814    0.449
        59  -9.5280    122.7166      1.3681   7.0255262655e+01   5.4391495726e+01     0.537882     0.114741  61.19  0.001591363    4.028    0.752
        60 -10.8629    113.3134      1.8886   7.2565902410e+01   5.6630365304e+01     0.689373    0.2945217  69.56  0.002292071    3.121    0.680
        61 -10.8996    106.1838      1.8370   7.4259746536e+01   5.8314298067e+01    0.8033698    0.3318492  67.07  0.002585432    3.211    0.689
        62 -11.2997     14.2510      9.4078   1.1597041400e+02   7.1961296539e+01    0.3542238     0.256387  14.38  0.002224565    1.637    0.389
        63 -10.6146    205.8502      2.3887   5.8559639706e+01   3.2565259651e+01     0.451747    0.2580267  85.62  0.002027053    1.963    0.491
        64 -10.9867      2.6322      1.8374   1.1949658840e+02   7.4165335937e+01    0.3364317    0.1837653  -5.24  0.002022741    2.205    0.546
        65  -9.0580     51.3148      6.6692   9.5654935024e+01   6.8329684310e+01    0.1581032    0.1090713  21.60 0.0004541979    1.520    0.342
        66 -12.0478    133.7804      2.7324   6.8640599533e+01   5.1486942835e+01     0.428311    0.3057093  56.46 0.0007308439    1.340    0.254
        67  -9.9487    133.4182    140.4396   1.1192798885e+02   2.8209681961e+01    0.2810887    0.2298141 -11.23 0.0009971489    1.526    0.345
        68  -9.9900     71.2575    151.1513   1.2782820174e+02   3.5590620268e+01    0.2027897    0.1655114  30.91  0.001332328    1.430    0.301
        69 -10.8000     81.4584    135.3813   1.2325580432e+02   3.7516611512e+01    0.4953205    0.3566292  -2.14  0.002508519    2.390    0.582
        70 -11.0123     72.4644    133.8716   1.2521738355e+02   3.9030796806e+01    0.5037559    0.3243388 -31.08  0.002545413    2.476    0.596
        71 -10.7370     47.6728    134.7094   1.3134342808e+02   4.1739087311e+01    0.3247721    0.1806606 -56.62  0.001303129    1.779    0.438
        72  -9.4685    239.7815    146.6100   9.2391279546e+01   7.0328757019e+00    0.1687554    0.1197678  48.81 0.0009422938    1.631    0.387
        73 -10.1045     14.2785    133.1231   1.3907115815e+02   4.5059204354e+01    0.2560045    0.1407068  75.55  0.001035245    1.647    0.393
        74  -9.8274     62.2074    131.9759   1.2746300153e+02   4.0703228815e+01    0.3533069     0.137532 -53.89  0.001592179    2.516    0.603
        75 -10.8112     92.7687    129.0782   1.1944706178e+02   3.7224866796e+01    0.3308212    0.2609721  81.41  0.001389447    1.368    0.269
        76 -10.3969     79.7725    126.9788   1.2233514968e+02   3.9534380388e+01    0.5253414    0.3025988 -39.34    0.0016916    2.295    0.564
        77 -11.2025     55.7744    123.1007   1.2784635258e+02   4.3368852538e+01    0.6534401    0.3116198  29.42  0.002917857    2.474    0.596
        78 -10.2803     45.6853    120.4403   1.3008082107e+02   4.5032346169e+01    0.2914047    0.2059705  69.98  0.001180179    1.415    0.293
        79  -9.6921     18.7284    124.5436   1.3730711549e+02   4.6536560492e+01    0.2480174    0.1205668 -71.22  0.001127011    1.670    0.401
        80 -11.1878      2.5661    123.1300   1.4108003809e+02   4.7962296275e+01    0.3409216    0.2575633 -70.95 0.0003747394    1.252    0.201
        81  -9.6003    178.3401    125.3183   9.8939881735e+01   2.2182469029e+01    0.1516789    0.1067087  12.28 0.0007049296    1.711    0.416
        82 -10.3675    239.1189    123.6652   8.7413752367e+01   1.0036079893e+01    0.2423767    0.1738957 -28.70  0.001157874    1.378    0.274
        83 -11.6642    104.8705    121.0084   1.1490948213e+02   3.7025992253e+01    0.4961472    0.4628283 -83.51  0.002197179    1.053    0.051
        84  -9.3692    221.4717    120.5159   8.9627275300e+01   1.3973508721e+01    0.1419813    0.1234282   5.52 4.140429e-05    1.010    0.010
        85  -9.4128    148.6142    119.6755   1.0407152118e+02   2.9260916475e+01    0.2235741    0.1701642   3.29 0.0007979179    1.666    0.400
        86  -9.1735     72.2321    119.8435   1.2308607088e+02   4.2088525158e+01    0.1733411    0.1449774 -39.86 0.0008341841    1.379    0.275
        87 -11.1996     34.1484    119.6512   1.3295200259e+02   4.6312350938e+01     0.355772    0.2773685 -57.82 0.0001640864    1.319    0.242
        88 -11.2704     44.4581     85.3491   1.2488911869e+02   5.3038565177e+01    0.9207929    0.4864208  64.27  0.004129817    2.900    0.655
        89 -10.6111     24.4420     85.8896   1.3123936312e+02   5.4661544001e+01    0.5113137    0.3838305  42.74  0.002867128    1.543    0.352
        90 -10.6849     34.2604     92.4589   1.2925520523e+02   5.2375500464e+01      1.15563    0.7738162  80.33  0.006804639    1.611    0.379
        91 -11.2430     37.7004     85.9672   1.2712221520e+02   5.3542731181e+01    0.6204824    0.3969392  68.01  0.001388623    1.903    0.475
        92 -12.0359     10.1231     97.6905   1.3695623756e+02   5.2994322261e+01     1.021034    0.5734111  65.54  0.006072121    1.874    0.466
        93 -12.1491      7.3987     88.8288   1.3678213306e+02   5.5125690744e+01     0.500847    0.3871797 -79.17  0.001043207    1.009    0.009
        94 -11.5115     23.9000     99.3788   1.3326108307e+02   5.1662814955e+01    0.4875798    0.3316607 -84.19  0.002375851    1.258    0.205
        95 -11.6660     28.7663    113.0667   1.3358818606e+02   4.8227694906e+01    0.5717338    0.3581562   8.56  0.002588353    2.448    0.592
        96 -12.6811     25.5891    107.4176   1.3377651130e+02   4.9737886969e+01      1.27713    0.7067527 -25.24  0.006298329    3.303    0.697
        97 -11.9347     20.1160     95.6122   1.3387067354e+02   5.2787849956e+01    0.4925385    0.3351494  -2.53  0.003049721    2.184    0.542
        98 -12.0944     18.3928     90.5364   1.3372746252e+02   5.4048983323e+01    0.3953266    0.2587085 -80.59 0.0005919703    1.269    0.212
        99 -12.0376     18.8241    106.1641   1.3546749727e+02   5.0531215882e+01    0.2542877    0.1877756 -67.19 0.0002638146    1.189    0.159
       100  -9.6333     81.6250    117.8142   1.2027686142e+02   4.1259696615e+01    0.1924962    0.1804419  18.44 0.0003763479    1.252    0.201
       101 -10.2323    114.0214    115.9676   1.1155242024e+02   3.6524881113e+01    0.2001444    0.1979616 -82.94 0.0003375787    1.016    0.016
       102 -10.5057     67.0824    112.1003   1.2314103851e+02   4.4452953515e+01    0.4747025    0.2641603 -71.75  0.002355061    1.827    0.453
       103 -11.6662      3.1637    104.8516   1.3952800061e+02   5.1839756753e+01    0.3340286    0.3014556 -66.65  0.001050321    1.278    0.218
       104 -11.6336      2.7429    112.3123   1.4024396319e+02   5.0251863010e+01    0.4290596    0.2584505  50.77  0.001890864    1.688    0.408
       105 -10.6781      5.7815    108.6198   1.3916487833e+02   5.0865289650e+01    0.2111906    0.1948665  12.76 0.0008458354    1.480    0.324
       106  -8.9842    126.8154    114.1574   1.0796273378e+02   3.4572014572e+01    0.1922436    0.1677727  -0.24 0.0006106034    1.311    0.237
       107 -10.4789    108.0074    112.6395   1.1236177689e+02   3.8260483609e+01     0.430325    0.2977655 -88.07  0.001773288    2.118    0.528
       108 -10.8768    103.7747    108.0322   1.1245167197e+02   3.9953315690e+01    0.6238936    0.4954955 -14.40  0.002784402    1.632    0.387
       109  -9.2792     87.7198    114.4589   1.1804275904e+02   4.1108982606e+01    0.2389119    0.1225407  43.93  0.001105176    2.005    0.501
       110  -9.8862     49.0081    112.2176   1.2806013034e+02   4.6507893879e+01    0.2172176      0.16158 -75.40  0.001221083    1.168    0.144
       111 -11.3848    171.4789    109.7471   9.6603821836e+01   2.6289223030e+01    0.6818302     0.413294  31.75  0.002582356    1.811    0.448
       112 -11.1037     86.3100    105.3427   1.1658274111e+02   4.3309542667e+01    0.4589185    0.3660049   8.36  0.001634988    1.648    0.393
       113  -9.9530     82.7438    110.9995   1.1869872394e+02   4.2590386881e+01    0.3789176    0.2080858  48.58  0.001818155    1.959    0.490
       114 -10.7319     78.4329    108.0952   1.1930565138e+02   4.3839335607e+01    0.3804725    0.2991867   5.64  0.001435807    1.737    0.424
       115  -9.2984     60.6341    110.7436   1.2466630548e+02   4.5539829148e+01    0.2065855    0.1354244  58.65 0.0006419093    1.678    0.404
       116  -9.8270    120.1630    108.8821   1.0839993280e+02   3.6882692863e+01    0.1949846     0.168058 -16.40 0.0005851461    1.313    0.239
       117 -10.6834    157.8074    105.7229   9.8573786229e+01   2.9946850424e+01    0.3738608    0.2942832   3.17  0.001309715    1.474    0.322
       118 -10.4291    143.6883    105.9132   1.0188940295e+02   3.2874111430e+01      0.37521    0.3346914  38.60  0.001337613    1.112    0.101
       119 -11.2912    145.8861    100.4866   9.9970524258e+01   3.3453315967e+01    0.4965983    0.4024477  16.74  0.002530169    1.369    0.270
       120 -10.5693     48.4675    103.0073   1.2678751849e+02   4.8628339293e+01    0.3663836     0.251581 -36.03 0.0003933628    1.803    0.445
       121 -10.0560     52.4849     96.8869   1.2458075179e+02   4.9581467624e+01    0.4184221    0.1355572 -56.34  0.001724661    2.515    0.602
       122  -9.2795     81.9387    102.8562   1.1727425644e+02   4.4499296169e+01    0.1980365    0.1740084 -39.15 0.0005439891    1.208    0.172
       123  -9.4896     57.6016    102.2132   1.2404798220e+02   4.7804956838e+01    0.2467382    0.1145149 -67.50   0.00101089    2.036    0.509
       124 -10.2555     57.5800     97.4809   1.2319308116e+02   4.8874376254e+01    0.3249348    0.2277932 -77.26  0.001198102    1.395    0.283
       125 -11.1805     67.5482     96.9476   1.2017079300e+02   4.7780199971e+01    0.5907307    0.3146852 -53.70  0.001491587    1.673    0.402
       126  -9.4904    136.8638    100.1292   1.0205471592e+02   3.5392752609e+01     0.282339    0.1868317  20.18  0.001216509    2.048    0.512
       127 -10.4031     78.0227     97.0269   1.1714381504e+02   4.6351031884e+01    0.3897903    0.1806621 -60.91            0    2.127    0.530
       128 -11.3202     82.0255     93.1160   1.1510583808e+02   4.6639572154e+01    0.6290908    0.4171028  56.90  0.002180973    1.806    0.446
       129 -11.1882     89.8982     89.3141   1.1189519135e+02   4.6266873414e+01    0.6842233    0.3894342 -34.56  0.003011867    2.124    0.529
       130 -10.8922     94.0382     75.7945   1.0704133418e+02   4.8490534160e+01    0.4663831    0.4065048  -6.87  0.001023261    1.271    0.213
       131 -12.4180     74.8039     50.2563   1.0522890490e+02   5.6925538062e+01     1.107836    0.7732124 -55.19  0.005776105    1.498    0.332
       132 -11.5211     79.8284     82.7377   1.1325227110e+02   4.9253783214e+01     0.947837    0.6045819 -78.53  0.004281032    2.276    0.561
       133 -11.8211     85.3626     73.3458   1.0900686779e+02   5.0443330469e+01    0.6990944    0.6523151 -79.20  0.004181324    1.178    0.151
       134 -11.4295     78.7630     67.1592   1.0931908629e+02   5.2797077937e+01    0.6833466    0.5255896 -89.83  0.003098663    1.835    0.455
       135 -11.3700     66.2064     81.7298   1.1724370419e+02   5.1368663022e+01     0.439386    0.3662738  23.57   0.00264306    1.402    0.287
       136 -11.4660     71.9133     79.5547   1.1491118714e+02   5.1089557292e+01    0.6226231    0.3200539 -44.28  0.001979293    1.860    0.462
       137 -10.3497    210.8784     97.6956   8.5795163558e+01   1.9508364430e+01    0.4234616    0.2987132   2.00  0.001686998    1.554    0.357
       138  -9.3839    140.4420     96.4844   1.0021713509e+02   3.5361508548e+01    0.2450463    0.1928403  33.33   0.00110862    1.307    0.235
       139  -9.6494    138.4736     93.2582   9.9825801515e+01   3.6396414470e+01    0.3979084    0.2484291  19.17  0.001583031    2.413    0.586
       140 -10.8804    125.3399     93.5594   1.0322598750e+02   3.9014706017e+01    0.5498583    0.3391689  35.97  0.001629449    1.747    0.428
       141 -10.1633    117.1872     92.9205   1.0519844125e+02   4.0725594112e+01    0.3480278    0.2196948  37.07  0.001226637    1.687    0.407
       142 -10.9206    121.8816     89.2710   1.0296763766e+02   4.0562242645e+01    0.4445724    0.3096115  11.26  0.001967863    2.069    0.517
       143 -10.8105    120.1903     85.1955   1.0228189296e+02   4.1718475647e+01    0.5148368    0.2207716  45.79  0.001904589    2.432    0.589
       144  -9.5135    160.0649     93.4941   9.4807157480e+01   3.1670034934e+01    0.3404822    0.1512433  55.44   0.00120261    2.662    0.624
       145 -10.5740    152.8515     91.7430   9.5967297542e+01   3.3587206051e+01    0.3819712    0.3094569  49.80  0.001775234    1.276    0.216
       146 -10.5180    101.6392     90.8326   1.0891516849e+02   4.3988386881e+01    0.4774319    0.3541279  49.15  0.001879536    1.453    0.312
       147  -9.9210    105.0114     88.0000   1.0722490777e+02   4.3995618745e+01    0.3250068    0.1985828  49.58   0.00149772    1.808    0.447
       148 -10.2589    183.9187     85.9803   8.7650358336e+01   2.7482318926e+01    0.6348188    0.2160164 -37.95  0.002104739    2.850    0.649
       149  -9.6754    103.9704     77.0828   1.0447386928e+02   4.6465731088e+01    0.6551175     0.327277 -34.07  0.002585354    2.301    0.565
       150 -11.2594    113.6140     83.2285   1.0351383573e+02   4.3396146723e+01    0.5785626    0.3530534 -41.99  0.001943511    1.571    0.363
       151 -11.0822    108.8188     80.7653   1.0415087445e+02   4.4808706454e+01    0.4018017    0.3365967 -30.03  0.001404725    1.188    0.158
       152  -9.1343     67.5933     88.1841   1.1829487013e+02   4.9742192092e+01    0.1983349    0.1063406 -48.30 0.0009428472    1.723    0.419
       153  -9.5260    212.1898     87.1063   8.2749821968e+01   2.0753852930e+01    0.2328189    0.1845354   9.26 0.0004801459    1.271    0.213
       154 -10.6258    165.7078     83.0807   9.0600424318e+01   3.2215907245e+01    0.4537006    0.3835201 -43.21  0.001502728    1.245    0.197
       155 -11.4439    143.4579     83.1519   9.5740896270e+01   3.7246794127e+01    0.4966062     0.368481 -24.89  0.001907355    1.396    0.284
       156 -10.3001    127.4822     83.3176   9.9814699336e+01   4.0621433571e+01    0.4187486    0.2668557  45.23  0.001554723    1.616    0.381
       157 -11.2182     58.0674     78.1634   1.1901317527e+02   5.3180237654e+01    0.4686393    0.3401368 -87.28  0.001128593    1.651    0.394
       158 -11.6085     52.8805     76.1242   1.2024215885e+02   5.4238543807e+01    0.7304049    0.3678159 -61.37  0.003540337    1.742    0.426
       159 -10.2503    120.7714     79.9772   1.0061942816e+02   4.2648135188e+01    0.4192812    0.2176511  47.99  0.001727916    2.046    0.511
       160 -12.6148     24.3572     55.9476   1.2577107941e+02   6.1431587300e+01     2.102533    0.8303639  10.89  0.008835553    4.206    0.762
       161  99.0000     51.9155     47.4214   1.1274604043e+02   6.0654018677e+01    0.7864186    0.3239418 -58.50  0.003227271    2.533    0.605
       162 -11.6428     32.7154     42.1537   1.1883271631e+02   6.3779655657e+01    0.6432438     0.472023  47.72  0.002458032    1.788    0.441
       163 -11.2879     27.8583     47.0712   1.2222575379e+02   6.3125926582e+01     0.400906    0.2335976 -21.54  0.002127496    2.226    0.551
       164 -10.3580     20.9627     47.1377   1.2504434425e+02   6.3629591081e+01    0.3178692    0.2097628 -58.74  0.001697403    1.175    0.149
       165 -11.7894     13.8156     74.5255   1.3293198057e+02   5.7955578123e+01    0.5202956    0.3960052 -80.74  0.003480884    1.125    0.111
       166 -12.1048      2.0743     71.2375   1.3634895640e+02   5.9330949923e+01    0.8349792    0.1477727 -65.56  0.003368485    3.145    0.682
       167 -11.4065     51.6975     61.7422   1.1707190286e+02   5.7583467987e+01    0.5725556    0.3385165 -73.56  0.002375375    2.120    0.528
       168 -11.4138     46.2553     58.4758   1.1816912977e+02   5.8901750988e+01    0.6138538    0.3827237 -58.31  0.003371526    1.372    0.271
       169 -11.7267     45.9234     49.0364   1.1558538714e+02   6.0992714946e+01    0.4571786    0.3424531 -15.63  0.001235514    1.538    0.350
       170 -12.5927     41.8049     45.4607   1.1611661718e+02   6.2195112024e+01    0.3218262     0.276081 -11.14 0.0003159325    1.282    0.220
       171 -11.6557     13.1523     65.9753   1.3181306512e+02   5.9922348655e+01    0.2880656    0.2345691  72.62 0.0003995837    1.363    0.267
       172 -11.2835     12.3491     62.3090   1.3147771242e+02   6.0793713221e+01     0.544397     0.249746  -0.88  0.002268053    3.626    0.724
       173  -9.3171      5.0007     78.2509   1.3627981423e+02   5.7618031452e+01     0.156951    0.1234562 -76.01 0.0005929382    1.034    0.033
       174  -9.1511    134.6346     77.3338   9.6195697879e+01   4.0264549214e+01    0.2268705    0.1847205 -79.31  0.001090614    1.653    0.395
       175  -9.3528    241.9785     76.2367   7.5238151320e+01   1.5555962213e+01    0.1775514      0.11919  54.99 0.0008858216    1.638    0.390
       176  -9.5752    192.1453     65.5155   8.0103617276e+01   2.8660388075e+01    0.2941605    0.2224659 -52.95  0.001060024    1.554    0.356
       177 -10.3129    183.9645     74.7695   8.4395142317e+01   2.9252228317e+01    0.3504411    0.2346004  49.16  0.001220965    1.500    0.333
       178 -12.0577    186.8665     69.9303   8.2399078655e+01   2.9294414658e+01    0.8417049    0.6383688 -40.48  0.002943162    1.363    0.266
       179  -9.7769     66.1451     73.2962   1.1517196672e+02   5.3254678325e+01     0.263013    0.1710871 -59.61  0.000650724    1.422    0.297
       180 -11.1515     33.0902     71.7785   1.2596923923e+02   5.7172507009e+01     0.589044    0.2677343  30.36  0.002967402    2.554    0.609
       181 -10.3204     38.6859     73.6820   1.2445507327e+02   5.6243416318e+01    0.2282591    0.1594332 -43.42  0.001096426    1.399    0.285
       182 -11.1023     41.2140     71.2021   1.2306626493e+02   5.6565740769e+01    0.4152907    0.2609792 -73.37  0.002275553    1.558    0.358
       183  -9.6256     24.1444     73.1580   1.2926612090e+02   5.7569504682e+01    0.2406161    0.1434653 -79.45 0.0009404533    1.565    0.361
       184 -11.4336     39.8628     55.5766   1.1978177385e+02   6.0190655092e+01    0.5383616     0.402822  69.96  0.003151753    1.803    0.445
       185  -9.1435    230.5064     73.5222   7.6158058350e+01   1.8448638754e+01    0.1446686    0.1308185 -18.75 0.0008092521    1.070    0.066
       186 -11.7846    122.7375     68.2844   9.6485248575e+01   4.4521416861e+01    0.6712467     0.499911  41.34  0.002456152    1.388    0.280
       187  -9.3773     46.4671     72.7035   1.2161000539e+02   5.5701543024e+01    0.2547053    0.1149773 -67.30  0.001124056    2.195    0.544
       188 -10.1590    161.9816     70.4114   8.7592770923e+01   3.5243256270e+01    0.3757573    0.2949412  70.88  0.001752056    1.565    0.361
       189 -10.0244    207.7706     68.2753   7.8231216675e+01   2.4467375180e+01     0.441185     0.191082  43.48  0.001639744    2.419    0.587
       190 -10.5847    172.0999     67.6782   8.4605592761e+01   3.3246228805e+01    0.4553752    0.3411456 -47.89  0.002146567    1.480    0.324
       191 -10.0027    167.7053     63.0415   8.4050750462e+01   3.5055348837e+01    0.2529155    0.2167749  49.59 0.0006404693    1.197    0.165
       192  -9.9559    112.4240     67.5883   9.9125555429e+01   4.6766742120e+01     0.447288    0.2761599  68.26  0.001422171    2.807    0.644
       193 -11.5940    219.6420     66.1250   7.5742499753e+01   2.1933251091e+01    0.6772627    0.3964149  52.75  0.002397642    1.753    0.429
       194 -10.8305     58.4770     62.1675   1.1477536922e+02   5.6685094562e+01    0.6284804     0.310208 -64.00  0.002737777    2.269    0.559
       195 -10.2715    143.0669    249.1490   1.2496429792e+02   9.9825310368e+00    0.2388292    0.1101081  34.60  0.001450748    1.885    0.469
       196 -10.8501     60.5304     36.4918   1.0547903169e+02   6.1764121033e+01    0.3554732    0.2027477 -45.55  0.001165715    1.533    0.348
       197 -10.2140     20.9131     65.0774   1.2891466565e+02   5.9627155402e+01    0.1804344    0.1440262 -66.51 0.0008457979    1.021    0.021
       198  -9.7376    198.1743     62.8630   7.8252848011e+01   2.7559938350e+01    0.3144117    0.1914012 -39.50 0.0008811577    1.660    0.397
       199 -10.2321    106.2189     62.9110   9.9401858218e+01   4.8900961737e+01    0.4211973     0.298726 -82.43  0.001782771    2.527    0.604
       200  -9.7665     84.7820     62.4535   1.0591097420e+02   5.2834952732e+01    0.4308694    0.1938985 -42.69  0.001775507    2.038    0.509
       201 -10.5554     98.4111     62.2149   1.0152360175e+02   5.0512774724e+01    0.4055986    0.3080792   4.59  0.001643063    1.631    0.387
       202 -11.0614     92.0079     62.3397   1.0355826067e+02   5.1634939755e+01    0.3741421    0.3606986 -10.33  0.001207065    1.079    0.073
       203 -10.8341     91.2949     57.9713   1.0234076861e+02   5.2641072784e+01    0.3712856    0.3391071   6.86  0.001322494    1.139    0.122
       204 -10.8728     87.5597     56.7301   1.0312901139e+02   5.3538426445e+01    0.4818564    0.2300017 -43.76  0.001222055    1.903    0.475
       205  -9.2759    205.5067     63.1374   7.7109146672e+01   2.5727505409e+01    0.2973803    0.1693333  24.72  0.001155812    2.317    0.568
       206 -10.8993    159.6123     61.6547   8.5321094146e+01   3.7253733554e+01    0.5760514    0.4147146   2.02  0.002070891    1.648    0.393
       207 -10.5695    157.4835     56.5299   8.4094802644e+01   3.8592584959e+01    0.3702589    0.2675081  25.62 0.0007440564    1.524    0.344
       208 -11.3534    156.5208     53.4656   8.3273168043e+01   3.9309667572e+01    0.8408849    0.4403236 -38.33  0.003367207    1.894    0.472
       209  -9.5809    174.9799    246.4744   1.1958693376e+02   5.8638252563e+00    0.1681386   0.07641164  40.51 0.0005202109    1.589    0.371
       210  -9.5754    199.0055    244.5083   1.1554404655e+02   2.6790119987e+00    0.1703386   0.07685463  39.53  0.001039271    1.610    0.379
       211 -10.5941    127.3735    241.8017   1.2680074367e+02   1.2999297930e+01     0.141765    0.1186772  48.06 0.0009317078    1.138    0.122
       212 -10.2747    150.3682    237.7323   1.2262078801e+02   1.0329450083e+01    0.1563969    0.1380967 -13.60  0.001293657    1.495    0.331
       213 -11.6255    105.6704     33.0185   8.8445523363e+01   5.4361643917e+01     0.570449    0.3450113  -2.91  0.001107359    2.320    0.569
       214  -9.5202     15.3521    233.5769   1.4402823262e+02   2.6921873939e+01    0.1542624   0.09242853 -85.62  0.001236714    1.586    0.370
       215 -13.0096    117.5395     42.8795   8.8982114654e+01   5.0191967139e+01    0.9682514    0.7000602  60.57  0.003742188    1.653    0.395
       216 -12.9160    120.3445     38.9886   8.6719009736e+01   5.0196464107e+01    0.8121387    0.6011512 -70.98  0.001060494    2.073    0.517
       217  -9.7335    147.6740     60.6442   8.7677431872e+01   4.0289142919e+01    0.4397216    0.1551526  57.15  0.001350375    3.406    0.706
       218  -9.3285    228.7687     59.2995   7.2510590939e+01   2.0672278258e+01    0.2128162    0.1868303 -82.80 0.0005595889    1.391    0.281
       219 -10.3454    139.4471     43.3479   8.3565284157e+01   4.5044384928e+01     0.796115    0.4146378  21.23  0.002062189    3.445    0.710
       220 -11.2827    136.5611     55.8636   8.8730085995e+01   4.3702494981e+01    0.6963612    0.5054017 -20.99  0.002337325    1.399    0.285
       221 -10.4047    242.4734    231.4894   1.0702359684e+02  -2.2369422476e+00    0.2173312    0.1567428  43.92  0.001589809    1.700    0.412
       222  -8.6370    243.6736     57.7109   7.0117534160e+01   1.7458746559e+01    0.1436948    0.0998903  21.20 0.0006178451    1.614    0.380
       223  -9.1428    219.7918     57.0395   7.3143996180e+01   2.3082921573e+01    0.2018006    0.1628874 -75.22 0.0006183445    1.574    0.365
       224  -9.8071      2.0459     56.0112   1.3419502914e+02   6.2728923678e+01    0.1751457    0.1302507 -62.97 0.0004873741    1.067    0.063
       225  -9.4644    187.8840     55.0913   7.7663744022e+01   3.1216294687e+01    0.2855029    0.1982091  47.04  0.001322718    1.436    0.304
       226  -9.8696     67.0429     54.9846   1.0956560543e+02   5.7096868756e+01    0.2084972    0.1826703 -40.46 0.0006440782    1.015    0.014
       227  -9.9061    249.0549     53.0951   6.8241581656e+01   1.6805100522e+01    0.2681412    0.2008494  46.68   0.00106329    1.430    0.301
       228 -10.1281    233.2660     44.8825   6.7912129884e+01   2.1364170644e+01    0.3410185     0.211331  50.72  0.001640085    1.677    0.404
       229 -11.2366    240.0700     50.3175   6.8573138926e+01   1.9149345515e+01    0.4691595    0.4055817  18.75  0.002473109    1.184    0.155
       230 -10.2184    244.5002     50.5018   6.8090118692e+01   1.8122014289e+01    0.2772885    0.2143957 -40.76 0.0009082897    1.278    0.218
       231 -11.2856    202.1800     47.9762   7.3099146238e+01   2.8577313860e+01    0.8708386    0.4663468 -36.90   0.00365822    1.808    0.447
       232 -11.2436    173.8304     48.1802   7.8000761099e+01   3.5749115770e+01    0.7048319    0.4086995  57.95  0.002244625    1.766    0.434
       233 -10.0899    176.7392     43.4305   7.5889888101e+01   3.5661232839e+01    0.3853807    0.3061523  70.88  0.001580113    1.411    0.291
       234 -10.8709    176.8741     37.1692   7.3770730932e+01   3.6450451035e+01    0.4794875    0.3206682 -10.86  0.001632474    1.588    0.370
       235 -10.9307    172.3570     33.2041   7.3205735325e+01   3.8126880736e+01    0.4361284    0.3657533  54.60  0.001568617    1.197    0.165
       236 -10.2641    175.8850     29.6699   7.1390898852e+01   3.7638496416e+01    0.3751593    0.3191015  -1.37   0.00115877    1.176    0.150
       237 -10.4128    197.9788    231.8109   1.1409037183e+02   4.1038155773e+00    0.1883499    0.0964736  24.52  0.001081762    1.995    0.499
       238  -9.1330     23.4648    231.5349   1.4272726558e+02   2.6487546572e+01   0.09437478   0.06240803  63.13 0.0004501081    1.037    0.035
       239  -9.8361     90.6801     48.1316   9.9070765107e+01   5.4670767874e+01    0.2457133    0.2359319 -78.80 0.0007323214    1.263    0.209
       240  -9.3815      3.6688     48.8946   1.3236240374e+02   6.4235513080e+01    0.1589871    0.1337419  25.58   0.00117416    1.549    0.355
       241 -10.0230     14.1326     46.4424   1.2766227341e+02   6.4226380442e+01    0.3951416   0.09341629 -49.47  0.001610792    2.997    0.666
       242  -9.5651     17.5911     41.9912   1.2516012974e+02   6.4986310418e+01    0.2890547    0.1736099 -26.47  0.001677831    1.902    0.474
       243  -9.4617    193.2353     46.0930   7.3931590593e+01   3.1084219413e+01    0.2861928    0.1961573 -75.86   0.00120379    2.102    0.524
       244  -9.4455    132.3022     45.1592   8.5965976257e+01   4.6460610118e+01    0.2590125    0.1941363  33.37 0.0005457675    1.365    0.267
       245 -10.3722    100.5144     43.6307   9.4244845952e+01   5.3632618363e+01    0.4600085    0.3337526 -79.06   0.00201211    2.504    0.601
       246 -11.2063     93.8237     41.3922   9.5488462755e+01   5.5331681957e+01    0.5322851    0.3371626  40.54  0.001950696    1.678    0.404
       247 -11.6172    156.1726     41.7841   7.9298323512e+01   4.1139050109e+01    0.4415749    0.4097813  19.04 0.0008723378    1.034    0.033
       248 -11.1826    153.5382     36.4140   7.7917409548e+01   4.2555915861e+01    0.3733277    0.3428664 -43.88 0.0008510186    1.178    0.151
       249  -9.7358      4.1337     44.0786   1.3125650453e+02   6.5277054143e+01    0.3208451    0.1843226 -31.32 0.0009055109    1.910    0.476
       250  -9.3323    188.8529     42.1235   7.3384167692e+01   3.2720055765e+01    0.2348726    0.2127456   1.08 0.0003269755    1.072    0.067
       251  -9.5971    189.4775     37.9889   7.1952218690e+01   3.3083287608e+01    0.3521063     0.150885 -20.59  0.001108606    2.430    0.589
       252 -10.2368    190.1941     32.7935   7.0159859662e+01   3.3530973025e+01    0.3956214    0.2790005 -64.50  0.001288913    1.776    0.437
       253 -10.3513    189.3687     27.7841   6.8652109443e+01   3.4330036846e+01    0.4882795    0.3482597 -17.54  0.001972653    1.392    0.282
       254 -11.5103     70.1292     32.5280   1.0017770165e+02   6.1080295626e+01    0.4868903    0.3050216  30.70 0.0005252844    1.780    0.438
       255 -11.0722     81.6835     39.4530   9.8795768180e+01   5.7889763830e+01    0.4438215    0.3439438  42.33  0.001561276    1.452    0.311
       256 -10.8970     77.7965     34.3855   9.8124635969e+01   5.9481329771e+01    0.3842426    0.3509548  38.58  0.001052623    1.281    0.220
       257 -11.0762     82.2331     31.5296   9.5356310280e+01   5.9209787644e+01    0.4398632    0.4040591  50.20  0.002625599    1.338    0.253
       258  -9.9342    231.3181     39.0796   6.6525974658e+01   2.2493280598e+01    0.3382422    0.1938096 -37.49  0.001490158    1.638    0.389
       259  -9.4738    218.0791     39.0059   6.8153003115e+01   2.5713935237e+01    0.2256988    0.2119923  -5.76   0.00103648    1.019    0.019
       260  -9.9361    133.5493     37.2197   8.2677843303e+01   4.7387605672e+01    0.4657026    0.3656505 -72.32  0.002213867    1.762    0.432
       261 -10.6200    139.2504     32.6106   7.9580763318e+01   4.6659546919e+01    0.6156748    0.3858948 -13.34  0.002682271    1.719    0.418
       262 -10.3231    206.9191     37.0957   6.9082501974e+01   2.8728204922e+01    0.3304436    0.2648548 -50.00 0.0007691315    1.331    0.248
       263 -10.7636     22.3158     36.3588   1.2157393315e+02   6.5873423684e+01    0.3945095    0.2448652  44.34  0.002091036    2.179    0.541
       264 -11.0019      5.1775     35.9867   1.2906927065e+02   6.6996833051e+01    0.3900781    0.2928652 -45.26  0.002275971    1.191    0.161
       265  99.0000      6.4785     30.7963   1.2720242645e+02   6.8052065585e+01    0.3718663    0.2046988   7.68  0.002206527    2.355    0.575
       266 -10.0349    161.9207     43.6179   7.8768704599e+01   3.9423485541e+01    0.3712322    0.2435057  55.65  0.001662476    1.541    0.351
       267  -9.1300    168.3034     29.2963   7.2554887145e+01   3.9666896416e+01    0.2156475    0.1428864  43.10 0.0001984956    1.494    0.331
       268 -10.2477    160.6436     33.1859   7.5341515107e+01   4.1167458409e+01    0.3806727    0.3310359  47.92  0.001248387    1.141    0.124
       269  -9.1250    190.1082    229.8460   1.1511957726e+02   5.4703207932e+00    0.1509226     0.101483  24.99 0.0005267546    1.289    0.224
       270  -9.5033    158.5054     20.4630   7.1098101781e+01   4.3267275597e+01    0.2259635    0.2191673  18.89  0.000518557    1.043    0.041
       271 -10.4666    240.9278     31.2524   6.3288592531e+01   2.1090780872e+01    0.4886083    0.3411874  -3.13  0.002512716    1.527    0.345
       272  -9.9472    203.4855     27.5129   6.6597956449e+01   3.0702559454e+01    0.3539763    0.2137686 -32.58  0.001459822    1.574    0.365
       273 -11.0360    197.8867     28.8279   6.7769091947e+01   3.1997800346e+01    0.5122879    0.4778897  11.30  0.001997465    1.056    0.053
       274 -10.3900    199.7200     24.9588   6.6297087671e+01   3.1953455399e+01    0.3298961    0.2616535 -25.46 0.0007200086    1.220    0.181
       275  -9.7589      9.1200    227.2092   1.4475193643e+02   2.8427461609e+01    0.1256413    0.0957176  64.74 0.0003155934    1.184    0.156
       276 -10.8055     57.2059     30.6499   1.0447904792e+02   6.3348710859e+01    0.3701093    0.2426585  24.75  0.001291686    1.746    0.427
       277 -11.7315     47.8997     30.5277   1.0832264132e+02   6.4579577133e+01    0.6791061    0.3362934  23.25  0.003185811    2.598    0.615
       278  -9.4299    182.6634     32.0355   7.1085599904e+01   3.5582215840e+01    0.2119583    0.1887774 -16.78 0.0004242329    1.095    0.087
       279  -9.2599     36.0091     31.6916   1.1395688650e+02   6.5661600221e+01    0.2318986     0.150228 -77.41   0.00114893    2.488    0.598
       280  -9.6693    210.9793     30.1902   6.6445150763e+01   2.8495930053e+01    0.2556616     0.225874 -48.70 0.0007523999    1.167    0.143
       281  -8.9648    209.3592    223.3040   1.1107332686e+02   3.3042059833e+00    0.1179133   0.06788911  19.84 0.0007038909    1.723    0.420
       282  -9.7545    234.5278    222.5405   1.0693213173e+02  -3.1970538136e-01    0.1124254   0.07964053  22.49 5.884202e-05    1.008    0.008
       283 -10.1043      9.9499    217.7543   1.4430460059e+02   2.9823379432e+01    0.1569842    0.1014224  80.09  0.000625225    1.229    0.186
       284  -9.4932    166.7400    213.5401   1.1694618115e+02   1.0937015900e+01    0.2120192    0.1387059 -76.71 0.0007614467    3.529    0.717
       285  -9.3601    152.5918    207.7665   1.1870216367e+02   1.3893133979e+01    0.1344268    0.1119178 -70.68 0.0005474894    1.599    0.374
       286  -9.1699    230.5620     30.4942   6.4197138738e+01   2.3626355850e+01    0.2326096    0.1997816 -25.06 0.0006078883    1.081    0.075
       287  -9.5810    230.4688     26.9629   6.3211678742e+01   2.4026207277e+01     0.239012    0.1538616 -39.80    0.0011737    1.479    0.324
       288  -9.0619    221.6298     29.7403   6.5004893090e+01   2.5885148173e+01    0.2101373      0.11877 -32.67 0.0009442648    1.628    0.386
       289  -9.5908    250.5347     25.4158   6.0780741895e+01   1.9495488092e+01    0.2630499    0.1214567 -22.06  0.000554398    1.972    0.493
       290  -9.0302    149.4906     19.4623   7.2382294755e+01   4.5726453885e+01    0.2215628    0.1328497 -33.54 5.283379e-05    1.671    0.402
       291 -10.2852    143.6119     24.6361   7.5554301429e+01   4.6615341374e+01    0.4920005    0.3019499  68.55  0.002123172    1.885    0.470
       292 -11.1604      4.3242    204.4941   1.4473811615e+02   3.2440980871e+01    0.4039922   0.08568361 -69.00  0.002021857    4.260    0.765
       293  -9.9462    134.0273     24.6417   7.7636665919e+01   4.9013432555e+01     0.453053    0.3105894 -54.14  0.001956299    1.869    0.465
       294 -12.4584      5.0685    184.6961   1.4385685243e+02   3.5779002963e+01    0.6411337    0.3780117  77.41  0.004893342    1.290    0.225
       295  -8.9818     98.0227     26.5082   8.7985193805e+01   5.6977160465e+01    0.2006793    0.1412898  47.83   0.00088517    1.518    0.341
       296 -10.5672    245.4593    200.9975   1.0178442220e+02   1.1099103712e-01    0.1811012    0.1234448  27.55 0.0006326124    1.154    0.133
       297 -10.3440    234.2458    196.9724   1.0290164123e+02   2.2357562470e+00     0.332812    0.2104559   9.56  0.001459464    1.505    0.335
       298 -12.1159     17.1238    192.6300   1.4208460431e+02   3.3377216273e+01    0.1934826    0.1388505  71.75 0.0003126638    1.017    0.017
       299  -9.7944    169.7817    191.1924   1.1320961501e+02   1.3468190537e+01    0.3486594      0.14095  32.46  0.001237837    2.723    0.633
       300  -9.2017    239.6736    184.6841   9.9871467205e+01   2.6755527805e+00    0.1283891   0.07486045  15.13 0.0005052123    1.672    0.402
       301 -10.1640    213.4377    181.8774   1.0378282825e+02   7.3317106437e+00    0.2718842    0.1945361  23.44  0.001685708    1.178    0.151
       302  -9.3785    250.4613    180.0372   9.7293386266e+01   1.4452322099e+00    0.1775558    0.1046779 -19.40  0.001046641    1.642    0.391
       303  -9.3374     57.4809    175.0231   1.3329224641e+02   3.2557793723e+01    0.1675503    0.1294217  53.65  0.000535243    1.170    0.145
       304  -9.8785    247.7548    173.7460   9.6545250589e+01   2.5448219066e+00    0.3107073    0.1230396  31.31  0.001406974    2.443    0.591
       305  -9.8580     39.3822    173.2115   1.3675644620e+02   3.4828310681e+01    0.1939721    0.1634651  58.91   0.00121342    1.191    0.161
       306  -9.6604    223.0716     22.4655   6.2730354952e+01   2.6302141800e+01    0.2704102    0.1974476  60.97 0.0007904106    1.413    0.292
       307 -10.0870    220.8701     19.0866   6.1987554541e+01   2.7192500276e+01    0.2603327    0.2362706 -11.68 0.0004994897    1.080    0.074
       308 -11.0775     35.0248    170.4008   1.3741469266e+02   3.5790757597e+01    0.2673308    0.1606612 -88.11  0.001247443    1.462    0.316
       309 -11.9666      9.4153    166.5765   1.4221124061e+02   3.8761720831e+01    0.5312855    0.3305656 -69.36  0.003722222    1.589    0.371
       310 -10.4428     14.2950    159.6806   1.4086270259e+02   3.9696700736e+01    0.2183306    0.1252194  62.42 0.0005510708    1.465    0.318
       311 -10.5462     13.5087    156.5431   1.4083367953e+02   4.0372186584e+01    0.1982574    0.1338387  83.20 0.0005492562    1.157    0.135
       312  -9.2870    197.9866    167.7460   1.0396907704e+02   1.1870771910e+01    0.1824103    0.1508705  26.19 0.0006658421    1.032    0.031
       313 -10.1741     66.0426     22.0125   9.7142417376e+01   6.3585727403e+01    0.2538762    0.1896774  36.21 0.0004121868    1.486    0.327
       314  -9.0851    149.2265    168.4323   1.1355490266e+02   2.0443504566e+01    0.1863814    0.1093637  50.22 0.0009508884    1.653    0.395
       315 -10.4953      9.0001    155.9928   1.4172040425e+02   4.0830568014e+01     0.307381    0.1582813  46.57  0.002050218    1.750    0.428
       316 -10.1572     19.0063    165.2990   1.4025946765e+02   3.8221716355e+01    0.2122888     0.190498  70.05  0.001789223    1.272    0.214
       317  -9.1065      1.7192     20.4452   1.2666643727e+02   7.0469390001e+01    0.1441392   0.09311315 -24.69  0.000941192    1.628    0.386
       318  -9.9395    188.7932    164.2304   1.0502577777e+02   1.4034896765e+01    0.2468954     0.175017 -16.18   0.00117148    1.583    0.368
       319  -9.7971    225.0974     16.7964   6.0884803273e+01   2.6374960397e+01    0.2462629    0.2090466   1.88 0.0009372393    1.223    0.182
       320  -9.8854    191.6133     16.8075   6.4753593369e+01   3.4925994229e+01    0.2870318    0.2551335  13.00  0.001211381    1.139    0.122
       321 -10.1591     28.0043    163.1049   1.3830553461e+02   3.7855043003e+01    0.2648603    0.1763751 -69.54  0.001748929    1.464    0.317
       322 -10.1596    206.1103    162.3691   1.0145366631e+02   1.1137177799e+01    0.4750628      0.24398  23.01  0.001551486    2.444    0.591
       323 -10.6406    186.1517     15.3494   6.4999490385e+01   3.6511222407e+01    0.3144027    0.2584562  51.60 0.0006854244    1.192    0.161
       324 -10.3448    246.5062    158.4657   9.3753243506e+01   4.4494603702e+00    0.2536373    0.1127477 -26.48  0.001215559    2.182    0.542
       325 -10.1263     80.7113    160.1828   1.2685159369e+02   3.2569380547e+01    0.3146011    0.2146154  36.81  0.001916521    1.507    0.336
       326  -9.8667    219.2166     12.7508   6.0311393616e+01   2.8227220470e+01    0.3275657     0.167606  59.89  0.001455457    1.922    0.480
       327  -9.3113    224.1406    156.8277   9.7151115622e+01   8.5893246484e+00    0.1907826    0.1342168  13.69 0.0006679186    1.333    0.250
       328 -10.5861    105.0150    153.7944   1.2061220179e+02   3.0353468939e+01    0.3414468    0.3053133 -67.69  0.002240653    1.160    0.138
       329 -10.7279     31.3457    154.2442   1.3694173742e+02   3.9298504167e+01     0.321194    0.2133652  61.30   0.00221224    1.320    0.243
       330 -10.7178     30.4607    148.9783   1.3670424758e+02   4.0442755660e+01    0.2931065    0.1894375  67.44 0.0006599384    1.369    0.269
       331 -10.0647     22.7412    155.1776   1.3883259360e+02   3.9878863080e+01    0.2787742    0.1436558  28.57  0.001697884    2.289    0.563
       332 -10.7725     10.7248    127.1335   1.3944135541e+02   4.6574953214e+01    0.4382353    0.1648081 -60.10  0.001759697    2.408    0.585
       333 -11.3946     12.7699    138.8310   1.3983265802e+02   4.3988948587e+01    0.6866446     0.272532  70.85  0.003423431    2.699    0.629
       334 -11.9373     22.6688    149.5022   1.3843714966e+02   4.1021409053e+01    0.4781878    0.3009839 -33.24  0.002834256    2.810    0.644
       335 -10.6238     15.8958    147.8523   1.3977510429e+02   4.1910496452e+01    0.3442422    0.2004943  57.90  0.001497422    1.524    0.344
       336 -10.7371     81.5916     19.0009   8.9954364371e+01   6.1360963394e+01    0.3609709    0.2188722  36.53 0.0006647454    1.712    0.416
       337 -11.1256      2.9542    141.2925   1.4214258140e+02   4.4189904660e+01     0.354545     0.238252  45.22  0.002566259    1.514    0.339
       338 -11.7440      3.8469    136.4991   1.4166037728e+02   4.5103620348e+01    0.2290584    0.1737118 -79.07 0.0004643985    1.188    0.158
       339 -12.0101      5.1177    147.5882   1.4204479988e+02   4.2775891065e+01    0.4934453    0.3380625 -79.64  0.002676328    1.247    0.198
       340  -9.7769      7.9851    144.2517   1.4123810665e+02   4.3238058562e+01    0.1468556     0.120948 -85.45 0.0002843257    1.178    0.151
       341  -9.7439    214.2135    151.4881   9.7803098215e+01   1.1117792180e+01     0.226557    0.1807963 -68.68  0.001102142    2.222    0.550
       342 -11.2932     62.7079    149.7131   1.2958649007e+02   3.6925753167e+01    0.4358433    0.3502695  49.75  0.002200947    1.227    0.185
       343 -10.0866     42.2110    148.5615   1.3407077387e+02   3.9403147553e+01    0.2586568    0.1608388  38.07  0.001636053    1.666    0.400
       344  -9.8154     48.0911    151.7214   1.3307382540e+02   3.8151623813e+01    0.2873206    0.1887401  41.91  0.001125468    1.517    0.341
       345 -10.6197     46.9925    146.4030   1.3278120510e+02   3.9356864207e+01    0.4301393    0.2305691 -80.10  0.001907239    1.752    0.429
       346 -10.2039     56.3909    149.2729   1.3096306009e+02   3.7745322077e+01     0.216467     0.166694  78.17 0.0006564967    1.153    0.133
       347 -10.6042    249.4889    141.9830   8.9841684264e+01   5.8454165389e+00    0.3862102    0.2108209 -12.76  0.001920152    1.844    0.458
       348  -9.0019    108.8403    145.8590   1.1848668316e+02   3.1312010175e+01    0.1734803    0.1404709  70.67            0    1.283    0.221
       349 -10.9781     33.2981    144.3407   1.3567460004e+02   4.1132629273e+01    0.2876584    0.1887488 -87.00 0.0006654495    1.298    0.230
       350 -12.0973     23.4144    136.2898   1.3722101878e+02   4.3675462584e+01    0.7296681    0.4272276  54.27  0.004670274    1.615    0.381
       351 -11.7870     29.8547    132.9510   1.3541320500e+02   4.3827920904e+01    0.4721579    0.2703981 -83.73 0.0004385986    1.513    0.339
