#   1 NUMBER                 Running object number                                     
#   2 MAG_AUTO               Kron-like elliptical aperture magnitude                    [mag]
#   3 X_IMAGE                Object position along x                                    [pixel]
#   4 Y_IMAGE                Object position along y                                    [pixel]
#   5 X_WORLD                Barycenter position along world x axis                     [deg]
#   6 Y_WORLD                Barycenter position along world y axis                     [deg]
#   7 A_WORLD                Profile RMS along major axis (world units)                 [deg]
#   8 B_WORLD                Profile RMS along minor axis (world units)                 [deg]
#   9 THETA_WORLD            Position angle (CCW/world-x)                               [deg]
#  10 FWHM_WORLD             FWHM assuming a gaussian core                              [deg]
#  11 ELONGATION             A_IMAGE/B_IMAGE                                           
#  12 ELLIPTICITY            1 - B_IMAGE/A_IMAGE                                       
         1 -14.5693    194.6883     15.8755   6.9260143308e+01   3.4032609459e+01     3.086179     1.807326  26.10   0.01288931    2.154    0.536
         2 -11.5887     33.2347      7.0234   1.0713835288e+02   7.0311001118e+01    0.3342027    0.1444652 -39.53  0.001287873    1.907    0.476
         3  -9.3745    128.0054     23.5406   8.3337988183e+01   5.0384546650e+01    0.2173253    0.1896312 -22.07 0.0003813705    1.104    0.094
         4 -12.2310    139.9249    248.8196   1.2778380592e+02   1.1506038970e+01    0.3562543     0.269778  61.31  0.003050692    1.256    0.204
         5 -11.4548    125.0096    250.1177   1.3010595502e+02   1.3381508108e+01    0.4496908    0.1023327  42.20  0.002095611    3.324    0.699
         6 -12.4951    108.7664    249.6205   1.3246795945e+02   1.5580491861e+01     0.664336    0.1743809  45.10  0.003307026    2.594    0.615
         7 -11.4570     98.7654    250.0173   1.3397059403e+02   1.6811111818e+01     0.395816    0.1808579  56.64  0.002304112    1.733    0.423
         8 -11.2429    102.0434    247.2686   1.3328874819e+02   1.6736430026e+01    0.2677084    0.1499785  64.51  0.001007186    1.634    0.388
         9 -10.4290     88.5135    249.4728   1.3543809006e+02   1.8157250739e+01     0.180913    0.1023467  50.95 0.0006898938    1.220    0.180
        10 -11.7439     81.5243    248.3904   1.3639215188e+02   1.9147087714e+01    0.5485269    0.2106065  63.69  0.003160761    2.859    0.650
        11 -11.8144     83.1807    244.4463   1.3589490995e+02   1.9458695098e+01    0.4253651    0.1929643  67.70  0.002708988    2.371    0.578
        12 -10.3130     74.4202    249.7033   1.3750774348e+02   1.9824204015e+01    0.2102725    0.1423478  36.15  0.001299065    1.769    0.435
        13 -12.2077     66.7261    243.1260   1.3824915443e+02   2.1592292444e+01    0.3854917    0.2100158  55.12  0.000552346    1.261    0.207
        14 -10.5533     67.0997    250.3822   1.3860451209e+02   2.0587318933e+01    0.2200349    0.1429624  67.42  0.001076314    1.195    0.163
        15 -10.4314     63.5092    250.5641   1.3913028500e+02   2.0973315979e+01    0.2097515   0.08889042  49.35 0.0007795547    1.585    0.369
        16 -15.2794      3.3914     21.0816   1.2713401128e+02   7.0209011208e+01       20.856     1.546137 -64.70   0.03554577   18.915    0.947
        17 -13.7487     32.5185    245.8081   1.4331979216e+02   2.4939956765e+01     1.376657    0.3985877  42.01   0.00868022    2.514    0.602
        18  -9.7809    228.9106    228.6234   1.1229524587e+02   6.6562810350e-01    0.1929439     0.139801 -52.02  0.001201945    2.590    0.614
        19 -11.0216     94.4704    240.7357   1.3394693166e+02   1.8537723201e+01    0.1869407   0.09095563 -63.66  0.001303678    2.563    0.610
        20  -9.0454    186.6291    239.3135   1.1984969273e+02   5.8664625369e+00    0.1004316   0.06740959  60.08 0.0007034777    1.779    0.438
        21 -11.2823    173.3403    221.9834   1.1984502333e+02   9.6892174609e+00    0.2734239    0.1529652  45.35  0.001792151    1.358    0.264
        22  -9.2348    152.7264    212.9499   1.2207331022e+02   1.3949443136e+01    0.1420577    0.1182962  50.93 0.0003423416    1.087    0.080
        23 -10.9547     33.4240    205.7958   1.4133253939e+02   3.0787518144e+01    0.2514386    0.1539081  74.94  0.001206274    1.259    0.206
        24 -10.6885    193.1595    195.0579   1.1302890404e+02   9.6530084509e+00    0.6316522    0.3318459 -62.32  0.002168616    7.671    0.870
        25 -11.7253     72.3241    196.2916   1.3408881198e+02   2.7897020189e+01    0.3101119     0.283542  38.37  0.002546603    1.536    0.349
        26 -11.7868     77.1889    189.0347   1.3258750850e+02   2.8480301448e+01     0.224194    0.1906338 -64.32 0.0006916004    1.497    0.332
        27 -11.0743     85.4572    176.8985   1.2985397351e+02   2.9457077394e+01    0.2014283    0.1725652  79.45 0.0004566496    1.123    0.109
        28 -13.3315     73.2338    174.5050   1.3193387374e+02   3.1509068027e+01    0.3630412    0.2472298 -45.66  0.001788139    2.207    0.547
        29 -13.9108     11.0687    206.8850   1.4497104245e+02   3.2777227111e+01    0.9071398    0.6240287  42.39  0.004434625    1.586    0.369
        30 -12.0629     50.3226    130.0733   1.3187733438e+02   4.2894201938e+01    0.3755013    0.2401671  59.42  0.001484709    1.472    0.321
        31 -13.2234     57.8039    130.5723   1.3021183531e+02   4.1913972607e+01       1.6555    0.5312846 -77.11  0.005225271    5.671    0.824
        32 -13.6238     67.6686    144.5704   1.2976145628e+02   3.7860283182e+01     1.499448    0.6948919  82.91  0.006053112    3.794    0.736
        33  -9.6657    138.3423    172.6651   1.1930023058e+02   2.2054059282e+01    0.1256512   0.08605419  73.00 0.0006722474    1.760    0.432
        34 -10.3066    103.0357    151.0826   1.2311210455e+02   3.1557232203e+01    0.2598152    0.2421295  69.18 0.0008785736    1.147    0.128
        35  -9.5293    105.4465    147.0932   1.2201174361e+02   3.1924705699e+01    0.2236124    0.1988305 -18.75  0.001068848    1.596    0.374
        36 -12.1928     92.0908    150.7958   1.2535978144e+02   3.3272918691e+01    0.2259022    0.2172738  62.33 0.0005069145    1.264    0.209
        37 -12.2773     46.7935    148.6134   1.3467583638e+02   3.9564126600e+01    0.4183393    0.2409229 -85.51  0.002592205    1.575    0.365
        38  -9.6849    134.0000    144.4543   1.1563402793e+02   2.7570104990e+01    0.3480796   0.07348263 -49.01   0.00107129    5.117    0.805
        39  -8.7749    192.3493    144.1689   1.0435698039e+02   1.6496738896e+01    0.1657605    0.1204359 -45.02 0.0004066176    1.588    0.370
        40 -10.0892    112.9133    136.5287   1.1870060874e+02   3.2704975829e+01    0.2773515    0.2235652   5.92  0.001108482    1.916    0.478
        41 -10.6833    100.4790    133.9301   1.2099485252e+02   3.5246192449e+01    0.2321058    0.2107407 -30.14 0.0005002862    1.440    0.306
        42 -10.8263    125.5629    174.3802   1.2194186994e+02   2.3881304097e+01    0.3030444    0.1025618  39.92  0.001260313    2.931    0.659
        43 -13.0164     49.8747    230.2462   1.4005263674e+02   2.5297976272e+01    0.3355808    0.2791743  78.00   0.00112973    1.347    0.257
        44 -12.4626     42.8707    128.9026   1.3346357628e+02   4.3957873606e+01     0.408972     0.231653  60.68  0.002433897    1.703    0.413
        45  -9.3791    109.0970    123.8086   1.1726418688e+02   3.5823130560e+01    0.1868556    0.1593508  76.18 0.0003142199    1.129    0.114
        46  -9.4893    118.4520    129.0348   1.1614474237e+02   3.3186395409e+01    0.1780533    0.1121579 -29.76 0.0008083654    2.542    0.607
        47 -11.0673    168.3815    113.4440   1.0226235574e+02   2.6226081173e+01    0.3807658    0.3011293 -78.61  0.001236688    1.661    0.398
        48  -9.4685    135.0000    113.4987   1.0930627214e+02   3.3075009913e+01    0.2974416   0.07785361 -45.72 0.0009310175    3.905    0.744
        49 -15.3443     58.0144    217.4332   1.3803391490e+02   2.6280785511e+01     5.737181    0.6712378  44.50   0.01861024    4.178    0.761
        50 -12.7237     91.6707    167.9925   1.2764848015e+02   3.0161607552e+01     2.011025    0.4395466  49.71  0.001880585    4.495    0.778
        51 -10.3264     20.0000    111.5135   1.3706186291e+02   4.9772649949e+01    0.1467722    0.1053747  41.14 0.0005990195    1.575    0.365
        52 -15.7379      9.5306    240.3133   1.4635051392e+02   2.7916924678e+01     6.324142    0.8839567 -71.34   0.03112518    6.066    0.835
        53 -10.4490    249.3389    248.6696   1.1205515363e+02  -3.7248107257e+00    0.1831154    0.1085845  -5.17  0.001209405    1.909    0.476
        54 -10.5829    163.5260    248.8956   1.2429908084e+02   8.2094653680e+00     0.199228     0.128421  42.58 0.0008328561    1.108    0.098
