#   1 NUMBER                 Running object number                                     
#   2 MAG_AUTO               Kron-like elliptical aperture magnitude                    [mag]
#   3 X_IMAGE                Object position along x                                    [pixel]
#   4 Y_IMAGE                Object position along y                                    [pixel]
#   5 X_WORLD                Barycenter position along world x axis                     [deg]
#   6 Y_WORLD                Barycenter position along world y axis                     [deg]
#   7 A_WORLD                Profile RMS along major axis (world units)                 [deg]
#   8 B_WORLD                Profile RMS along minor axis (world units)                 [deg]
#   9 THETA_WORLD            Position angle (CCW/world-x)                               [deg]
#  10 FWHM_WORLD             FWHM assuming a gaussian core                              [deg]
#  11 ELONGATION             A_IMAGE/B_IMAGE                                           
#  12 ELLIPTICITY            1 - B_IMAGE/A_IMAGE                                       
         1 -10.7492     72.8923     93.4060   1.1607256507e+02   4.8897510174e+01    0.5622153    0.3993284 -30.82  0.002865798    1.555    0.357
         2 -11.6035    247.5982     17.4890   5.9262903365e+01   2.1715056741e+01     1.143928    0.6618506 -60.51   0.00619511    1.599    0.375
         3  -8.6484     14.6829     22.9871   1.1636704468e+02   6.9674041476e+01    0.1697021    0.1189063 -35.72 0.0009426374    1.109    0.098
         4  -9.6574    211.7413     16.8996   6.2335806723e+01   3.0060331453e+01    0.3062109    0.1803401 -34.43   0.00155695    1.660    0.398
         5 -10.5892    249.8984     10.3293   5.7504396597e+01   2.2015617490e+01     1.057169    0.2685558 -38.16    0.0043151    2.888    0.654
         6  -9.0457     94.2470     14.6983   8.1446268687e+01   5.8812415662e+01    0.4684358    0.3023316  30.55   0.00248989    1.506    0.336
         7  -9.4651    162.0968     10.4046   6.6414304499e+01   4.3121351516e+01    0.3798686    0.2489651  52.53  0.001830438    1.434    0.303
         8  -9.8660    224.1935      3.3183   5.7858471415e+01   2.8534073268e+01    0.4801753    0.1246284  72.72  0.001746651    3.518    0.716
         9  -8.8991     95.0182      6.7122   7.7826179528e+01   5.9447337365e+01    0.3042161    0.2268078 -28.49  0.001415353    1.451    0.311
        10  -9.2785    220.2191     13.4282   6.0646109005e+01   2.8411294442e+01    0.3008637    0.1952619  50.25  0.001601804    1.765    0.434
        11 -10.2797    215.0766      4.3452   5.8863632355e+01   3.0576931745e+01    0.5662468    0.2350893 -42.39  0.002589596    2.173    0.540
        12  -7.5746      1.9760     11.2618   1.1810917265e+02   7.2588416717e+01    0.1214221    0.0849762   5.80 0.0008128311    1.486    0.327
        13  -8.1101    154.1275      5.3795   6.5943908474e+01   4.5587667778e+01    0.1927748    0.1197047  82.86  0.000657696    1.682    0.406
        14  -8.5403    184.9953      4.1961   6.1736986687e+01   3.7945639544e+01    0.2044982    0.1295097 -53.91   0.00105333    1.616    0.381
        15  -8.4768    159.6234      2.4889   6.4268002856e+01   4.4461108448e+01    0.1974307    0.1299595 -20.93 0.0006403592    1.699    0.411
        16  -8.5128    118.1357      1.6379   7.0604714934e+01   5.4679853759e+01    0.2033989    0.1617164  83.49 0.0006297713    1.416    0.294
        17  -9.1208     47.6075      2.3790   9.1143578309e+01   6.8711936483e+01    0.2867082   0.09261523  40.64  0.001265516    2.907    0.656
        18  -7.8953    176.6606     35.0143   7.1804644151e+01   3.6675497188e+01    0.2273757     0.119804   2.76 0.0007051312    4.391    0.772
        19  -7.2701    217.4842    250.5263   1.1330792592e+02  -6.3271297686e+00      0.11565   0.08729882  21.60 9.718283e-05    1.018    0.018
        20  -7.9655    121.5119    155.5326   1.1660055078e+02   2.6398513717e+01    0.1441808     0.136956  76.41 9.096717e-05    1.005    0.005
        21  -9.2234    156.7777    149.8085   1.0720400165e+02   2.0684888411e+01    0.3593416    0.3159506  -5.59  0.001665486    1.285    0.222
        22  -7.7929    216.4659    148.4891   9.4717344800e+01   8.6333993006e+00    0.1436678    0.1285295  -3.10 2.596329e-05    1.056    0.053
        23  -7.4354    122.7296    148.3869   1.1488626305e+02   2.7750752371e+01    0.1519824    0.1129506  89.98 0.0006990857    1.710    0.415
        24  -9.1286    236.2606    145.4366   9.0569684389e+01   5.2979162825e+00     0.252221      0.12649  40.70  0.001121955    2.108    0.526
        25  -7.5353    250.4939    140.4961   8.7178936856e+01   3.4326321151e+00    0.1345671    0.1174854 -20.41 0.0008103824    1.036    0.035
        26  -8.2635    113.7906    139.3838   1.1523960791e+02   3.1442193457e+01    0.2088056    0.1412525  31.52 0.0009572873    1.688    0.408
        27  -8.9958    245.7259    131.3873   8.5913007270e+01   5.7326346290e+00    0.2454182    0.1606502 -12.34  0.001198609    1.756    0.431
        28  -9.2986    229.7103    117.2849   8.5231035510e+01   1.1200061393e+01    0.5088267    0.1263138 -33.42  0.001462701    4.111    0.757
        29  -8.9838    122.7339    110.6106   1.0616480003e+02   3.6155636861e+01     0.312806    0.2576072 -65.34  0.001557282    1.303    0.233
        30  -8.4557    177.0395    110.0218   9.3176377732e+01   2.4220813177e+01    0.2420912    0.1890965 -76.03 0.0008263774    1.646    0.393
        31  -8.7940    161.1158    108.5630   9.6246004174e+01   2.8180593267e+01    0.3087842    0.2118417  37.10  0.001364395    1.578    0.366
        32  -9.1996     22.8029    104.3452   1.3411516573e+02   5.2031884616e+01    0.2321169    0.1588924 -65.46  0.001403681    1.173    0.148
        33 -10.2266    125.4930     97.2840   1.0183618376e+02   3.8439932381e+01    0.8476093    0.4348424 -56.52    0.0031069    2.451    0.592
        34  -9.9153    121.1513     98.5347   1.0333900997e+02   3.9088569262e+01    0.5882845    0.3764401 -57.15  0.002543138    1.746    0.427
        35 -10.2440    132.8166     97.9203   1.0011724832e+02   3.6727461238e+01    0.4884383    0.3437278  54.30  0.002233694    1.512    0.339
        36  -9.0259    106.7563     98.0785   1.0717775807e+02   4.2069017780e+01    0.4028169    0.3248489 -15.72    0.0020067    1.472    0.320
        37 -10.2265     32.3421     97.2173   1.2989943085e+02   5.2863116711e+01    0.3225364    0.2333513  86.21  0.001866432    1.579    0.367
        38  -7.6951    158.9875     97.4949   9.3717720688e+01   3.0857985487e+01    0.2188557    0.1406102  78.22 0.0005871744    2.520    0.603
        39  -7.4313     68.6836    249.7119   1.3956613953e+02   1.5876537514e+01   0.09123104   0.08482889  29.08 0.0002976314    1.591    0.371
        40  -9.6238     59.1670     92.5145   1.2023139549e+02   5.1001206379e+01    0.4282994    0.2402832  20.81  0.001968435    2.365    0.577
        41  -8.9214    247.1762     86.0368   7.5237550620e+01   1.2533333879e+01    0.5158399    0.1554173 -33.79  0.001809804    2.941    0.660
        42  -7.5654    139.6770     86.2881   9.5039581537e+01   3.7528610847e+01    0.1537057    0.1229554 -82.44 0.0002469517    1.604    0.377
        43  -9.6797    242.1221     63.9643   7.0632607702e+01   1.6894526475e+01    0.4260162    0.1948754  50.83   0.00183171    2.477    0.596
        44 -10.3425    248.2334     74.5114   7.2390707484e+01   1.4038997635e+01    0.7655288    0.2794144 -36.34  0.003053821    2.321    0.569
        45 -10.2914    247.9941     66.4006   7.0512215752e+01   1.5272418636e+01    0.6345342     0.448682  22.89  0.003203289    2.102    0.524
        46  -8.3394    242.8837     76.0447   7.3427446103e+01   1.4952674619e+01    0.4334885     0.143701 -39.37  0.001623586    2.540    0.606
        47  -9.1653    106.2538     71.4207   9.9352343905e+01   4.7669023380e+01    0.7377149    0.3498975 -50.80  0.002799168    2.437    0.590
        48  -9.7005     32.7562     63.9742   1.2212579202e+02   6.0214754087e+01     0.452979    0.3980085 -49.00  0.003061638    1.101    0.092
        49  -7.7054     80.6567     65.2985   1.0527995240e+02   5.3624079676e+01     0.134134    0.1128353 -89.62 0.0004391115    1.672    0.402
        50  -8.1999     47.3940     64.2866   1.1669381945e+02   5.8601483705e+01    0.2229583    0.1581052   7.46  0.001248653    1.679    0.404
        51  -8.4958    214.7905     94.7115   8.2152347320e+01   1.8237075028e+01    0.3259193    0.1888272 -44.40   0.00143476    1.664    0.399
        52  -8.7432    236.9745     60.4700   7.0411430751e+01   1.8536663008e+01    0.1905493    0.1110946 -78.98 0.0008085697    2.439    0.590
        53  -8.9012    232.9845     58.0133   7.0297112168e+01   1.9787547335e+01    0.2171462    0.1697134  20.15  0.001143545    1.733    0.423
        54  -8.5448    250.2608     46.9797   6.5735678222e+01   1.7479293143e+01    0.2076025    0.1014536 -43.96  0.000801682    1.755    0.430
        55  -8.9627    232.3425     44.7341   6.7110780473e+01   2.1769209141e+01    0.2561101    0.2254478  75.30  0.001024933    1.180    0.153
        56  -8.3628     57.4458     45.5355   1.0655902494e+02   6.0943231535e+01    0.2919095    0.1248691  39.26  0.001292127    2.575    0.612
        57  -8.3344     52.2123     44.2674   1.0810939531e+02   6.1892077078e+01    0.2140752    0.1832278  11.76 0.0007921764    1.202    0.168
        58  -9.3980     99.0120     43.0028   9.1496336762e+01   5.4102090914e+01    0.3451737    0.1379606 -40.92  0.001325183    2.587    0.613
        59  -8.5206     86.1548     42.8975   9.5418143782e+01   5.6645690529e+01    0.2045118    0.1940134 -43.47   0.00124539    1.237    0.192
        60  -8.2377    250.5987     38.7594   6.3814989713e+01   1.8480702240e+01    0.1904836    0.1001194 -43.32 0.0009453736    1.621    0.383
        61  -9.9613    234.3238     26.5849   6.2516701695e+01   2.3619296135e+01    0.4920101    0.4233391  43.64  0.003037096    1.428    0.300
        62 -10.0537    237.7500     32.3470   6.3557289802e+01   2.2134818300e+01    0.5777427    0.4176042 -82.43   0.00328625    1.382    0.276
        63 -10.0578    242.4217     29.8757   6.2533178938e+01   2.1391148528e+01     0.580668    0.4088266  36.60  0.003145887    1.989    0.497
        64  -7.7872    224.4534    248.4700   1.1181745415e+02  -7.0972845431e+00    0.1155755   0.08637597  18.77 0.0001884904    1.038    0.037
        65  -8.4197     44.0203     31.4970   1.0641733774e+02   6.5171518460e+01    0.2607878    0.1454058   5.81  0.001222862    2.610    0.617
        66  -7.6736      4.6623     29.2893   1.2362521123e+02   6.9257227912e+01   0.09543121   0.08642942  81.78 0.0003661629    1.638    0.390
        67  -7.1924    115.4755    245.5204   1.3089841179e+02   9.9915192555e+00    0.1178439   0.09380668  51.52  0.000174981    1.021    0.021
        68  -9.0950    236.2589    242.8633   1.0896898192e+02  -8.1460775702e+00    0.3497672    0.1704503  -0.70  0.001494171    3.898    0.743
        69  -9.1936    231.2100    235.6646   1.0867895623e+02  -6.5992444606e+00    0.2638431    0.1598289  42.97  0.001593183    1.710    0.415
        70  -7.7708    234.8289    229.3389   1.0703284795e+02  -6.3789625892e+00    0.1591707    0.1344571   2.35  0.001140279    1.162    0.139
        71  -8.7995    116.0050     13.7544   7.5730254587e+01   5.4084002347e+01    0.1840687    0.1065697  58.69 0.0008664588    1.610    0.379
        72  -8.6485    223.5424    226.4041   1.0849312445e+02  -4.3226945656e+00    0.2081438    0.1034382 -21.37 0.0009570628    2.499    0.600
        73  -9.5809    248.9491    223.2162   1.0363218317e+02  -7.7017901218e+00    0.3408787    0.2084457 -11.36  0.002073295    1.618    0.382
        74 -10.0333    247.3160    218.5123   1.0309209489e+02  -6.9070608567e+00    0.3455361     0.166278 -28.99  0.001870334    2.068    0.516
        75  -8.7562    242.6096    221.3858   1.0437626396e+02  -6.5655282564e+00    0.2122346    0.1324941 -28.78  0.001243712    1.632    0.387
        76  -9.8472    243.9649    206.2993   1.0148495043e+02  -4.8840802466e+00    0.5746126    0.2271313  40.22  0.002708654    2.402    0.584
        77  -8.0854    250.2680     32.9949   6.2532620044e+01   1.9280859154e+01    0.1860828    0.1489521 -45.29 0.0009059286    1.123    0.109
        78  -7.3180    179.0000    204.0188   1.1297622887e+02   6.3181819506e+00    0.1954066   0.07575381 -43.44  0.000690862    2.877    0.652
        79  -9.0247    239.7787    194.9823   1.0010326499e+02  -2.7234311809e+00    0.1626622    0.1469551 -24.07 0.0005964329    1.316    0.240
        80  -7.9708    220.2140    178.8407   1.0042765973e+02   2.9637012424e+00    0.2933645   0.09631213 -43.10  0.001047337    3.445    0.710
        81  -7.5918    192.7912    172.9974   1.0446831608e+02   9.0397981853e+00    0.1795024    0.1109839 -38.58 0.0005995051    1.666    0.400
        82  -9.0689    249.8854    168.7259   9.3241959192e+01  -6.7840660781e-01     0.343114    0.2165087 -48.06  0.001765228    2.050    0.512
        83  -9.0797     24.5205    158.8202   1.4050086463e+02   3.9294001715e+01    0.2452576    0.1245906  53.03  0.001325006    1.949    0.487
