#   1 NUMBER                 Running object number                                     
#   2 MAG_AUTO               Kron-like elliptical aperture magnitude                    [mag]
#   3 X_IMAGE                Object position along x                                    [pixel]
#   4 Y_IMAGE                Object position along y                                    [pixel]
#   5 X_WORLD                Barycenter position along world x axis                     [deg]
#   6 Y_WORLD                Barycenter position along world y axis                     [deg]
#   7 A_WORLD                Profile RMS along major axis (world units)                 [deg]
#   8 B_WORLD                Profile RMS along minor axis (world units)                 [deg]
#   9 THETA_WORLD            Position angle (CCW/world-x)                               [deg]
#  10 FWHM_WORLD             FWHM assuming a gaussian core                              [deg]
#  11 ELONGATION             A_IMAGE/B_IMAGE                                           
#  12 ELLIPTICITY            1 - B_IMAGE/A_IMAGE                                       
         1 -16.2463    243.7496     63.8899   1.0883853863e+01   1.7269559233e+01     8.165927          nan -40.09   0.02113089    5.930    0.831
         2 -15.0292    237.1839     91.6731   1.8050018564e+01   1.4400621373e+01     1.885494    0.7263552 -41.47  0.007992107    2.101    0.524
         3 -14.0575    223.8578     43.5163   7.9512777879e+00   2.4169263349e+01     1.185493    0.7047282 -31.57  0.006139482    1.553    0.356
         4 -15.6974    218.5498     26.8086   4.2711719564e+00   2.7472003986e+01     3.530411    0.7759206 -39.37   0.01146036    3.022    0.669
         5 -13.8997    238.6080      6.8569   3.5821546011e+02   2.5454682088e+01    0.9351143    0.2976095 -65.77  0.003637288    3.605    0.723
         6 -15.9273    246.6820     11.2432   3.5875973741e+02   2.3348946106e+01      2.02137     1.365364 -35.15   0.01190631    1.344    0.256
         7 -12.4544    146.7966     25.9318   1.2110977782e+01   4.5190190248e+01     0.677431    0.3000259 -46.00  0.002685827    2.281    0.562
         8 -13.0517    152.1725     19.7638   9.2189986948e+00   4.4508860106e+01    0.6894693    0.3781869 -74.61  0.002902135    2.220    0.550
         9 -13.4146    146.3356     15.6548   8.6080463335e+00   4.6470735277e+01    0.6580393    0.4187569  83.71  0.003205245    1.566    0.361
        10 -11.5604    145.0133     11.7266   7.4164196310e+00   4.7215733336e+01     0.220945    0.1993699  -2.88 0.0007171371    1.288    0.224
        11 -11.9823     91.9154     15.2202   1.8766551012e+01   6.0393149586e+01    0.3327956    0.2043425 -28.73  0.001352324    1.682    0.405
        12 -11.9696    154.3784     12.8867   6.6319051376e+00   4.4672002651e+01    0.4094552    0.1853135 -44.89  0.001741119    2.127    0.530
        13 -12.2972     80.9966     11.4522   1.9908810036e+01   6.3379541817e+01    0.2608626    0.1834573 -41.49  0.001042565    1.591    0.371
        14 -13.5822     13.7223     10.2032   5.2415104660e+01   7.5647323328e+01    0.4106382    0.3464408  77.37  0.002466671    2.196    0.545
        15 -12.5435     74.8753     10.3584   2.1184749987e+01   6.4896563400e+01    0.2567619    0.2331399 -41.22  0.001571355    1.249    0.199
        16 -13.6974    190.4607      8.4900   1.7421154741e+00   3.6065735072e+01    0.8474897    0.2804324  79.96  0.003202247    3.113    0.679
        17 -13.2529    184.3094      4.8648   1.2195464975e+00   3.7921576282e+01    0.7657144    0.3598625 -46.41  0.003619765    1.864    0.464
        18 -11.9785     94.5420      8.8784   1.5099250069e+01   6.0399191487e+01    0.2932373    0.2182179 -39.40  0.001184941    1.457    0.314
        19 -10.9402    161.4601      8.7761   4.4921460759e+00   4.3261760893e+01    0.2248419    0.1225291 -32.59 0.0004395559    1.787    0.440
        20 -12.5266    131.2158      7.4582   7.7614667040e+00   5.1206758521e+01    0.7285515    0.2222095 -44.05   0.00250677    3.450    0.710
        21 -11.2644    101.2694      6.5571   1.2544395881e+01   5.8947334235e+01    0.2612782    0.1306081  73.62  0.001124596    2.076    0.518
        22 -11.0465    176.1599      4.5789   1.8083710891e+00   3.9957672598e+01    0.2351053    0.1545242 -45.83 0.0006319809    1.390    0.281
        23 -11.5305     33.9567      7.5055   3.7071884464e+01   7.3307967677e+01    0.1997473    0.1532616 -19.25 0.0009501453    1.195    0.163
        24 -12.8597     46.7725      2.5299   2.7096339275e+01   7.1624271021e+01    0.4668586    0.2868812  58.96  0.002474756    1.902    0.474
        25 -12.4538    147.2667      2.0928   3.8149061358e+00   4.7520853880e+01    0.5962588    0.2257786  87.45  0.002138424    3.120    0.679
        26 -11.2469    116.8004      1.6005   7.6109529146e+00   5.5425756351e+01    0.1978393    0.1215444  85.91 0.0008681905    1.678    0.404
        27 -11.7405    191.4895    139.2930   3.6450217262e+01   1.5038569114e+01    0.5280465    0.2758713  65.31  0.001670295    4.657    0.785
        28 -12.8008    249.3703    247.3278   4.6263041579e+01  -9.0065544910e+00    0.4749545    0.1349568 -30.02  0.002339796    3.379    0.704
        29 -13.3606    241.8681    246.9112   4.7378314405e+01  -8.1696243315e+00    0.5673019    0.2410076 -10.98  0.002666075    3.569    0.720
        30 -12.4413    224.7626    247.4113   5.0229336414e+01  -6.3277582716e+00    0.1869529    0.1059616  -8.23   0.00093309    1.745    0.427
        31 -13.9615    188.1319    246.5363   5.6471711682e+01  -1.7787820671e+00     1.062347    0.6274633 -12.05  0.006280338    2.019    0.505
        32 -13.8614    193.1985    226.1218   5.2570243178e+01   2.9511247753e-01     1.665066    0.6045746  30.02  0.007467434    2.609    0.617
        33 -11.1574    151.9990    249.9620   6.3657880383e+01   2.4998809670e+00    0.2507743    0.1319442  32.28  0.001442042    1.517    0.341
        34 -11.3304    133.3898    250.5890   6.7321497084e+01   4.9076628733e+00    0.2470617   0.06804539  43.76   0.00095698    3.436    0.709
        35 -14.2732    245.4180    124.7315   2.4373570007e+01   7.8152249816e+00     1.855293    0.5010613 -40.59  0.006786291    3.080    0.675
        36 -12.0904    166.0423    135.9430   4.0876523356e+01   2.0737201105e+01    0.5004536    0.3138807 -55.65  0.001760846    1.833    0.454
        37 -11.4290     20.3039    248.9426   8.9223194733e+01   1.9087293080e+01    0.2758319   0.08754131  46.09  0.001468626    2.051    0.512
        38 -10.3369     26.4820    248.4806   8.8050063932e+01   1.8533740919e+01    0.1135876   0.07987596  57.00 5.207046e-05    1.022    0.022
        39 -13.5719    223.2117    234.7911   4.8601707683e+01  -4.6768986739e+00    0.6148751    0.4391413 -32.75  0.004337898    1.607    0.378
        40 -12.4148    219.4778    245.5400   5.0841036964e+01  -5.5027718930e+00    0.6696551    0.3031041   3.77    0.0027544    4.329    0.769
        41  -9.8790    113.3273    139.6874   5.4705506815e+01   3.0445286296e+01    0.1604117    0.1205898  77.58 0.0007042257    1.666    0.400
        42 -11.7809    171.9044    115.5666   3.4630926832e+01   2.3644957125e+01    0.4402596     0.217948 -40.51  0.001165604    1.887    0.470
        43 -11.7062      1.4264    115.7284   8.6211873387e+01   5.1341927480e+01    0.3334981    0.1018334 -75.86   0.00128474    2.552    0.608
        44 -13.6264    223.1084    112.3934   2.4802409353e+01   1.3733908446e+01    0.7618707     0.481542 -43.86  0.003206328    1.422    0.297
        45 -13.2875    197.0698    107.3131   2.7764175765e+01   1.9821164018e+01    0.9340926    0.4115061 -45.11  0.003571399    2.141    0.533
        46 -12.9008    197.5538     95.9864   2.4804033815e+01   2.1744286345e+01    0.8187202    0.2336768 -38.84  0.002636406    2.999    0.667
        47 -12.9177    122.0538    108.9660   4.4813542772e+01   3.6039762030e+01    0.6666581    0.5131434 -48.36   0.00198348    1.255    0.203
        48 -12.0871    160.6564    109.0598   3.5325536082e+01   2.7447046773e+01    0.4207476     0.355538 -84.50  0.001210798    1.400    0.286
        49 -10.4121    229.4711    106.0159   2.2397851300e+01   1.3581305274e+01    0.2065094    0.1141666 -37.37 0.0004418461    1.497    0.332
        50 -12.0518    169.3689    103.6927   3.2042627869e+01   2.6568869397e+01    0.3702717    0.2791098  -8.84  0.001677103    1.728    0.421
        51 -13.6839    215.5105     96.5471   2.2144548972e+01   1.7869178088e+01    0.9963186    0.3462031 -38.51  0.003285585    2.394    0.582
        52 -12.1310    128.2496    102.2441   4.1270563208e+01   3.6220857838e+01    0.4699554    0.3914475 -42.65  0.001745041    1.169    0.145
        53 -12.5118    122.2874     98.7912   4.1891975707e+01   3.8328574824e+01     0.615815    0.5379925   4.23  0.002986304    1.368    0.269
        54 -11.6723     57.3607    100.2955   6.3515337384e+01   5.0092969702e+01    0.3120668    0.2449364 -75.36 0.0007919113    1.263    0.208
        55 -11.1972    106.5131     98.3893   4.6326988167e+01   4.1833300022e+01    0.3913769    0.2181965 -38.93  0.001502631    1.915    0.478
        56 -13.4423    153.4027     79.2831   2.8410915051e+01   3.5084263075e+01     1.316049    0.6389681 -58.86  0.004227027    3.141    0.682
        57 -12.5256    147.2635     71.3417   2.7264044320e+01   3.8080022176e+01    0.5391139    0.5249391  78.13  0.002058818    1.059    0.055
        58 -11.4880    211.9298     82.7424   1.9222258062e+01   2.0896487234e+01    0.3173362    0.1759664 -41.34  0.001000739    1.539    0.350
        59 -13.1447    182.3592     79.7118   2.3000416328e+01   2.8050343448e+01    0.8849071    0.5909092  88.41  0.002075059    2.050    0.512
        60 -13.4502    216.6419     72.3374   1.5964275125e+01   2.1545872703e+01     1.154593    0.3491434 -43.15  0.004109928    2.760    0.638
        61 -11.6274    106.0359     71.6054   3.7961544161e+01   4.7929183341e+01     0.587754    0.3878144 -78.93  0.002198754    2.597    0.615
        62 -10.9107      1.6421     73.2127   8.1109483655e+01   6.2384234282e+01    0.1996581   0.09184255 -63.79 0.0009470741    1.666    0.400
        63 -11.9828    161.9542     66.0575   2.2652445560e+01   3.5368414152e+01     0.643848    0.2226891 -34.91  0.002114082    2.770    0.639
        64 -11.3077     29.5268    240.5299   8.7105818474e+01   1.9676354885e+01    0.2004555   0.08630737  81.74  0.001040615    2.456    0.593
        65 -13.3604    201.6988     61.7930   1.5161252548e+01   2.6491566425e+01    0.8261991    0.4325538 -46.46  0.003688404    1.705    0.413
        66 -10.7574     81.9599     66.1944   4.4012744726e+01   5.4213032086e+01    0.2283684    0.2039427 -86.63 0.0006979179    1.308    0.235
        67 -10.9041    148.1215     57.4613   2.2591626984e+01   4.0303718400e+01    0.3353024    0.1748959 -48.71   0.00131362    1.976    0.494
        68 -10.3114    108.5168     55.4757   3.1369499942e+01   5.0497120784e+01      0.15288    0.1468778 -69.39 0.0002861161    1.068    0.064
        69 -12.9632    162.5147     48.3716   1.7028901910e+01   3.8078988457e+01     1.321626    0.7216163 -86.21  0.004839865    2.830    0.647
        70 -13.1944    203.6991     44.7571   1.0351098724e+01   2.8517869191e+01    0.9767662    0.5262935 -72.20  0.003731709    2.321    0.569
        71 -12.0937    128.6068     39.7746   2.0434566065e+01   4.8067960236e+01    0.5794143    0.4123258 -59.80  0.002735441    1.563    0.360
        72 -11.3271    126.6150     31.5539   1.7750078336e+01   4.9722691350e+01    0.4815239    0.1299228 -30.01  0.001489785    3.604    0.723
        73 -10.5442    103.0334     42.2258   2.7700446614e+01   5.4069858288e+01    0.2017967     0.120442  54.27 0.0008748473    1.654    0.395
        74 -10.4171     85.0322     42.5309   3.3442471086e+01   5.8161136529e+01    0.1950808    0.1327948  79.77 0.0006951381    2.388    0.581
        75 -13.0743    174.4798     43.5855   1.3713012556e+01   3.5754447958e+01    0.8514869     0.578437 -82.52  0.003700243    1.635    0.388
        76 -10.6630     41.2462     32.4077   4.7460510033e+01   6.8147338914e+01    0.1762291    0.1253252  42.77 0.0009454401    1.617    0.382
        77 -10.6147     90.1968     31.3934   2.6804679696e+01   5.8750989176e+01    0.2026608    0.1377083  68.12  0.000946702    1.714    0.417
        78 -11.2447     15.9733    240.3136   8.9703280411e+01   2.1111444152e+01    0.1978129          nan  45.88 0.0007047039    4.286    0.767
        79 -11.5001    184.4012     25.8965   7.2346718173e+00   3.5605173331e+01    0.3523712    0.2340515 -38.72  0.001827683    1.390    0.280
        80 -10.5280     33.2656     25.9882   4.8606362659e+01   7.0470945743e+01     0.170186    0.1035281 -41.47 0.0008855468    1.516    0.340
        81 -13.9857    234.5957    248.4355   4.8767605958e+01  -7.5429682887e+00     0.443767    0.2645024  -3.88  0.003053164    1.472    0.321
        82 -13.0104    240.4969    239.9673   4.6553854023e+01  -7.2673111369e+00    0.1894968    0.1288117  10.32 0.0007394041    1.128    0.114
        83 -12.7139    189.7624    233.2962   5.4285641253e+01  -2.3476574914e-01    0.4612647    0.4232138 -16.44  0.003224412    1.351    0.260
        84 -11.1783     72.3470     16.6159   2.5363683578e+01   6.4750311234e+01    0.2917084    0.1883006 -67.44  0.001260121    2.783    0.641
        85 -10.7585     15.3182    230.6630   8.9449444118e+01   2.3026749028e+01    0.1270442   0.05751163  58.92 0.0006736589    1.703    0.413
        86 -12.4856    135.5063    224.4872   6.3724246102e+01   8.8128552025e+00    0.2141108    0.1102249 -39.07  0.001042562    2.434    0.589
        87 -10.8372    112.9939     14.0268   1.3452546779e+01   5.5275211862e+01      0.16637      0.16534  45.57  0.001008242    1.063    0.059
        88 -12.2709    150.6805    221.5293   6.0181954001e+01   7.0724304175e+00    0.2121429    0.1874204   5.96 0.0005748349    1.116    0.104
        89 -12.8791    224.9248    210.6473   4.4412774044e+01  -1.8251480891e+00     1.134597    0.3454278 -34.28  0.004885685    3.154    0.683
        90 -11.9164    143.4087    218.7976   6.1298986948e+01   8.6179266648e+00    0.1715616    0.1163041 -34.47  0.000959743    1.715    0.417
        91 -12.9117    249.0629    222.3152   4.2416709404e+01  -6.2228353523e+00     0.345446     0.197689 -23.00  0.002274262    1.477    0.323
        92 -13.9306    246.9092    202.0605   3.9336147291e+01  -3.4954664294e+00      1.28886    0.5157514 -32.55  0.006681197    2.178    0.541
        93 -12.0106    146.4866    201.0000   5.7981234558e+01   1.1320998020e+01    0.3029602   0.06949018  36.88 0.0009369671    3.953    0.747
        94 -10.8926     65.6695    187.3481   7.5090117318e+01   2.6563518808e+01    0.1502792   0.08820742  64.16 0.0005129702    1.764    0.433
        95 -10.9253     35.5060    186.5138   8.2457021203e+01   3.0441846418e+01    0.1336838    0.1060866  68.90 0.0008101739    1.040    0.039
        96 -13.8406    233.3358    147.8088   3.1066555498e+01   6.1893342259e+00     1.352939    0.7584155 -57.17  0.005632743    3.344    0.701
        97 -11.8919     26.8947    156.8020   8.2165947504e+01   3.8638506693e+01     0.274958    0.1579953  52.24  0.001383443    1.627    0.385
        98 -11.1617     59.3908    146.1301   7.1483483220e+01   3.7644568927e+01    0.2849545    0.2051215  46.11  0.001439254    1.375    0.273
        99 -11.3001    217.2618    139.5069   3.1882521358e+01   1.0247631860e+01    0.2788023    0.2220306 -76.30  0.001486652    1.942    0.485
       100 -12.0839    215.8226    134.0392   3.0909435375e+01   1.1431950524e+01    0.3911477    0.1746372 -37.41  0.001670621    1.950    0.487
