#   1 NUMBER                 Running object number                                     
#   2 MAG_AUTO               Kron-like elliptical aperture magnitude                    [mag]
#   3 X_IMAGE                Object position along x                                    [pixel]
#   4 Y_IMAGE                Object position along y                                    [pixel]
#   5 X_WORLD                Barycenter position along world x axis                     [deg]
#   6 Y_WORLD                Barycenter position along world y axis                     [deg]
#   7 A_WORLD                Profile RMS along major axis (world units)                 [deg]
#   8 B_WORLD                Profile RMS along minor axis (world units)                 [deg]
#   9 THETA_WORLD            Position angle (CCW/world-x)                               [deg]
#  10 FWHM_WORLD             FWHM assuming a gaussian core                              [deg]
#  11 ELONGATION             A_IMAGE/B_IMAGE                                           
#  12 ELLIPTICITY            1 - B_IMAGE/A_IMAGE                                       
         1 -13.7140    226.3635     31.3541   3.6447571983e+01   2.5868214939e+01     1.080673    0.7968778  48.69    0.0065754    1.792    0.442
         2 -11.2337      2.1888     10.4390   8.9095909569e+01   7.3088548248e+01    0.5455299   0.08941157 -49.93  0.001780656    6.566    0.848
         3 -11.5752    250.0512      7.6236   2.9914454073e+01   2.3846039872e+01    0.4592273    0.1803398 -35.90  0.002018862    2.430    0.588
         4  -9.1406     93.1293      2.1175   4.7654885311e+01   5.9646034516e+01    0.1598604    0.1384575  81.79 0.0004179864    1.322    0.244
         5  -9.5892    192.6680    193.9887   7.7272759640e+01   4.6306385833e+00     0.211787    0.1133242 -63.06 0.0007049244    4.316    0.768
         6 -14.9026     78.5661    244.3732   1.0935558206e+02   1.3194602130e+01     7.705523     1.377749  36.70    0.0254719    4.191    0.761
         7 -11.6043     47.7793    180.0205   1.0957989878e+02   3.1497083255e+01    0.3626154     0.295559 -31.37  0.001196179    1.602    0.376
         8 -11.4517     54.9627    173.8987   1.0697995006e+02   3.2104532928e+01    0.2831339    0.2530792 -50.05 0.0004542283    1.256    0.204
         9  -8.7015    110.5331    167.5391   9.1300261848e+01   2.5141989865e+01    0.1506373     0.141426  71.39 7.376039e-05    1.050    0.047
        10 -10.8383     66.9270    163.8854   1.0236936045e+02   3.2993318613e+01    0.2681411    0.2499056 -55.55 0.0003515492    1.145    0.127
        11 -13.0551     52.7175    160.3286   1.0574201345e+02   3.5750112048e+01    0.5350216    0.3315779 -38.01  0.001520922    2.057    0.514
        12 -12.2098     75.5729    157.0069   9.8871170180e+01   3.3464195902e+01    0.6476556    0.5532236  61.76  0.003535772    1.173    0.147
        13 -12.7700     68.1073    144.2172   9.8779973208e+01   3.7755070133e+01    0.8160142    0.5648215  77.78  0.003827822    1.777    0.437
        14 -10.0896     91.6578    143.6368   9.1826067047e+01   3.4237430486e+01    0.2836082     0.260389  74.46  0.000792066    1.108    0.097
        15  -9.3805     95.2626    139.7962   9.0001876679e+01   3.4565725790e+01    0.3989732    0.2414075 -24.48  0.001235951    2.769    0.639
        16 -11.7150     79.1400    141.8391   9.5098151727e+01   3.6711730925e+01    0.3108133    0.2676712 -47.09 0.0003936688    1.174    0.148
        17 -14.3838    106.3407    228.2212   1.0162843051e+02   1.2341146996e+01     5.551836    0.3359472  41.12  0.002719368    7.321    0.863
        18 -12.0953     53.1762    117.0681   9.8250026953e+01   4.6511408047e+01    0.9275348    0.3056173 -67.57 0.0005503247    4.150    0.759
        19 -13.4280      7.5987    245.9070   1.2332545677e+02   2.1359302679e+01     1.915317    0.8640573  86.93   0.00550633    2.029    0.507
        20 -10.4458    105.8111    131.2926   8.5116600452e+01   3.4727006282e+01    0.3855155    0.3403927  -0.67   0.00119994    1.307    0.235
        21 -15.4104     21.1876    171.5032   1.1538369111e+02   3.6401996091e+01     7.941694     2.957584  87.85   0.02762451    3.867    0.741
        22  -9.8001     92.4506    127.7575   8.8205977808e+01   3.7992170336e+01    0.3008032    0.2480236  -4.68 0.0008986501    1.491    0.329
        23  -9.4462    103.8866    119.9717   8.3001491321e+01   3.7773719683e+01    0.2202325     0.214058 -52.68 0.0002980386    1.012    0.012
        24 -14.2213     13.0648    207.0430   1.2008312999e+02   2.8918666267e+01      1.19411     1.068491  39.02  0.003344903    1.363    0.266
        25 -10.4788     43.0153    217.8763   1.1447296349e+02   2.3310936533e+01    0.2396619    0.1627324 -86.34 0.0003856988    1.378    0.274
        26  -9.0100    204.8501    110.6499   5.7223054323e+01   1.8123594512e+01     0.277775    0.1254707  44.43  0.001087682    2.540    0.606
        27  -9.1234    163.5205     83.4920   5.8227511595e+01   3.2387144968e+01    0.1464717    0.1430716  84.11 5.007244e-05    1.043    0.041
        28  -8.6679     24.7767     82.6125   1.0104407308e+02   5.7610373366e+01    0.1549865    0.1183326  32.01 0.0002904859    1.501    0.334
        29 -11.2444      2.3415     62.5090   1.0576996230e+02   6.3513018789e+01    0.4496562   0.05747842 -61.01  0.001504871    4.332    0.769
        30 -10.4115     13.2394     60.1166   1.0038964505e+02   6.3353234140e+01    0.2086395    0.1651741 -38.26  0.000472617    1.028    0.027
        31 -11.7571    206.2502     49.1049   4.2576549837e+01   2.7915568212e+01    0.5617112    0.3049092 -66.25  0.002577143    2.132    0.531
        32 -11.3828     10.7012     42.8008   9.6617790763e+01   6.6956558847e+01    0.3489781    0.2069182  37.62  0.001382403    2.206    0.547
        33  -9.3683     94.9181     42.1246   6.2226377544e+01   5.4811052429e+01    0.2021316    0.1868503 -71.81 0.0009719273    1.326    0.246
        34 -14.1386     23.6853    200.0322   1.1726302336e+02   2.9446579730e+01     2.191666    0.8202813  52.93  0.008084275    2.522    0.603
        35 -10.7828      2.3338     37.9181   9.9297469239e+01   6.8416642378e+01    0.2555715    0.1964342  38.85  0.001743753    1.778    0.438
        36 -10.6412    120.5845     28.7543   5.0989710638e+01   5.0853966183e+01    0.5263577    0.3064369 -74.27  0.002093296    3.267    0.694
        37  -9.3434    189.5077     15.4872   3.6534023514e+01   3.5948294215e+01    0.1284245    0.1056223 -84.20 0.0005071659    1.023    0.022
        38 -10.8005     24.4870    246.4462   1.2023542123e+02   1.9496987039e+01    0.2118494    0.1583921  63.04 0.0009104752    1.030    0.029
        39 -10.4184     48.5448    237.2183   1.1489419555e+02   1.8555225252e+01    0.2371335    0.1441388  61.60 0.0005833876    1.432    0.302
