#   1 NUMBER                 Running object number                                     
#   2 MAG_AUTO               Kron-like elliptical aperture magnitude                    [mag]
#   3 X_IMAGE                Object position along x                                    [pixel]
#   4 Y_IMAGE                Object position along y                                    [pixel]
#   5 X_WORLD                Barycenter position along world x axis                     [deg]
#   6 Y_WORLD                Barycenter position along world y axis                     [deg]
#   7 A_WORLD                Profile RMS along major axis (world units)                 [deg]
#   8 B_WORLD                Profile RMS along minor axis (world units)                 [deg]
#   9 THETA_WORLD            Position angle (CCW/world-x)                               [deg]
#  10 FWHM_WORLD             FWHM assuming a gaussian core                              [deg]
#  11 ELONGATION             A_IMAGE/B_IMAGE                                           
#  12 ELLIPTICITY            1 - B_IMAGE/A_IMAGE                                       
         1 -14.8144      9.9123    151.6214   1.4249734855e+02   4.2550029330e+01     9.595819     3.147568  68.13   0.04615679    3.216    0.689
         2 -12.7250      3.0048     43.2860   1.3265255489e+02   6.5606785823e+01     1.175732    0.1884529 -66.96  0.004341126    3.895    0.743
         3 -13.3014      5.2913     11.0141   1.2288510982e+02   7.2094597986e+01     1.744025    0.6949491 -51.49  0.009641621    1.769    0.435
         4 -13.5030    206.7984      7.2169   6.5133107576e+01   3.1701720696e+01     1.508479     1.047714  37.33  0.007420759    1.574    0.365
         5 -13.4953    191.8899     26.5834   7.3092264837e+01   3.3590218671e+01     1.573609      1.40198   2.21  0.006524491    1.153    0.132
         6 -10.2324    237.4430    246.7013   1.1343557200e+02  -1.9816659058e+00      0.14239   0.09135272 -28.10 0.0005023961    2.054    0.513
         7 -10.0989    174.5306    249.9852   1.2279508614e+02   6.5481053573e+00    0.1820962     0.101919  48.45  0.001313774    1.369    0.270
         8 -10.5264    171.2723    247.3993   1.2300552947e+02   7.2672950813e+00    0.1896379    0.0932304  42.10 0.0006373304    1.448    0.309
         9 -11.6584    139.3418    248.9966   1.2788619348e+02   1.1566270135e+01    0.2718378     0.228092  77.44  0.002452065    1.399    0.285
        10  -9.8025     29.2694    249.6874   1.4392476862e+02   2.4739690678e+01     0.163739   0.08549722  61.43 0.0009640253    1.260    0.206
        11 -11.7263    186.1165    239.7568   1.1997649602e+02   5.8972786927e+00    0.4701286    0.3194488 -88.06  0.002747136    3.860    0.741
        12 -11.3235    125.1136    250.0205   1.3008254559e+02   1.3378913558e+01    0.4586088   0.09462867  44.78  0.002125069    3.292    0.696
        13 -13.0065      9.1200    205.7621   1.4523495836e+02   3.3132233631e+01     1.211722    0.5522125  73.70  0.007272109    1.690    0.408
        14 -10.5921    172.8757    222.6565   1.1999913756e+02   9.6837534164e+00    0.2789103     0.132169  36.99  0.001635233    1.819    0.450
        15 -12.7475     39.1257    236.1333   1.4195219318e+02   2.5607869015e+01    0.2478533    0.1972725 -84.90 0.0007672994    1.518    0.341
        16  -8.2138    221.5218    213.5043   1.1128492764e+02   3.1357859833e+00    0.1097019   0.08242922  31.37  3.10078e-05    1.017    0.016
        17  -9.0640    152.6264    212.9945   1.2209497627e+02   1.3959143991e+01    0.1371593    0.1201294  53.07 0.0003953947    1.141    0.124
        18  -8.5038     12.6729    240.6745   1.4592322276e+02   2.7576812345e+01   0.06945938   0.06256162  83.02 0.0007049753    1.697    0.411
        19  -8.1246     33.2852    207.6205   1.4145166181e+02   3.0509836182e+01    0.1059753    0.0494589  67.10 0.0004831998    1.727    0.421
        20 -14.0981     45.0691    228.9516   1.4071408418e+02   2.6009627592e+01    0.8207437    0.5892931  55.60  0.005039066    1.204    0.170
        21 -11.5065     64.4489    201.1057   1.3583620392e+02   2.8082365193e+01    0.2085892    0.1832456 -78.71 0.0005901702    1.445    0.308
        22 -11.5831     19.3686    199.4344   1.4331643185e+02   3.3210697628e+01    0.4394304    0.0998113  49.76  0.001483515    2.786    0.641
        23  -9.4168    191.9598    192.9359   1.1290701004e+02   1.0106664099e+01    0.3035317     0.183632 -66.70  0.001378292    4.277    0.766
        24 -11.7942     70.3768    192.6167   1.3412321744e+02   2.8748532185e+01    0.2103164    0.1860478  86.00 0.0004871858    1.296    0.228
        25 -13.2186     67.0914    177.5963   1.3339533632e+02   3.1740572996e+01    0.3844921    0.2456814 -47.80   0.00181607    2.345    0.573
        26  -8.4666    103.7123    180.2526   1.2679132246e+02   2.6282056609e+01     0.112837   0.07330322  66.53 0.0002070632    1.477    0.323
        27 -10.8349     80.0437    179.4508   1.3114019634e+02   2.9743765548e+01    0.1961865    0.1591188  69.96 0.0003627919    1.041    0.039
        28 -11.7702     87.3034    169.7064   1.2870334470e+02   3.0472904335e+01    0.5212671    0.4869658  86.17  0.003968554    1.262    0.207
        29  -9.9306     99.2707    153.5208   1.2424213590e+02   3.1683258919e+01    0.2255369    0.2096045  87.27 0.0006855614    1.159    0.137
        30 -11.9595     87.9913    152.8968   1.2650013651e+02   3.3472507741e+01    0.2240261    0.2168133 -82.31 0.0005325251    1.296    0.228
        31 -10.7789    145.9767    229.9008   1.2503403613e+02   1.2852780315e+01    0.2940491     0.107407  36.87  0.001449132    2.814    0.645
        32  -9.0200    102.0767    149.1642   1.2303114559e+02   3.2065769368e+01    0.1669952    0.1622848  79.24  0.000385668    1.226    0.184
        33 -12.3817     67.1617    143.7982   1.2977673563e+02   3.8078099782e+01    0.6178175    0.3698926  67.48  0.002761225    1.661    0.398
        34 -10.5061    125.4217    244.6913   1.2958844622e+02   1.3966383225e+01    0.1495059   0.09497808 -69.55  0.001132852    2.130    0.531
        35  -9.6910    110.3076    138.0774   1.1952878189e+02   3.2844705578e+01    0.3170997    0.2391373 -15.99  0.001274284    2.303    0.566
        36  -9.4080     86.4020    136.3026   1.2450968216e+02   3.6927559669e+01    0.2206967    0.1576354  67.85 0.0006460549    1.354    0.262
        37 -10.5729     97.7333    135.4347   1.2185115942e+02   3.5383879348e+01    0.2130102    0.2072335 -78.03 0.0006321783    1.219    0.180
        38 -10.0417    155.9682    228.5125   1.2332203951e+02   1.1550158017e+01    0.1709753   0.07912205  44.44  0.001037645    1.605    0.377
        39 -10.5295     55.5791    129.5137   1.3059132089e+02   4.2398197103e+01    0.3506308    0.1722474 -58.17   0.00188914    1.972    0.493
        40  -9.1610    107.2584    124.5767   1.1782678617e+02   3.5982241184e+01    0.1657895    0.1456833  53.92 0.0006750993    1.138    0.121
        41  -9.1034     54.3120    120.3368   1.2967809462e+02   4.4457329952e+01    0.1143342   0.08657276 -44.41 0.0007045475    1.688    0.407
        42  -9.5881      1.5717    240.2595   1.4745118956e+02   2.8638689171e+01    0.1833477   0.06426639 -81.65  0.001307347    2.641    0.621
        43  -9.9218    167.8870    112.8714   1.0222744341e+02   2.6427942058e+01      0.29592    0.2455273  83.80 0.0009711125    1.467    0.318
        44  -9.7077    203.3102    111.9275   9.5382311641e+01   1.8924367666e+01    0.1980141    0.1740994 -10.98 0.0005622703    1.126    0.112
        45 -10.4849    246.9986    248.2495   1.1231970167e+02  -3.3837550124e+00    0.1684008    0.0887069  21.20  0.001191476    1.718    0.418
        46  -8.9134    184.5399     77.4967   8.9862082616e+01   2.8427375965e+01    0.1483511     0.140934   8.23 4.700859e-05    1.035    0.034
        47  -9.3905    156.4876     75.5047   9.4823072165e+01   3.5394760685e+01     0.147126    0.1433942   2.09 2.485844e-05    1.029    0.028
        48 -11.1571      6.8217     62.8901   1.3470841015e+02   6.1179057379e+01    0.1930962    0.1538856  72.65  0.001011068    1.330    0.248
        49 -10.6299     28.2254     60.4712   1.2697544777e+02   6.0109917732e+01    0.2307581    0.1948025  65.61 0.0005495059    1.348    0.258
        50  -9.8520     19.7361     57.1806   1.2924290707e+02   6.1521541643e+01    0.1781988    0.1478888  57.28 0.0007786533    1.415    0.293
        51  -9.5870     81.6226    248.7878   1.3640275079e+02   1.9084025850e+01    0.1874506   0.09705169  64.14  0.001124582    1.645    0.392
        52  -8.2756     47.2600    249.6396   1.4140072118e+02   2.2886996485e+01   0.09396153   0.04448537  65.31 0.0006976001    1.628    0.386
        53  -9.1420      2.0137    249.5208   1.4763105414e+02   2.7324799094e+01    0.1211258   0.05911949  45.90  0.001027384    1.579    0.367
