#   1 NUMBER                 Running object number                                     
#   2 MAG_AUTO               Kron-like elliptical aperture magnitude                    [mag]
#   3 X_IMAGE                Object position along x                                    [pixel]
#   4 Y_IMAGE                Object position along y                                    [pixel]
#   5 X_WORLD                Barycenter position along world x axis                     [deg]
#   6 Y_WORLD                Barycenter position along world y axis                     [deg]
#   7 A_WORLD                Profile RMS along major axis (world units)                 [deg]
#   8 B_WORLD                Profile RMS along minor axis (world units)                 [deg]
#   9 THETA_WORLD            Position angle (CCW/world-x)                               [deg]
#  10 FWHM_WORLD             FWHM assuming a gaussian core                              [deg]
#  11 ELONGATION             A_IMAGE/B_IMAGE                                           
#  12 ELLIPTICITY            1 - B_IMAGE/A_IMAGE                                       
         1 -16.3208    210.7913     66.8960   7.6326391658e+01   2.3563488605e+01     9.826307      6.81114 -84.40   0.04545268    1.770    0.435
         2 -10.9682    133.6824    101.0387   1.0189559861e+02   3.6242530894e+01     1.188465     0.338258 -49.92  0.003152949    4.294    0.767
         3 -14.4208    243.2968     15.4500   5.9704681485e+01   2.2625131945e+01    0.4668038    0.3805746   7.74  0.001869455    1.772    0.436
         4 -17.4405    248.0520     25.3788   6.1582858994e+01   2.0381580132e+01     7.077852     3.109145 -25.89   0.01890309    2.553    0.608
         5 -10.1251     92.2628     12.8972   8.2378861886e+01   6.0155843828e+01    0.3229092    0.2151577 -20.83 0.0009091171    1.533    0.348
         6  -9.3731    166.1487     14.2272   6.7716765729e+01   4.2052898467e+01    0.4282571    0.2956405  37.47  0.002159631    1.614    0.381
         7 -10.0195    180.7980      4.8473   6.2981355573e+01   3.9161181245e+01     0.452791    0.3496922 -68.32  0.001927459    1.286    0.223
         8  -7.4867     79.2963      6.3486   8.3269616502e+01   6.3489004687e+01    0.1364832   0.08405656  20.41 0.0007033845    1.679    0.404
         9 -10.2849    137.0751      3.2059   6.8537682964e+01   5.0550897308e+01    0.4688162    0.2664014  19.85  0.002123886    2.294    0.564
        10  -8.4999    165.8670      2.0198   6.3935566167e+01   4.3280477105e+01    0.2357304    0.1808613  23.67 0.0008756919    1.560    0.359
        11  -8.7207    197.8607      1.6847   6.0297045814e+01   3.5088522692e+01    0.1943015    0.1540778  60.93 0.0007230773    1.265    0.209
        12  -9.4928    159.2167      2.1707   6.4852784857e+01   4.4985930335e+01    0.3184041    0.2457412  15.88  0.001764286    1.558    0.358
        13 -10.7405    223.7148    171.7996   9.9150692414e+01   3.2518474181e+00    0.7029913    0.3560073  57.24  0.002811434    3.021    0.669
        14  -9.7686    243.6451    174.3058   9.6152056799e+01  -7.0504460757e-01    0.3205378    0.2304338  53.37  0.001715669    1.768    0.434
        15  -9.6830    233.9161    173.8955   9.7750792841e+01   1.0683688013e+00     0.334886    0.1657835  54.42  0.001407341    2.811    0.644
        16  -9.5417    187.7279    169.3625   1.0560339542e+02   1.0664132489e+01    0.4682537    0.2527837  65.95  0.001536431    4.064    0.754
        17 -10.2673    230.1299    166.8590   9.6982181150e+01   2.8260566266e+00    0.2770973    0.1897189 -50.95  0.001142677    1.893    0.472
        18 -11.9296     69.3184    144.7462   1.2898045861e+02   3.7858554123e+01     1.194551     1.050955  70.51  0.004774556    1.094    0.086
        19 -11.1410     50.3020    163.0964   1.3621704123e+02   3.6060233401e+01    0.3923993    0.3305576 -48.44  0.001310316    1.479    0.324
        20 -12.1942     57.8287    158.2746   1.3381729627e+02   3.6234577705e+01    0.8670127    0.6903504  55.09  0.003241134    1.228    0.185
        21 -11.3160     63.6698    153.6041   1.3174463866e+02   3.6555584294e+01    0.5843061     0.343108  69.75  0.001534098    1.940    0.485
        22  -8.4544     28.9759    229.8232   1.4603352616e+02   2.4724965544e+01     0.146977     0.122668  77.66 0.0005362811    1.275    0.216
        23  -8.9293    120.4906    148.8808   1.1663269895e+02   2.8394797239e+01    0.2427151    0.2026455  25.79 0.0005383172    1.387    0.279
        24  -9.9622    174.1316    203.5364   1.1468282846e+02   7.3545854074e+00    0.2121878    0.2032589  12.79 0.0003059455    1.127    0.113
        25  -8.3357    146.9478    158.0221   1.1215125733e+02   2.1186294084e+01    0.2315805     0.176378  77.49 0.0005670885    1.629    0.386
        26  -8.6324    140.3148    105.2142   1.0134271431e+02   3.3873589713e+01    0.2450755    0.2011686 -24.36 0.0007481483    1.369    0.270
        27 -10.2201    121.8470    102.5887   1.0546262519e+02   3.8478230055e+01    0.5763159    0.2464009  53.18  0.001957707    2.765    0.638
        28  -9.1734    145.8128    101.8393   9.9055128939e+01   3.3316826983e+01    0.3071451    0.2676595   4.54 0.0007327213    1.343    0.255
        29  -9.8527    178.2500    147.4543   1.0292044087e+02   1.6724500495e+01    0.3144999    0.2377361 -71.23  0.001464996    1.778    0.437
        30 -12.4362    168.2587     88.1891   9.0033798243e+01   3.0593123880e+01     1.197222    0.8347825 -40.92  0.003982855    1.432    0.302
        31 -10.6883    159.7716     86.0546   9.1284773165e+01   3.3088700753e+01    0.4972313    0.3517457 -46.22  0.001082354    1.437    0.304
        32  -9.7999    163.0081     83.7398   8.9892612160e+01   3.2720027103e+01     0.357904    0.2929126  48.13    0.0006883    1.218    0.179
        33 -10.8594    155.0253     96.3176   9.5308826849e+01   3.2260164200e+01    0.5658101    0.3555589  36.33  0.002333156    1.809    0.447
        34  -9.5861    139.0912     92.2535   9.8027391940e+01   3.6830728500e+01     0.394039    0.2994697 -66.54  0.001372163    1.573    0.364
        35  -7.9140    127.3232     91.3039   1.0081448973e+02   3.9690146283e+01    0.1559834    0.1234563   5.48   0.00070312    1.638    0.389
        36 -10.7361    152.0102     87.0615   9.3362366623e+01   3.4793122172e+01    0.3385173    0.2846232 -32.06 0.0004793547    1.227    0.185
        37  -9.7723    192.2645    152.5578   1.0113003491e+02   1.2774671792e+01    0.3152789    0.1755411 -52.31  0.001293924    2.217    0.549
        38  -8.5192    118.0390    133.3761   1.1401304533e+02   3.2363400536e+01    0.2029582    0.1798938  51.95   0.00107159    1.117    0.104
        39 -10.2876    135.6015    126.2137   1.0788251700e+02   3.0384821395e+01    0.9827067      0.17793 -47.93  0.002271953    5.724    0.825
        40  -8.0114     97.7878    132.4383   1.1916636067e+02   3.6310736751e+01    0.1822435    0.1429921  27.08 0.0003885595    1.501    0.334
        41 -11.2427    160.7182    127.4773   1.0214907746e+02   2.4596799273e+01    0.6115442    0.3479645 -47.93  0.002506451    1.821    0.451
        42  -9.5707    127.0031    111.9906   1.0656524857e+02   3.5334537442e+01    0.3427803    0.2221364 -55.65 0.0006277591    1.627    0.386
        43  -9.4458    148.1507    115.2818   1.0206325324e+02   2.9980039953e+01    0.3661054     0.256668 -79.94   0.00127733    2.119    0.528
        44 -10.0984    102.7560     40.1751   9.0591595725e+01   5.4389940677e+01    0.3199866    0.2260023  34.63  0.001336155    1.407    0.289
        45  -9.6807    192.2742    193.6176   1.0935511108e+02   5.6431489371e+00    0.8169654    0.4191387 -63.68  0.002172827    8.087    0.876
        46 -11.7472    168.1434    114.2947   9.7157041307e+01   2.5564518567e+01    0.6949898    0.5629433  81.68  0.001048523    1.490    0.329
        47 -10.1175    112.9346     29.8031   8.3739160391e+01   5.3591000569e+01    0.2447093    0.2059758 -19.23 0.0007143235    1.219    0.180
        48  -9.6712    178.3327    118.0063   9.5887103507e+01   2.2448473842e+01    0.3092602    0.2162183  50.59 0.0006442783    1.430    0.300
        49 -11.4496    119.1352     26.8467   8.1040975960e+01   5.2520287060e+01    0.4921676    0.3470571  39.88  0.002530645    1.351    0.260
        50  -8.3299     57.3383     27.7847   1.0123018223e+02   6.4601793315e+01    0.1809061    0.1037099 -28.27 0.0009382868    1.649    0.394
        51 -10.2880    175.1646    114.9652   9.5791142205e+01   2.3783735737e+01    0.3956755    0.2672321 -62.55  0.001638036    1.889    0.471
        52 -11.6736      5.1951    185.1800   1.4786923443e+02   3.5835247795e+01    0.7151555    0.2769413 -64.71  0.003849289    2.428    0.588
        53  -9.4880    134.1439    147.2887   1.1296400171e+02   2.6067542541e+01    0.6120441    0.1692151 -51.74  0.001781649    3.944    0.746
        54 -11.4341      5.3274    176.0343   1.4729783556e+02   3.7734596080e+01    0.5469387    0.3791972  67.83  0.003892867    1.188    0.158
        55 -10.9623    214.4542    187.2390   1.0391238102e+02   2.5689992674e+00    0.4245909    0.3390365  28.58  0.002221011    1.125    0.111
        56 -10.6741    216.2303    182.3073   1.0262736681e+02   3.0038656954e+00    0.5141854    0.2145603  37.00  0.002125798    2.356    0.575
        57  -7.4706    175.2873    189.2537   1.1196862168e+02   9.5748274684e+00    0.1320331    0.1011666  15.77    0.0001891    1.478    0.323
        58 -11.4939     22.2506    182.7495   1.4427708912e+02   3.4775599726e+01    0.6041341     0.229179  44.69  0.002760054    2.290    0.563
        59 -10.7402    155.7008    113.1642   9.9711284781e+01   2.8693373796e+01    0.4859003    0.3326496  37.70  0.001185647    1.557    0.358
        60 -12.4075     23.6244    177.2556   1.4357346692e+02   3.5815562294e+01    0.7773153    0.5113879  53.83  0.003972936    1.387    0.279
        61 -11.2723    220.8943    176.5241   1.0062056425e+02   3.0405089951e+00    0.4874426    0.4631063 -79.85  0.003027801    1.416    0.294
