#   1 NUMBER                 Running object number                                     
#   2 MAG_AUTO               Kron-like elliptical aperture magnitude                    [mag]
#   3 X_IMAGE                Object position along x                                    [pixel]
#   4 Y_IMAGE                Object position along y                                    [pixel]
#   5 X_WORLD                Barycenter position along world x axis                     [deg]
#   6 Y_WORLD                Barycenter position along world y axis                     [deg]
#   7 A_WORLD                Profile RMS along major axis (world units)                 [deg]
#   8 B_WORLD                Profile RMS along minor axis (world units)                 [deg]
#   9 THETA_WORLD            Position angle (CCW/world-x)                               [deg]
#  10 FWHM_WORLD             FWHM assuming a gaussian core                              [deg]
#  11 ELONGATION             A_IMAGE/B_IMAGE                                           
#  12 ELLIPTICITY            1 - B_IMAGE/A_IMAGE                                       
         1 -13.7806    228.8080     34.2102   3.1121143597e+01   2.5472441575e+01     1.333847    0.9274063  47.54  0.007766536    1.879    0.468
         2 -12.8217    213.7303     46.8907   3.5595425415e+01   2.7052133826e+01    0.9130939    0.6007985 -69.87  0.004899474    1.561    0.359
         3 -11.3080      1.7393     12.4367   8.5589027253e+01   7.2277819059e+01     0.404187    0.1386551 -46.70  0.002094528    2.434    0.589
         4 -11.8276      2.9765      4.2722   8.1191259247e+01   7.3401431686e+01    0.5036529     0.243842 -42.32  0.003096199    1.895    0.472
         5  -9.3658    250.5678     11.7015   2.4785452521e+01   2.3746043406e+01     0.198661    0.1046782 -32.73  0.001132432    2.082    0.520
         6  -9.7217     96.6961      5.3985   4.3264238759e+01   5.8758602854e+01    0.2279105    0.1868934 -75.66   0.00092583    1.663    0.399
         7 -10.4875     17.7836      2.2682   7.1687332112e+01   7.2295683664e+01    0.1886772    0.1172356  24.74  0.000716805    1.503    0.335
         8  -9.3756     98.1336    169.8214   9.0487981684e+01   2.6670876917e+01     0.232855    0.1995727  76.19 0.0004653819    1.225    0.184
         9  -8.7459    174.6432    250.3132   8.5839851429e+01  -2.2674604422e+00    0.1218845   0.09208603  55.63 0.0003200493    1.741    0.426
        10 -14.5623    105.5053    229.9488   9.7591093704e+01   1.1967589548e+01     10.43867     1.187093  39.24   0.02796684    5.598    0.821
        11  -9.5363     89.9384    167.5167   9.2254656835e+01   2.8539199610e+01    0.2232869    0.1435326  35.79 0.0009826947    1.590    0.371
        12 -14.1738     11.7126    205.3711   1.1538985882e+02   2.8956027390e+01     1.075286    0.8605768 -47.10  0.002484132    1.652    0.395
        13 -12.7395     53.9759    121.5011   9.4297403783e+01   4.5056608672e+01     2.366315    0.8059821 -72.28  0.005539953    7.053    0.858
        14 -12.9881     68.1616    144.1927   9.4228196540e+01   3.7563195865e+01     1.051509    0.6406114  62.56  0.002886592    2.140    0.533
        15 -10.9544     65.6477    162.1306   9.7905237710e+01   3.3382304813e+01    0.2743956    0.2591025 -59.01 0.0004048766    1.110    0.099
        16 -13.1577     51.0357    158.2961   1.0130572314e+02   3.6158025042e+01    0.5501421    0.3485901 -36.25  0.001670628    1.983    0.496
        17  -8.9908    134.0000    145.5345   7.6148926060e+01   2.6058278279e+01    0.7131999   0.08788709 -49.29  0.001348429    8.011    0.875
        18 -14.3143     21.5232    196.8644   1.1269317419e+02   2.9953887619e+01     2.306305    0.9355536  55.76  0.008896617    2.448    0.591
        19 -10.4707     90.8828    142.5352   8.7334495839e+01   3.4600061226e+01    0.3540101    0.2994382  36.48 0.0008265704    1.235    0.190
        20  -9.4315     94.9133    139.0206   8.5445153691e+01   3.4810076151e+01    0.3523148    0.2461588 -29.42  0.001578763    1.734    0.423
        21 -11.9362     78.1450    140.5133   9.0628310677e+01   3.7077233132e+01    0.3308239     0.285573 -49.88  0.000367573    1.116    0.104
        22 -10.9367    241.5931    137.9677   5.1907474311e+01   6.4155701876e+00    0.2910924    0.1623295 -24.99  0.001309552    2.081    0.519
        23  -8.5754    141.3347    135.9682   7.2056160887e+01   2.6798991707e+01    0.2669742    0.1298943 -65.74 0.0006701091    4.603    0.783
        24  -8.4488    136.9974    133.9822   7.2699027002e+01   2.8139525335e+01    0.1853623    0.1746918 -43.30 0.0003198133    1.042    0.040
        25 -11.4077     67.0922    128.4942   9.1574749241e+01   4.1653355763e+01    0.9344372    0.2974091 -65.13  0.002726432    4.039    0.752
        26 -10.5963    105.7451    130.9949   8.0548527913e+01   3.4891715636e+01    0.4392537    0.3479872  17.55  0.001120373    1.454    0.312
        27  -9.8418    193.3074    195.6348   7.2772256852e+01   4.2254005065e+00    0.2617869    0.1265351 -55.76 0.0008016287    3.204    0.688
        28  -9.7999     91.7588    126.8600   8.3706101041e+01   3.8329383878e+01    0.3401465    0.2505195 -13.84   0.00154701    1.783    0.439
        29  -8.2985     99.6455    180.7357   9.1944928164e+01   2.3791122546e+01    0.1420085    0.1146718 -10.98 0.0002963365    1.624    0.384
        30  -9.1863    112.7623    125.4144   7.7223636856e+01   3.4928258260e+01    0.2208593    0.1505399  25.35 0.0009509219    1.706    0.414
        31 -11.7245     46.0257    177.7258   1.0510921645e+02   3.1925517110e+01    0.3891131    0.2939957 -31.97 0.0006348124    1.748    0.428
        32  -9.3886    103.4444    119.4628   7.8472795782e+01   3.8071962958e+01    0.2422574    0.2362489  -6.46 0.0003148432    1.040    0.039
        33  -9.4504    204.5459    110.7165   5.2098279741e+01   1.8557228732e+01    0.3010703    0.2196132  25.56  0.001439597    1.800    0.444
        34 -11.4707    244.9030    108.0981   4.5079560099e+01   1.0987705200e+01    0.3261608     0.183333 -28.45  0.001528146    1.975    0.494
        35 -12.6460     74.1934    155.3974   9.4468985284e+01   3.3903921843e+01     1.239849    0.7615756  69.89  0.001503319    2.220    0.550
        36  -9.1346     29.6769    104.3156   9.9008553400e+01   5.1717641690e+01    0.1295118   0.09772005  72.27 0.0004264829    1.664    0.399
        37 -11.2867    243.1554    101.5501   4.3925904820e+01   1.2417407207e+01    0.2962259    0.1919685  43.35  0.001557075    1.904    0.475
        38  -9.0452     62.2819    101.2522   8.7115741178e+01   4.8923782707e+01    0.1851958    0.1651793  77.27  0.001036393    1.353    0.261
        39 -11.6030      2.1004     79.6401   1.0433910053e+02   5.9231447161e+01    0.6966347    0.1164304 -65.68  0.002335258    4.130    0.758
        40 -10.2431    163.7611     84.5691   5.3424215381e+01   3.2581156263e+01     0.294962    0.1403129  48.60  0.001142142    2.105    0.525
        41  -8.9142    184.5133     77.4740   4.7483019822e+01   2.9006590471e+01    0.1415694    0.1390555 -75.70 3.381629e-05    1.066    0.062
        42  -8.9854     61.8343     71.7969   7.9194680409e+01   5.5480341296e+01    0.2082353    0.1685741 -14.77  0.000467568    1.186    0.157
        43 -10.2589     13.3163     60.1407   9.5566058262e+01   6.2840152386e+01    0.2269724    0.1784635 -53.50 0.0004710111    1.192    0.161
        44 -10.9802      3.6942     58.9597   9.9424631709e+01   6.3627085890e+01    0.3522861    0.1473006 -45.61  0.001237724    1.770    0.435
        45 -14.7539     31.2576    246.3428   1.1421068931e+02   1.8400511298e+01     5.577837     1.323735  33.60   0.02275487    3.827    0.739
        46  -8.6859     68.9676    208.3355   1.0316264591e+02   2.1854835597e+01    0.1750422    0.1505891  64.18 0.0004784129    1.041    0.039
        47 -10.9530      1.9019     47.5814   9.7379483385e+01   6.6022199031e+01    0.6126156   0.08727785 -63.07  0.001418922   10.254    0.902
        48  -8.7212     94.9765     46.4905   5.9092031872e+01   5.4301008821e+01    0.2019905    0.1280003  45.27  0.000418466    1.504    0.335
        49 -10.5124      2.6535     38.6290   9.4486846935e+01   6.7710765878e+01    0.2112205    0.1750588 -36.85 0.0009267921    1.150    0.131
        50  -9.4455     16.9876     37.0000   8.6917837401e+01   6.7062687016e+01    0.1759942   0.06261709  20.84 0.0008028793    2.946    0.661
        51 -12.0362    207.3315     50.3153   3.7201971156e+01   2.8000924917e+01    0.7944668    0.3797548 -48.31  0.003625375    1.994    0.499
        52 -11.3361      2.3474     24.6437   9.0028479425e+01   7.0243834116e+01    0.4388394   0.08463197 -44.54  0.001849019    3.191    0.687
        53  -9.4324     23.9850    231.6815   1.1465593201e+02   2.2125533574e+01    0.2776145    0.1297873  31.68  0.001490382    2.267    0.559
        54 -15.4005     26.2759    182.1119   1.1035191290e+02   3.2937795203e+01     8.241182     2.969883  87.36   0.02651949    4.662    0.785
        55 -10.4838      9.1205     55.3951   9.6168034579e+01   6.4069819549e+01    0.2286597    0.1532855 -76.53  0.001325206    1.950    0.487
        56  -8.9755    189.5795     15.7489   3.1045903349e+01   3.6380089133e+01     0.169585    0.1061705 -48.17 0.0005360848    1.578    0.366
        57 -11.6120     53.2749    171.7163   1.0253258913e+02   3.2553799355e+01    0.3174902    0.2609929 -42.32 0.0004123699    1.393    0.282
        58  -8.9538    110.9450    167.7590   8.6761064505e+01   2.5023032983e+01    0.2037525    0.1898397  58.10 0.0002961788    1.071    0.067
