#   1 NUMBER                 Running object number                                     
#   2 MAG_AUTO               Kron-like elliptical aperture magnitude                    [mag]
#   3 X_IMAGE                Object position along x                                    [pixel]
#   4 Y_IMAGE                Object position along y                                    [pixel]
#   5 X_WORLD                Barycenter position along world x axis                     [deg]
#   6 Y_WORLD                Barycenter position along world y axis                     [deg]
#   7 A_WORLD                Profile RMS along major axis (world units)                 [deg]
#   8 B_WORLD                Profile RMS along minor axis (world units)                 [deg]
#   9 THETA_WORLD            Position angle (CCW/world-x)                               [deg]
#  10 FWHM_WORLD             FWHM assuming a gaussian core                              [deg]
#  11 ELONGATION             A_IMAGE/B_IMAGE                                           
#  12 ELLIPTICITY            1 - B_IMAGE/A_IMAGE                                       
         1  -8.8858    112.0098     34.6420   6.1142774421e+01   5.2822275539e+01     0.260965     0.184659 -44.62 0.0007552553    1.637    0.389
         2  -9.1710     74.1260     19.6179   6.6471931067e+01   6.2511109177e+01     0.284551    0.1849238 -44.13 0.0008878337    2.020    0.505
         3  -8.0912     30.2184     16.2218   8.3534422515e+01   6.9588436489e+01    0.1485847     0.130021 -25.83 0.0006974651    1.389    0.280
         4  -7.8245     17.1503     14.1736   8.9425272788e+01   7.1232510671e+01    0.1400209    0.1222245 -12.58 0.0004548435    1.315    0.240
         5  -8.1895    236.3199      9.9915   3.5063289199e+01   2.5942088592e+01    0.1662531    0.1382038 -52.11 0.0003913225    1.140    0.123
         6  -8.4163     55.8265     10.1707   6.8867463552e+01   6.6824404753e+01    0.1711386    0.1544839  -2.94 0.0005334683    1.284    0.221
         7  -7.9210     47.4729     10.2521   7.2418760574e+01   6.8124504410e+01    0.1568558    0.1053329 -33.93 0.0009380439    1.621    0.383
         8  -8.6834     90.5346      8.6015   5.6424530198e+01   6.0445955977e+01    0.2097709     0.108215 -34.49 0.0007228726    2.183    0.542
         9  -7.4869    101.6547      8.3032   5.3390703072e+01   5.8073676073e+01    0.1243349    0.1016669 -71.90 0.0007040086    1.687    0.407
        10  -8.2823      5.9397      8.4637   9.3113828924e+01   7.3045887022e+01    0.1301288   0.08770389  40.40 0.0006724423    2.479    0.597
        11  -8.6429     33.2659      4.9508   7.6271528841e+01   7.0767598850e+01    0.2650411    0.1680096 -45.39  0.001511977    2.375    0.579
        12  -7.6177     44.5366      3.4702   7.0185006246e+01   6.9360626224e+01    0.1198338   0.09527749   4.76 0.0008080641    1.060    0.057
        13  -8.5033     79.1632      4.3748   5.7832881352e+01   6.3163982816e+01    0.2277843    0.1461065 -35.85 0.0008488105    1.866    0.464
        14  -8.3994     62.3820      1.6443   6.2075659251e+01   6.6595172143e+01    0.1896521    0.1418007  53.76 0.0006913683    1.596    0.374
        15  -7.4072     52.6791      1.3211   6.5606058540e+01   6.8300016328e+01    0.1035608   0.09637624 -44.68 0.0007044648    1.671    0.402
        16  -7.5748     39.4511      1.4892   7.1420135151e+01   7.0331209157e+01    0.1193371   0.09200265   3.31 0.0001098539    1.026    0.025
        17  -8.7959    139.5157    244.4810   1.0377227098e+02   5.2541684932e+00    0.1908611    0.1206379 -70.99 0.0009137526    2.369    0.578
        18  -8.4460    248.9037    249.2917   8.4122434829e+01  -1.1238951132e+01    0.2795574    0.1481459 -10.49  0.001610891    1.985    0.496
        19  -9.4235    248.4613    242.5396   8.3100453242e+01  -1.0409357600e+01    0.2549105     0.197398 -26.04 0.0009416441    1.510    0.338
        20  -9.3475    211.2018    247.0602   9.0442376161e+01  -5.9109025198e+00    0.3633517    0.2431401 -60.50  0.001580558    3.437    0.709
        21  -8.8818    212.9420    242.3807   8.9392960621e+01  -5.5511997847e+00    0.2277934    0.1741791  18.98 0.0007302571    1.046    0.044
        22  -8.1678    183.7002    250.5366   9.6077154705e+01  -2.3673896417e+00    0.2314066   0.09754123  33.49  0.001123252    1.994    0.499
        23  -7.5677    125.2937    250.6879   1.0726637795e+02   6.3851568517e+00    0.1192072   0.08034781  61.18 0.0003632761    1.593    0.372
        24  -8.7674     93.6751    249.3056   1.1313920785e+02   1.1167357847e+01     0.303232    0.1639826  67.41  0.001590539    2.211    0.548
        25  -8.1450     58.7877    245.1817   1.1926265857e+02   1.6484417616e+01    0.2079192   0.08287166  63.61 0.0009542536    2.858    0.650
        26  -8.3094     49.8120    243.7670   1.2078670023e+02   1.7826946042e+01    0.2912872    0.1086265  84.45   0.00110107    4.819    0.793
        27  -8.5106    201.9315    243.4482   9.1601726886e+01  -4.0925641973e+00    0.1929634    0.1691979 -48.07 0.0008369804    1.637    0.389
        28  -8.6244    168.9847    243.4040   9.7879477833e+01   8.8901106561e-01    0.1939745    0.1741732 -79.44 0.0006286183    1.561    0.359
        29  -8.9905     77.9257    243.4080   1.1557136333e+02   1.4355680818e+01    0.2640975    0.1354289  66.62  0.001381048    2.166    0.538
        30  -7.7447     34.3451    244.3006   1.2356063703e+02   1.9494079571e+01   0.09055567   0.08467066 -45.01 0.0007037674    1.680    0.405
        31  -9.2730    194.6431    241.4743   9.2670697650e+01  -2.7381289265e+00    0.3458814    0.2193485 -47.84  0.001134665    2.103    0.525
        32  -9.3478    160.1065    240.3556   9.9185181920e+01   2.7321361368e+00    0.2962625    0.2225883 -79.97  0.001212327    2.148    0.534
        33  -7.8635    153.3818    242.2043   1.0075866993e+02   3.4849761232e+00    0.1478349    0.1198703 -69.72 0.0005496165    1.658    0.397
        34  -8.2324     88.1462    242.2093   1.1351811649e+02   1.3187648418e+01    0.1647933    0.1152967  67.41 0.0004787081    1.352    0.260
        35  -9.1310    182.8481    239.8369   9.4678329086e+01  -7.1234844019e-01    0.2719483    0.2369259  67.27  0.001332999    1.635    0.389
        36  -8.9567    241.1982    238.9831   8.3769223576e+01  -9.0381670367e+00    0.3773648    0.1503267 -18.15  0.001469987    4.211    0.763
        37  -9.3373    135.7376    238.9858   1.0382379775e+02   6.7439072357e+00    0.2609109    0.1695461  55.38  0.001148811    1.596    0.373
        38  -8.4963    129.0396    238.9752   1.0515386999e+02   7.7759448704e+00    0.2004417    0.1345558  64.02  0.001126475    1.746    0.427
        39  -9.0118    230.9425    237.1184   8.5273200280e+01  -7.4144262843e+00    0.2421273    0.1823714 -44.56  0.001301509    1.958    0.489
        40  -9.7971    175.7253    233.5915   9.5126190046e+01   1.3381086850e+00    0.4563106    0.2455828 -55.88    0.0021954    2.812    0.644
        41  -8.2091     25.4649    236.9524   1.2469263808e+02   2.1811522366e+01    0.1652571    0.0655863  75.07 0.0008093747    2.674    0.626
        42  -9.7938    214.6721    233.1552   8.7585619145e+01  -4.5669527878e+00    0.4398805    0.3402001  88.74  0.002157153    3.749    0.733
        43  -8.9687    203.2035    234.6547   8.9980281193e+01  -3.0665791863e+00     0.289382    0.2083302 -58.29   0.00130047    2.365    0.577
        44  -8.1922    170.4724    236.0259   9.6524772581e+01   1.7869065740e+00    0.1638887    0.1254607 -43.19 0.0005973806    1.546    0.353
        45  -9.3946    109.3891    234.8660   1.0858671185e+02   1.1471024481e+01    0.5320749    0.2089962  52.30  0.002118841    2.710    0.631
        46  -7.9424     58.0396    237.0000   1.1878134342e+02   1.8093696305e+01     0.186014   0.05659828  36.14 0.0008055478    2.964    0.663
        47  -9.2236    247.7756    234.6029   8.1894213118e+01  -9.3750470274e+00    0.2231863    0.1591907  -9.73 0.0009188813    1.189    0.159
        48  -9.4889    246.3728    229.2670   8.1226067159e+01  -8.5299065796e+00     0.384948    0.1887587 -32.43  0.001758413    2.001    0.500
        49  -8.4842     99.6465    234.6111   1.1050231805e+02   1.2947688905e+01    0.2455008    0.1423335  65.98   0.00101821    1.991    0.498
        50  -9.1560     78.4568    234.5054   1.1466635219e+02   1.5931727302e+01    0.2520968    0.1621694  70.93 0.0009073502    1.544    0.352
        51  -9.3438      7.9980    234.4975   1.2758324267e+02   2.4007611381e+01    0.1802994   0.09248341 -74.57  0.001168567    1.819    0.450
        52  -8.3696    122.8790    234.1349   1.0579073161e+02   9.5638884396e+00    0.1947932    0.1471955  60.50 0.0005403602    1.327    0.247
        53  -9.3512     67.9946    231.5986   1.1643821334e+02   1.7866911500e+01    0.5304092    0.2586159  82.55  0.002502561    2.778    0.640
        54  -8.3423    194.4906    232.9321   9.1367656462e+01  -1.4913518949e+00    0.1926836    0.1632954  62.31   0.00075545    1.732    0.423
        55  -9.1803    141.8695    231.3860   1.0159049577e+02   7.0793905973e+00    0.6059677    0.2397359  54.57    0.0020595    4.339    0.770
        56  -8.3059    132.6893    233.0360   1.0367060765e+02   8.2384264835e+00     0.189682    0.1504912  78.26   0.00102218    1.533    0.348
        57  -9.3551    186.4986    230.7843   9.2577170751e+01   7.2545284795e-02    0.3034023    0.2436734 -84.33  0.001506039    2.255    0.556
        58  -8.4965    157.7377    232.1981   9.8499722729e+01   4.4166167468e+00    0.1822412    0.1594605  75.15  0.000603068    1.452    0.311
        59  -8.3014     92.2619    231.5417   1.1164906955e+02   1.4580032080e+01     0.286204    0.1453795  71.68  0.001254802    2.979    0.664
        60  -8.7142    236.1176    230.8969   8.3306532069e+01  -7.3368685890e+00    0.1983422    0.1685883  -8.36 0.0004306348    1.259    0.206
        61  -8.9679      1.7183    230.9128   1.2848903623e+02   2.5261841296e+01    0.2048565    0.1000815  74.94 0.0008063313    1.635    0.389
        62  -9.1513    151.3538    229.0362   9.9334631064e+01   5.9674708179e+00    0.3031236    0.2081387 -89.92  0.001487196    2.677    0.626
        63  -9.5217    148.6796    224.6462   9.9246991784e+01   7.1564137204e+00    0.4237058    0.2905242  79.58  0.001468891    2.495    0.599
        64  -7.8988    229.6336    228.8812   8.4125556274e+01  -6.1612154980e+00    0.1518683    0.1072424 -36.71 0.0005928598    1.663    0.399
        65  -8.9521    162.5540    228.0124   9.6913261521e+01   4.3349314672e+00    0.3296721     0.210148  60.55  0.001240683    2.241    0.554
        66  -8.8543    127.8409    227.2701   1.0390681685e+02   1.0025369499e+01    0.3063205    0.1976592  65.44  0.001085293    1.941    0.485
        67  -8.3841    120.0094    227.9521   1.0560487220e+02   1.1122645626e+01    0.2053974    0.1365766  63.89 0.0007347279    1.694    0.410
        68  -8.3699    223.3460    227.2214   8.4988094389e+01  -5.0292272534e+00    0.2290029    0.1557163 -15.37  0.001106251    1.420    0.296
        69  -8.8929    225.3997    222.0413   8.3717271960e+01  -4.6173191170e+00    0.2293376    0.1843655 -22.76 0.0005422007    1.290    0.225
        70  -9.0149    206.1156    226.1382   8.8029818625e+01  -2.2896955613e+00    0.2381938    0.1737483 -38.32 0.0008156365    1.578    0.366
        71  -8.2935     48.9731    226.7865   1.1971156990e+02   2.1159917892e+01    0.2022439   0.09448352  58.25 0.0007100484    1.925    0.480
        72  -8.2938    200.0235    226.3155   8.9226990723e+01  -1.3731988094e+00    0.1766893    0.1399173  25.00  0.000393757    1.094    0.086
        73  -9.0046     94.3586    224.5865   1.1047541284e+02   1.5610405502e+01    0.4089989    0.2027988  64.84  0.001802624    2.708    0.631
        74  -8.8238    180.5764    224.1769   9.2693447406e+01   2.0450697174e+00    0.2422977    0.2219804 -50.25 0.0007034215    1.384    0.277
        75  -8.9038    104.6074    223.5530   1.0824359976e+02   1.4299411816e+01    0.3071198    0.1944516 -89.67  0.001592049    2.092    0.522
        76  -8.0355     38.1851    224.5679   1.2160153019e+02   2.2835853126e+01      0.21142   0.09876232  77.17 0.0008934224    2.260    0.558
        77  -8.7893    216.4258    223.6192   8.5654411594e+01  -3.4985187676e+00    0.2178633    0.2166101 -66.97  0.001046066    1.546    0.353
        78  -8.5769    172.9073    223.2254   9.4081476092e+01   3.4442566113e+00    0.2418056     0.187602 -67.31 0.0007910195    1.888    0.470
        79  -8.2920    113.7134    224.1447   1.0642726895e+02   1.2803497181e+01    0.1962015    0.1499684  77.86 0.0008601242    1.467    0.318
        80  -8.0949     59.7779    223.7930   1.1736875212e+02   2.0441240221e+01    0.2088251    0.1014924  64.41  0.001041771    2.139    0.532
        81  -9.4235    192.4614    221.4734   8.9893355919e+01   5.5766067853e-01    0.3058712    0.2568736  89.35  0.001055551    2.040    0.510
        82  -8.1584    163.1505    222.7425   9.5989315374e+01   5.1208905566e+00    0.2105606    0.1371707  69.18 0.0009500443    2.805    0.643
        83  -8.8055    158.9694    220.5220   9.6505173320e+01   6.1892155838e+00    0.2404164    0.2113309  82.07 0.0008134267    1.465    0.318
        84  -8.2412    140.4841    222.9806   1.0070273101e+02   8.7814037478e+00    0.1721061    0.1312153 -57.99 0.0006780878    1.535    0.348
        85  -8.6145    238.9624    221.7053   8.1208979429e+01  -6.5324690562e+00    0.1799423    0.1663206 -29.61 0.0005599338    1.570    0.363
        86  -8.3049     73.3634    221.2613   1.1441600879e+02   1.9192502651e+01      0.29478    0.1322825  61.62  0.001088207    2.589    0.614
        87  -7.8887      8.4877    222.4781   1.2692680226e+02   2.6270115951e+01    0.1082364   0.08177833  76.67 0.0008094219    1.060    0.057
        88  -9.1739    120.5597    219.4132   1.0438464300e+02   1.2635857001e+01    0.4602668    0.2363106  62.63  0.001755036    2.953    0.661
        89  -8.7585     82.9752    220.8431   1.1240878666e+02   1.7965056036e+01    0.2690844    0.1429647  65.31   0.00128178    2.159    0.537
        90  -8.4398     27.6218    220.5017   1.2331905743e+02   2.4784480665e+01    0.2647575   0.08325347 -70.11  0.001255098    2.827    0.646
        91  -8.3277    202.8437    220.3041   8.7669864958e+01  -9.1476352059e-01    0.2006813    0.1686205 -37.54 0.0006786278    1.418    0.295
        92  -8.7921    249.4826    218.6408   7.8822689908e+01  -7.5932109153e+00    0.2491752    0.1806106  56.73  0.001367656    2.815    0.645
        93  -8.2933    210.0267    219.2740   8.6112911715e+01  -1.8863955867e+00    0.1779327    0.1463019  16.86 0.0004601995    1.056    0.053
        94  -9.3044    133.0558    216.3461   1.0131383924e+02   1.1211179120e+01    0.4588898    0.2799061  73.40  0.001992057    2.854    0.650
        95  -7.9300     94.9464    219.0000   1.0972114671e+02   1.6622136567e+01    0.2130797   0.06495683  36.90 0.0008062678    2.969    0.663
        96  -8.6159     62.4528    217.6964   1.1629212538e+02   2.1334755274e+01    0.3188601    0.1528646  59.90  0.001545255    2.087    0.521
        97  -8.8102     51.6499    217.1816   1.1842006924e+02   2.2771770500e+01    0.2970562    0.1743308  78.26  0.001148017    1.670    0.401
        98  -7.8419     55.8323    217.1810   1.1758245080e+02   2.2265478738e+01    0.1389481    0.1334669  89.68            0    1.312    0.238
        99  -8.7019    169.2390    216.0637   9.3678360272e+01   5.2524073819e+00    0.2718395    0.2064861 -66.27 0.0008377907    1.865    0.464
       100  -8.6410    143.0764    216.5840   9.9225915010e+01   9.5209135510e+00    0.2583896    0.1958347  78.45  0.001033901    1.794    0.443
       101  -8.2046    111.8174    217.0236   1.0592116952e+02   1.4466846735e+01    0.2146319    0.1391585  77.12  0.001071356    2.052    0.513
       102  -9.8127    214.3236    213.0518   8.4197613773e+01  -1.6295982898e+00    0.4175866    0.3321526 -70.29  0.001865411    2.409    0.585
       103  -8.1718     18.5160    216.0501   1.2474996589e+02   2.6599277456e+01     0.170297   0.09139253 -84.30  0.001033701    1.602    0.376
       104  -8.6295    232.3495    214.8633   8.1176138308e+01  -4.6421207193e+00    0.2010214    0.1846809 -37.65  0.000743733    1.555    0.357
       105  -8.3243    185.6457    214.5088   9.0073944894e+01   2.7818796562e+00    0.1965625    0.1654934 -69.20 0.0007999528    1.746    0.427
       106  -8.3362    154.4311    215.3105   9.6639109517e+01   7.8630300255e+00    0.2231236    0.1471156  54.17 0.0007367516    1.695    0.410
       107  -8.8956     92.7925    213.8403   1.0957322681e+02   1.7974965444e+01    0.2864057    0.1670112  64.01  0.001001843    1.903    0.475
       108  -9.4317     73.0459    211.8756   1.1353473042e+02   2.1152524753e+01    0.6718528    0.2574155  59.92  0.002487407    3.666    0.727
       109  -8.7023    161.6176    212.2736   9.4645275817e+01   7.1973027742e+00    0.2176788    0.1913543  59.87 0.0007019102    1.306    0.234
       110  -8.2746    106.6199    213.1513   1.0653142612e+02   1.6037685467e+01    0.1982426    0.1510907  83.13 0.0008841018    1.453    0.312
       111  -9.0869    204.3490    210.9050   8.5733655287e+01   2.9203904846e-01    0.2691363    0.2125874 -55.08 0.0008629562    1.801    0.445
       112  -8.2199    192.3077    210.4800   8.8037521289e+01   2.3370787956e+00    0.2476604     0.195122 -88.29 0.0009422427    2.403    0.584
       113  -9.3016    175.4626    209.9893   9.1379967333e+01   5.2510184519e+00    0.3506663    0.2563493  75.16  0.001355148    2.416    0.586
       114  -8.8283    147.8951    210.4894   9.7266320131e+01   9.8449586785e+00    0.2947058    0.2090459  68.48  0.001148094    1.929    0.482
       115  -9.1545    116.3506    210.5110   1.0407856772e+02   1.5041870158e+01    0.3352696    0.2074476  67.05  0.001026844    2.077    0.519
       116  -9.3148      6.4238    209.3949   1.2663102528e+02   2.9077031464e+01    0.4114147    0.1253557  78.57  0.001554563    4.391    0.772
       117  -9.9413    235.6961    208.5837   7.9426994833e+01  -4.2511430463e+00    0.2712592     0.230426  -2.64  0.001059055    1.128    0.114
       118  -8.5360     86.0356    209.9366   1.1056074723e+02   1.9755615751e+01    0.2891819    0.1554709  65.75  0.001339669    2.245    0.554
       119  -8.1368     46.6357    209.9037   1.1881965919e+02   2.4872496071e+01    0.2292516   0.08226366  60.39 0.0009056653    3.337    0.700
       120  -8.5372     32.2533    210.2554   1.2173047810e+02   2.6393828857e+01    0.1843151   0.08011322  88.70  0.000758955    2.423    0.587
       121  -9.3614    246.3962    207.2963   7.7292959239e+01  -5.6370720474e+00    0.2514211    0.1869255 -27.68 0.0006483966    1.333    0.250
       122  -8.0318    156.4933    207.9961   9.5029153367e+01   8.8450478128e+00    0.1860965    0.1362663 -51.26 0.0006522456    1.550    0.355
       123  -8.3456    138.9428    208.0879   9.8818467853e+01   1.1810067298e+01    0.2121022    0.1738895  66.86  0.001056357    1.370    0.270
       124  -9.7748    124.2582    206.2621   1.0174695368e+02   1.4612351221e+01    0.3034939    0.2087211  70.52            0    1.840    0.457
       125  -9.1187     99.4322    206.3422   1.0721258001e+02   1.8528796204e+01    0.3686264     0.228231  77.87  0.001452186    2.132    0.531
       126  -7.9191     11.6718    207.2960   1.2552804185e+02   2.9037285802e+01    0.1204364   0.06241835  64.78 0.0007025017    1.632    0.387
       127  -8.3428    109.2656    205.4351   1.0492913852e+02   1.7194953174e+01    0.2213091    0.1544422  86.91 0.0005556537    1.779    0.438
       128  -8.5120     56.2893    205.2243   1.1640107610e+02   2.4713033616e+01     0.303476    0.1540225  80.35   0.00105764    2.365    0.577
       129  -8.8945    183.8604    204.0498   8.8610088499e+01   4.8440633594e+00    0.2954586    0.2005541  52.67 0.0008062506    1.786    0.440
       130  -8.8267    131.3183    203.9861   9.9851586912e+01   1.3894968522e+01    0.3259078     0.221455  87.74  0.001080299    2.257    0.557
       131  -8.2037     24.8374    204.9943   1.2282510597e+02   2.8260650568e+01    0.2028978   0.09947713  73.67  0.001078935    1.950    0.487
       132  -9.3134    194.6893    203.5202   8.6312797406e+01   3.0878855952e+00    0.3020136    0.2551661 -33.46  0.001011596    1.278    0.217
       133  -9.1230    192.3565    197.4493   8.5664271276e+01   4.5170517254e+00    0.3660631    0.2949039 -85.28  0.001266468    2.136    0.532
       134  -9.5859    163.9622    203.2268   9.2634276533e+01   8.4345762995e+00    0.4541289     0.250614  54.20  0.001096404    2.319    0.569
       135  -9.4087    250.1048    201.9961   7.5659751242e+01  -5.4349113119e+00     0.346687    0.1616292 -32.57  0.001395196    1.965    0.491
       136  -8.5920     40.7894    202.3782   1.1938859851e+02   2.7136673643e+01    0.2596726    0.1017264  75.05 0.0009471942    4.026    0.752
       137  -7.6887     34.3146    203.6575   1.2082254944e+02   2.7566815511e+01    0.1300016   0.07070073  67.35 0.0007047654    1.708    0.414
       138  -9.2349    243.1243    200.7889   7.6647018477e+01  -4.2428081066e+00    0.3287206    0.1908278 -40.26   0.00106568    1.889    0.471
       139  -8.0413    222.0011    201.9083   8.0700893121e+01  -1.1528236243e+00    0.1756475    0.1659171  85.67 0.0009402705    1.667    0.400
       140  -8.4607    210.9645    201.9660   8.2814793193e+01   6.2457495315e-01    0.1818737    0.1680249  81.23 0.0004719514    1.657    0.396
       141  -8.7645    140.5904    201.2834   9.7380986907e+01   1.2856301665e+01    0.3359647    0.2335423  79.64 0.0009883742    2.224    0.550
       142  -8.8015     79.9608    201.2905   1.1087146504e+02   2.2448101433e+01    0.3239187    0.1778146  78.06  0.001442041    2.480    0.597
       143  -8.4836     48.1610    202.0480   1.1781913970e+02   2.6368793844e+01    0.2144658    0.1130432  76.51 0.0008919722    2.046    0.511
       144  -9.3091    237.0614    198.8401   7.7354409415e+01  -3.0451145199e+00    0.3091873    0.1663357 -40.17  0.001070647    1.975    0.494
       145  -8.4460    202.4679    198.0028   8.3735808496e+01   2.6884672078e+00    0.2180172     0.188678  57.10 0.0007338409    1.538    0.350
       146  -9.4192    149.4648    198.4891   9.4963640835e+01   1.1864972229e+01    0.4452427    0.3071989  84.77  0.001266971    2.540    0.606
       147  -8.8751    123.9268    199.3940   1.0078851963e+02   1.6061502700e+01    0.3146451    0.2203193  80.20  0.001195722    1.937    0.484
       148  -9.1937    112.8928    198.3794   1.0311818492e+02   1.8085917451e+01    0.4754204     0.298691  78.44   0.00146889    2.351    0.575
       149  -9.2480     88.7735    198.7393   1.0859899355e+02   2.1735571004e+01    0.3720848    0.2222037  74.83  0.001419771    2.130    0.530
       150  -8.4745    176.9333    199.0943   8.9157931911e+01   6.9192591114e+00    0.1979975    0.1833078  62.86 0.0004674576    1.316    0.240
       151  -9.2432     61.4354    197.1543   1.1448610495e+02   2.5822958312e+01    0.3884776    0.2118578  72.67  0.001365694    2.100    0.524
       152  -8.2870     13.2389    198.1646   1.2467287677e+02   3.0812289490e+01    0.2386482   0.09651861  56.06  0.001231717    2.209    0.547
       153  -9.7420    245.8705    194.0890   7.4884742477e+01  -3.6849749012e+00    0.3508586    0.2606919 -58.50  0.001882893    2.455    0.593
       154  -8.4154    133.2830    196.2516   9.8190870776e+01   1.5121888126e+01    0.2651284    0.1853338  72.94 0.0006947734    1.951    0.487
       155  -8.0519     54.2723    197.2739   1.1606109145e+02   2.6683222479e+01    0.2686923    0.1062914  53.32  0.001168029    2.531    0.605
       156  -8.7004    215.9173    195.5578   8.0647516015e+01   8.3105677522e-01    0.2334452    0.1802764 -48.62 0.0007850332    1.659    0.397
       157  -8.7660    173.4434    195.4973   8.9241150338e+01   8.1903780965e+00    0.2518978    0.2201816 -45.18 0.0006664391    1.275    0.215
       158  -8.5176    172.6677    192.3331   8.8823578181e+01   8.9159292355e+00    0.2122716    0.1836867 -72.28  0.001176447    1.510    0.338
       159  -8.6211    224.4905    194.0187   7.8729190882e+01  -3.3068916176e-01    0.2678725    0.1199412 -42.22  0.001172132    2.402    0.584
       160  -7.8517    209.2067    195.2703   8.1890018287e+01   1.9993604222e+00    0.1989863    0.1012787 -47.00 0.0008192439    2.383    0.580
       161  -8.7324    185.1880    194.9052   8.6662328445e+01   6.2162062688e+00    0.2268678    0.2183771 -66.24 0.0007673094    1.307    0.235
       162  -9.1416    161.0901    194.4479   9.1712307360e+01   1.0590227111e+01    0.3109089    0.2272273  69.52  0.001178408    1.972    0.493
       163  -8.9979     43.8865    193.5763   1.1795767242e+02   2.8712214763e+01    0.4001983    0.1906779  68.21  0.001867092    2.362    0.577
       164  -8.8758     76.9756    193.8391   1.1064490727e+02   2.4494271014e+01    0.2628026    0.1894857  81.03 0.0008150605    1.403    0.287
       165  -7.7300      4.3258    194.2897   1.2619919265e+02   3.2410032693e+01     0.102312   0.07750126 -57.27 0.0003091054    1.613    0.380
       166  -8.7521    231.4966    195.6296   7.7746539944e+01  -1.7000513982e+00    0.3162418    0.2010038 -49.03  0.001609776    2.172    0.540
       167  -7.9416    205.3404    192.1212   8.2043413939e+01   3.1811934561e+00    0.1845306    0.1222593 -45.53 0.0006776526    1.723    0.419
       168  -8.3037    198.9490    191.9355   8.3282833414e+01   4.3198915160e+00    0.1941712    0.1742259  86.25 0.0006082827    1.641    0.391
       169  -8.1393    179.1922    192.1116   8.7394192332e+01   7.7865647280e+00    0.1819538    0.1687461  75.84 0.0004891102    1.372    0.271
       170  -9.2260    139.5795    190.7988   9.5857210652e+01   1.5142526791e+01    0.3828431    0.2739526  86.16  0.001094126    2.098    0.523
       171 -10.5669     92.3372    188.8214   1.0646037381e+02   2.3384568788e+01    0.9834074     0.295898  48.22  0.003278597    3.607    0.723
       172  -9.0804     21.1374    191.3307   1.2260350983e+02   3.1560013486e+01    0.2675619   0.08802259  54.24  0.001167855    2.942    0.660
       173  -8.6409    148.7601    189.4815   9.3554154682e+01   1.3776485074e+01    0.2637711    0.1910492 -72.85  0.001041309    1.880    0.468
       174  -9.0109    129.4318    188.6794   9.7816449446e+01   1.7360531285e+01     0.348179    0.2478212  79.74  0.001073228    1.946    0.486
       175  -8.2057    237.3776    188.6335   7.5319856075e+01  -1.5623949309e+00    0.2282128     0.112425 -39.18 0.0007557441    2.016    0.504
       176  -8.8918    216.6435    187.9678   7.9029549137e+01   1.9410398024e+00    0.2787513    0.2207296 -48.60 0.0008301288    1.583    0.368
       177  -7.3865    210.2953    189.6570   8.0589809775e+01   2.7432863321e+00    0.1237881    0.1119965 -79.46  0.000427758    1.663    0.399
       178  -9.3809    156.0306    187.7115   9.1606608641e+01   1.2817909949e+01     0.372721    0.2546275 -66.71 0.0009751768    2.005    0.501
       179  -9.8603    120.8825    186.6597   9.9463064443e+01   1.9262165243e+01    0.5602922    0.3055248 -73.93  0.002177771    2.904    0.656
       180  -9.1273     34.1640    188.1349   1.1957699383e+02   3.0976635509e+01    0.3654752    0.1751504  82.22  0.001621116    2.279    0.561
       181  -8.1500    230.4894    187.4954   7.6341950008e+01  -2.8233546196e-01     0.215003    0.1173869 -44.52 0.0009341491    2.110    0.526
       182  -8.7410    191.3692    187.5072   8.3968564513e+01   6.4374497976e+00    0.2644768    0.2338081 -71.06 0.0007688357    1.549    0.354
       183  -8.8111    165.1204    186.8017   8.9426260165e+01   1.1339241083e+01    0.2970365    0.2281373 -78.59  0.001109793    1.932    0.482
       184  -9.3256     54.7725    186.8940   1.1487928892e+02   2.8941303709e+01    0.4483296    0.2324211  75.67  0.001713644    2.355    0.575
       185  -9.2877    109.6282    186.1684   1.0201974304e+02   2.1249520223e+01    0.3818319    0.2456921  69.27  0.001194429    1.995    0.499
       186  -9.2680    248.6799    185.6729   7.2754605386e+01  -2.8724040770e+00    0.3143934    0.2062624  20.84  0.001772078    1.523    0.343
       187  -9.1326     66.7603    184.7757   1.1188691693e+02   2.7914451157e+01    0.3829108    0.2087196  61.52  0.001180303    2.005    0.501
       188  -8.5796    210.1385    184.3858   7.9576974519e+01   3.6577192968e+00    0.2425822    0.1843714 -37.87 0.0003853037    1.364    0.267
       189  -8.5520    202.8019    184.8744   8.1126331451e+01   4.8635916935e+00    0.2300932    0.1914837 -57.05 0.0007095545    1.584    0.369
       190  -8.6452    182.8827    184.8460   8.5220772120e+01   8.4587408486e+00    0.2624868    0.2002287 -54.26 0.0008700019    1.581    0.368
       191  -8.1452    224.1313    183.8605   7.6794069632e+01   1.3481145029e+00    0.1876627    0.1736621 -21.63 0.0003723934    1.240    0.193
       192  -8.5574    196.9804    183.6726   8.2062251430e+01   6.1140505644e+00    0.2444884    0.1763794 -49.86 0.0008145832    1.641    0.390
       193  -8.8889    174.1685    183.4830   8.6818677033e+01   1.0316579747e+01    0.2926415    0.2190078 -61.11 0.0008484158    1.720    0.419
       194  -7.9943      1.8075    183.8366   1.2608992356e+02   3.4866443519e+01    0.1628693    0.1020761  66.85 0.0009556726    1.356    0.263
       195  -8.5604    240.9518    181.1682   7.3199784444e+01  -9.8308058408e-01    0.3853495    0.2014031 -54.41  0.001411318    4.266    0.766
       196  -8.9970     44.4201    182.5383   1.1677293504e+02   3.1137814394e+01    0.3192646    0.1809521  68.87  0.000994034    1.820    0.451
       197  -9.3335    147.5138    180.7613   9.2246854410e+01   1.5788747791e+01    0.3547953    0.2814642 -88.00  0.001068956    1.688    0.407
       198  -9.6561     25.6395    178.9627   1.2065764709e+02   3.3895032446e+01    0.6631186    0.2475517  80.41  0.002367487    4.157    0.759
       199  -8.6269    137.5718    179.3736   9.4294175564e+01   1.7895695406e+01     0.304114    0.2214324  82.16 0.0008231389    1.969    0.492
       200  -9.3253    191.5530    178.3913   8.2116446467e+01   8.0585552972e+00    0.3005434    0.2657609  73.31 0.0005536552    1.526    0.345
       201  -9.2801     35.9906    176.7856   1.1812470784e+02   3.3366542592e+01    0.5310445    0.2134307  80.26  0.001872778    4.086    0.755
       202  -9.4673    248.5061    176.5372   7.0956986981e+01  -1.4690438588e+00    0.4525454      0.24395 -43.80  0.002202346    2.067    0.516
       203  -8.7715    250.4938    172.9080   6.9883018076e+01  -1.2268959641e+00    0.2549823    0.2096088 -57.87  0.001324561    1.825    0.452
       204  -8.7051    231.0760    177.1796   7.4158679643e+01   1.2643685150e+00    0.2708228    0.1740418 -38.28 0.0007166472    1.534    0.348
       205  -8.5741    217.6635    177.4977   7.6725740679e+01   3.5104215434e+00    0.2477286    0.2017257 -58.68  0.000714338    1.715    0.417
       206  -8.5645    204.9597    177.7158   7.9249921898e+01   5.7310886510e+00    0.2376012     0.175396 -49.10 0.0005509257    1.593    0.372
       207  -8.7860    129.1900    177.0761   9.5853884886e+01   1.9900062791e+01    0.3499883    0.2202498 -80.59 0.0009869871    2.590    0.614
       208  -8.1270     97.6310    177.6504   1.0355143138e+02   2.5095186291e+01    0.2004605    0.1645548 -21.11 0.0007245131    1.604    0.377
       209  -9.3913    183.0423    176.1760   8.3457126442e+01   1.0058232423e+01    0.3040247    0.2368385 -48.32 0.0004634856    1.413    0.292
       210  -9.6121    104.2986    174.9747   1.0149969069e+02   2.4638735134e+01    0.5144932     0.302956  68.53  0.001873713    2.454    0.593
       211  -9.1786     88.9698    176.8818   1.0553651909e+02   2.6607035545e+01    0.2864112    0.2021535  80.37 0.0008984627    1.612    0.380
       212 -10.0238     57.3843    173.5227   1.1273729643e+02   3.1714161801e+01    0.8238274    0.3701949  79.81  0.002721904    4.382    0.772
       213  -9.1251     12.8727    176.3708   1.2325687404e+02   3.5625371879e+01    0.3600897    0.1503915  81.85  0.001652567    2.536    0.606
       214  -9.3301    158.9752    175.1774   8.8556325344e+01   1.4804594315e+01    0.3995434    0.2913554  79.13  0.001521357    2.175    0.540
       215 -10.6299     76.1255    171.2983   1.0786721331e+02   2.9780990932e+01     1.132739    0.4791241 -77.80  0.003686016    3.703    0.730
       216  -8.3296    224.4032    174.2588   7.4786643280e+01   2.8811299546e+00    0.1830546    0.1220808 -41.96 0.0005717784    1.570    0.363
       217  -9.2958    175.7270    172.4615   8.4276133340e+01   1.2162167683e+01    0.3308437    0.2430421 -44.15  0.001074998    1.409    0.290
       218  -8.4047    143.0746    172.6892   9.1745819003e+01   1.8316309848e+01    0.2478157    0.2031393 -67.93 0.0006067918    1.394    0.283
       219  -8.5659    134.8122    171.9401   9.3562776999e+01   2.0007669899e+01    0.2609098    0.2067446 -80.93 0.0007958529    1.551    0.355
       220  -9.6107    121.4297    170.5666   9.6543013806e+01   2.2726187410e+01    0.3914669     0.270775 -84.51  0.001003158    1.995    0.499
       221  -9.2037     44.9504    170.8518   1.1540873752e+02   3.3791369387e+01    0.3806754    0.1999537  77.23  0.001510259    2.265    0.559
       222  -8.4304    205.7995    170.5012   7.7584527665e+01   6.8602064825e+00    0.2580312    0.1786541 -52.22 0.0007994649    1.781    0.439
       223  -8.4746    198.6111    170.4121   7.9013580250e+01   8.2124256743e+00    0.2661279    0.2162647 -66.14 0.0007568199    1.717    0.417
       224  -9.3425     74.3342    160.3396   1.0669142433e+02   3.2649669504e+01    0.7239069    0.3784307   8.29  0.002163843    5.757    0.826
       225  -8.2251    237.1810    169.8025   7.1540470140e+01   1.4312417434e+00    0.1920916     0.172624 -31.14 0.0006445583    1.251    0.201
       226  -8.5331    230.3279    170.1892   7.2849868719e+01   2.5335191953e+00    0.2128382    0.1480246 -19.91 0.0007140549    1.358    0.264
       227  -8.7480    149.8130    169.7609   8.9589793066e+01   1.7672976536e+01     0.279601    0.2095055 -64.99 0.0007535799    1.600    0.375
       228  -8.1624    244.1651    169.1577   7.0188746728e+01   3.7486358443e-01    0.1717611    0.1494998 -38.07 0.0004282981    1.330    0.248
       229  -8.3948    218.9102    168.3703   7.4587315682e+01   4.8475632677e+00    0.2247647    0.1793239 -36.97 0.0005233551    1.268    0.211
       230  -9.0416    167.0376    168.5602   8.5395866985e+01   1.4613329046e+01    0.3030113    0.2401662  72.78 0.0008854674    1.713    0.416
       231  -8.9154    111.6251    167.7400   9.8449801552e+01   2.5077578614e+01    0.3433329    0.2282902  83.66 0.0009661347    2.195    0.544
       232  -8.4700     88.7380    168.8729   1.0436330049e+02   2.8514036552e+01     0.258219     0.182946 -87.34 0.0007945966    1.583    0.368
       233  -8.9548    191.8957    166.7065   7.9614148467e+01   1.0174973732e+01    0.2756302    0.2043338 -43.37  0.000658687    1.393    0.282
       234  -8.6776    185.0181    166.5785   8.1038649227e+01   1.1523152261e+01    0.2710348    0.2010648 -56.05  0.000702975    1.630    0.386
       235 -10.1279     94.9120    162.7469   1.0179254626e+02   2.9006978239e+01    0.8631729    0.4797468  78.53  0.002793337    3.583    0.721
       236  -9.0972     20.6919    166.4048   1.2068656864e+02   3.7235495466e+01    0.3581803    0.1486823  60.14  0.001196776    2.687    0.628
       237  -9.9421    136.8526    164.5429   9.1632961276e+01   2.1259360174e+01    0.6779676    0.3135107  53.87  0.002365644    2.870    0.652
       238  -8.2583    233.9935    165.0177   7.1103157629e+01   2.7553728136e+00    0.1958504    0.1609705 -54.20 0.0005381555    1.593    0.372
       239  -8.6331    159.4303    164.3990   8.6260240529e+01   1.6951619251e+01     0.296307    0.2426085  80.80 0.0009287806    1.622    0.384
       240  -9.7145     33.2663    163.2910   1.1740010487e+02   3.6798127500e+01     0.523222    0.2084561  56.96  0.002167122    2.987    0.665
       241  -8.6110    212.9941    163.5827   7.4699114616e+01   6.7641214689e+00    0.2577907    0.1869558 -48.02 0.0006787122    1.555    0.357
       242  -7.8491     55.4784    164.4828   1.1206997986e+02   3.4091599207e+01     0.132679    0.1171383 -78.68 2.354523e-05    1.068    0.064
       243  -8.6835    246.0535    163.0276   6.8588875644e+01   1.0359863477e+00    0.2046964    0.1728169 -19.21 0.0005163987    1.059    0.056
       244  -8.3947    204.9541    162.9602   7.6143848703e+01   8.3824500798e+00    0.2101717    0.1790712 -71.28  0.000475075    1.635    0.388
       245  -9.0791     60.2918    160.9575   1.1038468200e+02   3.4350934448e+01    0.3987916    0.2902083 -66.69  0.001434968    1.250    0.200
       246  -9.5166      3.2601    162.4282   1.2435969502e+02   3.9541810014e+01    0.3949842    0.1907557  56.14  0.002024463    2.034    0.508
       247  -8.8928    177.5149    160.8721   8.1436685632e+01   1.4113894895e+01    0.2927325    0.2416434 -82.03  0.001048335    1.690    0.408
       248  -8.8505    151.6374    161.0580   8.7377679999e+01   1.9183858858e+01    0.3382452     0.251555 -68.02  0.000991913    1.691    0.409
       249  -7.7359    222.2399    161.6571   7.2528454694e+01   5.4051304589e+00    0.1313127    0.1065772 -54.74 0.0002221176    1.559    0.359
       250  -9.1035    242.2132    160.0367   6.8611435141e+01   2.1617654258e+00    0.4050961    0.2063089  26.32   0.00173537    2.566    0.610
       251  -9.9024    250.1524    157.8584   6.6816527420e+01   1.1782825263e+00    0.3678906    0.2152368 -32.84 0.0008219035    1.482    0.325
       252  -8.8611    246.6869    155.7054   6.6934507486e+01   2.1032037786e+00    0.3191185    0.1899867 -16.04  0.001491156    1.874    0.466
       253  -8.5412    227.4200    159.1449   7.1032385730e+01   4.9002223249e+00    0.2922061     0.190228 -50.00  0.001197047    1.847    0.459
       254  -9.7503    106.0959    158.2348   9.8112745326e+01   2.8241182039e+01    0.5507705    0.3525484  74.42  0.001485591    2.311    0.567
       255  -8.4186    237.1218    158.8988   6.9249358544e+01   3.2240349080e+00    0.2021291     0.175516 -35.80  0.000800897    1.227    0.185
       256  -9.1832    167.5949    157.4696   8.2908887550e+01   1.6782004241e+01     0.353893    0.2825507 -79.67 0.0009295526    1.736    0.424
       257  -8.4364    128.2508    159.1354   9.2664475317e+01   2.4083326264e+01    0.2832184    0.1887884  65.52 0.0007795868    1.996    0.499
       258  -8.4430    196.5962    158.0671   7.6766713537e+01   1.0900731808e+01    0.2282693    0.2063824  52.84 0.0006282474    1.280    0.219
       259  -8.2620    188.1022    157.6933   7.8456732959e+01   1.2644286889e+01    0.2589367    0.1913838 -47.62 0.0006635707    1.436    0.304
       260  -8.5258    217.9101    156.6192   7.2245523690e+01   7.0838259382e+00    0.2762576    0.1741085 -51.02 0.0008271504    1.920    0.479
       261  -8.8299    157.5135    156.0817   8.4930282584e+01   1.9090268267e+01    0.3449993    0.2420279 -61.47 0.0009436275    1.729    0.422
       262  -9.3982    119.6113    155.4120   9.4096767015e+01   2.6528444747e+01    0.4278052    0.2951248 -87.57  0.001498586    2.110    0.526
       263  -9.5577     81.6975    154.9486   1.0390030922e+02   3.2903122362e+01    0.5107073    0.3180834  81.44  0.001755879    2.221    0.550
       264  -9.5983     49.7063    155.4664   1.1235658498e+02   3.6940318673e+01    0.4644524    0.2446214  68.90  0.001526764    2.466    0.594
       265  -8.8898    243.1288    150.1781   6.6342202035e+01   3.6151063508e+00    0.3051625    0.1688783 -39.08  0.001159155    1.646    0.392
       266  -8.7949    238.0577    150.1666   6.7199931802e+01   4.5116435838e+00    0.3733635    0.1589275  36.82   0.00137811    2.720    0.632
       267  -8.1590    242.6192    154.8008   6.7424837337e+01   2.9453136267e+00    0.1935387    0.1562355 -29.52 0.0003934385    1.124    0.110
       268  -8.1137    239.7242    153.3231   6.7599748481e+01   3.6920069229e+00    0.2048853    0.1823615 -33.96 0.0004439929    1.197    0.164
       269  -7.5990    204.5806    155.4607   7.4574750999e+01   9.8336067596e+00    0.1444284     0.133693 -18.31 0.0002062119    1.061    0.058
       270  -8.8728    144.5561    154.7003   8.7722996350e+01   2.1959048444e+01     0.320763    0.2626861 -63.97  0.001069418    1.356    0.262
       271  -9.6430    132.8276    153.0977   9.0275276834e+01   2.4594563239e+01    0.4896588    0.3436013  77.11  0.001393061    2.124    0.529
       272  -9.2860    133.4931    148.5017   8.9122334829e+01   2.5513201855e+01    0.4086059    0.2412196 -40.45  0.001565423    1.780    0.438
       273  -9.7438     67.9473    153.7782   1.0734416252e+02   3.5110918846e+01    0.4353163    0.2662883  73.87  0.001331618    2.087    0.521
       274  -7.5871    232.5401    153.5317   6.8895173363e+01   4.9333130183e+00    0.1398188    0.1221913 -18.25 8.819254e-05    1.032    0.031
       275  -8.3972    151.6470    152.0397   8.5433312480e+01   2.1135916421e+01    0.4194156    0.1733941 -42.94  0.001479629    2.458    0.593
       276 -10.2570    148.9564    144.9303   8.4488050486e+01   2.3238118967e+01    0.6116016    0.4165165 -84.27  0.001639812    2.621    0.619
       277  -8.6951     60.1193    153.1305   1.0931293932e+02   3.6273805015e+01    0.1938133    0.1450858  88.28 0.0006580323    1.334    0.250
       278  -9.0565     19.8721    152.8099   1.1960548755e+02   4.0500646979e+01    0.1757858    0.1231555  75.31 0.0004945502    1.337    0.252
       279  -8.7537      8.2305    153.3840   1.2249142458e+02   4.1271887268e+01    0.1606308   0.09777305  45.50 0.0009558715    1.725    0.420
       280 -10.0397     29.1615    149.6917   1.1693489888e+02   4.0437919327e+01    0.6579568     0.311611 -85.66  0.003000041    2.182    0.542
       281 -10.2128      2.5695    140.7887   1.2279253989e+02   4.4608704607e+01    0.6815238    0.2302665 -82.98  0.002754571    2.712    0.631
       282  -9.0819    189.4920    150.4091   7.6531318994e+01   1.3787999981e+01    0.3252343    0.2281454 -57.07 0.0008550412    1.760    0.432
       283  -8.0559    182.2379    151.2211   7.8265862433e+01   1.5098204278e+01     0.202181    0.1788681 -74.27 0.0006147319    1.405    0.288
       284  -8.2340    162.7262    150.8712   8.2562639158e+01   1.9147569121e+01    0.2380657    0.1784526 -74.94 0.0008483728    1.891    0.471
       285  -8.7703     98.2892    150.7024   9.8737284647e+01   3.1345341670e+01    0.3102218    0.2275371  79.89  0.001090029    1.684    0.406
       286  -8.1712    212.8421    149.8617   7.1709213346e+01   9.2593473662e+00    0.2143431    0.1795742  -6.63 0.0003354035    1.172    0.147
       287  -9.9549     39.9643    147.6980   1.1388258772e+02   3.9879102034e+01    0.6183491    0.3260053  74.01  0.002476396    2.455    0.593
       288  -8.3562    198.8267    149.0934   7.4300642053e+01   1.2163028998e+01    0.2180387    0.1988263 -59.11 0.0005401583    1.284    0.221
       289 -10.2386     89.1641    146.2147   1.0034292794e+02   3.3898212195e+01    0.7334921    0.4181184  89.85  0.002600359    3.251    0.692
       290 -10.9477     54.6061    143.5519   1.0935817103e+02   3.9291840649e+01     1.090913    0.5808067 -73.94  0.003343353    1.850    0.460
       291  -8.9957    233.4119    147.5295   6.7424744750e+01   5.7948571172e+00     0.265052     0.185381 -34.49 0.0009033824    1.287    0.223
       292 -10.2446    106.8154    144.2925   9.5186310217e+01   3.1439412532e+01    0.8250468    0.5431806  89.37  0.002331774    2.367    0.578
       293  -9.1018     78.2442    147.3079   1.0351276422e+02   3.5271366910e+01    0.3440376    0.2191177  76.30  0.001106748    2.118    0.528
       294  -8.1132    223.3053    146.9851   6.9106572879e+01   7.7698209289e+00    0.2019532    0.1669274 -29.84   0.00036836    1.106    0.096
       295 -10.0059    139.3209    145.5343   8.7002583562e+01   2.5041914685e+01    0.4594683    0.3343367 -84.29  0.001227865    2.025    0.506
       296 -10.9319     68.9550    140.2461   1.0483956210e+02   3.8304317941e+01     1.029101    0.4188619 -61.13  0.003589236    2.224    0.550
       297  -9.5498     13.3470    146.0853   1.2057351988e+02   4.2612899215e+01    0.3523001    0.1939949  79.66  0.001277166    1.822    0.451
       298  -8.7584    240.4532    145.5039   6.5772283988e+01   4.8626282085e+00     0.253059    0.1788517 -33.34 0.0005392495    1.248    0.199
       299  -9.3528    242.6982    143.3284   6.4919654032e+01   4.8233049639e+00     0.484241    0.1832619 -28.76  0.001735933    2.960    0.662
       300  -7.9956    206.7442    146.5794   7.2147837404e+01   1.1057490293e+01    0.1864059    0.1433839  54.23 0.0005154781    1.529    0.346
       301  -8.2246    175.4916    146.1153   7.8578039750e+01   1.7515802963e+01    0.2266324     0.147699 -43.17  0.000522747    1.517    0.341
       302  -8.8743    165.4924    144.1964   8.0397526955e+01   1.9990318470e+01    0.2905301    0.2417036  63.41 0.0006034134    1.405    0.288
       303  -9.8460    124.9686    142.6327   9.0021806635e+01   2.8507461373e+01     0.535981    0.3522896 -79.61  0.001352772    2.387    0.581
       304  -8.9679    247.0340    143.7748   6.4305889103e+01   3.9825799310e+00    0.2595253    0.1712242 -28.58 0.0005759014    1.329    0.247
       305  -7.8610    194.3718    144.1974   7.4087608202e+01   1.4004489822e+01    0.2121514     0.133962 -49.43  0.000482902    1.719    0.418
       306  -8.3572    182.0471    141.8222   7.6138100232e+01   1.7024371294e+01    0.2700926     0.193102 -55.88 0.0006967875    1.626    0.385
       307  -8.0451    250.5534    140.7560   6.3083207560e+01   3.8597391375e+00    0.1867692    0.1126574 -42.43 0.0005505441    1.574    0.365
       308  -7.8710    238.5383    140.5022   6.4988854374e+01   6.0484157452e+00    0.1401709    0.1216727 -25.01 5.134202e-05    1.036    0.035
       309  -9.9766     23.6093    138.1973   1.1705901145e+02   4.3698147812e+01    0.5688797    0.2717704  66.88  0.002291018    2.736    0.635
       310  -8.0862    218.5842    138.7332   6.8097518766e+01   1.0150823063e+01    0.1996443    0.1284904 -43.94 0.0005510109    1.532    0.347
       311  -8.7298    172.3002    138.4449   7.7490861507e+01   1.9765701956e+01    0.3160364    0.2443885 -88.00 0.0009138784    1.920    0.479
       312  -9.5247    139.4894    137.6005   8.5142408834e+01   2.6799541405e+01     0.392896    0.2527529 -13.58  0.001357256    2.655    0.623
       313  -8.2619    207.6182    138.1381   7.0028211528e+01   1.2453234102e+01    0.2312612     0.172697 -51.41 0.0006565415    1.478    0.323
       314  -8.5885    197.5063    137.6009   7.1902269341e+01   1.4631586785e+01    0.2755795    0.2272333 -54.54 0.0007453195    1.355    0.262
       315  -8.6919    241.5718    136.6767   6.3633586012e+01   6.1363389289e+00    0.2926189    0.1220236 -31.82  0.001160627    2.268    0.559
       316  -9.0616    150.9888    136.0907   8.1926801555e+01   2.4765340697e+01    0.4393796    0.2545176  20.39  0.001531241    2.844    0.648
       317  -9.2918     39.0527    136.2364   1.1257768071e+02   4.2777552042e+01    0.2872155    0.1837384  81.75 0.0008584043    1.733    0.423
       318  -9.1678    250.7146    130.1768   6.0736598822e+01   5.5547212613e+00    0.4325686    0.1137915 -34.58  0.001405185    3.464    0.711
       319  -9.1640    248.4219    135.4788   6.2264792031e+01   5.0970749807e+00    0.3118491    0.2010791 -41.20 0.0008170244    1.429    0.300
       320  -8.5913    246.8937    130.3756   6.1374919451e+01   6.2128806655e+00    0.2555226    0.1678069 -45.37 0.0006709574    1.499    0.333
       321  -8.1603    162.4231    136.2401   7.9229793570e+01   2.2323299642e+01    0.2158361    0.1466739 -54.05  0.000711739    1.612    0.380
       322 -10.5082     83.4003    132.8707   9.9350199333e+01   3.8058287569e+01    0.6114949    0.3725902 -70.14  0.001253302    1.808    0.447
       323  -8.9011     85.7699    122.2613   9.6405604527e+01   4.0290864469e+01    0.4620406    0.2903283  -0.70   0.00176744    2.930    0.659
       324  -8.6815    179.5372    134.0196   7.4821599886e+01   1.9133055451e+01    0.3052082    0.2371615 -62.18 0.0008494546    1.553    0.356
       325  -7.8963    237.5658    133.7841   6.3646400908e+01   7.3656140510e+00    0.2009761    0.1180688 -44.35 0.0009398621    1.660    0.398
       326  -7.9935    231.4850    134.0494   6.4732377522e+01   8.4714393616e+00     0.214288    0.1266882 -36.59 0.0004245216    1.512    0.339
       327  -9.2323    112.6847    133.2002   9.1189704299e+01   3.3035210519e+01    0.3724747    0.2783959 -79.03  0.001021829    1.674    0.403
       328 -10.2762    132.5016    131.4154   8.5469751593e+01   2.9619684039e+01    0.6117639    0.4436273 -88.13  0.001817408    2.088    0.521
       329  -9.0706    135.1213    123.8735   8.2933739242e+01   3.0798591025e+01    0.4824893    0.2423806 -40.08  0.001810872    2.042    0.510
       330 -10.5058     98.1869    130.2263   9.4566926949e+01   3.6320665673e+01    0.8055694     0.368692 -53.93  0.001672265    2.076    0.518
       331  -9.1480    142.9134    131.6546   8.2859058850e+01   2.7432510934e+01    0.3479888    0.2495939 -63.53 0.0007718831    1.661    0.398
       332  -8.2393    142.4016    127.4995   8.1968075988e+01   2.8467038685e+01    0.2544687    0.1556873  43.84 0.0004485202    1.667    0.400
       333  -9.4964    152.9449    129.1785   7.9767151434e+01   2.5863721258e+01    0.4585408    0.2605914 -56.32  0.001076873    2.108    0.526
       334  -9.9271     73.0240    129.2088   1.0162576093e+02   4.0476958536e+01    0.4564255    0.2952642  82.73  0.001248073    2.209    0.547
       335 -10.2846     12.7914    128.9429   1.1892469275e+02   4.6750332505e+01    0.5847381    0.2685169  86.48  0.002181674    2.510    0.602
       336  -8.0894    220.6086    129.7892   6.5652813121e+01   1.1353842703e+01    0.2054937    0.1258983 -44.15 0.0003994415    1.585    0.369
       337  -8.1278    204.2589    130.2824   6.8819760109e+01   1.4616877260e+01    0.2006692    0.1741434 -65.77  0.001040689    1.373    0.272
       338  -7.9611    192.9778    130.2821   7.1069928180e+01   1.7001430316e+01    0.2025725    0.1982309  23.62 0.0005099867    1.086    0.079
       339  -9.1677    168.2118    129.4111   7.6222351609e+01   2.2523773456e+01    0.3087056    0.2379107 -60.96 0.0007679452    1.515    0.340
       340  -9.5955    248.7188    149.4592   6.5262153955e+01   2.7658869757e+00    0.3332463    0.1858657 -33.85 0.0007722868    1.554    0.356
       341  -7.6949    211.4389    129.2378   6.7201333924e+01   1.3319992606e+01    0.2078853    0.1307787 -47.35  0.000490382    1.635    0.388
       342 -10.5637     59.9575    125.2164   1.0472315422e+02   4.3186127581e+01    0.7498875    0.4375356  79.78  0.002309659    2.760    0.638
       343 -10.8165     44.8321    123.5287   1.0894268634e+02   4.5324599194e+01     1.103018    0.5587028  78.59   0.00392782    3.809    0.737
       344 -10.0647    117.9843    125.1999   8.7856196706e+01   3.3924188207e+01    0.5922506    0.4255328  87.41  0.001415117    2.110    0.526
       345  -7.9432    198.7561    126.0197   6.8867077738e+01   1.6588795430e+01    0.2481106    0.1723116  -5.24  0.001064751    1.953    0.488
       346  -8.0848    228.4694    125.4847   6.3274246683e+01   1.0547592387e+01    0.1442324    0.1284788 -31.67 0.0001922871    1.042    0.040
       347  -8.9240    179.2205    124.8641   7.2634338569e+01   2.1055726015e+01    0.2737439     0.252428 -83.24 0.0006560744    1.254    0.203
       348 -10.2284     28.5313    122.6412   1.1363704858e+02   4.7076997516e+01     0.696345    0.3393989  76.65  0.002748639    3.293    0.696
       349  -8.6264     26.7203    113.9441   1.1287748971e+02   4.9347202766e+01    0.2279328    0.1575852 -37.69 0.0007802576    1.554    0.356
       350  -7.8102    243.7343    124.6420   6.0584581855e+01   7.7485244595e+00    0.1403842    0.1002231  -8.40 0.0004627097    1.634    0.388
       351  -8.2993    188.5812    123.8160   7.0385667358e+01   1.9215089613e+01    0.2170786    0.1388592 -49.82 0.0007560573    1.656    0.396
       352  -7.8829    154.2933    123.3303   7.7970919761e+01   2.6840087763e+01    0.1606515    0.1243989  -4.58 0.0007022764    1.631    0.387
       353  -8.1549    203.0242    122.0880   6.7070978414e+01   1.6419736187e+01    0.2338258    0.1773355 -64.10 0.0005409797    1.660    0.397
       354  -8.6846    172.0674    121.7012   7.3412157562e+01   2.3276129057e+01    0.2592925    0.2063717 -52.68 0.0005352403    1.322    0.244
       355  -9.1375    158.5278    121.3029   7.6435825449e+01   2.6348813007e+01    0.3774682    0.2637848 -65.48 0.0009437407    1.886    0.470
       356  -9.5920     71.0085    120.0240   1.0035980879e+02   4.3021543132e+01    0.3788902    0.2605463  85.36  0.001261372    1.976    0.494
       357 -10.0502    141.5598    118.0339   7.9776183618e+01   3.0744614870e+01    0.6666662    0.3385973 -48.85  0.002306886    2.000    0.500
       358  -9.6702    130.7347    118.6613   8.2764543211e+01   3.2882992155e+01    0.4182906    0.3022667 -73.38  0.001222075    1.881    0.468
       359  -9.8296      2.8689    117.2059   1.2038759699e+02   5.0168868370e+01    0.4967012    0.2388293  78.41  0.002356385    2.488    0.598
       360  -7.6597    231.4852    117.5235   6.0910100459e+01   1.1328334884e+01    0.1437925    0.1272649 -38.03 0.0008091721    1.066    0.062
       361 -10.1343    109.3023    114.2629   8.7577559435e+01   3.8134711431e+01    0.5828251    0.3833826 -74.67  0.001516002    2.269    0.559
       362  -9.2802    109.4773    107.3568   8.5722478766e+01   3.9698602906e+01    0.4003074    0.2797525   6.79  0.001682465    2.072    0.517
       363  -7.8435    194.9824    122.1834   6.8674317361e+01   1.8137647598e+01    0.2241281    0.1607941 -55.90 0.0006980678    1.596    0.373
       364  -8.2855    185.6846    116.0555   6.9028554122e+01   2.1376708899e+01    0.2469783    0.1792573 -52.49 0.0005736817    1.474    0.322
       365  -9.3061    250.1549    115.1616   5.7470224038e+01   8.1100555239e+00    0.2104094    0.1881162 -37.80  0.001284368    1.081    0.075
       366 -10.8031    248.6719    107.5752   5.5970084015e+01   9.6261136824e+00    0.5277792    0.3292413 -32.38  0.002688426    1.416    0.294
       367  -7.4678    153.3092    115.6678   7.6225349603e+01   2.8698476450e+01    0.1600538    0.1272655 -81.14 0.0005438734    1.670    0.401
       368 -10.3678     92.8711    111.4884   9.1734717033e+01   4.1727810155e+01     0.929416    0.3863828 -54.75  0.002402903    2.379    0.580
       369  -9.9732     79.1273    112.6622   9.6233420440e+01   4.3645003436e+01    0.5775466    0.3742748 -87.05  0.001745966    2.440    0.590
       370  -9.0854     78.6713    105.2715   9.4601730882e+01   4.5487857665e+01    0.3404977    0.2404757  -2.10  0.001041289    1.951    0.488
       371  -8.8757     59.5037    115.0106   1.0286751982e+02   4.5758845292e+01    0.2815255    0.1780483  -1.85 0.0009502926    2.461    0.594
       372  -8.0660    167.2621    114.6035   7.2661582857e+01   2.5805476901e+01    0.2108413    0.1492334  37.37  0.000432557    1.494    0.331
       373 -10.4649    133.3597    109.8311   7.9735746242e+01   3.4302909354e+01    0.7589765    0.3710423 -42.00  0.002187964    2.009    0.502
       374 -10.0220    121.9623    112.5508   8.3554585243e+01   3.6058883109e+01    0.5140204    0.3194485 -58.89  0.000892923    1.852    0.460
       375 -10.2516    119.7173    105.7846   8.2362761881e+01   3.8038044421e+01    0.5260198    0.4082932  54.17  0.002260857    1.425    0.298
       376 -10.6208    108.8014     98.8036   8.3573022314e+01   4.1763436294e+01    0.8937826    0.4952884  63.01  0.001959594    3.337    0.700
       377  -8.9977    108.0389     92.7420   8.2059275023e+01   4.3248402181e+01    0.4992818    0.3072325  18.65   0.00195097    2.374    0.579
       378  -9.9641     14.2754    111.3647   1.1630279770e+02   5.0878075778e+01    0.4167137    0.2309362  72.78  0.001512574    2.300    0.565
       379  -8.3256    174.9281    111.9782   7.0263199257e+01   2.4605280202e+01    0.2460023    0.1884142 -69.81 0.0006005623    1.678    0.404
       380  -8.3580    159.0753    111.9842   7.3866604166e+01   2.8188970567e+01     0.235813    0.2270566 -43.95 0.0004394698    1.044    0.043
       381 -10.2944     66.4405    109.9409   9.9596589841e+01   4.6107066719e+01    0.6082073     0.326844 -60.03  0.001945964    1.730    0.422
       382  -9.4629     43.0503    109.6392   1.0701258424e+02   4.8919117780e+01    0.3258733    0.1770841  10.95  0.001467338    2.619    0.618
       383  -8.2439    189.4556    108.0734   6.6199720937e+01   2.2070880941e+01    0.2341721    0.1447324 -40.10 0.0004405999    1.539    0.350
       384  -9.5340    150.7841    103.4614   7.3540125954e+01   3.1832214376e+01    0.5092707    0.3375644 -69.72  0.001670313    2.328    0.570
       385  -9.4839    139.8140    104.3109   7.6531763131e+01   3.4102774414e+01    0.4771405    0.3246385 -56.49  0.001171581    1.663    0.399
       386 -10.6206     45.7748    102.5353   1.0471558889e+02   5.0363699995e+01    0.7686706    0.4417256  72.55  0.002884441    3.167    0.684
       387 -10.6636     22.7806    102.6173   1.1230030561e+02   5.2389069201e+01    0.7241895    0.3849595  77.82  0.002785132    2.939    0.660
       388  -8.3950    166.7700    104.1095   6.9967281402e+01   2.8044286586e+01    0.2395971    0.2055477 -59.65 0.0006311546    1.259    0.206
       389 -10.1324    128.4511    102.1781   7.8945266974e+01   3.7019997245e+01    0.3679695    0.2905568 -72.79 0.0007694474    1.605    0.377
       390  -8.8621      6.6118    103.0824   1.1753467099e+02   5.3314344368e+01    0.2085747     0.157008  55.52 0.0007561992    1.571    0.364
       391  -8.3030    192.9493    115.1833   6.7324993963e+01   1.9928365151e+01    0.2298692    0.1987097 -59.07 0.0004822983    1.259    0.206
       392  -7.8785    175.5346    102.4541   6.7594854905e+01   2.6345585017e+01    0.1546865    0.1495624 -39.17 0.0001005744    1.023    0.022
       393  -9.3709     82.0535     99.9951   9.2177537932e+01   4.6209348802e+01    0.4099518    0.2717003 -73.21   0.00083351    2.040    0.510
       394  -8.3952    159.8759    101.0677   7.0707931902e+01   3.0243445762e+01    0.2432466    0.2078568 -69.27  0.000486567    1.345    0.257
       395 -10.2670     63.7451     96.0572   9.7205758836e+01   4.9789476871e+01    0.6135397    0.3857266 -79.20  0.001785693    2.352    0.575
       396 -10.0316    124.6105     90.9995   7.6769181683e+01   4.0222010277e+01    0.4393577     0.371218 -82.39  0.001007526    1.500    0.334
       397  -9.3726     95.0755     97.1005   8.7268369499e+01   4.4694342505e+01    0.3296393    0.2294773 -58.40  0.000527836    1.534    0.348
       398  -8.8950    151.1393     95.3855   7.1177474277e+01   3.3400140132e+01    0.3086472    0.2130127 -12.40  0.001263524    1.978    0.494
       399  -9.4953    246.5322     93.5233   5.3055730480e+01   1.2310072325e+01    0.2152063    0.1372502  56.09 0.0007929704    1.800    0.445
       400  -8.1650    164.7918     94.0106   6.7613503331e+01   3.0492162977e+01    0.2516502    0.1676317 -60.70 0.0005461483    1.900    0.474
       401  -9.2948    139.0658     92.5429   7.3364845778e+01   3.6726210223e+01    0.3636201     0.277773 -84.15 0.0008530304    1.880    0.468
       402  -8.4566    176.7718     93.5294   6.4897890985e+01   2.7763447702e+01    0.3067806    0.1909034 -54.05 0.0008849047    1.835    0.455
       403  -8.9760     46.5459     92.3677   1.0222433220e+02   5.2709841262e+01    0.3902068    0.2162657  10.61  0.001772381    2.476    0.596
       404  -9.6790      5.3176     92.2859   1.1641050010e+02   5.5923261243e+01    0.3394037     0.200642  61.86  0.001269702    2.230    0.552
       405  -8.4710    157.5434     91.5562   6.8563334502e+01   3.2669420615e+01    0.3094505    0.1510873 -39.45 0.0006101853    2.002    0.501
       406  -9.6593     34.7391     89.7782   1.0579201369e+02   5.4475173533e+01    0.4862289    0.2504417 -80.00   0.00156908    2.801    0.643
       407  -9.0373     23.0526     90.3903   1.1002453995e+02   5.5277298529e+01    0.3036859    0.2338098 -29.78  0.001667959    1.358    0.263
       408  -8.1562    150.7131     88.5577   6.9301810666e+01   3.4850281083e+01    0.2859419    0.1371895 -39.69 0.0008180103    2.043    0.511
       409 -10.1285     86.4364     85.9868   8.6849799250e+01   4.8675436820e+01    0.6301858    0.3955296 -57.04  0.001690484    1.745    0.427
       410  -7.5398    164.2841     87.6303   6.5911540807e+01   3.1830215071e+01    0.1616582    0.1203754 -67.89 0.0007017398    1.700    0.412
       411  -7.8169    179.4477     85.9268   6.2244759993e+01   2.8530204300e+01    0.2223085    0.1209431 -56.59 0.0008066213    2.435    0.589
       412  -9.9018     48.3608     84.1311   9.9580938496e+01   5.4430982790e+01    0.4694375    0.3175877  81.40   0.00182958    2.495    0.599
       413  -9.9425    104.8085     83.3414   8.0210466870e+01   4.5888864313e+01    0.5038917    0.3533755 -67.57  0.001099797    2.021    0.505
       414  -8.3280    157.8756     84.0938   6.6319264907e+01   3.4017265229e+01    0.2347915    0.2056184 -60.62  0.000413073    1.230    0.187
       415  -9.1287    140.6307     83.0355   7.0129748327e+01   3.8259685000e+01    0.3096017    0.2454192 -65.02 0.0006300674    1.523    0.343
       416  -9.6677     10.0905     81.2401   1.1292000915e+02   5.8233800072e+01    0.3751089    0.2096943  58.54   0.00168926    2.685    0.628
       417  -9.6438     24.5932     80.5505   1.0746573655e+02   5.7453683876e+01    0.4063464    0.2410039 -86.72   0.00127849    2.364    0.577
       418  -8.2246    249.6685     81.3213   4.9846957080e+01   1.3596856566e+01    0.1411297   0.09244729 -61.50 0.0005046299    1.697    0.411
       419  -8.4929    150.1983     80.7463   6.7103027330e+01   3.6463098155e+01    0.2756222     0.202907 -48.57 0.0007029741    1.414    0.293
       420  -9.1537    118.6898     79.9696   7.5058517580e+01   4.3739243814e+01    0.4000561    0.2849873  59.43  0.001817742    1.681    0.405
       421  -8.9449     74.4636     80.2504   8.9191233584e+01   5.1862650027e+01    0.3462819    0.2315531 -58.28  0.001126061    1.629    0.386
       422  -8.3059    166.7071     79.9170   6.3157239685e+01   3.2670631213e+01     0.216799     0.189874 -39.01 0.0004834902    1.124    0.110
       423  -8.3331    201.1045     79.0898   5.6394386457e+01   2.4585769028e+01    0.2263943    0.2014435   2.79 0.0006775644    1.289    0.224
       424  -9.4381    120.4982     93.4668   7.8648662179e+01   4.0571053012e+01    0.2958966    0.2313768  40.31  0.001028128    1.313    0.238
       425  -7.9085    184.0000     78.0798   5.9173196926e+01   2.8824375278e+01    0.2457608   0.08406127 -35.39 0.0006084496    2.847    0.649
       426  -7.6318    174.5482     78.4816   6.1124477675e+01   3.1033782151e+01    0.1509876    0.1471166 -48.21 7.820829e-05    1.009    0.009
       427  -9.3376    128.1576     75.4605   7.1014408526e+01   4.2546034375e+01    0.3744189     0.248633 -51.54 0.0007105531    1.690    0.408
       428  -9.8740     63.4533     73.8644   9.1193440231e+01   5.4850005143e+01    0.6502341    0.2967092 -60.49   0.00242135    2.963    0.662
       429  -8.8617     64.1725     64.0773   8.7815681589e+01   5.6798138762e+01    0.5317708     0.269513 -21.29  0.001942094    3.267    0.694
       430  -7.7609    157.2700     76.6556   6.4248555940e+01   3.5528429696e+01    0.1561842    0.1188936 -66.49 0.0006181871    1.613    0.380
       431  -8.7137    140.5096     75.3452   6.7793203409e+01   3.9741554142e+01    0.2658904    0.2152868 -62.14 0.0006760475    1.444    0.307
       432  -8.2374    163.5218     73.5221   6.1952518089e+01   3.4573437922e+01    0.2650333    0.1343578 -45.83 0.0007785437    2.064    0.515
       433  -9.6127     82.4438     72.7133   8.4087271517e+01   5.2179616530e+01    0.3900673    0.3009247 -76.94  0.001085033    1.957    0.489
       434  -9.2988     82.8392     66.1548   8.1779301856e+01   5.3434855597e+01    0.6546357    0.3756999  -3.17  0.002265749    3.624    0.724
       435  -8.9193    115.4882     72.4389   7.3559724006e+01   4.5890819893e+01    0.3636213    0.2018171 -39.29  0.001169299    1.768    0.434
       436  -9.5850    105.9945     71.5082   7.6064655845e+01   4.8040986983e+01    0.4582427    0.2276687 -47.28  0.001423865    2.137    0.532
       437  -9.2078     95.1430     71.1922   7.9361901540e+01   5.0221191808e+01    0.4092481    0.2376971 -54.64   0.00114119    2.121    0.528
       438  -8.5366     94.8231     65.7566   7.7635816043e+01   5.1339699661e+01    0.3259652    0.1863145 -24.15  0.001336594    2.122    0.529
       439  -8.3260     42.6089     72.8798   9.8752768872e+01   5.7584389446e+01    0.2545452    0.1580573 -67.86 0.0008300655    1.881    0.468
       440  -7.7237    175.4919     72.5307   5.9229874439e+01   3.1832217553e+01    0.1483063     0.147228 -29.69 -5.314494e-05    1.024    0.024
       441  -9.6322     51.4593     69.6276   9.4414343359e+01   5.7305711833e+01    0.4518959    0.2562585 -67.04  0.001638387    2.479    0.597
       442  -8.8772     16.8657     70.4275   1.0817034347e+02   6.0285350052e+01    0.2205771    0.1741781 -86.27   0.00093089    1.506    0.336
       443  -8.1445    156.8484     69.6132   6.2211907688e+01   3.6869016582e+01    0.2085289    0.1461732  68.02 0.0004383917    1.634    0.388
       444  -8.8344    147.0469     68.2505   6.4000601719e+01   3.9466307984e+01    0.3190445    0.2068508 -40.66 0.0004905189    1.549    0.355
       445  -8.8929    138.5363     66.2350   6.5391815699e+01   4.1835848796e+01    0.3410836    0.2270297 -58.98  0.000798333    1.956    0.489
       446  -8.8997    121.6342     65.9898   6.9698426131e+01   4.5749430527e+01    0.3675108    0.2351104 -53.27  0.001044472    1.904    0.475
       447  -8.5918     37.2283     64.5089   9.8509614449e+01   5.9948339719e+01    0.2278715    0.1947984 -80.34 0.0007315141    1.510    0.338
       448  -7.8590    131.2833     64.6615   6.6697530640e+01   4.3799487737e+01    0.1503452    0.1193094 -69.15 0.0002985524    1.628    0.386
       449  -9.0914    110.0749     63.5664   7.2166536118e+01   4.8687051700e+01    0.3043432    0.2288241 -43.59 0.0007341772    1.380    0.276
       450  -8.9960     29.2651     70.6836   1.0336280422e+02   5.9317349889e+01    0.5103096    0.2151043 -20.60  0.001742449    4.683    0.786
       451  -8.3127    158.2583     61.9559   5.9561964380e+01   3.7804378538e+01     0.207138     0.193051 -35.70 0.0003641414    1.082    0.076
       452  -9.5615     97.6975     60.3040   7.4818994234e+01   5.1799284924e+01    0.3652716    0.3051701 -37.10  0.001387705    1.202    0.168
       453  -9.7028     73.2677     59.4315   8.2851533141e+01   5.6335928048e+01    0.4212562    0.2334802 -50.93  0.001097027    2.001    0.500
       454  -8.5427     74.5872     52.2638   7.9777169110e+01   5.7456347743e+01    0.4082982    0.2333611  -4.06   0.00156131    3.084    0.676
       455  -7.8843    151.4947     73.4991   6.4599750101e+01   3.7478788627e+01    0.1512005    0.1498564  -7.26 -0.0002226308    1.011    0.011
       456  -7.9590    146.8018     59.0206   6.1127925724e+01   4.1070108682e+01    0.2021808    0.1174305 -33.72 0.0006386968    1.744    0.426
       457  -8.3530    130.8516     58.0999   6.4625593550e+01   4.5010890995e+01    0.2283944    0.2009322 -66.27 0.0006959055    1.333    0.250
       458  -9.8929     23.3680     56.3232   1.0191274915e+02   6.2892929195e+01    0.3994475     0.267713  88.70  0.001873533    2.685    0.628
       459  -9.4084      7.3878     57.1305   1.0894533023e+02   6.3743242089e+01    0.2718585     0.195674 -85.19  0.001137942    1.738    0.425
       460  -9.3562    119.0917     55.6200   6.6857653766e+01   4.8103252642e+01    0.4334313    0.2215703 -43.31  0.001361669    2.095    0.523
       461  -8.4057    140.0380     56.0544   6.1715174254e+01   4.3172862013e+01    0.2348865    0.1784599 -65.84 0.0005404571    1.674    0.403
       462  -9.2820     54.0921     55.1309   8.8687253919e+01   5.9960448420e+01    0.3083495    0.1953455 -56.46 0.0009279761    1.854    0.460
       463  -8.9558     44.1482     55.6204   9.2910258407e+01   6.1071424059e+01    0.2454556    0.1958126 -71.63 0.0008401081    1.734    0.423
       464  -8.6588    105.8106     53.4192   6.9860201721e+01   5.1348782243e+01    0.2607383     0.225751 -65.11 0.0007192254    1.479    0.324
       465  -9.5566     92.3690     50.5914   7.3009118598e+01   5.4539455828e+01    0.4353342    0.2379857 -46.77  0.001216195    2.113    0.527
       466  -8.5896    144.5562     48.9704   5.8362635761e+01   4.3168489350e+01     0.219248    0.1418747 -34.86 0.0005522869    1.576    0.366
       467  -8.2067    129.7405     49.1434   6.1852685940e+01   4.6687477360e+01    0.2275946    0.1775304 -50.83 0.0005376998    1.458    0.314
       468  -8.8784    120.9046     47.6339   6.3562030494e+01   4.8960126484e+01    0.2566373    0.2025571 -34.29 0.0004737644    1.302    0.232
       469  -8.4756    112.4918     47.2781   6.5704630256e+01   5.0898472764e+01    0.2391035    0.1981801 -51.61 0.0006339198    1.421    0.296
       470  -9.0548     82.1781     46.6530   7.4944574667e+01   5.7112267443e+01    0.2555532    0.2330097 -58.94 0.0007500896    1.434    0.303
       471  -8.4777     45.0231     44.8211   8.8734892141e+01   6.3062132773e+01    0.2223732    0.1620872 -40.06 0.0005865273    1.245    0.197
       472  -8.7851     16.5533     44.7241   1.0148255538e+02   6.5770507532e+01    0.2164745    0.1785751 -59.39 0.0006813807    1.342    0.255
       473  -8.7823    132.7483     43.5849   5.9213831629e+01   4.6793232040e+01    0.2687072     0.227131 -52.40 0.0006936645    1.332    0.249
       474  -8.4537     93.1465     42.5188   6.9685326208e+01   5.5690391912e+01    0.2761392     0.200838   5.57 0.0008649128    1.507    0.337
       475  -9.3395     69.6402     41.6577   7.7526036666e+01   6.0111046067e+01    0.3560511     0.242547 -54.59  0.001153437    2.080    0.519
       476  -8.9296     58.3308     42.6728   8.2352272987e+01   6.1687524925e+01    0.2478872    0.2123191 -65.45  0.000990868    1.735    0.424
       477  -9.5009      5.1539     42.2281   1.0605278243e+02   6.6958591014e+01    0.3036091    0.1888709 -77.46  0.001443336    2.167    0.539
       478  -8.6600    106.0365     41.4308   6.5362281124e+01   5.3183042377e+01    0.2625409     0.187851 -46.02 0.0007173269    1.627    0.385
       479  -8.8688     36.8370     40.7944   9.0826325360e+01   6.4739356888e+01    0.2131317    0.1682306 -43.40  0.000635009    1.277    0.217
       480  -8.3718     95.3831     38.0526   6.7237046130e+01   5.5909746417e+01     0.223261    0.1992192 -85.06 0.0007783829    1.566    0.361
       481  -8.3673     80.6548     35.9706   7.1226984711e+01   5.9081788853e+01    0.3896696    0.1212693 -34.20  0.001397133    3.174    0.685
       482  -8.8459    133.1086     35.4669   5.6313163515e+01   4.7810474239e+01    0.3145893    0.1790609 -34.23  0.001433593    1.820    0.451
       483  -8.2086    125.8442     35.8413   5.8113184821e+01   4.9487024528e+01    0.2136555    0.1782893  25.75 0.0004042366    1.190    0.159
       484  -9.2719     26.1638     35.4367   9.3757328719e+01   6.6786954284e+01    0.2843967    0.1847207 -51.88 0.0008879096    1.572    0.364
       485  -8.9778    175.5728    247.7412   9.7223262762e+01  -7.5468795184e-01    0.2756667    0.2271899  83.32  0.001322387    1.975    0.494
       486  -7.5823    104.3300     34.6632   6.3258260922e+01   5.4507676784e+01    0.1360627    0.1115323 -70.13 0.0007052044    1.732    0.423
       487  -8.2030     88.5456     34.4967   6.7980912690e+01   5.7791083453e+01     0.136964    0.1222235   8.04 0.0001418582    1.033    0.032
       488  -8.9976     48.5292     33.4259   8.2699541055e+01   6.4622165613e+01    0.2473621    0.1953222 -37.37 0.0006138904    1.322    0.244
       489  -8.5702     60.6057     32.7214   7.7353430659e+01   6.2990728258e+01    0.2144487    0.1868161 -52.72 0.0006333542    1.609    0.379
       490  -8.9709     72.2273     30.8250   7.2077531883e+01   6.1354905892e+01    0.3656704    0.2052675 -48.60  0.001102445    2.546    0.607
       491  -7.4659    139.3056     31.6795   5.3681101007e+01   4.6789984912e+01    0.1417067    0.1079708 -68.00 0.0006180193    1.636    0.389
       492  -9.1201     12.8937     30.5529   9.8480326774e+01   6.8755171802e+01    0.2510176    0.1568605 -58.62  0.001256705    1.746    0.427
       493  -8.5365    101.4868     29.4989   6.2037291583e+01   5.5800448333e+01    0.2206215    0.1209397 -39.20 0.0006210692    2.023    0.506
       494  -7.7959     41.8520     29.8727   8.4158113752e+01   6.6067735074e+01    0.1566333    0.1389761 -29.36 0.0004415988    1.315    0.239
       495  -8.8959     81.4631     27.5516   6.7430616683e+01   6.0119922445e+01     0.252464    0.2144723 -52.09 0.0008877342    1.598    0.374
       496  -8.5234      3.8347     28.0446   1.0225048526e+02   6.9785267858e+01    0.1626718    0.1368421 -48.05 0.0006170508    1.283    0.221
       497  -8.8973    119.4721     33.1633   5.8680106427e+01   5.1319581121e+01    0.2804616     0.188195 -42.57 0.0007530778    1.677    0.404
       498  -8.9401     91.6929     26.0489   6.3517681397e+01   5.8291209676e+01    0.3488148    0.2100716 -39.43  0.001214846    1.885    0.469
       499  -7.7173    145.6954     26.3045   5.0617724645e+01   4.5862100158e+01    0.1392853     0.105054 -68.96 0.0003291683    1.599    0.375
       500  -8.3141    104.4968     23.0092   5.8624323689e+01   5.5935036534e+01    0.1933767    0.1305044 -25.34 0.0005826653    1.540    0.350
       501  -8.0391     34.9334     23.4686   8.4580421922e+01   6.7931444341e+01    0.1550986    0.1019632  49.92 0.0008082052    2.745    0.636
       502  -8.5670    130.9806     22.0455   5.2040793216e+01   4.9921850109e+01    0.2047784    0.1869647  52.37 0.0003837007    1.038    0.036
       503  -8.9421     63.6436     21.1906   7.1044382048e+01   6.4161220682e+01    0.2558613    0.1983359 -47.16 0.0009086868    1.793    0.442
       504  -8.9700     48.2775     21.8382   7.7689530890e+01   6.6455496631e+01    0.2171559    0.1960416 -21.91 0.0006623046    1.354    0.261
       505  -7.9564    120.5429     21.0180   5.3918103126e+01   5.2509634862e+01    0.1978806    0.1325612 -26.48  0.001019498    1.586    0.370
       506  -8.8103    132.2041    248.0636   1.0563187388e+02   5.7806704658e+00    0.2189362    0.1774124  70.22 0.0006725038    1.402    0.287
       507  -8.1745     19.4514     21.2913   9.1399432154e+01   6.9871366595e+01     0.152543    0.1013611 -48.93 0.0009407574    1.624    0.384
       508  -8.2641     87.8455     17.5970   6.1107819240e+01   6.0078942166e+01     0.202234    0.1475499 -25.38  0.000454414    1.423    0.297
       509  -8.1034     38.7160     18.3702   8.0416563981e+01   6.8247256995e+01    0.1569439    0.1492979 -54.91 0.0007891289    1.730    0.422
       510  -7.9395    112.6355     16.8277   5.4149018277e+01   5.4781157142e+01    0.1726031    0.1200263 -34.92  0.000171297    1.594    0.373
       511  -8.2326    113.2471    248.6208   1.0934887953e+02   8.4977842370e+00     0.192527    0.1355786 -81.50  0.000742547    1.775    0.437
       512  -7.7763      7.5189     15.4957   9.5382107521e+01   7.1786656665e+01    0.1149805   0.08528307 -26.37 2.767737e-05    1.033    0.032
       513  -9.3141    103.7374    246.9708   1.1099892715e+02   1.0152929496e+01    0.3782967    0.2077658 -79.16  0.001796288    2.570    0.611
       514  -9.0279    242.6978    246.8377   8.4792357618e+01  -1.0168512159e+01    0.3116502    0.1274812 -29.49  0.001383383    2.483    0.597
       515  -8.3216    218.6111    247.9481   8.9231219261e+01  -7.0665029543e+00     0.188054    0.1434123 -43.91  0.001069356    1.883    0.469
       516  -9.0018    205.4257    247.6850   9.1600493868e+01  -5.1651437778e+00    0.2259359     0.152823  15.40 0.0006328852    1.311    0.237
       517  -8.1297     97.1732     15.1867   5.7404983810e+01   5.8384117148e+01     0.169622    0.1534548 -42.49 0.0005001528    1.354    0.261
       518  -8.9584    156.0727    247.6875   1.0096433355e+02   2.2178272908e+00    0.2352229    0.1683394 -50.78  0.001161335    1.738    0.425
       519  -8.5993    232.6356    247.1513   8.6600200601e+01  -8.8828746477e+00    0.1558473    0.1331523 -16.84 0.0006672047    1.411    0.291
       520  -7.7433     83.5347     11.4518   5.9719183055e+01   6.1607812940e+01     0.129555    0.1105526  22.83 9.474117e-05    1.030    0.029
       521 -10.0039    223.9833    244.1576   8.7665200939e+01  -7.3379683210e+00    0.4088608    0.2315133 -44.08  0.002297526    2.445    0.591
       522  -9.0829    147.2094    246.1797   1.0248675697e+02   3.8059183475e+00    0.2955587    0.2011209  68.85  0.001641303    2.133    0.531
       523  -8.6620    146.8297    240.5873   1.0183314578e+02   4.7605122034e+00    0.3388069    0.2103473 -88.64  0.001457646    3.889    0.743
       524  -9.1471    120.1770    245.4095   1.0765712409e+02   8.0194069229e+00    0.3332585     0.210538  72.76  0.001586302    2.167    0.538
       525  -8.6101     67.7275    245.3667   1.1763809044e+02   1.5329851747e+01    0.2297271     0.122851  88.77  0.001275346    2.173    0.540
       526  -9.2752      9.9736    244.4323   1.2769655717e+02   2.1984984473e+01    0.3219224     0.102443  76.64  0.001455992    3.592    0.722
