#   1 NUMBER                 Running object number                                     
#   2 MAG_AUTO               Kron-like elliptical aperture magnitude                    [mag]
#   3 X_IMAGE                Object position along x                                    [pixel]
#   4 Y_IMAGE                Object position along y                                    [pixel]
#   5 X_WORLD                Barycenter position along world x axis                     [deg]
#   6 Y_WORLD                Barycenter position along world y axis                     [deg]
#   7 A_WORLD                Profile RMS along major axis (world units)                 [deg]
#   8 B_WORLD                Profile RMS along minor axis (world units)                 [deg]
#   9 THETA_WORLD            Position angle (CCW/world-x)                               [deg]
#  10 FWHM_WORLD             FWHM assuming a gaussian core                              [deg]
#  11 ELONGATION             A_IMAGE/B_IMAGE                                           
#  12 ELLIPTICITY            1 - B_IMAGE/A_IMAGE                                       
         1 -12.0005    119.7215     37.1807   3.4624091695e+00   5.0342277097e+01    0.7634889     0.367727 -51.14  0.001705388    2.206    0.547
         2 -12.9300    163.8819     27.6202   3.5400697096e+02   4.1123485612e+01    0.6842094    0.3401875  59.88  0.001416755    2.104    0.525
         3 -11.5745    104.6417     11.7114   3.5683789694e+02   5.7120400470e+01    0.4826013    0.2968849 -25.41  0.001610676    1.844    0.458
         4 -12.2100    112.9980     25.0243   4.0947219863e-01   5.3576903503e+01    0.7258977    0.3219515  61.52   0.00314999    2.028    0.507
         5 -12.6910    105.6197     19.9045   3.5987526773e+02   5.5997672707e+01    0.3483898    0.2814645 -72.43 0.0006354919    1.221    0.181
         6 -10.4511     46.9884     21.5396   1.9106601389e+01   6.9339251872e+01    0.7025573    0.3358548 -25.92  0.002898739    2.851    0.649
         7 -11.4873     58.3658     29.3524   1.7986475262e+01   6.5819478844e+01    0.5261046    0.4091871  11.56  0.001682936    1.569    0.362
         8 -11.7379     26.8155     27.8405   3.4312680161e+01   7.1825428129e+01    0.5080822    0.3939835 -48.62  0.002001295    1.384    0.278
         9 -11.1425     20.8810     21.7422   3.5236006748e+01   7.3799268886e+01    0.5775676    0.3774186 -24.18  0.002420664    1.710    0.415
        10 -12.4575    245.5444     21.9130   3.4669135038e+02   2.5721087506e+01    0.5054139    0.3245671  66.62  0.003603143    1.993    0.498
        11 -10.7756    134.9462     21.7601   3.5576093615e+02   4.8603771947e+01    0.5040695     0.322525 -34.15  0.002421587    1.608    0.378
        12 -11.3573    127.1847     15.3208   3.5468000340e+02   5.1200533851e+01    0.5225208     0.324526 -17.68  0.001774445    2.057    0.514
        13 -10.7771    135.2532     14.5964   3.5339243418e+02   4.9319163794e+01    0.6598842    0.2424863  65.51  0.002801875    2.405    0.584
        14 -11.7050     35.4508     17.7583   2.3144097235e+01   7.2112058492e+01    0.5330919    0.3700552 -16.27   0.00167824    1.718    0.418
        15 -10.0532     11.9555      2.0576   2.9523544882e+01   7.8321461746e+01    0.2831963    0.1972847  29.58  0.001737053    1.292    0.226
        16 -11.9757      9.0013     19.5322   4.3674557840e+01   7.5661891876e+01    0.4706657    0.2692555  -7.91 0.0003434909    2.181    0.541
        17 -11.6160     15.0711      9.3941   3.2200335157e+01   7.6736935670e+01    0.7615016    0.3873636  42.81  0.003302732    2.082    0.520
        18 -11.1600     27.0626     12.7271   2.5307527092e+01   7.4348914262e+01    0.2610806    0.2277271 -60.13 0.0003396156    1.501    0.334
        19 -11.8671     23.1219     10.7490   2.6769004116e+01   7.5302064719e+01    0.4744889    0.2995685  22.41  0.001778187    1.679    0.404
        20 -12.2216    243.7335     14.0560   3.4525302067e+02   2.6874086652e+01    0.3899003    0.2928719  12.58  0.002577439    2.733    0.634
        21 -11.2716    247.8151      4.8524   3.4332731639e+02   2.7147602984e+01    0.3196106     0.189276 -39.06  0.002295104    1.371    0.270
        22 -11.4207    242.5420      2.5910   3.4308546072e+02   2.8255894511e+01     0.319308    0.1678312 -56.92  0.001781192    1.351    0.260
        23 -11.9794    164.0959     18.4319   3.5143649451e+02   4.2141127278e+01    0.3606459    0.2676665  41.36  0.001227804    1.865    0.464
        24 -11.5507     15.9747     14.7770   3.4970818762e+01   7.5708178189e+01    0.6672972    0.4333822  -3.15  0.003523281    1.881    0.468
        25 -11.2143    190.9746     12.4243   3.4774518601e+02   3.6951442465e+01    0.4977564       0.1675 -31.09    0.0022532    2.726    0.633
        26 -10.8969     85.8334     14.1945   1.7465411466e+00   6.1480587192e+01    0.3891217    0.2913822 -10.49  0.001510596    1.659    0.397
        27 -10.4254     88.7053      8.0856   3.5836092104e+02   6.1400908441e+01    0.3554229    0.2513974  70.05   0.00139088    1.249    0.199
        28 -11.8994    227.0887     14.3619   3.4609708034e+02   2.9736829378e+01    0.4004126     0.154123 -60.59  0.001611174    2.211    0.548
        29 -12.1004     48.8631     12.7579   1.3194699961e+01   7.0153427921e+01    0.7162073    0.2490968  52.18  0.002872663    2.515    0.602
        30  -9.7771    156.3756     12.7296   3.5055242404e+02   4.4521499248e+01     0.321197    0.1502494  44.21  0.001336522    3.439    0.709
        31 -11.6427    211.7661      9.7468   3.4590003525e+02   3.3077953547e+01    0.3645769    0.2916752 -19.65  0.001447616    1.659    0.397
        32  -9.9043    121.3877     11.3509   3.5409765485e+02   5.3028384947e+01    0.3051437    0.1777547 -83.10   0.00150726    1.763    0.433
        33  -8.8224     99.0000     11.9338   3.5795608622e+02   5.8490599525e+01    0.2013239   0.07650552 -26.06  0.000800245    2.927    0.658
        34 -12.0754     63.3006      9.3352   5.6763519358e+00   6.7347205280e+01    0.4289068    0.3294374 -42.40  0.002511364    1.452    0.311
        35  -9.5244      5.4848     12.5117   4.2993922842e+01   7.7358870133e+01    0.2197785     0.178884  -3.64  0.000793665    1.095    0.087
        36 -10.3907      5.6537      8.9953   4.0640566426e+01   7.7982207881e+01    0.3725394    0.2145635 -50.93  0.002053411    1.824    0.452
        37 -10.8944    168.4318      9.6233   3.4865161136e+02   4.2103790876e+01    0.3356692    0.1996062  65.91  0.001128456    1.735    0.424
        38 -10.2492      1.3423      7.5170   4.4153124388e+01   7.8684849822e+01    0.3207429   0.09853663 -51.92  0.001352819    3.018    0.669
        39 -10.2945      1.8175      2.1502   3.9934320521e+01   7.9585319777e+01     0.233518    0.1455389 -33.22  0.001256042    1.556    0.357
        40 -11.3314    185.6112      6.6675   3.4668301250e+02   3.8670183744e+01    0.3988235     0.185896 -50.63  0.002164882    1.701    0.412
        41  -9.8949    185.9516      1.4763   3.4538426824e+02   3.9109105034e+01    0.1683172    0.1344416  73.35   0.00034088    1.411    0.291
        42 -11.8959    236.1176      4.7598   3.4374992645e+02   2.9139047917e+01    0.3301056    0.2589183 -38.28  0.002582563    1.360    0.265
        43  -9.4988     78.1616      7.3683   4.2237278890e-01   6.4033906550e+01    0.1873305    0.1145592  79.25 0.0006481967    1.664    0.399
        44  -9.6946    154.0485      6.5111   3.4896043412e+02   4.5685888357e+01     0.184404    0.1094175  82.56 0.0004333013    1.526    0.345
        45 -10.9114     40.6339      4.0240   1.1540866724e+01   7.2905163724e+01    0.3180777     0.245727  30.41  0.001152005    1.248    0.199
        46  -9.9910    149.1605      5.4182   3.4906608843e+02   4.6928826129e+01    0.2397586    0.1026442  71.66  0.001129185    2.104    0.525
        47  -9.9428    128.8994      4.8659   3.5091488353e+02   5.1815587762e+01    0.1752392    0.1546949  76.39   0.00113007    1.154    0.133
        48 -10.9546    134.1000      2.3455   3.4952708788e+02   5.0786792876e+01    0.4323481    0.2387542  73.80   0.00118319    1.609    0.379
        49  -9.2190    128.9611      1.4751   3.4976424664e+02   5.2103176049e+01    0.1924276    0.1396723 -60.17  0.001143693    1.264    0.209
        50  -9.0294     70.6036      5.1750   1.2772838207e+00   6.6051715043e+01    0.1716256    0.1242361   2.62 0.0009438237    1.744    0.426
        51 -10.5716    223.5553      2.4348   3.4378552466e+02   3.1612961237e+01    0.2097704    0.1670745 -57.57 0.0006586018    1.147    0.128
        52 -10.9605    218.7446      2.6720   3.4403887126e+02   3.2478253220e+01    0.2667639    0.1915279 -51.22  0.001945909    1.104    0.094
        53  -8.8424    122.3065      4.6603   3.5161334198e+02   5.3440495200e+01    0.1398463   0.08204009 -62.80  0.000704196    1.681    0.405
        54  -9.1977     30.4844      4.5166   1.7432972239e+01   7.4865355741e+01    0.1245752    0.1108691  32.64 0.0001181592    1.050    0.047
        55 -11.4970    206.5066      2.2509   3.4450227392e+02   3.4858746464e+01    0.4534705     0.183438 -85.73  0.002318848    2.473    0.596
        56  -9.8473    141.9102      2.9496   3.4896981408e+02   4.8867093322e+01    0.2032603    0.1622468 -70.53  0.001068427    1.064    0.060
        57 -11.1048    113.5426      2.1013   3.5178630332e+02   5.5815873086e+01    0.3962669    0.2145463  84.20 0.0007744795    1.706    0.414
        58 -10.0639    105.4706      1.9375   3.5283294966e+02   5.7819493946e+01    0.2601116    0.1710129 -69.45 0.0009703646    1.529    0.346
        59 -12.4280    236.3515     15.9162   3.4595836066e+02   2.7933110114e+01    0.3261636    0.2481878 -42.51   0.00138266    1.251    0.201
        60  -9.4234     74.5769      2.6850   3.5898248475e+02   6.5326761229e+01    0.2496355    0.1077244  68.76  0.001095187    2.073    0.518
        61  -9.2246     33.5408      1.9744   1.3809387649e+01   7.4573882228e+01    0.1672957    0.1219561 -20.35 0.0004544559    1.504    0.335
        62  -9.1684    166.8276      1.3371   3.4653004457e+02   4.3271140946e+01    0.1533534   0.09674366  73.44            0    1.542    0.352
        63  -9.8498    152.6989      1.3923   3.4757929630e+02   4.6479713314e+01    0.2184373    0.1050998  85.40 0.0006330166    1.901    0.474
        64  -8.9528     22.7299    126.3576   6.2327605721e+01   4.7499943140e+01     0.157204    0.1008217  64.21 0.0006996402    1.642    0.391
        65 -11.0956     14.3270    140.9069   6.6947126727e+01   4.4123524236e+01    0.4074413    0.2837845  48.22  0.001354208    1.385    0.278
        66 -10.7775    104.3146    122.3876   3.2870623641e+01   3.6797535950e+01    0.3597889    0.3169667  49.09  0.001220498    1.153    0.133
        67  -9.2013     49.0301    122.5079   5.1624386957e+01   4.5728039322e+01     0.234402    0.1503387  27.99 0.0006599806    1.592    0.372
        68 -10.6304     43.6770    117.2281   5.2744757321e+01   4.7855732116e+01    0.5944937    0.2615447 -74.12  0.002101756    2.532    0.605
        69  -9.1723    218.4668    116.4598   8.2866547108e+00   1.7255567791e+01    0.1245191   0.09899279 -42.99 6.625651e-05    1.049    0.047
        70 -10.0115     79.0504    114.6735   3.9080639090e+01   4.3272478006e+01    0.3000937     0.226089 -47.11 0.0007990333    1.344    0.256
        71  -9.2959     58.6575    115.3018   4.6582203649e+01   4.6366140298e+01    0.1641234    0.1138877  63.76 0.0007038458    1.677    0.404
        72 -11.1225      9.9956     97.1990   6.4015945680e+01   5.6608345538e+01     1.063945    0.6671128 -29.36  0.005013619    1.777    0.437
        73 -11.3991     44.5637     84.3252   4.5187035196e+01   5.6565460674e+01     0.735723    0.4714589  24.88  0.003340943    1.645    0.392
        74 -11.0351     15.5993    108.2320   6.2964165513e+01   5.3156270218e+01    0.4899656    0.3756162 -35.80  0.002117278    1.391    0.281
        75 -11.4801     22.8415     94.6631   5.7622571889e+01   5.6309096635e+01    0.5685589    0.4774511  14.01  0.001977339    1.269    0.212
        76 -11.7000     17.9536    101.1343   6.0930285017e+01   5.4945775897e+01    0.7121519    0.4576115  22.02  0.002346102    1.628    0.386
        77 -11.1820     36.3672     91.9635   5.0806379471e+01   5.5621743202e+01    0.8981998    0.5042534 -13.81  0.003229456    2.834    0.647
        78 -11.6941     27.9475     85.0520   5.3268124210e+01   5.8402692704e+01     1.351466    0.6054248  16.62  0.003813157    2.552    0.608
        79 -12.2417     25.0249    113.3581   5.9678607660e+01   5.0936230129e+01    0.9585441    0.4292632   3.83  0.003331194    3.211    0.689
        80 -12.1125      2.8073    111.3924   6.8768164153e+01   5.3095435875e+01    0.5300866    0.3893764  89.06  0.001613548    1.274    0.215
        81 -11.3058      4.2013    105.2735   6.7579142838e+01   5.4719382356e+01    0.4852634    0.3454396  38.08  0.002431413    1.457    0.314
        82  -9.8288     67.1881    114.1761   4.3169769326e+01   4.5365813626e+01    0.2991474     0.187323 -70.55  0.001250764    1.745    0.427
        83 -12.5133     26.0543    106.8438   5.8243142130e+01   5.2655089629e+01    0.6384183    0.3895662 -45.77 0.0003065591    1.671    0.402
        84 -10.4282      7.5928    114.2566   6.7046462673e+01   5.2022217717e+01     0.375485    0.2128745 -54.42  0.001135598    1.683    0.406
        85 -10.2612     49.0995    111.7891   4.9565943017e+01   4.8654045229e+01    0.2544779    0.2426187  68.42 0.0005558519    1.045    0.043
        86 -10.8607    104.7613    108.5472   2.9357161231e+01   4.0001490580e+01    0.4624609    0.4358178   3.93  0.002459688    1.184    0.155
        87 -11.6243     79.2239    108.4523   3.7530306585e+01   4.4826613237e+01    0.5857581    0.4171053   9.93  0.001645439    1.918    0.479
        88  -9.9908     58.6820    109.7013   4.5370994853e+01   4.7862551205e+01        0.273    0.2038444 -79.36  0.001149643    1.450    0.310
        89  -9.6216    180.9170    105.5889   1.1518825858e+01   2.5478784213e+01    0.2710184    0.1681033  -9.00   0.00104218    3.539    0.717
        90  -8.9483    175.6786    106.6919   1.2659540577e+01   2.6261426420e+01    0.1326023    0.1063643  -5.53 0.0004311612    1.643    0.391
        91  -9.2500    139.9782    106.5261   1.9703494513e+01   3.3327367178e+01    0.1940998    0.1424737  35.35 0.0002066051    1.577    0.366
        92 -10.4635     91.5681    102.6871   3.1905497968e+01   4.3965623638e+01     0.401345    0.3537381  16.57  0.002035943    1.293    0.227
        93  -9.8829     85.9903    103.2879   3.3904482271e+01   4.4880122734e+01    0.2696531    0.1971198  48.65 0.0004474135    1.394    0.283
        94 -10.9803     50.0973    100.1862   4.6669465417e+01   5.1643016232e+01    0.7439079    0.4410695 -30.20  0.002938968    2.272    0.560
        95 -10.7777     35.7303    102.6743   5.3313720671e+01   5.2798504942e+01    0.4247901    0.2532226  -6.20  0.000736961    2.374    0.579
        96  -9.3186    120.6095    101.1391   2.3018957126e+01   3.8457525275e+01    0.2168665     0.138828 -36.80 0.0009195061    1.701    0.412
        97  -9.7424    156.6852     98.9421   1.4285439974e+01   3.1425469699e+01    0.2010682     0.165555 -50.40 0.0004097261    1.108    0.098
        98  -9.2932    210.4608     98.0479   5.5191887359e+00   2.1476706787e+01    0.1876087    0.1027725 -40.66 0.0003326756    1.481    0.325
        99 -10.0761     81.6368     83.2942   2.9765784538e+01   5.0467649941e+01    0.7327232    0.5239103  -8.90  0.002771346    2.235    0.553
       100 -11.6196     75.0979     78.9921   3.0816054549e+01   5.2731377517e+01    0.5893035    0.3858368  55.64 0.0005461524    1.692    0.409
       101 -10.1285     76.0104     74.9944   2.9195373718e+01   5.3455331038e+01    0.2831215    0.2512986  59.71  0.001042267    1.143    0.125
       102 -10.4840     77.4730     96.5006   3.5060956389e+01   4.8123514279e+01    0.4056671    0.3131601  55.26  0.001472092    1.365    0.267
       103 -11.3988     79.1552     93.2019   3.3547638481e+01   4.8614593350e+01    0.7412554    0.6052365  52.20  0.003676732    1.247    0.198
       104 -11.6388     68.4507     95.3440   3.8101344300e+01   5.0016445815e+01    0.5668375     0.405733  21.77  0.001539195    1.614    0.380
       105 -10.2830     43.0043     94.6761   4.8439636339e+01   5.4070572368e+01    0.3676782    0.2921355  39.40  0.001662877    1.280    0.219
       106 -10.9031     43.8905     90.6264   4.7088259781e+01   5.5022806372e+01    0.2609174    0.2163357 -58.87 0.0004712881    1.168    0.144
       107  -9.2695    125.5353     93.5026   1.9705612754e+01   3.9038644180e+01    0.1512559    0.1403018 -72.69  4.64412e-05    1.041    0.039
       108 -10.1455     50.5233     91.4898   4.4390907964e+01   5.3867038774e+01    0.3838561    0.2594961  35.82  0.001632395    1.485    0.327
       109 -10.6685     52.2687     87.2698   4.2534191738e+01   5.4690955495e+01    0.3923881    0.2144955 -51.96 0.0009472384    1.768    0.434
       110 -10.9467     98.2660     90.6771   2.6458576981e+01   4.5420020446e+01    0.2980608     0.257194  55.48 0.0005516848    1.166    0.143
       111 -11.5578      6.2071     88.0267   6.4588489241e+01   5.9347956715e+01    0.7121085    0.4235193  11.68  0.003389701    1.822    0.451
       112 -10.6495      2.2070     79.8821   6.5500201187e+01   6.1752267170e+01    0.6391797    0.3189248 -89.18  0.002142951    2.143    0.533
       113 -10.9011      2.1352     71.1229   6.4227900225e+01   6.4072105340e+01    0.4503107    0.2252954 -67.11  0.001837579    1.758    0.431
       114 -13.3479      6.1089     61.0450   6.0010657363e+01   6.6450618465e+01    0.8291249     0.529083 -21.26  0.002060104    1.651    0.394
       115 -10.1701     66.5688     88.5569   3.6966441600e+01   5.2029411252e+01    0.3469336    0.2669516 -14.85 0.0009500821    1.688    0.408
       116 -10.2419    119.1358     85.5918   1.9091968317e+01   4.2051806488e+01    0.3462996    0.2654536 -22.61  0.001517147    1.660    0.398
       117  -9.8253    104.1791     86.8657   2.3567743966e+01   4.5018621136e+01    0.2347955    0.2079495 -86.51 0.0008021324    1.179    0.152
       118 -10.0161     90.2907     85.6578   2.7525018217e+01   4.8189256615e+01    0.4157689    0.2928638 -74.30  0.001822302    1.799    0.444
       119  -9.6591    143.0624     83.3668   1.2951631724e+01   3.7239860780e+01    0.4176765    0.1794062 -51.74  0.001550546    2.476    0.596
       120 -10.3980    113.1546     82.9210   1.9880751112e+01   4.3909256362e+01    0.3891014    0.3003747  77.72  0.001806758    1.491    0.329
       121 -12.2786     61.0251     83.4112   3.7729088883e+01   5.4245213366e+01    0.2884557    0.2751139 -69.32 0.0003831809    1.048    0.045
       122 -10.4110     58.3280     77.0412   3.6954683746e+01   5.6242643372e+01    0.5476377    0.2259392 -52.98  0.001549427    2.376    0.579
       123 -10.2858     67.3718     81.4991   3.4578239550e+01   5.3593456862e+01    0.3512749     0.294201 -14.45  0.001751171    1.426    0.299
       124 -12.5468    247.5229     75.4945   3.5698404201e+02   1.8795339354e+01     0.480806    0.2631889 -45.79  0.003030109    1.342    0.255
       125 -11.0922     53.0982     76.2183   3.8999738332e+01   5.7305670431e+01    0.4526156    0.4113171  67.63  0.002014531    1.177    0.151
       126  -9.2353     46.3429     76.3022   4.2125547321e+01   5.8329381263e+01     0.317549    0.2340444 -27.60  0.001518286    1.563    0.360
       127  -9.9577     72.0525     83.8888   3.3474206246e+01   5.2168653143e+01    0.2184233    0.2133056  63.06 0.0003250279    1.019    0.019
       128 -10.8434     89.3110     77.0310   2.5179370136e+01   5.0293713673e+01    0.5229546    0.3287044  44.90  0.001480226    1.590    0.371
       129 -10.1262     94.2026     75.8102   2.3208528381e+01   4.9514408625e+01    0.4085372    0.2865325 -57.24  0.001500423    1.493    0.330
       130  -9.2655    158.8198     76.1281   8.0156939955e+00   3.5115304978e+01    0.1682913    0.1628485  -6.34 0.0003464968    1.249    0.200
       131 -11.1819     14.1999     74.1920   5.8072270048e+01   6.2513576818e+01    0.6207263    0.3712692  83.78  0.002544923    2.080    0.519
       132  -9.5878     11.9906     67.4743   5.7892552167e+01   6.4419523517e+01     0.252767    0.1374956   4.78 0.0008921142    2.067    0.516
       133  -9.8442     15.7500     66.9566   5.5608128537e+01   6.4257664867e+01    0.2503759    0.1956626  -3.60 0.0005256287    1.348    0.258
       134  -9.8187    103.6918     74.4742   1.9922029183e+01   4.7718193727e+01    0.2763952    0.2145142  77.51  0.001335843    1.468    0.319
       135  -9.5165     50.9003     56.5120   3.3314885451e+01   6.2187752222e+01    0.2583008    0.1804794  43.49  0.001005184    1.431    0.301
       136 -11.4946     27.5126     73.2586   5.0686313502e+01   6.1520666636e+01    0.4668357    0.3254021   9.14  0.000270024    1.578    0.366
       137 -10.6402     34.4808     71.1843   4.6481092082e+01   6.1225636135e+01    0.4829597    0.2322531  39.14  0.001977967    2.122    0.529
       138 -10.6060     40.7862     72.9331   4.3806803828e+01   5.9957316142e+01    0.3257064    0.2642577 -23.52 0.0005963661    1.343    0.255
       139 -10.0842     40.0351     68.4975   4.2839428157e+01   6.1145138621e+01    0.3016652    0.2513348  27.25 0.0009224915    1.211    0.174
       140 -12.0124     44.3950     60.5820   3.8010541525e+01   6.2356969348e+01    0.8374806    0.4975983  29.23  0.003089326    1.732    0.423
       141 -11.2808     39.9522     56.5987   3.8885415498e+01   6.3936548218e+01    0.3741148    0.2372837  34.14  0.001006781    1.557    0.358
       142  -9.3552    103.4335     79.0291   2.1422271359e+01   4.6841590490e+01     0.234217    0.1459425 -46.36  0.001024828    1.594    0.373
       143  -9.0620    151.3157     73.2967   8.5863263388e+00   3.7240035055e+01    0.1330148     0.113565  14.19 0.0004089602    1.606    0.378
       144  -9.7810     81.0274     70.7419   2.5958395158e+01   5.3367776353e+01    0.4603477    0.3510701  81.84  0.002136452    1.668    0.401
       145  -9.8894     85.7102     69.5921   2.3943130695e+01   5.2628964876e+01    0.2687296    0.1813008  44.26 0.0005854987    1.480    0.324
       146 -12.1771    123.1037     68.4780   1.3000571526e+01   4.4475217312e+01    0.4449569    0.2890868  49.12  0.002087392    1.604    0.377
       147 -10.2258    219.4938     67.1629   3.5786609138e+02   2.4535932567e+01     0.307011     0.142288  62.13  0.001610418    2.552    0.608
       148 -10.6097    106.4949     58.2404   1.3791527492e+01   5.0164931818e+01    0.3296316    0.2524342  74.09 0.0003293429    1.370    0.270
       149 -10.4794    102.0249     66.9614   1.7963081175e+01   4.9574514137e+01    0.2562652    0.2437318  30.81 0.0003489501    1.168    0.144
       150 -10.5254    105.5989     63.2613   1.5730884453e+01   4.9461074811e+01    0.4087266     0.294942  31.81  0.001587688    1.756    0.430
       151 -10.0280    201.6694     63.9453   3.5901422359e+02   2.8271129507e+01    0.2218861    0.1976757 -40.77  0.001018293    1.214    0.176
       152 -10.4074     92.7398     62.6196   1.9256816520e+01   5.2494487683e+01    0.3434782    0.2495006  72.63 0.0009416139    1.598    0.374
       153 -10.0654     58.2947     62.4148   3.2083093964e+01   5.9598493134e+01    0.3415816    0.2642084 -73.74  0.001685154    1.572    0.364
       154  -9.7178    159.2212     62.5453   4.2932773044e+00   3.7276166603e+01    0.2938982     0.110421  51.70  0.001120407    2.960    0.662
       155 -10.7571     82.4264     47.9384   1.7133419610e+01   5.7502220096e+01    0.8422989    0.5184729  25.75  0.003422454    2.554    0.608
       156 -11.5991     75.7237     55.5178   2.2427174316e+01   5.7573106828e+01     0.856158    0.2526915 -44.28    0.0027152    3.482    0.713
       157 -10.7958     72.7775     47.1542   2.0220911101e+01   5.9762319380e+01    0.7711284    0.3003804 -50.46  0.002684693    3.145    0.682
       158  -9.7197     64.1729     60.4726   2.8840092582e+01   5.8915618098e+01    0.3661288    0.2808634 -46.97  0.001856143    1.328    0.247
       159  -9.9278    150.9545     60.8651   5.1814967659e+00   3.9395140500e+01    0.2319766    0.1868368 -43.87 0.0005685922    1.200    0.167
       160 -12.0096    126.9927     28.1575   3.5907178738e+02   4.9765777117e+01    0.6958761    0.3881187  79.08  0.003274449    1.820    0.450
       161 -10.5633    110.0400     39.4093   6.2799214084e+00   5.2371494817e+01    0.6591284    0.3711548 -19.48  0.002708256    2.635    0.620
       162 -11.2380    117.7469     55.3583   1.0048305358e+01   4.8021792236e+01     1.055465    0.5052526 -63.72   0.00342301    3.765    0.734
       163 -11.7391    125.4081    240.5826   4.7109980378e+01   8.1917439109e+00    0.4160902    0.2414766  29.34  0.002385839    1.466    0.318
       164 -11.6797    117.1829     45.2752   6.7750668777e+00   4.9771835006e+01    0.6702382    0.5356684 -33.22  0.002779874    1.366    0.268
       165  -9.7000    113.9236     60.6573   1.2708187029e+01   4.8006430747e+01    0.2729194    0.1811355 -55.53  0.001275979    1.567    0.362
       166  -9.6035     84.1551     60.8982   2.1438047099e+01   5.4717833307e+01    0.2327387    0.2001397 -89.54 0.0006138263    1.283    0.220
       167 -10.6116     25.6539     59.3051   4.7776500776e+01   6.5186543583e+01    0.5850348     0.165882  38.30  0.001922234    3.575    0.720
       168 -11.3477     24.7129     55.9435   4.7267197283e+01   6.6094382603e+01     0.737259    0.4467629  34.25  0.002601703    1.669    0.401
       169 -10.9783    126.0969     52.6846   7.3562826720e+00   4.6483313643e+01    0.4677969     0.214798 -29.73 0.0005761114    2.704    0.630
       170 -10.5747    238.3336     55.8846   3.5386859159e+02   2.2843076902e+01    0.1620052    0.1136937 -45.16 0.0005749641    1.090    0.082
       171 -10.0723    157.0823     54.3744   2.3689350180e+00   3.9022666280e+01    0.3533082    0.2177768 -56.00  0.001762049    1.549    0.354
       172 -10.3830    155.0683     49.0444   1.1689899929e+00   4.0272500242e+01    0.4710926    0.2271119 -21.84  0.001662853    3.419    0.708
       173  -9.4218     88.1808     49.3756   1.5837368217e+01   5.5950064034e+01    0.2927123    0.2042469 -27.19  0.001395351    1.717    0.418
       174 -10.3197     88.2708     54.9289   1.7900354664e+01   5.4939281207e+01    0.5917059    0.2037342 -34.22  0.001778617    4.072    0.754
       175  -9.1334     67.2179     54.9882   2.5509622137e+01   5.9437283338e+01    0.1855239    0.1187972 -45.86 0.0005044377    1.606    0.378
       176  -9.8871      2.3420     54.8569   6.1070553004e+01   6.8213023447e+01    0.2569509    0.1532488 -42.29   0.00064876    1.539    0.350
       177  -9.0021    187.2909     54.3484   3.5835862280e+02   3.2504512951e+01    0.1170899    0.1015178   4.76 0.0007027523    1.666    0.400
       178  -9.9817     52.2205     52.6031   3.1168925347e+01   6.2781514542e+01    0.2542594    0.1901801  17.81 0.0006191173    1.540    0.351
       179 -11.5407     57.0657     50.1735   2.7940113652e+01   6.2381569604e+01    0.7156168    0.4055274  54.18 0.0009473144    2.029    0.507
       180 -10.2936     61.6198     46.6039   2.4455971589e+01   6.2183238982e+01    0.4355443    0.2525218 -27.81  0.001781349    2.320    0.569
       181 -11.1581    247.1806     52.8559   3.5261347921e+02   2.1796935363e+01    0.1982803     0.150919 -68.60  0.001490379    1.263    0.208
       182  -9.5663    201.9457     52.9451   3.5644724401e+02   2.9770518551e+01    0.1765508    0.1520683  12.84  0.001125733    1.750    0.428
       183 -10.8286     32.3478     52.4039   4.1561672016e+01   6.5964823832e+01    0.4552561    0.2600152  14.37  0.001297015    2.147    0.534
       184 -10.7566     46.9295     48.5028   3.2113532289e+01   6.4555342752e+01    0.3969294     0.238127  22.55  0.001484471    2.048    0.512
       185 -12.2114     40.8745     44.2421   3.3510270974e+01   6.6440803621e+01     1.386818     0.391682  36.27   0.00380416    3.504    0.715
       186 -10.5649     20.6993     45.2482   4.6093541966e+01   6.9011518515e+01    0.4410812    0.2210755 -45.29  0.001116452    1.912    0.477
       187 -10.8668     26.4950     42.6546   4.1339798331e+01   6.8885847932e+01    0.3383052    0.2917734  68.32 0.0008642469    1.447    0.309
       188 -10.3099     23.4064     37.3491   4.1133350219e+01   7.0406459661e+01    0.4652166    0.2122325  42.95  0.001671034    2.501    0.600
       189 -10.7268     13.8836     45.8443   5.0868462177e+01   6.9562236484e+01    0.7262691    0.2203737 -40.95  0.002415071    3.708    0.730
       190 -11.3238     18.2557     40.3952   4.5902817080e+01   7.0357862356e+01    0.3441331    0.2302749 -35.16  0.001089061    1.480    0.324
       191  -9.8492    146.0745     48.2307   2.3244454986e+00   4.2464859260e+01    0.2526899    0.1781642   1.48  0.001091163    2.513    0.602
       192 -10.0317      2.0292     47.4183   5.9561373461e+01   7.0049393465e+01    0.3760341    0.2194678 -79.31  0.001851045    1.867    0.465
       193 -10.2726    112.4726     50.4837   9.6313296112e+00   5.0076789320e+01    0.3181396    0.2556085  75.69  0.001107164    1.226    0.184
       194  -9.3567    139.1991     43.8035   2.1114689343e+00   4.4724742205e+01    0.2166795    0.1543789  28.78  0.001047516    2.125    0.529
       195 -10.0233    155.9217     42.1764   3.5908837712e+02   4.1054070985e+01    0.2728747    0.1884411 -32.03 0.0009071133    1.539    0.350
       196 -10.4141    144.9982     41.3963   4.4841076047e-01   4.3698589405e+01    0.3612694    0.1820016 -35.26  0.001644557    1.960    0.490
       197 -10.2133     56.8179     41.6821   2.4440288957e+01   6.4048946852e+01    0.2641101    0.2196907  55.56 0.0005749025    1.237    0.191
       198 -10.4753      9.1240     29.7816   4.8407558625e+01   7.3561234095e+01     0.520476    0.3386874   2.36  0.002577765    1.585    0.369
       199  -9.7197      1.6568     38.6869   5.7475048987e+01   7.2133147203e+01    0.2139626    0.1446516  -9.65 0.0006888567    1.480    0.324
       200 -10.5445      3.2933     35.2200   5.5115359544e+01   7.2824308430e+01    0.6010999    0.3965797  86.15  0.003098588    2.087    0.521
       201 -11.0699    249.4718     38.6956   3.4972063940e+02   2.3158919130e+01    0.2310123    0.1453108 -64.35 0.0005748295    1.382    0.276
       202 -11.2736     79.0638     35.3734   1.3062403917e+01   6.0326099574e+01    0.6362966    0.4628395 -45.99  0.003300926    1.459    0.314
       203 -11.0075    228.0237     37.4094   3.5083948453e+02   2.6929552829e+01    0.3384997    0.1575579  68.73  0.001923788    2.446    0.591
       204 -10.0010     60.5149     36.9544   2.0687265372e+01   6.4135134389e+01    0.2605878     0.205752 -45.85 0.0005928442    1.353    0.261
       205 -10.6413     63.5096     33.3381   1.7774827676e+01   6.4100309227e+01    0.8764873    0.2195614  45.32  0.002668445    3.939    0.746
       206 -10.7506    153.3146     35.5185   3.5751933918e+02   4.2551857134e+01    0.2607212    0.2221432  74.73 0.0005904368    1.197    0.164
       207  -9.3894     99.9615     36.3169   7.5010942537e+00   5.5254927101e+01    0.2023733    0.1708832  66.73 0.0006240834    1.107    0.096
       208 -10.3156    175.9353     34.5074   3.5458177621e+02   3.7590694697e+01    0.3327718    0.1842247 -65.70  0.001047392    1.790    0.441
       209 -11.3470    175.4682     29.7400   3.5338187669e+02   3.8287000588e+01    0.5822312    0.2567722  61.81  0.002776491    2.352    0.575
       210 -10.5192    131.6743    240.8138   4.5799094594e+01   7.4509174465e+00    0.2117907     0.141936  13.31 0.0009021693    1.322    0.243
       211 -10.1989     68.0050    239.7945   6.0013534577e+01   1.4719179853e+01    0.1726686    0.1303802 -32.23 0.0008962533    1.627    0.385
       212 -11.4305    107.1180     31.4559   3.9896821065e+00   5.4195313776e+01    0.4893997    0.3214684  19.87  0.001670225    2.543    0.607
       213 -10.1194    149.9930    237.0150   4.1517200923e+01   6.0362554008e+00     0.147556    0.1209993   2.83 0.0006584899    1.018    0.018
       214  -9.2341    177.3248    236.3124   3.6087172832e+01   3.2029821818e+00    0.1201259   0.07259582  -9.19 0.0002834201    1.660    0.398
       215 -11.2667    240.2844     32.2983   3.4901431648e+02   2.5421026101e+01     0.239405    0.2000475 -11.29  0.001335945    1.776    0.437
       216  -9.9041    217.0816     31.9080   3.5042873498e+02   2.9583149753e+01     0.182876    0.1178863 -57.15 0.0003489197    1.215    0.177
       217 -10.0083    143.6546    235.3156   4.2600999494e+01   7.0218912562e+00    0.1156406   0.08739684  47.83  0.000433918    1.718    0.418
       218 -11.1486     47.2047     30.7629   2.3869696533e+01   6.7832802124e+01    0.7345161    0.3200737  38.69  0.002275545    2.310    0.567
       219  -8.9147    199.6708    234.6701   3.1841097756e+01   1.1820426848e+00    0.1178902   0.06740369 -10.63 0.0007051523    1.713    0.416
       220  -9.3766     15.4801    233.5388   7.2028632841e+01   2.1096291427e+01    0.1237606   0.09812289  46.61  0.000100008    1.005    0.005
       221  -9.2887     23.5262    231.5128   7.0036280235e+01   2.0816581798e+01    0.1255378     0.100932  46.00 0.0001742174    1.008    0.008
       222 -10.8359    188.9086     27.9537   3.5169401751e+02   3.5630102906e+01    0.3223523    0.2575457   0.76  0.001517567    1.946    0.486
       223 -10.9078    200.5767     26.1770   3.5033537493e+02   3.3454392977e+01    0.3659432    0.1734324 -23.06  0.001471826    2.824    0.646
       224  -9.1270    196.6648     28.7206   3.5123795420e+02   3.3941328261e+01    0.1054708   0.09310549  41.90 0.0007003488    1.612    0.380
       225 -11.1955    183.1896     25.9173   3.5167991274e+02   3.7079481391e+01    0.3464435    0.1969509 -51.58  0.001933311    1.457    0.314
       226 -10.9942    143.4165     25.3446   3.5576606943e+02   4.6153312601e+01    0.6961129    0.3278696 -77.01  0.002775752    2.854    0.650
       227 -10.0163    151.5056     26.9870   3.5524413272e+02   4.4048532833e+01    0.3640253    0.1802405  47.33  0.001598977    2.684    0.627
       228  -9.8958    155.5294     24.5320   3.5405333479e+02   4.3405704737e+01    0.2245945     0.185693 -77.89 0.0007518385    1.045    0.043
       229 -11.3680    149.5867     22.6218   3.5417479968e+02   4.5015196318e+01    0.6301754    0.2800838  72.52  0.001339555    2.133    0.531
       230 -11.0828    230.3539     26.6146   3.4845019908e+02   2.7792745768e+01    0.1959803     0.184262 -69.76   0.00128639    1.376    0.273
       231  -9.2323    190.2703    229.3767   3.2742345608e+01   2.8791772113e+00    0.1198019   0.06996892 -15.21 0.0006995695    1.686    0.407
       232 -10.1986    206.0764     25.2387   3.4971897011e+02   3.2475030813e+01     0.191631    0.1363205 -50.18 0.0004295987    1.119    0.106
       233  -9.5870     97.1331     25.8374   4.0409041910e+00   5.7363035966e+01    0.2124413    0.1768909 -83.21 0.0009240266    1.203    0.169
       234 -10.6988    169.4269     23.2535   3.5224632967e+02   4.0394955956e+01    0.2733148    0.1890515 -55.34  0.000421707    1.228    0.186
       235  -9.9006    233.5951    226.7914   2.5217006952e+01  -9.3183867026e-01    0.1378689   0.08335274 -38.99  0.000952287    1.668    0.401
       236  -9.5468    153.0132    218.9969   3.8441540163e+01   8.6909625659e+00    0.1527628    0.1271643   4.49 0.0005901839    1.027    0.026
       237 -10.0213     10.1975    217.8360   7.2685956018e+01   2.4929410820e+01    0.1580868    0.1442736 -59.02 0.0008120404    1.337    0.252
       238 -10.4590    177.1887     21.8462   3.5116175710e+02   3.8846686918e+01    0.2776822     0.228439  23.64 0.0009825885    1.853    0.460
       239 -10.8197    181.9526     18.8317   3.4998994366e+02   3.8158386696e+01    0.2951606    0.2202077  61.57  0.001079527    1.574    0.365
       240 -10.4058     69.0081     20.2476   9.4215323500e+00   6.4758509806e+01    0.3723326    0.2845737 -34.27  0.001774043    1.424    0.298
       241  -9.5174     32.2376     21.0014   2.7015847248e+01   7.2164718757e+01     0.234102    0.1850606 -48.17 0.0003871783    1.444    0.308
       242 -10.0248     38.7091     21.3783   2.3379182066e+01   7.0955708470e+01     0.217835    0.2043434 -51.59 0.0007555325    1.242    0.195
       243  -8.5851    123.7226    206.2689   4.3058689297e+01   1.4726727740e+01    0.1222447   0.09816083  53.35 0.0006883148    1.485    0.326
       244  -9.3461     13.9084     22.5468   4.1111488273e+01   7.4538191071e+01    0.1899961    0.1173293  24.61 0.0006629291    1.548    0.354
       245 -10.1117    238.0798    204.3316   2.1168543349e+01   1.6027969128e+00    0.1893649    0.1653115 -63.23  0.001403537    2.187    0.543
       246 -10.1165     17.3940    205.2252   7.0282511800e+01   2.7212998266e+01     0.186541    0.1078609  76.45 0.0004710882    1.714    0.417
       247 -11.4740      5.9019    199.3188   7.3051313086e+01   2.9548852055e+01    0.5199864    0.1744426 -65.32  0.002106446    3.028    0.670
       248  -8.9054    213.5085    203.5041   2.4828828887e+01   4.2242768961e+00    0.1146447    0.0889007 -16.41 5.719234e-05    1.017    0.017
       249  -9.0674    190.5853    203.4497   2.8760118745e+01   6.8059833013e+00    0.1192695   0.09654486 -13.86 0.0001414387    1.011    0.011
       250  -9.0982     28.6779    202.7053   6.7137376197e+01   2.6792454255e+01    0.1270717   0.09920967 -30.46 0.0003169319    1.616    0.381
       251 -10.2188    234.0435    196.6040   2.0541643722e+01   3.0618506253e+00     0.187947    0.1252885 -37.36  0.001073974    1.375    0.273
       252 -10.4725    247.3255    194.3051   1.8283766720e+01   2.0558321382e+00    0.2837897     0.187652 -59.58  0.001586525    3.512    0.715
       253  -9.7921    216.6898     19.9258   3.4784744582e+02   3.1042586008e+01    0.1684639    0.1146883 -50.45 0.0005602321    1.118    0.105
       254  -9.2603    172.2424    190.0041   3.0015234531e+01   1.1349225460e+01    0.1641752   0.09816627 -42.05 0.0006944212    1.574    0.365
       255  -9.1625    180.3199    187.6820   2.8061220582e+01   1.0695521189e+01     0.111615    0.1020055  88.22 0.0007041947    1.662    0.398
       256  -9.7981     53.5968     21.6954   1.6117575920e+01   6.7961414598e+01    0.2543429    0.1455505  41.97  0.000915142    1.667    0.400
       257 -11.8064      6.4464    185.8566   7.2320988993e+01   3.2797271024e+01    0.4264704    0.3330078  69.21  0.002469702    1.133    0.118
       258 -11.8401      2.7026    182.3746   7.3227900229e+01   3.3944229129e+01    0.6112709    0.3056337 -56.42  0.002831099    2.223    0.550
       259  -8.8487    139.7027    182.6962   3.5685312836e+01   1.7263693809e+01    0.1383216   0.09938154 -14.13 0.0004660845    1.583    0.368
       260 -10.6861    249.2595    175.3394   1.4950437335e+01   4.4451697031e+00    0.3271016    0.1604506 -45.40  0.001915098    2.030    0.507
       261  -9.3784    146.6015     16.2401   3.5258830631e+02   4.6432890808e+01    0.1612306    0.1252535 -20.23 0.0007075009    1.579    0.367
       262 -10.5002    186.6821     14.9932   3.4866994352e+02   3.7574608007e+01    0.2288311    0.1533215 -77.87 0.0008409325    1.314    0.239
       263  -9.9999     51.2707    171.5905   5.7911216302e+01   3.2183424258e+01    0.4699545    0.2275048  82.38  0.001677207    3.036    0.671
       264  -9.7155     39.4964    173.0395   6.1656158535e+01   3.3114826869e+01    0.2136558    0.1375784 -77.22 0.0007215811    1.564    0.361
       265  -9.2369    170.6577    171.7027   2.7118426458e+01   1.4893025470e+01    0.1357711   0.09432993  -9.90 0.0004408243    1.666    0.400
       266  -9.3238    245.3063    169.6355   1.4519913643e+01   5.6671977029e+00    0.1039133    0.0765562 -51.68 0.0007037712    1.743    0.426
       267 -12.1072      9.2810    166.6967   7.0480427971e+01   3.7510372646e+01     1.003634    0.2670849  25.11  0.003564727    3.158    0.683
       268 -12.3839     13.2220    160.3594   6.8830117525e+01   3.8897518808e+01    0.6900673    0.4507185 -24.44   0.00230386    1.984    0.496
       269 -12.0758     22.6965    149.0862   6.4767267574e+01   4.1179733137e+01    0.8883694      0.43852 -31.45  0.003084476    2.949    0.661
       270 -10.4859     16.5288    147.4877   6.6741313813e+01   4.2135704283e+01    0.3377053     0.207387 -65.20  0.001312363    1.560    0.359
       271 -10.1902    157.1215    165.8815   2.8823558616e+01   1.8030307935e+01    0.1981333    0.1874011 -71.80 0.0007003219    1.270    0.213
       272 -10.4689     18.3693    164.9641   6.7521781070e+01   3.7251579336e+01    0.3385699    0.2275155 -48.69  0.001630772    1.662    0.398
       273  -8.9944     56.3013    165.6901   5.5651146818e+01   3.3117071328e+01    0.1555899     0.102913  59.99 0.0007014336    1.604    0.376
       274 -10.4975    205.0190    163.1420   1.9325635438e+01   1.1575611116e+01    0.2216332    0.1525825 -36.14 0.0008604181    1.217    0.179
       275 -11.1517     28.2159    161.5427   6.4096784043e+01   3.7289451749e+01    0.4933098    0.2678109 -70.51  0.001885379    1.771    0.435
       276 -10.9484    215.3610    160.9641   1.7285071696e+01   1.0558910109e+01    0.2437776    0.1713704  16.14 0.0009868564    1.669    0.401
       277 -10.3730    223.0436    156.1966   1.5266098301e+01   1.0315115013e+01    0.1683342     0.140075 -82.14  0.001092211    1.992    0.498
       278 -10.9543      9.3362    155.1964   6.9741925359e+01   4.0578809994e+01    0.2716681    0.2227546  51.08   0.00108311    1.141    0.124
       279 -10.2860    104.4345    154.2042   3.9490571345e+01   2.9068991635e+01     0.319043    0.2839604 -63.60  0.001710847    1.153    0.133
       280 -10.9538      4.0103    153.2657   7.1372827137e+01   4.1466849981e+01    0.3564655    0.1695642  37.88  0.001297564    1.922    0.480
       281  -9.7079    240.5312    152.5376   1.2190579668e+01   8.6852290985e+00    0.1147622    0.0867895 -32.00 8.285811e-05    1.031    0.030
       282 -10.3208     45.4542    149.6326   5.7075873019e+01   3.8708227418e+01    0.4210257    0.3328674 -60.33  0.002152905    1.268    0.211
       283 -10.4218     47.4422    145.3250   5.5815357744e+01   3.9649719736e+01    0.3280723    0.2602627  39.44  0.001244789    1.230    0.187
       284 -11.0923     10.7311    126.5859   6.6987947855e+01   4.8371849792e+01    0.8399152    0.4170038 -64.65  0.003078053    1.826    0.452
       285 -12.1062      4.0778    142.0761   7.0655299114e+01   4.4510825824e+01    0.8377029    0.4488229  47.10  0.002777096    1.775    0.437
       286 -11.6183     11.0657    136.6922   6.7759968767e+01   4.5532097301e+01    0.7140423    0.3489166 -44.39  0.002939255    2.307    0.566
       287 -11.1550     33.0346    143.8605   6.0626538617e+01   4.1644597770e+01    0.3071199    0.2942261  74.66 0.0006784644    1.037    0.035
       288  -9.8333    204.0000    141.0389   1.5292819962e+01   1.5421925101e+01    0.2130517   0.06119224 -41.44 0.0007978926    2.911    0.656
       289 -11.0177     40.4664    138.1195   5.7253719908e+01   4.2440968659e+01    0.4309542    0.2943347 -79.81 0.0009648493    1.464    0.317
       290  -9.9752     39.7451    133.0974   5.6803590043e+01   4.3914699910e+01    0.2747603    0.2326079 -20.47 0.0003712426    1.358    0.263
       291 -10.0222    228.1760    139.9778   1.1549211734e+01   1.2158643362e+01    0.1962316    0.1181143 -55.87  0.001082991    2.066    0.516
       292 -11.5837     30.2005    132.6174   6.0270058120e+01   4.5053540349e+01    0.6696793    0.5041744 -60.73  0.002346239    1.292    0.226
       293  -9.6914    104.5422    130.0857   3.4551667722e+01   3.4895853129e+01    0.2207258    0.2062912  31.50 0.0004863535    1.103    0.094
       294  -9.1769     62.2328    130.3933   4.8242814954e+01   4.1776694109e+01    0.2296741    0.1347178  40.59 0.0009599859    1.676    0.403
       295 -11.2032     24.7489    135.9727   6.2687352127e+01   4.4630730650e+01    0.6336118    0.3393515 -37.30  0.002578264    2.301    0.565
       296 -10.5619     20.4838    133.9638   6.4040391941e+01   4.5563333405e+01    0.3467155      0.31002 -72.89  0.001144297    1.084    0.077
