#   1 NUMBER                 Running object number                                     
#   2 MAG_AUTO               Kron-like elliptical aperture magnitude                    [mag]
#   3 X_IMAGE                Object position along x                                    [pixel]
#   4 Y_IMAGE                Object position along y                                    [pixel]
#   5 X_WORLD                Barycenter position along world x axis                     [deg]
#   6 Y_WORLD                Barycenter position along world y axis                     [deg]
#   7 A_WORLD                Profile RMS along major axis (world units)                 [deg]
#   8 B_WORLD                Profile RMS along minor axis (world units)                 [deg]
#   9 THETA_WORLD            Position angle (CCW/world-x)                               [deg]
#  10 FWHM_WORLD             FWHM assuming a gaussian core                              [deg]
#  11 ELONGATION             A_IMAGE/B_IMAGE                                           
#  12 ELLIPTICITY            1 - B_IMAGE/A_IMAGE                                       
         1 -16.6448    141.0183     43.9339   3.9169463125e+01   4.3534164761e+01     10.11934     4.380326 -34.21   0.04688385    2.350    0.575
         2 -16.7787    238.5312    163.0323   5.0791853181e+01   2.4274553266e+00     6.668764     4.502364 -25.39   0.03381235    1.648    0.393
         3  99.0000    204.3914      8.0082   2.2352752521e+01   3.4413326492e+01    0.3017847    0.1658007  69.68  0.001791898    1.613    0.380
         4 -10.1725    225.3961      7.1794   2.0393995320e+01   3.0378949411e+01    0.1013297    0.0669442  62.88 0.0004261443    1.600    0.375
         5 -10.5690     89.7647      7.2032   3.8144775525e+01   5.7083096068e+01     0.152595    0.1050922  31.12 0.0004247261    1.309    0.236
         6 -18.4835    235.7255     60.8737   2.9827219557e+01   2.1484246727e+01     5.227489     3.118185 -40.14   0.02907259    1.618    0.382
         7 -10.6065    230.8032      1.2747   1.8904269768e+01   2.9959172135e+01    0.1342395   0.07727516  70.92 0.0003906981    1.594    0.373
         8 -13.0674    171.3936    123.7048   5.4051082734e+01   2.3463742731e+01    0.5651371    0.3742411 -74.28  0.002000485    2.113    0.527
         9 -10.0455     95.2592    124.5853   7.1756524060e+01   3.7976410395e+01    0.1785708    0.1444439  19.91  0.000424713    1.487    0.327
        10 -12.5096    143.2057    121.8670   5.9530168612e+01   2.9641359288e+01    0.5288086    0.3179584  69.73  0.002028419    2.696    0.629
        11 -10.1707    227.1161    122.5237   4.3986833496e+01   1.2456607613e+01     0.180815    0.1417849  63.07 0.0006078524    1.487    0.327
        12  -9.8047    218.4393    122.5403   4.5352269779e+01   1.4131896248e+01    0.1473704    0.1212931 -56.88  0.000805148    1.071    0.066
        13 -10.1818    196.4913    126.4483   4.9960199078e+01   1.7730796522e+01    0.2644707    0.1220065 -52.76 0.0006708999    2.163    0.538
        14 -13.4373    227.2416    100.8271   3.9265199677e+01   1.6507644905e+01    0.7078799    0.5402783  87.47  0.003975684    1.459    0.314
        15 -12.5810    166.2487    116.7640   5.3383676376e+01   2.5978271922e+01    0.6930299    0.4830473  21.55  0.003034585    2.204    0.546
        16  -9.9473    227.3338    117.6564   4.2897350166e+01   1.3350975004e+01    0.2449602    0.2215131  12.96 0.0008577723    1.490    0.329
        17 -11.0761    187.7279    114.0346   4.8626975681e+01   2.2043757229e+01    0.5882857    0.2548917 -59.12  0.001858071    3.569    0.720
        18  -9.8319    191.6542    112.3037   4.7515690165e+01   2.1569274582e+01    0.2482699     0.133537 -46.60 0.0007203742    1.653    0.395
        19 -10.8841    192.8307    109.1354   4.6561994745e+01   2.1943976154e+01     0.290208    0.1796264 -51.83 0.0004888354    1.485    0.327
        20 -12.0641    189.1129    108.4308   4.7046528034e+01   2.2857154823e+01    0.4425799    0.3271558 -42.51  0.001301039    1.246    0.197
        21 -10.0246    232.7081    116.3017   4.1806021071e+01   1.2580686311e+01    0.1934734     0.160048  29.25 0.0006307256    1.690    0.408
        22 -10.8140    205.6929    110.0415   4.4602961623e+01   1.9113445337e+01    0.3642362    0.2233347  42.85  0.001603974    2.044    0.511
        23 -13.3521    172.6134    149.8969   5.9982145346e+01   1.7524052845e+01    0.5765738    0.3390268 -51.97  0.002472933    1.584    0.369
        24 -10.4992    177.9370    110.5675   4.9595686123e+01   2.4782427843e+01    0.2512349    0.1918173 -31.86 0.0006577964    1.389    0.280
        25 -10.7832    214.6088     92.9059   3.9346062849e+01   2.0462638737e+01    0.2300941    0.1367784 -50.48 0.0006867724    1.474    0.321
        26 -14.2029    178.8720    140.9206   5.6650032330e+01   1.8245690173e+01    0.8728542    0.7755547  86.33  0.004666909    1.253    0.202
        27 -11.5167    175.8495     69.9711   3.9967275439e+01   3.2492950620e+01    0.3190432    0.2271571 -62.56  0.000926721    1.468    0.319
        28 -14.3534    167.9757     87.2097   4.5650853583e+01   3.1292253401e+01    0.6638167    0.6044207  -6.63  0.001895642    1.304    0.233
        29 -12.6475    158.4485     66.7368   4.2127096826e+01   3.6709486878e+01    0.4797216    0.2416454 -29.60 0.0004629287    2.299    0.565
        30 -12.4358    133.2316    144.1490   6.7210412035e+01   2.6594265172e+01     1.409897    0.3124462 -53.22   0.00304144    6.264    0.840
        31 -12.8522    182.0819     67.3618   3.8332748917e+01   3.1568924798e+01    0.3687899    0.2081483 -41.37  0.001234272    1.683    0.406
        32 -10.9575    204.7431     65.0800   3.4508731333e+01   2.7127249910e+01    0.2202763    0.1825627 -62.96 0.0007370482    1.062    0.059
        33 -10.6340    192.6077     63.6802   3.5880657971e+01   2.9894081839e+01    0.3345087    0.1206572 -37.27  0.001326161    2.718    0.632
        34 -10.9505    197.1802     61.1249   3.4645814752e+01   2.9312544197e+01    0.4420614    0.1918464 -31.38  0.001825329    2.803    0.643
        35 -11.1658    198.7682     54.7619   3.2985080293e+01   2.9908460520e+01    0.2839671    0.1745064 -31.28  0.001273936    1.853    0.460
        36 -11.8634    185.9590     61.9735   3.6450576364e+01   3.1562503732e+01    0.2745486    0.1757606 -41.08  0.001458967    1.507    0.336
        37  -9.5932    192.6371     58.2694   3.4619762042e+01   3.0692930602e+01    0.1346833   0.09073533 -76.21 0.0006995943    1.652    0.395
        38 -12.1428    171.6268    174.5235   6.5648266500e+01   1.2188875499e+01    0.5108628    0.2087029 -54.34   0.00174429    2.644    0.622
        39 -11.9714    205.9833     48.8365   3.0754295523e+01   2.9236536965e+01    0.2840843    0.2160709 -83.62 0.0004837392    1.242    0.195
        40 -11.7434    198.3889     47.9227   3.1497373613e+01   3.0942437995e+01    0.2224931    0.1950585 -79.81 0.0005526273    1.020    0.020
        41 -10.7373    211.4212     42.8814   2.8834023164e+01   2.8923744897e+01    0.1968398    0.1550673  57.17 0.0005477429    1.443    0.307
        42  -9.5313    171.2786     43.2830   3.4105954228e+01   3.7270403148e+01    0.1156605   0.09478334  31.39 0.0001744889    1.510    0.338
        43 -12.5643    143.9940    146.1134   6.5228146449e+01   2.4054642058e+01    0.7078752    0.3246574 -61.85  0.002219574    3.286    0.696
        44 -14.5024      4.1834    156.6039   1.0100562113e+02   4.1377612766e+01     2.543929    0.6194149 -70.86  0.008493655    3.880    0.742
        45 -11.4122    182.9725     35.8444   3.0724345779e+01   3.5730580917e+01     0.211431    0.1666981 -32.16  0.000496949    1.420    0.296
        46 -15.2026     16.8315    152.0458   9.7404029552e+01   4.1398233027e+01     1.176016    0.7612461 -72.81  0.003537285    1.273    0.215
        47  -9.5066    189.5784     36.4719   3.0029209210e+01   3.4270783701e+01      0.19394    0.1491515  31.53    0.0010536    1.818    0.450
        48 -11.3598    192.9840     33.8876   2.9033212550e+01   3.3877001473e+01     0.210197    0.1643624 -32.72 0.0005384301    1.454    0.312
        49 -13.4409     45.0694    142.4504   8.8762506292e+01   4.0839058787e+01    0.3975402    0.3509243  -2.92 0.0009195198    1.432    0.302
        50 -15.7381     56.7373    138.5551   8.4979789933e+01   4.0366738037e+01     2.087455     1.571273  16.46  0.008752779    1.734    0.423
        51 -11.4971    203.6559     18.9525   2.4653333082e+01   3.3410812976e+01    0.3139475    0.2179114  70.36  0.001208248    1.331    0.249
        52  -9.4089    195.5116     28.0628   2.7456815617e+01   3.4045535132e+01    0.2145756    0.1365938 -36.31 0.0008215138    1.661    0.398
        53 -10.0512    195.2563     24.6781   2.6750841483e+01   3.4486034159e+01    0.1164105    0.1020666 -85.39 0.0002923824    1.050    0.048
        54 -10.9046    198.4808     22.7852   2.5993981014e+01   3.4038132603e+01    0.2724744    0.1833607 -14.82  0.001577276    2.292    0.564
        55 -11.3483    206.8687     25.6140   2.5706068868e+01   3.2006390910e+01    0.2629414    0.1455216 -44.35 0.0008662163    1.708    0.414
        56 -12.6211    142.0562    132.0767   6.2312403268e+01   2.7629126055e+01    0.5432725    0.3452499 -64.24  0.002293785    1.869    0.465
        57 -11.6291    190.2369    139.7701   5.4184775563e+01   1.6207953267e+01    0.3138387    0.2517465 -72.16  0.001589111    1.371    0.271
        58  -9.6379    189.3534     15.2598   2.5355305847e+01   3.6711425718e+01    0.1106611   0.07890137  48.79 0.0006973098    1.613    0.380
        59 -11.4367    208.7943    211.5411   6.5887153495e+01  -2.1474466649e+00     0.214621    0.1789627 -55.29 0.0006417385    1.314    0.239
        60 -11.0559    189.7293    131.6976   5.2414622357e+01   1.8016405202e+01    0.3682287    0.2682373  76.70  0.001740165    1.779    0.438
        61 -10.9727    218.6835    128.9514   4.6730325590e+01   1.2817813008e+01    0.2139709    0.1985883 -69.76 0.0004709863    1.127    0.113
        62 -10.6620    182.4328    118.4289   5.0649567364e+01   2.2261582753e+01    0.2255192    0.1443895  52.16 4.900065e-06    1.732    0.423
        63 -12.8045    185.3219    124.9399   5.1655815158e+01   2.0326312499e+01    0.6655547    0.5594289 -18.33  0.002715347    1.429    0.300
        64 -13.3255    161.0498    128.2256   5.7256334350e+01   2.4634142724e+01    0.5166144    0.4962362 -83.12  0.001732193    1.101    0.092
        65  -9.8382     47.5371    172.5111   9.3360722000e+01   3.3196631358e+01    0.1402175    0.1124316 -67.12 5.536917e-05    1.029    0.028
