#   1 NUMBER                 Running object number                                     
#   2 MAG_AUTO               Kron-like elliptical aperture magnitude                    [mag]
#   3 X_IMAGE                Object position along x                                    [pixel]
#   4 Y_IMAGE                Object position along y                                    [pixel]
#   5 X_WORLD                Barycenter position along world x axis                     [deg]
#   6 Y_WORLD                Barycenter position along world y axis                     [deg]
#   7 A_WORLD                Profile RMS along major axis (world units)                 [deg]
#   8 B_WORLD                Profile RMS along minor axis (world units)                 [deg]
#   9 THETA_WORLD            Position angle (CCW/world-x)                               [deg]
#  10 FWHM_WORLD             FWHM assuming a gaussian core                              [deg]
#  11 ELONGATION             A_IMAGE/B_IMAGE                                           
#  12 ELLIPTICITY            1 - B_IMAGE/A_IMAGE                                       
         1 -12.9316    198.4844     34.8244   5.9174208408e+01   3.1120012409e+01     1.201186      1.04561  17.87  0.006635851    1.321    0.243
         2 -13.6938    214.4523     17.7249   5.2489968996e+01   2.9120381449e+01      1.41658       1.0158  29.80  0.007356819    1.793    0.442
         3 -10.5494      2.0946      4.7818   1.0818182303e+02   7.3540290265e+01      0.35881   0.08685312 -49.22  0.001634989    2.851    0.649
         4 -10.5128    162.1340    249.0326   1.1294379114e+02   3.5956892260e+00    0.1891489    0.1461673 -45.51  0.001354439    1.693    0.409
         5 -11.9299    139.9414    248.4298   1.1676198230e+02   7.0537978652e+00    0.3792173    0.2952308  76.31  0.002692586    1.549    0.354
         6 -12.5377    124.9264    248.3243   1.1938118655e+02   9.3099718012e+00    0.5789894    0.3332557  44.28   0.00366617    1.329    0.247
         7 -10.9018    101.0299    249.5138   1.2363812558e+02   1.2565854274e+01    0.2373089    0.1395558  67.92  0.001270462    1.779    0.438
         8 -12.6854    104.7786    241.3129   1.2223696582e+02   1.3304734924e+01    0.6834037    0.3711627  67.46  0.003853691    2.151    0.535
         9  -9.7930     62.8291    250.3530   1.3012422853e+02   1.7453707553e+01    0.1728666   0.09099866  55.99  0.000606321    1.424    0.298
        10 -14.0717      9.5191    209.1108   1.3673463885e+02   3.0402667595e+01     2.173165     0.785186 -85.03   0.01028088    2.443    0.591
        11 -14.7208     97.5933    230.4518   1.2248838969e+02   1.6094069161e+01     4.204679     0.572421  41.23  0.006208343    5.035    0.801
        12 -15.1013      7.3223    146.4653   1.3332469187e+02   4.3250291638e+01     6.389477     1.364706 -81.14   0.02087806    5.254    0.810
        13 -10.9016    150.2832    228.2120   1.1248266048e+02   8.3833396985e+00    0.2845419    0.1369777  41.99  0.001489332    1.672    0.402
        14  -8.8174     95.5118    219.4890   1.2178161330e+02   1.8274925961e+01    0.1188778   0.09606714  59.09 1.640543e-06    1.016    0.016
        15 -12.9147     28.3697    184.5414   1.3175076106e+02   3.3368059977e+01     1.286722    0.4946967  71.80 0.0005458854    3.176    0.685
        16 -11.4199     95.4312    246.8643   1.2437103256e+02   1.3749799671e+01    0.3737788    0.2317692 -40.17  0.002212094    2.947    0.661
        17 -10.9620     90.0014    245.9108   1.2522541210e+02   1.4642218856e+01    0.2551358    0.1004436  51.68  0.001139329    2.041    0.510
        18 -10.4970    225.6467    200.4194   9.4269834072e+01  -2.3615190595e-01     0.363868    0.2505511 -57.13  0.001367084    2.702    0.630
        19  -9.7789     48.9211    237.8371   1.3162625268e+02   2.1168206978e+01    0.1906556    0.1222524  71.59  0.001118211    1.255    0.203
        20 -11.4326     58.0854    191.9929   1.2640149167e+02   2.8536012376e+01    0.3146633    0.2282899 -50.15 0.0006661083    1.807    0.447
        21  -8.8619    192.3124    193.6377   9.9188574476e+01   6.4851458859e+00    0.1245058      0.10436  79.02 0.0007041049    1.753    0.430
        22  -8.4018    181.4933    192.4534   1.0107441476e+02   8.6163880009e+00    0.1332541    0.1154467  30.85 4.721115e-05    1.007    0.007
        23 -11.6203     64.3439    184.6299   1.2437648355e+02   2.9245101276e+01    0.2594432    0.2266541 -59.68 0.0004539609    1.385    0.278
        24  -8.5050     42.0215    179.9639   1.2859883652e+02   3.2873132119e+01    0.1392926    0.1114398  72.00 0.0003687684    1.056    0.053
        25 -10.6994     74.7437    172.9574   1.2078700265e+02   3.0306247852e+01    0.2268417    0.1965016 -79.38 0.0003698425    1.139    0.122
        26 -13.0872     61.4803    170.2019   1.2341273313e+02   3.2642218326e+01    0.4700497    0.2612195 -47.68  0.001804555    2.300    0.565
        27 -11.6482     82.6792    164.4971   1.1786485136e+02   3.1001654356e+01    0.5275469    0.4886014  64.54  0.003430807    1.123    0.110
        28 -14.1368     44.6031    205.3621   1.3016403689e+02   2.7512497586e+01     2.176327    0.8212948  53.99  0.006723382    2.279    0.561
        29 -12.5432     29.8205    223.9003   1.3402540575e+02   2.5710406861e+01    0.2732894     0.253763  59.02 0.0007789019    1.492    0.330
        30  -9.5946     96.3108    149.2486   1.1224052749e+02   3.2267055972e+01    0.2525821    0.2166041  56.74 0.0007608568    1.129    0.114
        31 -12.4383     67.3827    143.9302   1.1856903499e+02   3.7700156205e+01    0.7881431    0.4814972  68.05   0.00340139    1.890    0.471
        32  -8.9297     99.1831    145.3342   1.1084599035e+02   3.2669855069e+01    0.1989407    0.1749352  14.97 0.0005044815    1.400    0.286
        33 -13.8675     36.4727    215.8510   1.3238188042e+02   2.6452123188e+01    0.8238631    0.5714647  68.31  0.003362404    1.089    0.082
        34  -9.3767    108.5013    135.3313   1.0660080240e+02   3.3311430520e+01    0.3067247    0.2243616 -18.19  0.001432829    2.045    0.511
        35  -9.5130     68.6645    134.9412   1.1683840796e+02   3.9585619097e+01    0.1889983     0.156237 -76.21 0.0004440096    1.093    0.085
        36 -11.8395     84.5181    148.1158   1.1495347789e+02   3.4346101486e+01    0.2738437    0.2289858 -54.25 0.0007565023    1.254    0.203
        37 -10.3597     95.5190    132.2229   1.0932504498e+02   3.6217259028e+01    0.2401607    0.2315671 -23.11 0.0008344654    1.185    0.156
        38  -9.2373    105.9797    122.5302   1.0455988965e+02   3.6620653339e+01    0.2012515    0.1848957 -61.10 0.0004401681    1.054    0.051
        39 -10.8001     53.3807    118.3599   1.1822401458e+02   4.5331329361e+01     0.336884    0.1200217 -69.16  0.001255205    2.977    0.664
        40  -9.6523    167.6591    112.6525   8.6965550877e+01   2.5962485467e+01    0.2914311     0.256131 -77.14 0.0009349007    1.335    0.251
        41  -9.0059    203.7755    111.3896   7.9268583818e+01   1.7963121927e+01    0.2198274    0.1334013  39.47 0.0009523875    1.736    0.424
        42 -10.8925    243.2528    101.9991   7.0325907597e+01   1.0867329301e+01    0.2633399    0.1759522  35.83  0.001314278    1.677    0.404
        43 -10.7147    242.4460     94.1574   6.8558062854e+01   1.2214882665e+01    0.2726204     0.179089 -68.13  0.001222449    2.307    0.566
        44  -9.4736     53.5084    231.5001   1.3043084211e+02   2.1708785830e+01    0.1615212   0.08755324 -62.87 0.0007255696    2.126    0.530
        45 -10.3252    245.0382    249.2017   9.8957164222e+01  -8.6516396483e+00    0.1598096    0.1168698  48.97  0.001095009    2.011    0.503
        46 -12.4004      7.5098    247.8737   1.3868428189e+02   2.3884434907e+01     1.039306    0.3714741  52.48   0.00685785    1.878    0.467
        47 -10.6281     16.6111     25.4405   1.0883239530e+02   6.8884954023e+01    0.2229948    0.1966569  44.61 0.0006691738    1.618    0.382
        48 -13.8171     14.9841    240.6436   1.3726208094e+02   2.4343124480e+01     2.329977    0.5774661  49.55   0.01292645    2.551    0.608
