#   1 NUMBER                 Running object number                                     
#   2 MAG_AUTO               Kron-like elliptical aperture magnitude                    [mag]
#   3 X_IMAGE                Object position along x                                    [pixel]
#   4 Y_IMAGE                Object position along y                                    [pixel]
#   5 X_WORLD                Barycenter position along world x axis                     [deg]
#   6 Y_WORLD                Barycenter position along world y axis                     [deg]
#   7 A_WORLD                Profile RMS along major axis (world units)                 [deg]
#   8 B_WORLD                Profile RMS along minor axis (world units)                 [deg]
#   9 THETA_WORLD            Position angle (CCW/world-x)                               [deg]
#  10 FWHM_WORLD             FWHM assuming a gaussian core                              [deg]
#  11 ELONGATION             A_IMAGE/B_IMAGE                                           
#  12 ELLIPTICITY            1 - B_IMAGE/A_IMAGE                                       
         1 -13.7237     58.6486    132.1180   9.4607386450e+01   4.2010925062e+01     2.360289    0.9536991 -76.23  0.005436752    6.746    0.852
         2 -13.8070    204.3898     44.3992   3.6061242180e+01   2.9386816255e+01    0.8880759    0.7957549 -50.79  0.003176713    1.221    0.181
         3 -14.1378    215.7958     34.4716   3.2730808827e+01   2.8273585692e+01    0.7705007    0.6757431  51.05  0.002529511    1.516    0.340
         4 -13.1941    245.1597     11.8542   2.6087281089e+01   2.5195159235e+01    0.7536011    0.3600332  70.29  0.004607819    2.062    0.515
         5 -13.1250    243.4959      5.4933   2.5063841248e+01   2.6192930572e+01    0.7264667    0.3633343  67.93  0.004570735    2.043    0.510
         6 -11.3637     56.9338      1.9443   5.1512652727e+01   6.6665411926e+01    0.2093211    0.1639597  52.73  0.000813305    1.342    0.255
         7 -10.4958     47.5198      2.5048   5.5279506759e+01   6.8331560249e+01    0.1201717   0.09294043  26.50 -2.331664e-05    1.019    0.018
         8 -11.0710     87.1005    205.7891   9.8661189101e+01   1.8955779407e+01    0.3578535    0.2077588 -62.54 0.0006344889    1.780    0.438
         9 -11.8992    140.4348    250.1230   9.2230398746e+01   1.6313990439e+00    0.3430013    0.2172128  39.78  0.001721289    1.477    0.323
        10 -17.0911     30.4138    178.0936   1.1012471701e+02   3.3050329872e+01     12.43809     5.100581  66.89   0.04068024    4.040    0.752
        11 -14.2201     54.6286    232.9816   1.0965306533e+02   1.7028670224e+01     0.584022    0.5217789  65.75 0.0008454813    1.044    0.042
        12  -9.9123    157.9395    192.6514   7.8686137725e+01   1.0428758933e+01    0.2026487    0.1873545  17.58 0.0005610329    1.076    0.071
        13 -10.2357     65.2666    191.7523   1.0242810230e+02   2.5485175787e+01    0.2451545    0.1990725  72.75 0.0005160265    1.252    0.201
        14 -11.6235    116.0574    186.1884   8.7949957289e+01   1.9122040079e+01    0.3633094    0.2302079 -65.29  0.001553081    1.838    0.456
        15  -9.8129    145.4697    183.4975   7.9914554792e+01   1.4634830523e+01    0.1511127    0.1452568  -3.53  0.000119801    1.034    0.033
        16 -10.5733     99.3661    180.9161   9.1489740571e+01   2.3192195135e+01    0.2774258    0.2229723  21.96 0.0006200384    1.312    0.238
        17  -9.8894    180.0306    175.0357   7.0114579342e+01   1.0341865823e+01    0.2179938    0.1867976 -85.37 0.0005890673    1.637    0.389
        18 -10.9567     86.4506    172.8133   9.3669874281e+01   2.7305651354e+01    0.4448773    0.3028443   5.68  0.001797356    1.989    0.497
        19 -12.9239    119.0911    245.3349   9.6349958596e+01   5.6128361164e+00    0.5543191    0.2730557  47.97  0.002472505    2.181    0.541
        20 -14.6722     70.0420    144.9547   9.3449621375e+01   3.7071498567e+01     3.735578     1.611586  60.21  0.002864496    9.054    0.890
        21 -16.1589      9.6964    208.9818   1.1789865597e+02   2.7350887876e+01     1.829532     1.208739 -79.07  0.005236565    1.338    0.252
        22 -11.1537     45.5960    166.5771   1.0446482221e+02   3.4451045837e+01    0.2835554    0.2201852  67.45 0.0004874679    1.353    0.261
        23 -12.1310     64.8089    170.5470   9.9493609365e+01   3.1025843663e+01    0.4957466    0.3156801 -27.60   0.00182089    2.136    0.532
        24 -12.5368     69.6148    165.8745   9.7344967828e+01   3.1598787479e+01    0.5545153    0.4198093 -43.16 0.0008906203    1.366    0.268
        25 -11.3336    230.3300    167.4814   5.8742412725e+01   3.5012156246e+00    0.2539341    0.1068069 -41.30  0.001094128    2.010    0.502
        26 -10.5894    192.0615    167.2092   6.5916081746e+01   9.8426032843e+00    0.3486488    0.2316649 -43.51  0.001165803    1.405    0.288
        27  -9.8300    110.8109    167.7440   8.5871495229e+01   2.4579552882e+01    0.2161141    0.1846907  73.33 0.0004632297    1.359    0.264
        28  -9.0603    100.7303    162.3239   8.7636584318e+01   2.7691782707e+01    0.1555874     0.122982  78.68 0.0002582647    1.571    0.364
        29 -17.6055     11.2724    240.6198   1.1947911995e+02   2.0126612333e+01     5.672855     2.262128  22.02   0.01626779    3.327    0.699
        30 -12.1961     85.9599    151.1707   8.9758509057e+01   3.3020270777e+01    0.6766859    0.4583647 -21.79  0.002270936    1.955    0.488
        31 -11.4248    133.7173    145.3520   7.4774731175e+01   2.5818114650e+01     1.249009    0.2942894 -53.76  0.002638289    6.407    0.844
        32 -10.0104    174.9425    149.4686   6.5709130470e+01   1.6727698918e+01    0.2209173    0.1514547  42.69 0.0005449283    1.555    0.357
        33 -11.3308     54.3857    147.9877   9.8941254727e+01   3.8352842146e+01    0.3883943    0.2065298 -56.39  0.001652551    1.687    0.407
        34 -10.9581     32.5093    144.0503   1.0520563993e+02   4.1788637902e+01    0.4078945    0.2750975  79.26  0.001972327    1.721    0.419
        35 -10.4076     99.6740    138.6816   8.2911037826e+01   3.3916759448e+01    0.3867722    0.2707573 -37.85  0.001700915    1.476    0.323
        36 -10.0692    102.3549    135.9699   8.1475160403e+01   3.4116993892e+01    0.5033287    0.2153461 -37.09  0.001551796    3.095    0.677
        37 -12.4218     87.8298    136.9318   8.6163465889e+01   3.6407684711e+01    0.3192666    0.2813594 -42.33 0.0004266281    1.095    0.087
        38 -10.9717    105.8996    130.8331   7.9186853971e+01   3.4739752068e+01    0.3790799    0.3580122 -56.56  0.001290668    1.080    0.074
        39 -10.3515    110.2209    129.0032   7.7453025141e+01   3.4367941215e+01    0.3331081     0.226545  23.68 0.0009280511    1.691    0.409
        40 -11.2428     67.1558    126.9538   9.0669105755e+01   4.2191461621e+01    0.3954422    0.2187849 -56.21  0.001648676    1.691    0.409
        41 -10.9214     97.4839    124.5713   8.0228534680e+01   3.7839000499e+01    0.3130841    0.2557133  -9.08 0.0007111281    1.398    0.285
        42 -11.0393    135.6460    130.0340   7.0592254609e+01   2.9032440030e+01    0.3785841    0.1476185 -46.58  0.001245744    2.501    0.600
        43 -10.7411     43.7724    122.2174   9.7721934879e+01   4.6378503400e+01    0.2067765    0.1546535 -35.30 0.0004110318    1.324    0.245
        44 -10.8472    161.2616    118.3432   6.1389550970e+01   2.6194119438e+01    0.5156102    0.3001202 -65.62  0.001864196    2.702    0.630
        45 -10.3571     44.2413    129.5986   9.8970209517e+01   4.4403621643e+01    0.1925667    0.1409677   1.52 0.0006763539    1.613    0.380
        46  -9.9604    107.0138    118.0239   7.5634913239e+01   3.7627172784e+01    0.2288126    0.2190305 -15.33            0    1.023    0.023
        47 -10.4146    231.2461    113.8320   4.7594881604e+01   1.3037502180e+01     0.222211    0.2064313 -43.40 0.0007671167    1.121    0.108
        48 -10.4995     21.9877    114.0195   1.0394546011e+02   5.0524019738e+01    0.2039396    0.1567869  68.44 0.0003324093    1.586    0.369
        49 -13.8927     78.3390    157.5582   9.3292910977e+01   3.2527181601e+01      2.67638    0.9887145  54.43  0.005785668    7.458    0.866
        50  -9.5567    156.1857    111.4254   6.0797799106e+01   2.8740305907e+01    0.2007706    0.1481096  62.84 0.0003258802    1.550    0.355
        51  -9.9042    205.3955    110.1665   5.0808483600e+01   1.8585190269e+01    0.2166434    0.1940658  42.23 0.0006279646    1.279    0.218
        52 -10.9340     28.9686    107.2815   1.0012215475e+02   5.1650918302e+01    0.1913346    0.1727235 -20.72 0.0003531654    1.131    0.116
        53 -13.4842     66.5043    152.8007   9.6019463267e+01   3.5490834832e+01    0.6339153    0.4660092 -11.36  0.001549849    1.737    0.424
        54 -11.0373     11.8593     93.0981   1.0395221641e+02   5.6417228466e+01    0.1886474    0.1729786 -79.82 0.0005027538    1.238    0.192
        55  -9.4151    160.3212     84.2972   5.2795731306e+01   3.3083355505e+01     0.144794    0.1167173  16.95 0.0004484148    1.619    0.382
        56  -9.9252     72.5914     83.6754   7.7412914122e+01   5.1678129358e+01    0.2350728    0.1710531  51.82 0.0005707135    1.699    0.411
        57 -11.7324      3.1422     76.0487   1.0416104648e+02   6.0893895478e+01    0.3038075    0.2047165 -46.24  0.001800466    1.169    0.144
        58 -10.8744     13.4477     60.0807   9.5488015928e+01   6.3779200270e+01    0.2291235    0.1798879 -19.68 0.0004084595    1.108    0.097
        59 -13.0029    194.0544     51.6239   3.8967266886e+01   3.0642415478e+01    0.5259932    0.4212942  44.20 0.0009248119    1.553    0.356
        60 -12.0358    106.8142    203.6353   9.3303322639e+01   1.6462002240e+01    0.4463552    0.2741107  61.37  0.001871503    2.183    0.542
        61 -11.9734    192.4026    193.6158   7.1193537243e+01   4.5076822851e+00    0.8361878    0.4380411 -64.42  0.002286847    6.594    0.848
        62 -10.2384      2.0000     24.9763   8.9825995260e+01   7.1203104079e+01    0.1777045   0.05648446 -50.91 0.0004318222    2.887    0.654
        63  -9.2331    198.2768     23.3548   3.2055019251e+01   3.3311100744e+01     0.109564   0.09229809  39.07 0.0003473136    1.650    0.394
        64 -10.2870    168.1439    232.6846   8.3468600572e+01   7.9162795199e-01    0.2037854    0.1866086 -39.05 0.0005712801    1.297    0.229
        65 -11.9930    144.9928    222.3913   8.7011028137e+01   6.2880262566e+00    0.3405742      0.25881  14.76  0.001817148    1.291    0.226
        66  -9.1754    189.3609     15.2803   3.1132633850e+01   3.6140271710e+01    0.1169465    0.0832219  51.00  0.000518714    1.671    0.402
        67 -11.6063    110.4596    198.3344   9.1512789794e+01   1.7132802221e+01    0.4862182    0.2467937  15.03  0.001623715    3.311    0.698
