#   1 NUMBER                 Running object number                                     
#   2 MAG_AUTO               Kron-like elliptical aperture magnitude                    [mag]
#   3 X_IMAGE                Object position along x                                    [pixel]
#   4 Y_IMAGE                Object position along y                                    [pixel]
#   5 X_WORLD                Barycenter position along world x axis                     [deg]
#   6 Y_WORLD                Barycenter position along world y axis                     [deg]
#   7 A_WORLD                Profile RMS along major axis (world units)                 [deg]
#   8 B_WORLD                Profile RMS along minor axis (world units)                 [deg]
#   9 THETA_WORLD            Position angle (CCW/world-x)                               [deg]
#  10 FWHM_WORLD             FWHM assuming a gaussian core                              [deg]
#  11 ELONGATION             A_IMAGE/B_IMAGE                                           
#  12 ELLIPTICITY            1 - B_IMAGE/A_IMAGE                                       
         1 -14.1342    229.4673     56.2032   5.2981853893e+01   2.0362115627e+01     9.992061          nan -37.81   0.02144723    7.185    0.861
         2 -12.3457    147.9325     32.7662   5.8187619634e+01   4.4374053203e+01     1.726281     1.099075  25.88  0.007355342    1.984    0.496
         3 -12.8500    181.6324     79.0136   6.6899555695e+01   2.8473683011e+01      6.22702    0.6148553 -38.11  0.008306103    6.682    0.850
         4 -11.5413    200.6367     15.3666   4.4788514361e+01   3.2608331395e+01     1.531931    0.8587002  86.80   0.00683298    1.962    0.490
         5 -12.6052    238.3883      4.7972   3.8677877075e+01   2.4480557418e+01     2.560824    0.1429555  65.65   0.00704263    6.475    0.846
         6 -10.9244    178.8818     23.3662   4.9883853990e+01   3.7387553629e+01    0.7382363    0.5549345 -77.91  0.003223087    1.442    0.306
         7 -12.5571    160.9888     51.6823   6.2279309850e+01   3.8244818506e+01     3.490822       1.7759 -73.38  0.007877699    7.361    0.864
         8  -9.7696    136.8386      7.1898   5.0482107681e+01   5.0157342506e+01    0.2284451     0.224285  69.54 0.0003146675    1.052    0.049
         9  -9.4742    185.0992      3.3970   4.2775307500e+01   3.7829711464e+01    0.6773208    0.2580867 -72.53  0.001900325    5.167    0.806
        10  -8.7632    222.9386    186.5229   8.4745435594e+01   2.1429859694e+00    0.1814586    0.1117556  37.93 0.0003780876    1.498    0.332
        11  -9.9174     52.4153    182.8398   1.1865755720e+02   3.0704239924e+01    0.3061436    0.1866536 -75.99  0.001281617    1.513    0.339
        12  -8.6847    223.1561    181.8553   8.3827039211e+01   2.7381990152e+00    0.1768962     0.161241  13.36 0.0003047702    1.183    0.155
        13  -9.4312    234.9339    179.4965   8.1365568910e+01   1.0763304361e+00    0.2527441    0.2020779   4.21  0.001198438    1.061    0.058
        14 -11.4571     30.2175    179.7636   1.2302317709e+02   3.3839487805e+01    0.3107121    0.2988589   1.05  0.001224893    1.595    0.373
        15  -9.9697    191.1351    178.3505   8.8987895488e+01   8.9138456854e+00    0.2171582    0.2027338   2.14 0.0002897485    1.094    0.086
        16  -7.8700    143.5520    179.5154   9.8735361881e+01   1.7400110648e+01    0.1330601     0.122087  40.77 0.0001277594    1.046    0.044
        17  -8.4870    249.3937    177.1189   7.8538256347e+01  -9.7012479906e-01    0.1618052    0.1045583 -34.94 0.0003772727    1.658    0.397
        18  -8.6688     76.8028    177.1830   1.1282263981e+02   2.8708079815e+01    0.1734057    0.1424663  73.76 -0.000275831    1.037    0.036
        19  -9.0020    221.7544    191.3087   8.5834084947e+01   1.7027250904e+00    0.1898773    0.1689414  27.06 0.0003087435    1.229    0.186
        20  -8.4363    211.3551    161.9580   8.1967489907e+01   7.7334063602e+00    0.1796069    0.1559055  -7.94 0.0003953319    1.075    0.070
        21  -8.1442     76.8064    161.8106   1.1086394614e+02   3.2035650990e+01    0.1686779    0.1298516  74.59 0.0002563247    1.204    0.169
        22 -13.7240     23.2925    184.3024   1.2474543986e+02   3.3598915936e+01     1.174671     1.032358  31.22  0.004392243    1.582    0.368
        23 -11.0013    237.9969    150.3910   7.4900111823e+01   4.5429649810e+00    0.3861307    0.2437002  26.28  0.002002331    1.656    0.396
        24 -10.7489     67.6668    144.0119   1.1056066558e+02   3.7360314104e+01    0.6050631    0.3325917  59.32  0.002093918    1.983    0.496
        25 -11.7266    239.6122    142.9391   7.3010701609e+01   5.3182362495e+00     0.602377    0.3862095   3.02  0.002976015    1.853    0.460
        26  -7.8022    223.2518    145.3035   7.6274071121e+01   8.0409257410e+00    0.1362078   0.09806161   1.86 0.0002360757    1.504    0.335
        27  -8.9136    192.2364    144.0277   8.1706291104e+01   1.4418230596e+01    0.2004112    0.1789971 -21.63 0.0004372623    1.095    0.087
        28  -9.8430    178.5693    141.7074   8.3924330889e+01   1.7652890998e+01    0.2739002    0.2496054 -88.41 0.0004794199    1.323    0.244
        29 -11.3431    247.0882     73.8167   5.5376577509e+01   1.3943678962e+01      1.11698    0.3704072 -35.49  0.002851465    2.435    0.589
        30 -10.2749    124.6865    240.2000   1.1045388085e+02   1.0333830362e+01    0.1973041    0.1574683  49.33 0.0002495433    1.034    0.033
        31 -12.1332    182.0744     60.8296   6.1323074751e+01   3.1378097781e+01    0.5458027    0.3815721   5.31  0.001908798    1.951    0.487
        32  -7.9265    126.6546    225.8041   1.0852981427e+02   1.2232748348e+01    0.1429664    0.1064174 -80.27 0.0009262689    1.672    0.402
        33 -11.4600     13.1568    219.5313   1.2849086774e+02   2.7805118974e+01    0.5425109    0.3573342 -70.67  0.004084521    1.719    0.418
        34  -8.5571    161.1577    128.1788   8.4491148095e+01   2.3935138547e+01    0.2130182    0.1860019 -84.52  0.001088088    1.354    0.262
        35  -9.3415    214.5047    120.9210   7.2128001452e+01   1.3689976448e+01    0.2192316    0.1349596 -32.59 0.0005253494    1.520    0.342
        36 -11.1369    204.3953    111.1862   7.1500476536e+01   1.7517479847e+01    0.6687855    0.3874866  21.41  0.002507879    2.750    0.636
        37 -10.3405    168.0852    113.3895   7.9275985801e+01   2.5321394905e+01    0.3632181    0.3206595 -54.53 0.0004803263    1.185    0.156
        38  -9.3852    156.1924    111.9560   8.1539769774e+01   2.8287153759e+01    0.2885185    0.2313653 -58.11 0.0003549562    1.346    0.257
        39  -8.6769    135.0000    108.4652   8.5672147615e+01   3.3681840860e+01    0.3479051   0.08617499 -44.51 0.0009343763    3.932    0.746
        40 -10.1913    212.4665    107.4255   6.9113032571e+01   1.6360612558e+01    0.2722833    0.2494713 -11.40 0.0002433693    1.034    0.033
        41 -12.5164    135.6495     39.3512   6.3182769805e+01   4.6591944320e+01     1.454052    0.6831901  65.14  0.005349368    2.495    0.599
        42 -10.2872    197.1770    105.8836   7.1452894048e+01   2.0061578455e+01    0.3586161    0.2515015  87.96  0.001502105    2.311    0.567
        43 -10.1384    217.4185    103.8400   6.7356987777e+01   1.5855858569e+01    0.2802765    0.2138532  38.29 0.0008748069    1.397    0.284
        44  -8.4734     17.6158    103.1004   1.1854938568e+02   5.2484769012e+01    0.2501996    0.1007727 -81.56  0.001078729    2.411    0.585
        45  -8.3816    235.5157    214.1906   8.7511105331e+01  -3.2438276689e+00    0.1509967     0.103682 -20.66 0.0005770084    1.465    0.317
        46 -11.9792     10.4646    206.2399   1.2836768282e+02   3.0510574730e+01    0.5119399    0.3248276 -77.32  0.003732652    1.519    0.342
        47 -10.1048    197.0255     97.0110   6.9115320010e+01   2.1640582364e+01    0.4360618    0.3172695  33.70  0.001226364    1.527    0.345
        48  -9.6211    151.1666     97.3671   7.8720364206e+01   3.2380084279e+01    0.3493926    0.2837308  34.22 0.0008339396    1.324    0.245
        49  -8.3916    136.4595     94.4850   8.1447869285e+01   3.6323757651e+01    0.1565415    0.1494583 -58.01 3.148557e-06    1.045    0.043
        50  -8.5612     15.6516     93.2846   1.1778651149e+02   5.4972691516e+01    0.1240295   0.08161543  70.85 0.0007018853    1.652    0.395
        51  -9.2134    161.4929     90.4868   7.4401599219e+01   3.1299079590e+01    0.3060495    0.2647387  24.11   0.00151313    1.264    0.209
        52 -10.6534    165.4616     88.5078   7.2963094767e+01   3.0720381891e+01    0.4315859    0.3777218  65.68  0.001782647    1.232    0.188
        53  -9.3096    156.8555    136.9467   8.7490061169e+01   2.3096730948e+01    0.3424645    0.2521292  79.23  0.001553093    1.924    0.480
        54  -8.1008    100.9622     89.0029   8.9517012253e+01   4.4923101419e+01    0.1703788    0.1575298 -50.61            0    1.009    0.009
        55  -9.9283    145.4767     86.3875   7.6851048044e+01   3.5900907680e+01    0.3037818    0.2852183 -42.30 0.0007231151    1.034    0.033
        56  -9.0392    158.5839     84.8067   7.3362615871e+01   3.3080768784e+01    0.2752254    0.2412252  -2.29 0.0008179604    1.258    0.205
        57 -11.2252    161.9334     78.4102   7.0691894233e+01   3.3454576901e+01    0.3968373    0.2971677 -22.57  0.000629469    1.422    0.297
        58 -10.3658    189.2208     71.7416   6.3362930715e+01   2.7813228027e+01    0.2914518    0.2705581 -11.41 0.0003698021    1.100    0.091
        59 -11.6488    237.9743     39.2476   4.7538943486e+01   2.0637969961e+01    0.5711812    0.3450166  38.09  0.001650016    2.224    0.550
        60 -10.3012    115.7642     68.0223   7.8630566600e+01   4.6332637286e+01    0.2430052    0.2204483  44.32 0.0002528129    1.157    0.135
        61  -9.1329    211.8490     59.2603   5.6155314055e+01   2.4140836456e+01    0.3830861    0.2365295  -8.06  0.001555455    2.166    0.538
        62 -10.6736    200.2708     64.2003   5.9305743358e+01   2.6257047114e+01    0.3623298    0.2686253  39.75  0.000926127    1.503    0.335
        63 -10.8484    206.6553     60.1552   5.7161564902e+01   2.5285620377e+01    0.4897592    0.3042619  38.08  0.001260915    1.949    0.487
        64 -10.0424    245.1052     63.1914   5.2927846980e+01   1.5855963431e+01    0.3322231     0.230889 -66.02  0.001691625    1.690    0.408
        65  -8.9133    190.0080     50.5673   5.6846334233e+01   3.0900261032e+01    0.2929538    0.1848128 -46.22 0.0006473401    1.569    0.363
        66  -8.3239    245.3751     49.6628   4.9452530064e+01   1.7618693041e+01    0.1999551    0.1143527 -42.83 0.0006134995    1.525    0.344
        67  -8.8900    243.4216     45.7339   4.8653878010e+01   1.8567619662e+01    0.4047007    0.1606199 -35.87   0.00138502    2.055    0.513
        68  -9.0434    186.7880     43.6135   5.5192755131e+01   3.2721993942e+01    0.4904574    0.1631033 -46.45  0.001494708    3.421    0.708
        69 -12.2292    122.0235     37.5801   6.5702885755e+01   5.0208786628e+01    0.9116762    0.7003595  45.42  0.003015089    1.299    0.230
        70  -8.1486    208.8195     36.7817   5.0118849818e+01   2.7991959730e+01    0.2019442    0.1512694 -54.13 0.0005091117    1.300    0.231
        71  -8.4269      5.3421    129.6711   1.2475929212e+02   4.7129312738e+01    0.1271145   0.06859255  68.48 0.0007051266    1.743    0.426
        72  -8.9731    201.1644     33.2941   5.0046808419e+01   3.0377747583e+01    0.2182442    0.1851177 -23.24 0.0003258301    1.202    0.168
        73  -8.3875    194.3368    198.0028   9.1911625466e+01   5.3884626979e+00    0.1849919    0.1021798 -60.27 0.0007051983    4.421    0.774
        74  -9.8554    102.0366     24.4594   6.5445645674e+01   5.6739574235e+01    0.2616374    0.1966946 -26.38  0.001365523    1.289    0.224
        75  -8.5636    168.9137    134.7810   8.4363103106e+01   2.0985100047e+01    0.1992785    0.1191544  44.12 0.0007519795    1.660    0.398
        76  -8.7978    182.4682     17.9901   4.7681899863e+01   3.7049019316e+01    0.2863452    0.1834152  53.87  0.001047448    1.568    0.362
        77  -9.2516    233.9814    196.6557   8.4726464943e+01  -9.4982015347e-01    0.2445235    0.1933867  60.28  0.001366314    2.047    0.511
        78 -13.2424     40.6386    172.6598   1.2024184539e+02   3.4231191356e+01     1.222584      1.02459  16.54  0.006250626    1.753    0.430
