#   1 NUMBER                 Running object number                                     
#   2 MAG_AUTO               Kron-like elliptical aperture magnitude                    [mag]
#   3 X_IMAGE                Object position along x                                    [pixel]
#   4 Y_IMAGE                Object position along y                                    [pixel]
#   5 X_WORLD                Barycenter position along world x axis                     [deg]
#   6 Y_WORLD                Barycenter position along world y axis                     [deg]
#   7 A_WORLD                Profile RMS along major axis (world units)                 [deg]
#   8 B_WORLD                Profile RMS along minor axis (world units)                 [deg]
#   9 THETA_WORLD            Position angle (CCW/world-x)                               [deg]
#  10 FWHM_WORLD             FWHM assuming a gaussian core                              [deg]
#  11 ELONGATION             A_IMAGE/B_IMAGE                                           
#  12 ELLIPTICITY            1 - B_IMAGE/A_IMAGE                                       
         1 -13.8120     59.8936    145.4819   6.3905337603e+01   3.8354561278e+01     2.121194    0.8728478 -63.53   0.00124908    2.420    0.587
         2 -11.6370    249.8281     24.3841   3.5497749925e+02   2.1191320983e+01    0.6158639    0.1820419 -30.79  0.002763426    2.745    0.636
         3 -11.1600      2.0000      9.9858   6.2808212198e+01   7.8160244135e+01    0.3826859    0.1552983 -64.09  0.001755721    2.446    0.591
         4 -11.3742      2.4010      2.8487   5.8418923041e+01   7.9584772729e+01      0.43314    0.2496356 -52.51  0.002452724    1.610    0.379
         5 -11.1788     12.4316      6.3106   4.9592751441e+01   7.8048377561e+01    0.4960963    0.1295228 -54.95  0.001671323    4.598    0.782
         6  -9.7457     73.0038      6.5340   1.2280508876e+01   6.6340613447e+01    0.2177589    0.1249987  61.55 0.0004133454    1.555    0.357
         7  -9.6894     62.2880    237.4264   7.2371075883e+01   1.7650159977e+01    0.1730887    0.1539649  74.48 0.0005621553    1.291    0.226
         8  -9.3903     74.9151    248.5376   7.0358274707e+01   1.4230954233e+01    0.2757177    0.1330139 -54.47  0.001508489    2.721    0.633
         9 -10.9308     27.7030    250.1039   8.0582702030e+01   1.9083140392e+01    0.2527038    0.1574979  22.07   0.00087123    1.587    0.370
        10 -13.6683     81.8276    191.6827   6.3415291003e+01   2.4281669313e+01     1.655614     1.154637 -64.64  0.008912692    1.642    0.391
        11 -13.9290     40.0120    174.0461   7.3249903287e+01   3.3626963865e+01      1.81717     1.068803  77.14  0.008861548    1.796    0.443
        12 -15.9174     16.2531    161.6216   7.9373161465e+01   3.8953613935e+01     8.220719     2.900281  73.76   0.02991002    3.281    0.695
        13  -9.3754     61.1380    232.6873   7.2304770268e+01   1.8653164087e+01     0.193836    0.1411627  58.21 0.0006636122    1.290    0.225
        14  -9.2970     72.9314    232.5321   6.9582587352e+01   1.7276654005e+01    0.2805416    0.1690698 -78.14  0.001603881    2.135    0.532
        15 -12.3941    107.5938    228.6040   6.1259483651e+01   1.3530955345e+01    0.5653661    0.2255759  33.40  0.002628431    1.908    0.476
        16 -10.4454    149.1737    228.0165   5.2052196540e+01   7.9963731773e+00    0.1788377    0.1431878  66.07  0.001097714    1.993    0.498
        17 -12.5645     97.6913    225.2379   6.3178789073e+01   1.5446963613e+01    0.6129137    0.4344878  44.97  0.003712097    1.256    0.204
        18  -9.8414     72.6361    226.3948   6.9151975151e+01   1.8452063210e+01    0.2237869    0.1627877  52.45 0.0003616151    1.249    0.199
        19  -9.7235     60.5886    225.5831   7.1924390754e+01   2.0060071492e+01     0.304202    0.1174991 -69.20   0.00140696    3.058    0.673
        20 -14.9399      3.3427    239.4220   8.5388127806e+01   2.3238403495e+01     1.425552    0.9293828  56.32    0.0100682    1.167    0.143
        21  -9.4631     47.2245    229.0443   7.5275017372e+01   2.0917976559e+01     0.188444    0.1219351  52.98  0.001151407    1.292    0.226
        22  -9.6411    174.5159    223.4733   4.6241038608e+01   5.2757331117e+00    0.1236598   0.09440086  12.44 8.196005e-05    1.028    0.028
        23 -10.8097     81.2621    220.9959   6.6631404294e+01   1.8387808956e+01    0.2957359    0.1005499  46.29  0.001191025    2.665    0.625
        24 -16.0696      5.1360    217.6108   8.4497786906e+01   2.7283976615e+01     2.609524     1.497161  63.53   0.01468254    1.436    0.304
        25  -9.3325     45.4636    218.5270   7.5044583359e+01   2.3177618621e+01    0.2460083    0.1030846  28.40  0.000881672    1.991    0.498
        26  -9.8015     90.4695    217.4688   6.4078522116e+01   1.7850448336e+01    0.1320054     0.106764  34.19 2.234219e-05    1.023    0.022
        27 -10.5475     74.2898    210.9612   6.7384693008e+01   2.1256461658e+01    0.2886134    0.1803309 -65.13  0.001573943    1.890    0.471
        28 -12.5936    113.3704    194.2632   5.5626395762e+01   1.9100017284e+01     1.445706    0.4264857  26.26  0.004010991    4.891    0.796
        29  -9.1810     59.1059    197.4702   7.0021282113e+01   2.6010240823e+01    0.1925238    0.1645067  59.28 0.0006439538    1.100    0.091
        30  -8.8132    194.4908    196.4791   3.8135476026e+01   6.4506908926e+00    0.1253483    0.1007797   4.90 1.510964e-05    1.002    0.002
        31 -10.5238     68.2378    192.4699   6.7120919893e+01   2.5949973876e+01    0.4654749    0.2268464  68.00  0.001602812    2.943    0.660
        32  -9.0950    210.9640    198.5482   3.5482460032e+01   3.9229913773e+00    0.1676118    0.1016586  28.26 0.0004442683    1.512    0.338
        33 -10.3535     73.2775    188.9561   6.5391228828e+01   2.6057226810e+01    0.3047853    0.2187522 -82.66  0.001019169    1.604    0.377
        34 -11.6043    107.8279    189.4677   5.6344927071e+01   2.0919094932e+01    0.3320247     0.256255  -9.99  0.001767411    1.601    0.375
        35 -14.5694      9.8723    206.3252   8.3058213603e+01   2.9212998686e+01    0.9614617    0.6519501  19.85  0.003493267    1.564    0.361
        36 -10.0289    171.6552    174.4276   3.8793316106e+01   1.3418962439e+01    0.2712684    0.2149269 -50.17   0.00154306    1.550    0.355
        37 -11.0326     82.0598    170.2522   6.0608813384e+01   2.9077513553e+01    0.2827941    0.2532171 -49.99 0.0002207835    1.261    0.207
        38 -10.0028     73.1569    170.4272   6.3202147249e+01   3.0330586512e+01    0.2960546    0.2003407  84.07 0.0007123472    1.771    0.435
        39  -9.9501     71.4098    167.4662   6.3327943463e+01   3.1283755994e+01    0.2700803    0.1928663  62.37 0.0004637057    1.443    0.307
        40  -9.6317    110.4434    166.9294   5.2160386148e+01   2.5305571113e+01    0.2693155    0.1848071  48.35 0.0004360422    1.439    0.305
        41 -11.0473     90.5026    165.9962   5.7565583823e+01   2.8776283578e+01    0.4081646    0.1675561  44.71  0.001349976    2.308    0.567
        42  -8.6666    142.0000    163.8953   4.3510855123e+01   2.0449738951e+01    0.2172461   0.08276403 -47.75 0.0007856185    2.827    0.646
        43  -9.7766    178.4756    164.4769   3.5495565610e+01   1.3995052173e+01    0.1355036    0.1202658   3.95 0.0001591412    1.019    0.019
        44 -11.9099     57.5706    161.7888   6.6772967848e+01   3.4540414034e+01    0.5453378    0.3919257 -43.63  0.001843121    1.664    0.399
        45 -11.2263     62.8833    157.8800   6.4647961407e+01   3.4809626959e+01    0.3199704    0.2740672  -7.79 0.0007405152    1.416    0.294
        46 -13.3346     81.1774    145.1561   5.6984706007e+01   3.5286472083e+01     2.618785     1.374805 -36.99  0.009074872    2.736    0.635
        47  -9.9654    150.6004    249.2318   5.4407011453e+01   4.7405723579e+00    0.1465711   0.09992496 -23.25 0.0009525499    1.702    0.413
        48 -10.8993     92.7683    155.6882   5.5247361420e+01   3.0836296750e+01    0.2816144    0.2417147  76.91 0.0003951486    1.269    0.212
        49 -12.2135     70.0629    145.0569   6.0522553108e+01   3.7022915211e+01      0.58049    0.4364505  60.52  0.002449827    1.353    0.261
        50  -9.6596    123.6073    151.6289   4.5812041497e+01   2.6346650813e+01    0.3133097    0.2468184  84.75  0.001102452    1.723    0.420
        51  -9.6296     40.5608    153.1290   7.1133670215e+01   3.8761059714e+01    0.2001034    0.1340968 -79.84 0.0003805652    1.500    0.333
        52  -9.8295    134.3053    148.7674   4.2441805710e+01   2.4965105516e+01     0.293707     0.138467 -56.38   0.00107516    2.695    0.629
        53 -10.2809    108.8479    145.3257   4.8655406195e+01   3.0479146788e+01      0.26836    0.2655977  78.66 0.0006682797    1.072    0.067
        54 -11.1954     37.1366    142.6851   7.1151782975e+01   4.1830978221e+01    0.4043315    0.2822445  69.29  0.001239265    1.418    0.295
        55 -11.9404     51.7186    143.5479   6.6349800391e+01   3.9920331953e+01     0.671346    0.3287405  53.44  0.002682424    2.155    0.536
        56 -12.0870     77.8007    136.3769   5.6520233759e+01   3.8036513591e+01    0.6656715    0.3216397  45.52  0.002562361    2.022    0.506
        57  -9.9629     52.2898    237.5674   7.4632666797e+01   1.8760676617e+01    0.2552142    0.1101128  40.90  0.001340097    1.657    0.397
        58 -10.2085     96.1256    135.1250   5.0409444048e+01   3.5217766463e+01     0.383965    0.2706478 -27.71  0.001673837    1.850    0.460
        59  -9.0970     99.6424    132.6586   4.8810553845e+01   3.5174021211e+01    0.2152666    0.1570163 -37.72 0.0009728782    1.559    0.359
        60 -11.0045     50.3285    136.1052   6.5806534427e+01   4.2040967720e+01    0.2891135    0.1952008  41.93 0.0007108698    1.386    0.278
        61 -11.4898     83.9525    132.2130   5.3711265237e+01   3.8073101513e+01    0.2977486    0.2930471 -42.39 0.0004335197    1.091    0.083
        62 -10.5097     55.0216    234.3108   7.3812179256e+01   1.9054238097e+01    0.2539607    0.2054665 -70.62  0.000423049    1.542    0.351
        63 -10.2151    105.6507    130.6394   4.6545559922e+01   3.4528012994e+01    0.3853779     0.290244 -49.31  0.001097937    1.394    0.283
        64  -9.2916    108.2198    126.5757   4.4867018615e+01   3.4992823334e+01    0.2241852    0.1484153  26.82 0.0009418115    1.671    0.402
        65 -11.3351     44.5014    130.3865   6.7067096877e+01   4.4259110778e+01     0.444808    0.2422251 -40.82   0.00181599    2.292    0.564
        66 -11.7515     25.8697    128.9286   7.3633624247e+01   4.6563299581e+01    0.5463244    0.1993632  37.93  0.001753322    2.421    0.587
        67  -9.1655    216.0000    236.0300   4.0431081216e+01  -1.3778852884e+00    0.1555203   0.05516209 -35.81 0.0005751936    2.909    0.656
        68 -10.7324     33.6257    123.8031   7.0186339378e+01   4.7202331403e+01    0.2683987    0.2072413  49.52 0.0003933626    1.247    0.198
        69 -10.6447     94.6391    121.7434   4.8007349801e+01   3.8768740718e+01    0.3367374    0.2876984  -8.29 0.0007830136    1.399    0.285
        70 -10.9302     46.7887    122.9865   6.5143395404e+01   4.5961966878e+01    0.3823455      0.17159  37.25  0.001433433    2.058    0.514
        71  -9.0519    142.6781    122.2783   3.4405229245e+01   2.8863606745e+01     0.149933    0.1218765  80.99 0.0003100316    1.583    0.368
        72  -9.4606     87.0388    121.0598   5.0362893739e+01   4.0337917463e+01    0.2542869     0.183059  68.65 0.0006149629    1.684    0.406
        73 -11.4374     27.6275    117.8913   7.1738981958e+01   4.9364260079e+01    0.3921779    0.2260342 -67.45 0.0009381037    1.627    0.385
        74 -10.8933     53.9989    118.5270   6.1694553186e+01   4.6232353094e+01    0.3051648    0.2111062  86.63  0.001384629    1.650    0.394
        75 -10.2271     44.4031    116.2827   6.4988307101e+01   4.8047086711e+01    0.2889752    0.2307101  76.42 0.0007660654    1.284    0.221
        76 -11.8585     36.9233    114.9385   6.7705605821e+01   4.9249537030e+01    0.5892822     0.261963  49.41  0.002002907    2.401    0.584
        77  -9.4507    105.1686    116.1774   4.3349960444e+01   3.8060791051e+01    0.2330153    0.2131544  11.88 0.0005624187    1.183    0.154
        78 -12.9950    126.8705    230.3941   5.7153141755e+01   1.0636899336e+01     0.567237    0.4262491  52.46  0.003545808    1.558    0.358
        79  -9.9955     41.0360    113.9762   6.5935677602e+01   4.9058405680e+01    0.2479404    0.2087175  31.52 0.0003338776    1.202    0.168
        80 -10.3702     19.5124    108.7363   7.3887666306e+01   5.2505196463e+01    0.2994288    0.1352822  35.01  0.001105746    2.116    0.527
        81  -9.8296    135.5322    107.9741   3.2605719231e+01   3.3403339832e+01    0.3197416    0.2183392 -60.22  0.000609846    1.739    0.425
        82 -10.0140    133.0166    103.4977   3.2066134464e+01   3.4907428568e+01    0.3400593    0.2267143  80.63  0.001285577    2.484    0.597
        83 -10.8507     24.2024    104.7523   7.1447670289e+01   5.3208612645e+01    0.3349327    0.2967024  51.72  0.000866523    1.130    0.115
        84 -11.1263     19.5691    100.8930   7.2917098410e+01   5.4615432348e+01     0.411109    0.2746886  42.12  0.001981741    1.511    0.338
        85  -9.5239     41.7894    100.2093   6.3230129206e+01   5.2677162476e+01    0.2221937     0.189309  63.09 0.0004961913    1.201    0.168
        86 -12.7370     73.0715    150.4600   6.0405607425e+01   3.5214344469e+01    0.6964675    0.5331191 -67.05 0.0005702971    1.377    0.274
        87 -12.2377    119.5138    231.0363   5.8852182124e+01   1.1521339735e+01    0.4056727    0.2467027  29.65  0.002027236    1.286    0.223
        88 -13.0968      7.6021     60.3410   7.2915694371e+01   6.6048912889e+01     1.272163    0.7477356  69.80  0.006043101    2.069    0.517
        89 -11.6450      6.3086     89.9352   7.7551989492e+01   5.8362041851e+01    0.5043378    0.2309126 -51.45  0.001577825    2.053    0.513
        90 -11.8345      6.8968     75.1991   7.5556252056e+01   6.2230605029e+01    0.3353778    0.2742023  47.22  0.001118707    1.314    0.239
        91 -10.8978      2.2465     89.7951   7.9394413212e+01   5.8577160730e+01    0.4973016    0.1765679 -81.66  0.001919493    2.570    0.611
        92 -12.1466      2.0144     80.0957   7.8585774955e+01   6.1144980071e+01     1.011991    0.1562038 -74.39   0.00292389    4.573    0.781
        93  -9.1728     40.8325     87.8460   6.1122934529e+01   5.6082785362e+01    0.2040945     0.166654  62.03 0.0004162985    1.316    0.240
        94 -10.8057     32.3150     86.5427   6.4827836204e+01   5.7361733251e+01    0.5296103    0.2243531  45.26  0.001362967    2.612    0.617
        95  -8.8564     99.4146     86.4608   3.7080526059e+01   4.6197211463e+01    0.1574692    0.1533167  64.77 0.0001038775    1.016    0.016
        96 -10.9487      7.4718     81.8691   7.6105458903e+01   6.0446340509e+01     0.278805    0.2258926  34.19  0.001037643    1.321    0.243
        97 -10.2127    115.3746     75.2654   2.8552475449e+01   4.4893762788e+01      0.36178     0.271815 -69.31  0.001114837    1.616    0.381
        98 -10.8824     14.0073     64.0059   6.9868892491e+01   6.4762135106e+01    0.2668417    0.2125504 -38.24 0.0005238489    1.205    0.170
        99 -10.4530     13.3531     60.0650   6.9456888331e+01   6.5810339045e+01    0.2533182    0.2211727 -73.24 0.0006627291    1.123    0.109
       100 -11.5681    201.8340     61.0715   7.5894959365e+00   2.6389624561e+01    0.3516971    0.3173469  35.53 0.0009163552    1.336    0.252
       101 -12.8832    212.1790     54.5185   4.7803196368e+00   2.5051969532e+01    0.8080927    0.7689195  15.72   0.00359879    1.296    0.229
       102 -13.3145    225.3680     45.5201   1.3654210721e+00   2.3471311484e+01    0.7405329       0.6762  18.33  0.003076724    1.438    0.305
       103  -8.3513     38.3435     60.2689   5.5075601576e+01   6.3418644379e+01     0.148536    0.1056369 -20.40 0.0006226142    1.609    0.379
       104  -9.5719     74.5288     55.9531   3.5787942658e+01   5.8215765871e+01    0.2195257    0.1515523 -42.76 4.866479e-05    1.503    0.335
       105 -11.4338     12.9797     43.5752   6.5710548650e+01   6.9925914631e+01    0.3722835    0.1898105  38.05  0.001186596    2.202    0.546
       106 -11.3870      1.7533     39.7183   7.2741918198e+01   7.1415524550e+01     0.316944    0.2145005 -70.97  0.001162109    1.381    0.276
       107 -11.3735    138.9485    248.3313   5.6669236651e+01   6.3238410674e+00    0.3135519    0.2304967  57.04  0.002013903    1.943    0.485
       108 -11.0654      7.9847     28.3503   6.4718651632e+01   7.3806274258e+01    0.2636433    0.1842764 -89.44  0.001314978    1.835    0.455
       109 -10.9461      2.3228     22.2612   6.7508789050e+01   7.5476631961e+01    0.2814528    0.1476335 -72.39  0.001400595    1.988    0.497
       110  -9.2712     60.7836     21.1863   2.5476891630e+01   6.7399785836e+01    0.2067236      0.19062  62.14 0.0006339675    1.193    0.162
       111  -9.4555    164.6856    246.6714   5.1304567107e+01   3.3455642096e+00    0.1189778   0.07335777   2.95 0.0007044285    1.674    0.402
       112  -9.7862     42.7157    245.1327   7.7163470260e+01   1.8432996797e+01    0.1755193    0.1230327  65.99 0.0006212314    1.387    0.279
       113 -10.1435    103.8710    237.8290   6.3053928516e+01   1.2450312386e+01    0.1875324    0.1450378  15.37 0.0007889632    1.264    0.209
