#   1 NUMBER                 Running object number                                     
#   2 MAG_AUTO               Kron-like elliptical aperture magnitude                    [mag]
#   3 X_IMAGE                Object position along x                                    [pixel]
#   4 Y_IMAGE                Object position along y                                    [pixel]
#   5 X_WORLD                Barycenter position along world x axis                     [deg]
#   6 Y_WORLD                Barycenter position along world y axis                     [deg]
#   7 A_WORLD                Profile RMS along major axis (world units)                 [deg]
#   8 B_WORLD                Profile RMS along minor axis (world units)                 [deg]
#   9 THETA_WORLD            Position angle (CCW/world-x)                               [deg]
#  10 FWHM_WORLD             FWHM assuming a gaussian core                              [deg]
#  11 ELONGATION             A_IMAGE/B_IMAGE                                           
#  12 ELLIPTICITY            1 - B_IMAGE/A_IMAGE                                       
         1 -11.1072      4.2209     20.1493   1.1629251960e+02   6.9035528400e+01    0.3900555    0.1815595 -36.98   0.00244723    1.644    0.392
         2 -11.3451      8.9946     26.1336   1.1629720387e+02   6.7796709779e+01    0.4962322    0.1789351 -34.28  0.002590398    2.322    0.569
         3 -12.5009     25.8246     13.7216   1.0410814895e+02   6.8009347815e+01    0.3039364    0.2287869 -33.29 0.0003426521    1.528    0.345
         4 -11.6643     25.4568     20.4201   1.0697790509e+02   6.7173048174e+01    0.4717041    0.2628513  -0.69  0.002790825    1.914    0.478
         5 -11.7060     31.5931      2.4059   9.6770496628e+01   6.8646666976e+01    0.2746889    0.1676724  31.02 0.0009256082    1.524    0.344
         6 -11.4292     61.3196     24.1308   9.4509711737e+01   6.2080097076e+01    0.3570904    0.2305017 -46.25  0.002006423    2.267    0.559
         7 -11.4526     75.0299      4.7699   8.2467159859e+01   6.1784684051e+01    0.4593221    0.2167305 -12.70  0.001448542    2.464    0.594
         8 -10.9234     75.9677     16.8686   8.6892308229e+01   6.0467387161e+01    0.4102699    0.1951794  26.18  0.001926772    2.390    0.582
         9 -11.5662     78.5835     11.2057   8.3929650500e+01   6.0560288208e+01    0.4423588    0.2835948   0.93  0.001621645    1.648    0.393
        10 -11.7196     81.3282      6.0327   8.1157025518e+01   6.0521379645e+01    0.2114366    0.1660233  27.51 0.0002419086    1.028    0.028
        11 -11.6367    131.4481     13.9790   7.2290720219e+01   4.9328761323e+01      0.42241    0.2638061  31.41  0.002247788    1.736    0.424
        12 -12.6567     26.4947      3.9257   9.9606418124e+01   6.9090502335e+01    0.3925671    0.2128396  11.97 0.0004643338    1.780    0.438
        13 -10.3602    164.2536     14.6818   6.6968068540e+01   4.1562505240e+01    0.2131015    0.1720755  88.88 0.0004043483    1.218    0.179
        14 -10.9032     70.6737     14.6778   8.7694994654e+01   6.1615300636e+01    0.2021242    0.1724761  12.11 0.0002873061    1.113    0.101
        15 -10.5785     99.1090     13.4173   7.9187222828e+01   5.6391397830e+01    0.3802343    0.2257903  48.63  0.002123588    1.416    0.294
        16 -10.9183    115.4579     12.2986   7.5003647613e+01   5.3048088815e+01    0.5191568    0.1836851  60.01  0.001908369    2.552    0.608
        17 -11.9143     61.8932     11.4559   8.9280491487e+01   6.3402730085e+01    0.3102278    0.2408596  62.71  0.001954205    2.061    0.515
        18  -9.9696    175.6811     12.0633   6.4683695043e+01   3.9088473770e+01    0.1689822    0.1595347  72.81 0.0007363217    1.149    0.129
        19  -9.6085      4.0381     11.1321   1.1292829496e+02   7.0327456715e+01    0.1303076    0.1166995 -29.57 0.0006178462    1.627    0.386
        20  -9.1000    226.2401      8.6479   5.8367819844e+01   2.7679059140e+01    0.1248573   0.07441956 -64.24   0.00041366    1.577    0.366
        21  -9.6301     37.2962      8.5294   9.7124792305e+01   6.7273012595e+01    0.1440589   0.08620681  20.00 0.0004021096    1.457    0.313
        22 -10.2517      9.2294      7.7883   1.0909939293e+02   7.0354907700e+01    0.2722391    0.1387967  -4.68  0.001253075    2.064    0.516
        23  -9.5324    183.1749      7.2727   6.2545749278e+01   3.7769555072e+01    0.2045147    0.1075351  37.62 0.0007615574    2.671    0.626
        24 -10.3964     11.3936      1.9409   1.0554275252e+02   7.0882280321e+01    0.4548572     0.155909  17.08  0.001927211    4.503    0.778
        25 -10.4237     14.9740      5.7807   1.0556391361e+02   7.0086749383e+01    0.2213266    0.1825553  31.16  0.001291359    1.839    0.456
        26 -11.1179     18.9254      3.9758   1.0296926768e+02   6.9908438430e+01    0.2452773    0.1844581  28.70 0.0003343617    1.643    0.391
        27 -10.3451    115.4336      4.1687   7.2324633235e+01   5.3742135603e+01    0.2453751    0.2080276  29.43  0.001381563    1.148    0.129
        28 -11.6139    136.1503      2.7025   6.8021147016e+01   4.9223984356e+01    0.4389476    0.2646886  61.92  0.001536395    1.362    0.266
        29  -9.4379    162.3387      3.2734   6.4204915789e+01   4.3068546411e+01    0.1512074    0.1130347 -42.33 0.0004394228    1.530    0.347
        30  -9.4358    142.5565      1.5396   6.6634313184e+01   4.7842000119e+01    0.1270643    0.1037288  58.89 0.0001143217    1.022    0.022
        31  -9.7545    127.3313    233.3497   1.2593398018e+02   8.7187675981e+00    0.1279827    0.1036813   2.14 0.0007048211    1.770    0.435
        32 -11.1297    247.0405    249.9731   1.0529389978e+02  -1.3587290420e+01     0.439676    0.2058316  26.48  0.002298999    2.005    0.501
        33 -11.1528    250.4965    243.9860   1.0366538346e+02  -1.3317850790e+01    0.5939614    0.2008446 -35.74  0.002710661    3.021    0.669
        34 -12.2412    232.5193    246.5264   1.0732935599e+02  -1.1052996270e+01    0.4832748    0.3060359 -16.47   0.00284979    1.663    0.399
        35  -9.1573    168.6328    250.6963   1.2015374580e+02  -1.3654507296e+00    0.1305634   0.09111011  14.65 0.0007034972    1.743    0.426
        36  -9.6553    128.0163    249.6790   1.2795275662e+02   5.6499265206e+00    0.1785833    0.1468749  48.97   0.00113962    1.026    0.026
        37 -10.0248     72.6034    250.1276   1.3849823691e+02   1.4178110198e+01    0.1757043    0.1635767  22.62  0.001253356    1.577    0.366
        38  -9.2877     46.3113    250.3459   1.4318832066e+02   1.7667926639e+01   0.09738659   0.08722697 -51.99 0.0007045832    1.708    0.414
        39 -10.3854      1.4119    244.9892   1.5026765034e+02   2.3721301107e+01    0.1493956   0.07874486 -83.92 0.0004286064    1.544    0.352
        40 -11.6993     27.9123    246.3218   1.4603532869e+02   2.0644650130e+01    0.4201311     0.167318 -75.75  0.002288151    2.312    0.567
        41 -12.5577     21.1624    248.9253   1.4732334427e+02   2.0919465626e+01    0.7066774    0.2785243  44.24  0.004058581    2.151    0.535
        42 -11.7557     14.2308    244.8004   1.4820329202e+02   2.2443513260e+01    0.4815065    0.1769165 -73.83  0.002654837    2.380    0.580
        43 -12.4665     18.5787    238.2483   1.4707263969e+02   2.3222665990e+01    0.6097323    0.3074982  44.12  0.003819018    1.829    0.453
        44 -10.1705    130.0558    226.8889   1.2446190499e+02   9.4724397680e+00    0.3235219    0.1660207  56.59  0.001419299    2.159    0.537
        45 -10.1639     88.1037    227.1480   1.3311774414e+02   1.6347888169e+01    0.1834517    0.1741016  50.98  0.001188721    1.270    0.213
        46 -10.3895     66.4085    226.5413   1.3736498901e+02   1.9653455633e+01    0.2699053    0.1510474  45.75 0.0007520156    1.604    0.376
        47 -11.6984      5.5955    244.5976   1.4958395868e+02   2.3376399213e+01    0.5409353    0.2184464  81.69  0.002946963    2.376    0.579
        48 -10.4942    115.8571    225.8257   1.2726248283e+02   1.2120708995e+01    0.1920425    0.1436315  70.58 0.0005599515    1.375    0.273
        49 -10.3878    180.9542    224.2405   1.1351124493e+02   8.4273764935e-01    0.2301422    0.1678928 -24.24 0.0006858518    1.607    0.378
        50 -10.0550     81.2336    224.5649   1.3420382929e+02   1.7914628368e+01    0.2492012    0.1510217 -88.62  0.001149209    1.870    0.465
        51 -10.8558    141.1781    221.5110   1.2132851557e+02   8.5334214149e+00    0.3147521    0.2322082  20.18  0.001275277    1.658    0.397
        52 -10.8799    123.3404    221.5375   1.2509436307e+02   1.1684170354e+01    0.2736042     0.236513  55.83  0.001026099    1.015    0.015
        53  -9.4362     51.4933    222.5368   1.3987018589e+02   2.2474521279e+01    0.1213775   0.09867853  76.99 0.0001447906    1.032    0.031
        54 -10.6812     13.1831    221.9415   1.4691630874e+02   2.6994340265e+01    0.1749141    0.1461234  63.39 0.0005033705    1.273    0.214
        55  -9.9263    174.1043    219.9185   1.1417893626e+02   2.8367505968e+00     0.208418    0.1785989  55.32  0.000761957    1.242    0.195
        56 -10.3739     21.9790    220.2858   1.4522000850e+02   2.6412987180e+01    0.1548936     0.118893  69.27 0.0004556649    1.112    0.101
        57  -9.7257    250.4678    219.0863   9.9243993150e+01  -9.9650294508e+00    0.1768459    0.1102705 -29.09 0.0006587195    1.518    0.341
        58 -10.4519    191.5580    217.2481   1.1013844297e+02   1.3472596463e-01    0.2510119    0.1712059 -37.39 0.0009931902    1.588    0.370
        59  -9.9699    194.5450    215.4648   1.0921441807e+02  -9.8383094465e-02    0.1778134    0.1349574 -53.44 0.0006265235    1.630    0.386
        60 -10.9238      9.9743    217.0305   1.4714962011e+02   2.8304611564e+01    0.2708733    0.1580269  65.61 0.0008756974    1.448    0.309
        61 -10.4984    234.6814    216.3507   1.0159830434e+02  -7.1156832510e+00    0.1805366    0.1629616  81.69  0.001111445    1.768    0.434
        62 -10.0909     31.1310    215.8318   1.4316678999e+02   2.6323146847e+01    0.1907503     0.129533  74.04   0.00105241    1.231    0.188
        63  -9.7876    201.5366    215.5398   1.0782515486e+02  -1.3620037004e+00    0.1373295    0.1184113  15.45 0.0007017723    1.054    0.052
        64  -9.4867    137.2259    215.6167   1.2124781694e+02   1.0392089007e+01    0.1987718    0.1228266  33.08  0.000943185    1.669    0.401
        65  -9.6095    170.3876    213.2061   1.1379302868e+02   4.7379169821e+00    0.1807619    0.1350796 -58.80  0.000794575    1.623    0.384
        66  -9.5601    142.8206    213.3875   1.1969091822e+02   9.8129367741e+00    0.1968984    0.1238604  32.59 0.0006846489    1.637    0.389
        67 -11.0305     20.6761    211.6914   1.4479983877e+02   2.8318789638e+01    0.3096465    0.1535225  73.93 0.0009102423    1.985    0.496
        68 -10.2909    208.9808    212.0723   1.0571277382e+02  -2.1020452505e+00    0.2064525    0.1810124  13.95 0.0004703473    1.010    0.010
        69 -12.1622      4.1870    207.7661   1.4755650536e+02   3.0744951243e+01    0.4725931    0.2722197 -83.53  0.003075283    1.374    0.272
        70 -10.1419    184.2713    208.8577   1.1011670610e+02   2.9454026737e+00    0.2604811    0.1705172  16.29 0.0008154015    1.944    0.486
        71 -10.3419    240.9441    211.0000   9.9450636621e+01  -7.3099475319e+00     0.206985   0.06808268  40.23 0.0008077979    2.980    0.664
        72  -9.4341    212.8728    211.8885   1.0491540899e+02  -2.7545851310e+00    0.1665306    0.1606504  58.70 0.0004845345    1.317    0.241
        73  -9.9209    223.2813    201.3215   1.0089743739e+02  -2.8325249563e+00    0.3159449    0.2321181 -88.00  0.001403332    3.100    0.677
        74  -9.8182    175.1760    202.3936   1.1083609215e+02   5.8567568735e+00    0.2032447    0.1257446  50.02  0.000532777    1.644    0.392
        75  -9.7546    218.2755    201.3602   1.0186745041e+02  -1.9587291903e+00    0.1404186   0.09870844  -2.49 0.0006576892    1.659    0.397
        76  -9.9216    210.6549    201.3457   1.0335445638e+02  -5.9123932905e-01    0.1332546     0.112149  84.58 0.0007044575    1.798    0.444
        77  -9.2867     34.5222    200.9610   1.4117156484e+02   2.9094718770e+01     0.167369    0.1014029 -75.51 -4.332711e-06    1.430    0.301
        78  -9.7303     19.6561    200.6745   1.4410025606e+02   3.0743194729e+01    0.1100129   0.08122542 -50.23 0.0003824975    1.739    0.425
        79 -10.0500    227.0192    196.9819   9.9343224228e+01  -2.7670771062e+00    0.2089387    0.1831564   1.58 0.0006412777    1.019    0.019
        80 -11.2063    192.4875    195.2198   1.0584053048e+02   3.8852764747e+00    0.3604616    0.1917204 -53.81  0.001488405    2.444    0.591
        81 -10.7156    215.5317    194.4869   1.0105996265e+02  -2.9561420408e-01    0.2943324    0.1873751 -25.33 0.0005604445    1.700    0.412
        82 -10.0158    232.0340    191.3820   9.7299797909e+01  -2.7128459911e+00    0.2626773    0.1411228 -21.48  0.001126956    2.345    0.573
        83 -10.1450    163.0000    192.0239   1.1152430811e+02   1.0242602273e+01    0.2376431   0.08428582 -47.13 0.0008113218    3.004    0.667
        84  -9.6431    203.0070    195.9704   1.0383767165e+02   1.7578235599e+00    0.1710949    0.1561143  13.80 0.0005743458    1.003    0.003
        85  -9.4624    250.4841    190.0028   9.3700955673e+01  -5.5987674223e+00    0.1955382    0.1169652 -35.06 0.0005813583    1.553    0.356
        86  -9.5726    246.3477    190.3075   9.4488718083e+01  -4.9690526745e+00    0.1377093   0.09355163   2.20  0.000704346    1.703    0.413
        87  -9.2210    205.5138    190.4532   1.0224442701e+02   2.2762154070e+00    0.1416197    0.1292704  10.40 0.0001129043    1.014    0.013
        88 -10.0451    226.3557    188.3222   9.7753891471e+01  -1.1943763556e+00    0.1458094    0.1006277   3.76    0.0007046    1.762    0.432
        89 -10.3839    167.8530    184.0757   1.0891547587e+02   1.0887399121e+01    0.4487134    0.2432996  63.34  0.001560887    3.181    0.686
        90  -9.5317     61.7754    185.0007   1.3352646688e+02   2.9291008913e+01    0.1777865   0.09853735 -66.95 0.0008777534    1.669    0.401
        91 -11.4356     16.1062    182.7518   1.4324086225e+02   3.4967053581e+01    0.3938806    0.2057877  86.94  0.002062435    1.857    0.462
        92 -10.6829    247.9678    183.0200   9.2756048067e+01  -4.0663836225e+00    0.4674495    0.2363653  11.52  0.001323898    6.416    0.844
        93  -9.9004    142.3407    183.3213   1.1452191012e+02   1.6111974667e+01    0.1499714    0.1184704  -0.68  0.000358134    1.720    0.419
        94  -9.4832    236.4774    182.5043   9.4704037168e+01  -2.0077198700e+00    0.1356828    0.1212412  -8.03 0.0008102338    1.008    0.008
        95 -10.4940      2.4010    180.3990   1.4584894583e+02   3.6676297878e+01    0.2795455    0.1461975  66.75  0.001552323    1.901    0.474
        96 -10.9820    244.5811    178.1446   9.2369835084e+01  -2.6913623883e+00    0.2718937     0.154806 -24.00   0.00127518    1.905    0.475
        97  -9.4889     36.0787    178.5098   1.3850753195e+02   3.3893975800e+01    0.1591211    0.1189597  42.27 0.0004890348    1.459    0.314
        98 -10.3295    200.1931    176.8131   1.0054649013e+02   5.8284525545e+00    0.2031292    0.1671019  -0.46 0.0005864594    1.329    0.248
        99  -9.4830     70.2024    177.6075   1.3056052594e+02   2.9824760240e+01    0.1627874    0.1310907  27.02 0.0004936212    1.503    0.335
       100 -11.1818    224.2899    178.3070   9.6111506121e+01   9.1731962610e-01    0.2766926    0.2496246  -8.51 0.0004624095    1.024    0.024
       101  -9.6444     59.6054    171.7708   1.3223353160e+02   3.2620312033e+01    0.1930246    0.1153904 -78.46 0.0009476114    1.704    0.413
       102  -9.6227     74.5022    171.4731   1.2861436201e+02   3.0629834540e+01    0.1365956    0.1240734 -84.92 0.0001221792    1.026    0.026
       103 -11.3738     12.6377    170.2163   1.4279045278e+02   3.8045876563e+01    0.2954338    0.1521122 -88.00  0.001065032    1.832    0.454
       104  -9.8000      4.5223    168.0125   1.4433581315e+02   3.9203904951e+01    0.1879435   0.09112938 -74.59  0.001044193    1.626    0.385
       105  -9.6798    209.8832    166.2035   9.6359225070e+01   5.8977289375e+00    0.2020267    0.1666171   4.52 0.0005610125    1.326    0.246
       106 -10.6264     41.5302    165.9477   1.3573570818e+02   3.6160769139e+01    0.1951955     0.109885 -68.82 0.0005751821    1.543    0.352
       107  -9.6868     67.1915    165.1466   1.2941686145e+02   3.3145201570e+01    0.1933956    0.1480396  76.72 0.0006638277    1.356    0.262
       108 -10.6931     51.4844    164.5482   1.3316380078e+02   3.5323536617e+01    0.2936441    0.1779765 -33.97   0.00138333    2.472    0.595
       109 -10.7332     45.0244    164.0308   1.3464961950e+02   3.6207612142e+01    0.2162693    0.1396188  75.60  0.001141351    1.719    0.418
       110  -9.4350    200.2028    162.8241   9.7574192108e+01   8.5064228178e+00    0.1969914     0.168782   9.54 0.0004779488    1.250    0.200
       111 -10.9255     36.3015    162.6733   1.3655510541e+02   3.7484133441e+01    0.2322419    0.1528242 -80.78 0.0008422666    1.378    0.275
       112 -10.5063     36.9848    158.2512   1.3581699390e+02   3.8430878127e+01    0.2683745    0.1560735 -67.58  0.001446466    1.464    0.317
       113 -10.3374    246.5046    162.4844   8.8824160229e+01  -3.9717833699e-01    0.1350539    0.1219337 -24.48 1.141053e-05    1.040    0.039
       114  -9.9843    196.6802    169.3176   9.9691808301e+01   7.9701997675e+00     0.145354     0.119582 -88.99 0.0007041568    1.661    0.398
       115 -10.7780    247.9246    158.6674   8.7789735973e+01  -1.8652068361e-03    0.1872115    0.1758549  17.31  0.001138736    1.130    0.115
       116 -10.0970    238.6847    158.4270   8.9329024631e+01   1.7291549858e+00    0.2480012    0.1610598 -18.93   0.00117943    1.796    0.443
       117 -10.9144     22.0174    156.0245   1.3912839124e+02   4.0407371758e+01    0.3625103    0.2085506  46.54  0.002060935    1.882    0.469
       118  -9.4388     23.7139    152.6480   1.3831284594e+02   4.1022084666e+01    0.2164327    0.1109124 -54.36 0.0005904177    1.771    0.435
       119  -9.0437    235.6775    154.6934   8.9065825155e+01   2.9521589292e+00    0.1416913    0.1058631   1.35 0.0005027506    1.642    0.391
       120  -9.5239    217.0029    155.0000   9.2556247242e+01   6.5627130533e+00    0.2379485   0.08236434  46.57  0.000808349    2.984    0.665
       121 -10.0068    196.9881    153.7532   9.6239832100e+01   1.0948527028e+01    0.2024674     0.126505  45.18 0.0008906833    1.609    0.378
       122  -9.3835    151.5364    153.4628   1.0623958870e+02   2.0743920328e+01    0.1550255    0.1472201  77.22 0.0003789077    1.086    0.079
       123 -10.1581     11.0613    152.8858   1.4135116807e+02   4.2046443094e+01    0.2766638    0.1473588  33.84  0.001587839    2.156    0.536
       124 -10.4221    178.1909    151.4668   9.9713641812e+01   1.5441905639e+01    0.3275872    0.2701254  75.13  0.001597302    1.457    0.314
       125  -9.6389     93.0359    148.2248   1.1983612448e+02   3.3198141108e+01    0.1922636    0.1199652  37.76 0.0007586824    1.674    0.403
       126  -9.3281    233.5366    146.5164   8.7685290031e+01   4.8221809044e+00    0.1406518    0.1299376 -26.86 2.147028e-05    1.004    0.004
       127 -10.3853    207.1004    146.0408   9.2484861333e+01   1.0307375475e+01    0.2490528     0.216358  40.98 0.0006674224    1.175    0.149
       128 -10.4477      2.9631    144.0299   1.4229596439e+02   4.4625545148e+01    0.1892396    0.1100716 -49.39  0.001131813    1.704    0.413
       129  -9.9534     49.4226    141.9154   1.3024590359e+02   4.0852845772e+01    0.2004412    0.1674474 -41.30 0.0004004939    1.280    0.219
       130 -11.2790      9.5593    145.5292   1.4088172517e+02   4.3812426389e+01    0.3436192    0.1770764  52.43  0.001870715    2.240    0.554
       131 -10.7319    236.5543    138.9588   8.5523852066e+01   5.5798052093e+00    0.2441799    0.2086342  47.38 0.0003958216    1.266    0.210
       132 -10.4757     55.3928    136.6700   1.2774686916e+02   4.1364954286e+01    0.6222149    0.3182542  67.72  0.002218439    3.994    0.750
       133 -11.1104      2.7577    137.8016   1.4165156459e+02   4.6021557607e+01    0.3690099    0.1262267 -66.62 0.0006395006    2.142    0.533
       134 -10.4051      5.6892    133.7171   1.4043987518e+02   4.6730043127e+01    0.1826957    0.1512185 -46.29 0.0005442657    1.294    0.227
       135 -10.8305     40.3497    135.8024   1.3167133786e+02   4.3274796374e+01    0.2100861    0.1995018  86.52 0.0005257106    1.134    0.118
       136 -10.5660     21.9827    135.9032   1.3654759553e+02   4.4990768656e+01    0.2645718    0.1937763  57.58  0.001653982    1.544    0.352
       137  -9.9922    138.0143    135.4794   1.0541679736e+02   2.7566200992e+01    0.2412875    0.1519415  41.14  0.001026669    1.598    0.374
       138  -9.1555     74.5950    135.5295   1.2227207720e+02   3.9057013864e+01    0.1396975    0.1269447 -64.24 8.056272e-05    1.021    0.021
       139 -10.1033     80.0489    133.3176   1.2032028103e+02   3.8759177907e+01    0.2388557    0.1820116 -47.01 0.0004453149    1.262    0.208
       140 -11.7685     36.7435    130.7536   1.3182778562e+02   4.4806962856e+01     0.357846    0.3123246  -0.75  0.001913047    1.404    0.288
       141 -10.1285     74.0383    129.3470   1.2117403036e+02   4.0576335215e+01    0.2455474    0.1798041 -45.83 0.0008440865    1.308    0.236
       142  -9.4308    243.0433    128.4659   8.2172951600e+01   6.1531833659e+00    0.1877409    0.1383542  51.25 0.0004674759    1.488    0.328
       143 -11.1361      1.7163    125.7018   1.4046752284e+02   4.8764195902e+01    0.3558476    0.1178948 -59.44 0.0004837734    2.151    0.535
       144 -10.1104    219.8141    124.6486   8.5247367139e+01   1.1626287895e+01    0.2387294    0.1935093 -28.97 0.0006029385    1.260    0.206
       145  -9.5346     20.1726    121.6111   1.3493533073e+02   4.8368361032e+01    0.1528344    0.1140089  -8.57   0.00094756    1.732    0.422
       146 -11.2123     10.1924    122.5844   1.3780946285e+02   4.8895080470e+01    0.2387064    0.2116584  65.29  0.001055892    1.302    0.232
       147 -11.7488     23.4727    107.1803   1.3157444870e+02   5.1309267251e+01    0.4510162    0.3233473  66.46  0.002690407    1.834    0.455
       148 -11.4823     17.5128    117.0958   1.3497513972e+02   4.9583234876e+01    0.3935574    0.2152416 -46.30  0.002193868    1.660    0.398
       149  -9.8487     10.9807    109.2492   1.3560102714e+02   5.1779568209e+01    0.2119179    0.1673213   7.65  0.001095465    1.576    0.366
       150 -10.2866     19.6679    113.1844   1.3372963457e+02   5.0285987426e+01    0.2290469    0.1494595 -62.18 0.0008727418    1.244    0.196
       151 -12.2104     16.9246    108.5677   1.3375727145e+02   5.1510248263e+01    0.3868104    0.3020181 -54.13            0    1.059    0.056
       152 -11.9651      9.2962    136.6568   1.3989133834e+02   4.5819496667e+01    0.2507973    0.2026179 -34.85 0.0001402202    1.456    0.313
       153 -10.8521     86.0222    116.5723   1.1492811705e+02   4.1654853383e+01    0.2596369    0.1979541 -50.51 0.0008142691    1.240    0.194
       154  -9.7588    179.2887    116.5786   9.1199145757e+01   2.2293022499e+01    0.2072803    0.1454606  40.39 0.0004783205    1.492    0.330
       155 -11.4663     36.1384    110.9648   1.2849245969e+02   4.9349651211e+01    0.5198014    0.2802582 -56.83  0.001866881    1.539    0.350
       156  -9.8993     66.4389    112.8697   1.1982186361e+02   4.5405333952e+01    0.2045524    0.1821674  54.15 0.0003939787    1.270    0.213
       157  -8.8452    212.5286    112.4684   8.3726396408e+01   1.5463086334e+01     0.145497     0.140199 -54.27 0.0002962351    1.015    0.014
       158 -10.1286     55.2811    109.8588   1.2250510823e+02   4.7514380469e+01     0.325312    0.1614028  16.76  0.001346795    2.998    0.666
       159 -10.1602     43.5833    109.6355   1.2599403046e+02   4.8892320201e+01    0.3382098    0.1719786 -23.40   0.00133434    3.448    0.710
       160  -9.5316    167.4613    109.4454   9.1963663781e+01   2.6454720213e+01    0.1526895    0.1500636  67.23 0.0001309307    1.003    0.003
       161 -11.0478      3.4821    100.4740   1.3640146405e+02   5.4142596000e+01    0.2752621    0.2144288 -88.56 0.0009310585    1.401    0.286
       162 -10.1552      6.4903    106.4906   1.3646793071e+02   5.2669398227e+01    0.2979375    0.1267135 -54.19   0.00157551    1.771    0.435
       163 -10.6837      2.9719    105.2701   1.3729993460e+02   5.3144128369e+01    0.2998872    0.1951562 -77.71  0.001441184    1.447    0.309
       164  -9.2583    133.2951    107.3817   9.9584079492e+01   3.4615467202e+01    0.1598032    0.1215936  -3.80 0.0007019727    1.759    0.431
       165 -10.0437     62.1485    107.1005   1.1980400893e+02   4.7260746411e+01    0.2087533    0.1681699 -31.26 0.0004804858    1.233    0.189
       166 -10.6650    243.5064    104.4873   7.6885404445e+01   1.0199856659e+01    0.1367813    0.1252819 -48.86 0.0008102241    1.038    0.037
       167  -9.9655    223.4807    103.9915   7.9884369349e+01   1.4554059621e+01    0.2073725     0.193813  83.87  0.000534072    1.089    0.082
       168 -10.7650     10.3691    102.6335   1.3470204920e+02   5.3255713784e+01    0.2770564    0.1781736  63.38  0.001600734    2.171    0.539
       169 -10.7550     69.7658    102.4276   1.1636457539e+02   4.7244960938e+01    0.2637416    0.2384068  42.47 0.0007428638    1.233    0.189
       170 -10.7984    247.9554    102.3132   7.5770280206e+01   9.6570089858e+00    0.1882566    0.1768916 -85.03 0.0007821192    1.106    0.096
       171 -10.5379     35.6098    101.3120   1.2672939254e+02   5.1525536636e+01    0.2188864    0.1947017  18.64  0.001031828    1.296    0.228
       172 -10.2120     27.7265    101.0368   1.2912332530e+02   5.2297153182e+01    0.2281068    0.1376987 -38.21  0.001027424    1.588    0.370
       173 -10.0064    120.0267    101.1886   1.0141479340e+02   3.8694624792e+01    0.2517808    0.1741728  13.83  0.000965626    2.023    0.506
       174  -9.0787     91.6859    101.2870   1.0946222806e+02   4.4048320312e+01    0.1380409    0.1148961  81.78 0.0003082819    1.584    0.369
       175  -9.1028     84.6930    100.3508   1.1130018284e+02   4.5417413389e+01    0.1404973    0.1133851  88.88 0.0004507061    1.710    0.415
       176 -11.0832     20.1737     96.6975   1.3063220617e+02   5.3840356943e+01    0.3068267    0.1580732 -65.39  0.001620182    1.757    0.431
       177 -10.5848     63.3613     98.4419   1.1737128023e+02   4.8983645202e+01    0.4409374    0.2211516  28.41  0.001996151    2.254    0.556
       178  -9.1697    141.0306     97.2361   9.4911177695e+01   3.4946364830e+01    0.1911588    0.1258674  46.92 0.0001946877    1.489    0.328
       179 -10.4888      1.9913     93.3497   1.3568209507e+02   5.5735108010e+01    0.3405143    0.1116993 -53.00  0.001672885    2.122    0.529
       180  -9.2447    227.4771     93.4746   7.6843658558e+01   1.5490582712e+01    0.1411172    0.1297701 -64.37   9.9428e-05    1.004    0.004
       181 -11.2744     11.3859     91.1792   1.3235459428e+02   5.5628687269e+01    0.3005218    0.1940498   1.96  0.001866477    1.912    0.477
       182 -11.2184      6.0728     87.5675   1.3337581753e+02   5.6711095089e+01    0.4208376    0.2122179  51.69 0.0005499489    3.307    0.698
       183  -9.6206    170.9987     91.2205   8.6461836634e+01   2.9082407079e+01    0.2225175    0.1773628  -4.35  0.001053124    1.624    0.384
       184 -10.8206     96.3773     90.1930   1.0505767700e+02   4.5505476185e+01     0.441014    0.2704731  -3.79  0.001652248    3.084    0.676
       185 -10.3420     26.2961     90.8489   1.2749437412e+02   5.4596124010e+01    0.2346962     0.167121  -4.90  0.001440788    1.639    0.390
       186  -9.1933     38.2177     90.3630   1.2349906863e+02   5.3614227999e+01     0.131086   0.07676087 -38.48 0.0001787797    1.568    0.362
       187 -10.3612     73.0711     88.8069   1.1181571303e+02   4.9630324250e+01    0.1856701    0.1805909 -73.03 0.0003663018    1.208    0.172
       188  -9.1146     21.2918     91.3400   1.2921519177e+02   5.4892869073e+01    0.1291255   0.07249058 -38.18  0.000396541    1.649    0.394
       189  -9.3562    103.5384     88.5208   1.0249311314e+02   4.4507608662e+01    0.1435595    0.1371695  -6.63 0.0002799705    1.014    0.014
       190 -10.2932     40.3228     80.8882   1.2050375103e+02   5.5354220463e+01    0.3349077    0.2209024  57.41  0.001737369    2.468    0.595
       191 -10.2468     45.2505     87.0506   1.2039242158e+02   5.3573881802e+01    0.2262794    0.1719788 -39.72 0.0003708669    1.134    0.118
       192 -11.4480     48.3369     85.0184   1.1885842225e+02   5.3648244747e+01    0.4194505    0.3162113  73.05  0.000413337    2.129    0.530
       193 -10.4957    112.8333     85.7406   9.9063244526e+01   4.3220620638e+01    0.2995245     0.243723  49.84 0.0009974244    1.279    0.218
       194 -10.8698     67.1811     85.4801   1.1279248822e+02   5.1157311610e+01    0.2603214    0.1777868 -43.88  0.001393783    1.342    0.255
       195 -10.5844    117.9499     83.4483   9.6994876525e+01   4.2602840740e+01    0.3015959     0.248839  -1.59 0.0005638435    1.359    0.264
       196  -9.8695     29.9450     81.9749   1.2429409065e+02   5.6124081688e+01    0.1821083    0.1492506 -43.39 0.0003570461    1.032    0.031
       197 -11.3839     17.8066     81.0655   1.2819733156e+02   5.7283384742e+01     0.497957    0.2828704  11.04  0.002873303    2.124    0.529
       198 -11.2846     23.7964     79.6358   1.2584028802e+02   5.7117120717e+01    0.3031565     0.179995 -59.65  0.001084857    1.546    0.353
       199 -10.8388     85.0317     80.8290   1.0581069447e+02   4.9318071647e+01    0.2482176    0.1896264 -37.80  0.001345254    1.252    0.201
       200 -10.7715     75.4222     80.1900   1.0865428393e+02   5.0988084639e+01    0.3451438    0.1814093 -39.67  0.001591439    1.808    0.447
       201 -11.1833     71.3344     79.0810   1.0965194633e+02   5.1821476681e+01     0.283121    0.2382748 -12.19   0.00059271    1.142    0.125
       202 -10.2266     74.3448     76.3142   1.0787074736e+02   5.1897177143e+01    0.2273452    0.1752452   0.38  0.001258627    1.388    0.280
       203 -10.1688      2.3115     72.1921   1.3160552961e+02   6.0038901895e+01    0.2523009    0.1559415 -40.96 0.0006815197    1.299    0.230
       204 -11.8056      3.5987     77.7875   1.3230726133e+02   5.8852124096e+01    0.3895601    0.2514327 -38.59  0.001161192    1.318    0.241
       205 -10.8008      7.9654     73.5248   1.2992764021e+02   5.9453089676e+01    0.2724305    0.1943514  -3.37  0.001860603    1.570    0.363
       206  -9.2948     81.2760     79.0121   1.0645289234e+02   5.0286880240e+01    0.1635875    0.1147105 -40.16 0.0003169606    1.361    0.265
       207 -11.0974    150.0727     77.4228   8.7258629962e+01   3.6511145287e+01    0.3022837    0.2292532 -41.18 0.0004528025    1.373    0.271
       208 -11.6756     58.5457     75.5249   1.1286633760e+02   5.4292374602e+01    0.5124148    0.3532621  69.76  0.002371215    3.003    0.667
       209 -12.0414     62.7148     72.0968   1.1046494720e+02   5.4386591966e+01    0.4056752    0.3353613 -45.05  0.001237401    1.243    0.195
       210  -9.9253    177.2747     76.4002   8.1290508470e+01   3.0158245703e+01    0.2112121     0.138416  69.40 0.0009415324    1.666    0.400
       211  -9.6687    121.5452     76.4708   9.3981945496e+01   4.3113874004e+01    0.1452488    0.1378634  19.33 0.0008082085    1.004    0.004
       212 -10.6939     36.3675     68.2864   1.1855347321e+02   5.8226455121e+01    0.3583889    0.2201304 -24.83  0.002018451    1.633    0.388
       213 -10.7964     31.2023     66.4855   1.1992008849e+02   5.9063492400e+01    0.2985143    0.2071934 -50.03  0.001115839    1.320    0.242
       214 -10.1916     44.9772     75.0199   1.1736673926e+02   5.6024428977e+01    0.2725772    0.1793785   6.21  0.001445864    1.757    0.431
       215 -11.0521     40.3875     72.8682   1.1838125756e+02   5.6936271841e+01    0.3186403    0.2596354 -61.50 0.0007198108    1.423    0.297
       216 -10.0622    145.2553     72.0062   8.6815943759e+01   3.8559925251e+01    0.3387008    0.1591528 -49.64   0.00125666    2.624    0.619
       217 -10.0725    109.6919     73.3373   9.6267251053e+01   4.6131345974e+01    0.1397877    0.1161603 -82.24 0.0002344207    1.679    0.405
       218 -10.4400    102.7005     73.0402   9.8167223719e+01   4.7565144657e+01    0.1977593    0.1787306  -7.50 0.0004973707    1.066    0.062
       219 -10.6532     27.7157     71.3429   1.2245496559e+02   5.8440208515e+01    0.4575914     0.176186 -59.73  0.001988915    2.794    0.642
       220 -10.4984     21.6236     66.0072   1.2327475316e+02   5.9973541370e+01    0.2455588      0.16344  26.19  0.001296995    1.740    0.425
       221 -10.6899     16.9105     72.4907   1.2656380532e+02   5.9068152205e+01    0.2117247    0.1721205 -70.03 0.0008131569    1.422    0.297
       222 -10.5398     16.4893     67.5618   1.2552927974e+02   6.0060896953e+01    0.2517865    0.2082389 -72.84  0.001231992    1.498    0.333
       223  -9.4878    244.8192     72.6274   6.9816433198e+01   1.5105099304e+01     0.178047     0.119635  80.29 0.0005200582    1.619    0.382
       224 -10.1737    175.0476     71.8469   8.0512590753e+01   3.1449215657e+01    0.2409454    0.2080429 -41.46 0.0003616778    1.207    0.172
       225 -10.1113    152.2783     72.0210   8.5241074857e+01   3.6904075085e+01    0.2057323    0.2019735 -35.07  0.001164694    1.072    0.067
       226 -11.0061     78.2354     72.0047   1.0532669416e+02   5.2090097150e+01    0.3420443    0.1880458  43.94  0.001026131    1.999    0.500
       227 -10.4015    140.9576     71.5195   8.7673812069e+01   3.9639393607e+01    0.2265415    0.1387094  49.88   0.00060508    1.546    0.353
       228 -11.4417     95.6457     67.2438   9.8449336706e+01   4.9916883407e+01    0.5668157    0.3337708 -28.07  0.002038009    1.838    0.456
       229 -10.3042     92.9224     61.5668   9.7465500259e+01   5.1377537751e+01    0.3172095    0.1867305 -30.52 0.0006070734    1.748    0.428
       230 -11.9627     49.6348     69.6999   1.1425560648e+02   5.6513231285e+01    0.4522339     0.315889 -19.94  0.001910026    1.422    0.297
       231 -10.6885     51.6488     62.4525   1.1138878560e+02   5.7604565784e+01    0.2818433    0.1844351 -24.91 0.0008191917    1.466    0.318
       232  -9.9322    160.5575     69.4955   8.2763068170e+01   3.5338813752e+01    0.1462128     0.139083  57.05 0.0008078007    1.015    0.014
       233 -11.2624     68.6467     67.2045   1.0699545952e+02   5.4440861295e+01    0.2763692    0.1991445 -33.18 0.0002936806    1.282    0.220
       234  -9.2333    230.4782     68.5608   7.0788632621e+01   1.8860810802e+01    0.1354795    0.1218158 -75.26 0.0001176576    1.019    0.019
       235 -12.0030      4.4662     65.3812   1.2935747874e+02   6.1250399337e+01     0.452902    0.3224581  73.57  0.002450221    2.391    0.582
       236  -9.6399    146.7508     65.9827   8.4740724139e+01   3.9192714549e+01    0.1928278    0.1860326 -36.29 0.0002574296    1.099    0.090
       237 -10.7012     77.0881     65.2603   1.0360826233e+02   5.3483018689e+01    0.2343298    0.1849391  51.23   0.00104589    1.575    0.365
       238 -10.1007    174.0462     63.9262   7.8588954560e+01   3.2948962479e+01    0.2208333    0.2006609  72.65 0.0005133328    1.040    0.039
       239 -10.1205    130.0204     63.9841   8.8072319249e+01   4.3360404824e+01    0.2087383    0.2017609  19.11 -0.005334738    1.043    0.041
       240 -11.2924     83.7635     62.2973   1.0052802097e+02   5.2883561238e+01     0.474483    0.3013661  37.35  0.002198611    1.553    0.356
       241  -9.9982     86.3392     58.6815   9.8549541706e+01   5.3036336745e+01    0.2401019    0.2104774  62.80  0.001225786    1.500    0.334
       242 -10.0060     41.7532     64.1797   1.1545007156e+02   5.8437833572e+01    0.1674638    0.1510305 -20.86  0.001147111    1.138    0.121
       243 -11.1998     56.6874     62.1125   1.0950705783e+02   5.7022292518e+01    0.3323522    0.2129633 -17.50  0.001390699    1.690    0.408
       244 -10.9299     10.8538     62.6327   1.2637163088e+02   6.1389240858e+01    0.2062095     0.195022 -24.89 0.0003979597    1.271    0.213
       245  -9.5094    202.4396     62.4588   7.3394331860e+01   2.6295133158e+01    0.1398315    0.1292594  89.22 0.0001198965    1.024    0.023
       246 -10.6212    121.9168     61.8316   8.9451725058e+01   4.5491111321e+01    0.2211275    0.1825448  21.37 0.0005048212    1.241    0.194
       247 -10.8944     70.1216     59.3162   1.0400584953e+02   5.5598556495e+01    0.3624063    0.3087853 -48.19  0.002225506    1.400    0.285
       248 -11.0940     64.3982     59.5432   1.0602002222e+02   5.6408841136e+01    0.3291614    0.1923203  31.97   0.00155804    1.734    0.423
       249 -10.0198     38.5077     58.4939   1.1494563031e+02   5.9818396227e+01    0.2330276    0.1313767  -4.29  0.001162274    2.338    0.572
       250 -11.4298     26.9784     61.4656   1.2008558499e+02   6.0384645819e+01    0.3652288    0.1897723  13.88  0.001976862    2.231    0.552
       251 -11.4065     33.5618     59.7400   1.1714868893e+02   6.0094094774e+01    0.2714243    0.1877876 -19.29 0.0006556917    1.354    0.262
       252  -9.6828    160.5279     61.0785   8.0425588549e+01   3.6667792188e+01    0.2082178    0.1451066 -34.25  0.001014514    1.541    0.351
       253  -9.7079     18.0028     59.2485   1.2283300318e+02   6.1524556664e+01    0.1521442    0.1215222 -69.76 0.0005474567    1.625    0.385
       254 -10.0100    113.1212     57.6409   9.0448251312e+01   4.8022247169e+01    0.3585621    0.1476407  43.15  0.001409179    2.307    0.567
       255 -10.3419     44.3769     57.6176   1.1251700933e+02   5.9330216510e+01    0.2410813    0.1814144  32.64 0.0006462787    1.522    0.343
       256  -9.5887    136.7315     57.6818   8.4572684732e+01   4.2811492431e+01     0.142013    0.1073647  18.54 0.0001730014    1.558    0.358
       257 -10.7716    123.0688     56.6071   8.7539672365e+01   4.6046864908e+01    0.2474457    0.2077461 -69.89  0.000872076    1.531    0.347
       258 -10.7717    101.7528     55.6004   9.2938679142e+01   5.0646985592e+01    0.4912318    0.2110419  48.33  0.001681494    2.300    0.565
       259 -12.0115     37.9369     51.7727   1.1307461704e+02   6.1056745784e+01    0.5822027    0.3555556 -26.39  0.002749677    1.496    0.331
       260 -10.5084     44.7998     51.6576   1.1046454283e+02   6.0308899226e+01    0.2560631    0.1822488 -26.14 0.0003841178    1.210    0.174
       261 -11.0683      3.6859     53.6573   1.2681737559e+02   6.3498055944e+01    0.2373818    0.2065659 -43.91   0.00185734    1.225    0.184
       262 -11.4026      6.6658     51.6625   1.2514068161e+02   6.3684984807e+01    0.3591305   0.09355177 -47.71  0.001668618    2.555    0.609
       263 -11.8574    127.9983     51.5712   8.4764406530e+01   4.5693274289e+01    0.3829904    0.2958394 -15.74 0.0004976215    1.446    0.308
       264 -10.1051     87.1344     52.4942   9.6256683651e+01   5.3876109657e+01    0.1904579    0.1800639  37.02 0.0008618748    1.236    0.191
       265 -11.3301     13.7281     50.9458   1.2218143709e+02   6.3346641111e+01    0.3526523    0.3047856 -40.77  0.002234917    1.238    0.192
       266 -10.9931     11.3703     44.0998   1.2112898306e+02   6.4711087994e+01    0.3490191    0.2213275 -28.02  0.001372105    1.283    0.220
       267 -11.9820      6.9913     41.4615   1.2212996426e+02   6.5456524868e+01    0.5294137    0.1135665 -46.94 0.0007254044    3.013    0.668
       268  -9.3529    122.5031     51.4292   8.6060458055e+01   4.6933842609e+01    0.1426342    0.1240891  29.84 9.027577e-05    1.081    0.075
       269 -10.9134    114.6180     49.4291   8.7426496112e+01   4.8924501240e+01    0.3499343     0.257281 -25.62  0.001886024    1.441    0.306
       270 -10.2721     71.6981     51.4059   1.0085608782e+02   5.6648488587e+01    0.3402597    0.1857127  34.56  0.001028639    1.796    0.443
       271 -10.3037     76.7400     50.4285   9.8859160948e+01   5.5986191710e+01    0.2449745    0.1469557  34.35 0.0005265339    1.607    0.378
       272 -10.6136    107.7692     48.9613   8.9092901614e+01   5.0422958435e+01    0.2377646     0.175704  36.08  0.001293774    1.250    0.200
       273 -10.8914     51.4403     48.4252   1.0694182564e+02   6.0027250667e+01    0.2476066    0.2152695  63.22  0.000754381    1.864    0.464
       274  -9.2231    208.5984     48.5386   6.9160112099e+01   2.6850386047e+01    0.1354232    0.1202174 -83.51 5.493377e-05    1.018    0.018
       275  -9.6309    196.8343     48.1981   7.0748483845e+01   2.9706256914e+01    0.1748234    0.1545117  44.72 0.0002545446    1.277    0.217
       276 -10.7341    153.3757     47.1985   7.7919972509e+01   4.0388680370e+01    0.4719996    0.2437188 -65.92  0.001511396    4.451    0.775
       277 -10.9308    101.0612     48.4537   9.0783030498e+01   5.1849104311e+01    0.2848698    0.1955869  36.81 0.0009887749    1.350    0.259
       278 -10.7341    142.6410     46.0087   7.9768466635e+01   4.3097706606e+01    0.2834325    0.2466244 -57.41 0.0006873666    1.304    0.233
       279 -10.4766     62.2812     47.2207   1.0264716134e+02   5.8732456619e+01    0.3257397    0.1616592  24.09  0.001491417    2.309    0.567
       280  -9.3379     23.2120     46.3559   1.1706873137e+02   6.3401306433e+01    0.1186628   0.06587029 -30.40 0.0006813976    1.549    0.355
       281  -9.1162    233.2984     45.3043   6.5345605091e+01   2.1614650890e+01     0.118528    0.1010662  36.55 0.0003651587    1.587    0.370
       282 -10.7060    122.8146     44.2280   8.3706465671e+01   4.7864349884e+01    0.3376116    0.3325178  74.94  0.002112357    1.155    0.134
       283  -9.6844     91.6440     44.8328   9.2291991449e+01   5.4180785369e+01    0.1713578    0.1189741 -39.40 0.0001185056    1.596    0.373
       284 -11.6266     96.5696     40.5418   8.9384729003e+01   5.3829100611e+01    0.5183597    0.3857239 -61.04  0.002743293    2.094    0.522
       285  -9.3282    175.5181     43.0172   7.2755855935e+01   3.5579588070e+01    0.1870715     0.139101 -33.73  0.000365345    1.484    0.326
       286 -10.5762    163.0388     42.5130   7.4773342512e+01   3.8680535998e+01    0.1919794    0.1884852 -72.56 0.0003097455    1.110    0.099
       287 -11.0069     64.6553     41.5899   9.9844851288e+01   5.9230304147e+01    0.2386283    0.1989083 -17.01 0.0008757783    1.131    0.116
       288 -10.1115    110.4898     41.9488   8.6060351812e+01   5.0824099011e+01    0.2599466    0.1798565  64.29 0.0007401916    1.734    0.423
       289 -10.8071     80.8852     41.9693   9.4599380165e+01   5.6530848679e+01    0.2246747     0.189515  43.37  0.001073627    1.324    0.245
       290 -10.0667     56.4370     41.6876   1.0278721065e+02   6.0409458478e+01    0.2291188    0.1063536 -50.81 0.0009540457    3.452    0.710
       291  -9.6734     52.3095     42.2886   1.0450342224e+02   6.0878912993e+01    0.1248778   0.08214356  -4.67 0.0002210607    1.578    0.366
       292 -10.5961     23.7544     41.6635   1.1534927445e+02   6.4139280725e+01    0.2105406    0.1841212 -19.09  0.001201855    1.221    0.181
       293  -9.3881     29.2132     40.6230   1.1281010169e+02   6.3799133459e+01    0.1954123    0.1081787 -25.64 0.0005530361    1.658    0.397
       294  -9.2945    235.5842     40.5597   6.4081166641e+01   2.1748683742e+01    0.1275833     0.108977 -77.95 0.0002497623    1.025    0.024
       295 -10.2606    226.4097     40.1374   6.5017179406e+01   2.3860064565e+01    0.2338715     0.168619  85.30 0.0004117065    1.288    0.224
       296 -11.2466    135.6631     38.6941   7.9048762061e+01   4.5672336014e+01    0.3712486    0.2393346 -20.86  0.001863542    1.815    0.449
       297 -11.2599     85.2251     38.6248   9.2070084973e+01   5.6218809914e+01    0.5832734    0.2200375  51.41  0.002283619    3.115    0.679
       298 -11.5475     81.6748     36.4188   9.2381887319e+01   5.7148621299e+01    0.3903705    0.2352785  27.00  0.001905115    1.646    0.392
       299  -9.7796     44.0876     39.1108   1.0645884812e+02   6.2406883989e+01    0.2162769    0.1399426 -38.87  0.001016664    1.507    0.336
       300  -9.6598    119.8327     38.8511   8.2704036356e+01   4.9220143908e+01    0.1703992    0.1566534 -62.37 0.0003209087    1.319    0.242
       301 -11.1508     70.2509     36.4214   9.6075429346e+01   5.9085188252e+01    0.4227218    0.2476843  -5.80  0.001172166    2.166    0.538
       302  -9.8740     19.7586     37.9896   1.1576653720e+02   6.5085014984e+01    0.2216671    0.1317027  -8.60 0.0007279046    1.703    0.413
       303  -9.9762     31.8681     34.0000   1.0943131177e+02   6.4563376064e+01    0.2371513    0.1339514  32.11 0.0007977019    1.930    0.482
       304 -10.7906     27.7400     35.6056   1.1167757353e+02   6.4735923391e+01    0.2518665    0.1538209 -17.01 0.0007983505    1.516    0.340
       305 -11.2028     24.1845     35.1761   1.1298514232e+02   6.5140943187e+01    0.2422401    0.1862244 -11.12  0.000514405    1.074    0.069
       306  -9.8890      1.4648     37.7879   1.2333257091e+02   6.6417014116e+01    0.1708108   0.08437507 -33.38 0.0004223565    1.597    0.374
       307  -9.5754    101.9947     37.0018   8.6660939653e+01   5.3214233372e+01    0.1632907     0.136336  34.21 0.0005360488    1.065    0.061
       308 -10.0129    146.0818     35.9612   7.6087749715e+01   4.3571555328e+01     0.220329    0.1495374  32.60  0.000733937    1.638    0.389
       309  -9.0814    142.3021     36.2823   7.6935582506e+01   4.4423409589e+01    0.1386805   0.09592082  33.33 0.0002485776    1.551    0.355
       310  -9.9049    111.0655     35.0199   8.3612349988e+01   5.1585195460e+01    0.1912614     0.175465  37.92 0.0003584088    1.088    0.081
       311  -9.9595    106.0746     34.1879   8.4615715428e+01   5.2730830259e+01    0.2334411    0.1727984 -61.48  0.001231442    2.040    0.510
       312 -10.5220    151.0100     34.0483   7.4585393517e+01   4.2630922285e+01    0.2094854    0.1827273  50.51 0.0005220942    1.062    0.059
       313 -11.3146      2.5325     32.5285   1.2126253122e+02   6.7224367990e+01    0.2800448    0.2283349  17.62  0.001079509    1.525    0.344
       314 -10.1359    137.0384    247.7095   1.2593213843e+02   4.4815913866e+00    0.1835059    0.1447575  44.56 0.0004301355    1.067    0.063
       315  -9.1139    119.6821    247.6765   1.2932616712e+02   7.3793200714e+00    0.1177383   0.09839334   9.23 0.0002913318    1.670    0.401
       316 -10.1656      7.9975     21.4669   1.1506133091e+02   6.8569256124e+01    0.1705216    0.1419454 -47.46 0.0006218128    1.655    0.396
       317  -9.8963    129.8239     33.1417   7.8594280667e+01   4.7684908787e+01    0.1898008    0.1785209  77.33 0.0004801444    1.174    0.148
       318  -9.6603     77.5147     33.4889   9.2633912266e+01   5.8259203947e+01    0.1303999     0.104961  12.35 3.567808e-05    1.081    0.075
       319 -10.4799    178.8604     31.8526   6.9305839207e+01   3.6168139696e+01     0.231243    0.1856726 -81.77            0    1.263    0.208
       320  -9.8357     89.9391     31.9392   8.8287878591e+01   5.6203287203e+01    0.1879961    0.1594309  21.96 0.0003304118    1.007    0.007
       321 -10.4819     18.7571     31.8904   1.1410450545e+02   6.6135259216e+01    0.1838626    0.1423546  45.00  0.001245651    2.135    0.532
       322  -9.8272     56.2205     31.0474   9.8969712932e+01   6.1954769388e+01    0.1550123   0.08894375 -30.17 0.0004962073    1.656    0.396
       323  -9.5911    101.0155     28.6877   8.4061000139e+01   5.4417557681e+01    0.1785701     0.145362  39.53 0.0003370347    1.093    0.085
       324 -10.2559    154.4208     27.7349   7.2158812566e+01   4.2545591547e+01    0.1748672    0.1318977  -3.17 0.0009514993    1.695    0.410
       325 -10.2619    124.8907     27.9496   7.8034008509e+01   4.9392312296e+01    0.1955176    0.1642912  38.29  0.001179513    1.074    0.069
       326 -10.2437     50.3137     27.3584   9.9737726911e+01   6.3273938962e+01    0.2625334     0.128793 -21.33  0.001134473    2.209    0.547
       327  -9.7105    203.8397     27.1071   6.4755736339e+01   3.0739843533e+01    0.1716694    0.1428731  55.25 0.0004062576    1.294    0.227
       328 -10.0838     90.2469     26.5974   8.6284855524e+01   5.6777474282e+01    0.2557121    0.1718403  65.48  0.001187808    2.091    0.522
       329 -11.0148     70.4299     25.9503   9.2123835369e+01   6.0399599319e+01      0.46951    0.1967203  37.13  0.002222959    2.195    0.544
       330 -10.6853     25.1334     26.7481   1.0954772890e+02   6.6318840103e+01    0.2816282    0.1671035   6.81  0.001047844    1.668    0.401
       331 -12.4019    226.4815    246.5080   1.0843589347e+02  -1.0142941459e+01    0.6447317     0.400437   3.16  0.003550329    1.867    0.464
       332  -9.7632    156.6604    245.7213   1.2178334163e+02   1.4768372495e+00     0.127406   0.09391385  16.68 0.0002831327    1.621    0.383
       333 -10.0963    148.3058    244.3411   1.2324329013e+02   3.1426582592e+00    0.1257508     0.098056   7.80 0.0004536141    1.683    0.406
       334 -10.6783    129.7875     24.6378   7.5939122636e+01   4.8646487076e+01    0.4043868    0.2257759 -54.14  0.001818521    2.665    0.625
       335  -9.6216    115.5040    244.5171   1.2975443645e+02   8.6343653446e+00    0.1289729    0.1067331  55.65 6.697054e-06    1.001    0.001
       336 -10.6041     19.9831     18.5657   1.0861310288e+02   6.7964975535e+01    0.2759078     0.161869  12.89  0.001185299    1.606    0.377
       337 -10.0238    215.9171     24.3710   6.2738869463e+01   2.8244106283e+01    0.2303303      0.15507 -56.97  0.001312829    1.430    0.301
       338  -9.3411    220.7831     24.3901   6.2217299082e+01   2.7125420060e+01    0.1724403    0.1037481  62.81 0.0003810207    1.562    0.360
       339 -10.5835     54.1966     23.3047   9.6726617335e+01   6.3245966430e+01    0.2213648    0.1662717   6.88 0.0005347136    1.110    0.099
       340 -10.5459     84.3121     22.2112   8.6401021848e+01   5.8385371966e+01    0.2152967    0.1606331  13.97  0.001099104    1.250    0.200
       341 -10.7044    103.9122     19.1754   8.0012688750e+01   5.4848191480e+01    0.2558444    0.1439597  36.28  0.001324433    1.641    0.391
       342  -9.2943     94.2685     22.3624   8.3642223377e+01   5.6466225716e+01    0.1317888   0.08486423  18.79 0.0006994231    1.649    0.394
       343 -10.4576     89.9759     21.6527   8.4571092644e+01   5.7376718234e+01    0.1760206    0.1346273  39.49 0.0002208145    1.150    0.130
       344  -9.8836    136.7469     20.0835   7.3146970070e+01   4.7521212987e+01    0.1772344    0.1572156  44.31 0.0003497221    1.070    0.065
       345  -9.2993     45.5313     20.5022   9.8857867009e+01   6.4796156470e+01     0.118613   0.09067386   1.48  0.000809641    1.032    0.031
       346 -10.5804     20.0253     15.4720   1.0735584272e+02   6.8375585113e+01    0.2465017    0.1537261  17.25 0.0006214436    1.486    0.327
       347 -11.8663     74.0327    238.2042   1.3707961246e+02   1.6246400559e+01    0.4308996      0.31954  85.90  0.002303144    1.251    0.201
       348 -10.0389    109.9484    242.9622   1.3065461436e+02   9.8246409518e+00    0.2116533    0.1337427  67.24  0.001009552    1.701    0.412
       349 -11.0593     31.4970    237.7407   1.4481837905e+02   2.1873213752e+01     0.309634    0.1809173 -81.29  0.001463481    1.511    0.338
       350 -10.7814     29.1512    232.9068   1.4487487115e+02   2.3089828134e+01     0.272043    0.1472275  57.21  0.001106613    1.551    0.355
       351 -10.7054    217.2679     16.3993   6.0856732256e+01   2.8851929089e+01    0.4583398    0.1200543  58.31  0.001744175    3.331    0.700
       352 -11.0471    156.4999    240.9129   1.2111388602e+02   2.3132440786e+00    0.2124115    0.1680973  57.05  0.001264685    1.282    0.220
       353 -10.0364    108.2577     17.1962   7.8279253839e+01   5.4134497229e+01    0.1833969    0.1485832  35.68 0.0005346268    1.060    0.057
       354  -9.6615     30.5274     12.4826   1.0159042941e+02   6.7639289697e+01    0.1593514   0.08683682 -20.82 3.367732e-05    1.652    0.395
       355  -9.9047     88.6404    241.1823   1.3459401698e+02   1.3509354265e+01    0.1598632    0.1093072 -56.22 0.0006840477    1.719    0.418
       356 -10.2513      9.8202     15.9751   1.1214945113e+02   6.9213199970e+01    0.1763856    0.1210476  -3.39 0.0007385612    1.210    0.174
       357  -9.3683     50.3049    240.3312   1.4167918070e+02   1.9066097794e+01    0.1008791   0.08987302 -50.12 0.0005711213    1.658    0.397
       358 -10.0503    195.7072    238.6487   1.1298145933e+02  -4.0679722321e+00    0.2367963     0.174882  20.25  0.001386605    1.282    0.220
       359 -11.4617    176.8037    235.8917   1.1627225883e+02  -3.8313581092e-01    0.5004262    0.3007604  -9.87  0.002084551    3.256    0.693
       360  -9.1468    102.3301     10.2858   7.7297309117e+01   5.6014324575e+01    0.1324199   0.07748095  32.72  0.000296752    1.615    0.381
       361  -9.8079     55.4316     13.6934   9.2428986756e+01   6.4177471569e+01     0.159594   0.09702104 -11.45 0.0007498707    1.612    0.380
       362 -10.9059     65.7231     21.2928   9.1899641212e+01   6.1719480296e+01    0.3121357    0.1847821  28.60 0.0009549204    1.523    0.343
       363 -11.8610     35.1159    241.6328   1.4447382390e+02   2.0695139427e+01    0.5043047    0.2544786  44.09  0.003019703    1.793    0.442
       364 -10.3462    159.9144    235.8815   1.1967080622e+02   2.5791770501e+00    0.2045219    0.1676238  22.08 0.0006431015    1.260    0.206
       365 -10.7444     73.9816    232.9988   1.3655736820e+02   1.7278903917e+01    0.2948418    0.1550537  45.91  0.001110087    1.658    0.397
       366  -9.3707    139.9509    227.4362   1.2248632812e+02   7.6292723688e+00    0.2135446    0.1176048  42.61  0.001021661    1.585    0.369
       367  -9.7475    108.1535     10.4046   7.5983886779e+01   5.4784797134e+01    0.1715769    0.1107081  66.96 0.0007232697    1.673    0.402
       368 -10.2395    167.0316    233.7720   1.1790265940e+02   1.6879317178e+00    0.2098371    0.1971624 -33.81 0.0007067112    1.222    0.182
       369 -11.0303    153.4348    233.6093   1.2064088698e+02   4.1178295252e+00    0.2435183    0.2006334 -15.18   0.00108899    1.536    0.349
       370  -9.7478     85.9924    233.1832   1.3422990670e+02   1.5465447964e+01    0.1866979    0.1227595  80.60 0.0006883848    1.609    0.379
       371  -9.9427     79.7477    231.4097   1.3526331133e+02   1.6753187640e+01    0.2036827    0.1411518  41.19 0.0005976026    1.430    0.301
       372 -11.9660      9.1249    242.2467   1.4888336504e+02   2.3457228036e+01    0.4257879    0.1714671  74.28  0.002167697    2.434    0.589
       373 -10.6887    180.9854    248.9121   1.1748117754e+02  -3.1675700014e+00    0.3151974    0.1249284 -36.22  0.001313866    3.368    0.703
       374  -9.1954     58.3628    230.2860   1.3928780819e+02   1.9994020662e+01    0.1045412   0.09666432 -23.87 0.0003833957    1.688    0.408
       375  -9.5912    169.5301    229.4734   1.1670828863e+02   1.9842700608e+00    0.1356777    0.1174506  30.46 0.0008088207    1.049    0.047
       376 -10.4367    190.4342    226.8810   1.1204856013e+02  -1.2845384419e+00      0.29787     0.160625 -41.45  0.001192778    2.063    0.515
       377  -9.3089    249.3363    227.2801   1.0093544493e+02  -1.0943223100e+01    0.1267626   0.08119521   6.11 0.0004312151    1.616    0.381
