#   1 NUMBER                 Running object number                                     
#   2 MAG_AUTO               Kron-like elliptical aperture magnitude                    [mag]
#   3 X_IMAGE                Object position along x                                    [pixel]
#   4 Y_IMAGE                Object position along y                                    [pixel]
#   5 X_WORLD                Barycenter position along world x axis                     [deg]
#   6 Y_WORLD                Barycenter position along world y axis                     [deg]
#   7 A_WORLD                Profile RMS along major axis (world units)                 [deg]
#   8 B_WORLD                Profile RMS along minor axis (world units)                 [deg]
#   9 THETA_WORLD            Position angle (CCW/world-x)                               [deg]
#  10 FWHM_WORLD             FWHM assuming a gaussian core                              [deg]
#  11 ELONGATION             A_IMAGE/B_IMAGE                                           
#  12 ELLIPTICITY            1 - B_IMAGE/A_IMAGE                                       
         1 -14.0264    183.4907     82.7974   8.2894766938e+01   2.7939399058e+01     7.210215     1.986917 -42.93   0.01923808    4.563    0.781
         2 -12.3949    180.8408     24.6508   6.5303894900e+01   3.6788426575e+01     2.249768    0.9682096  56.23  0.008145557    2.098    0.523
         3 -12.6427    210.7147     52.1645   6.9117894392e+01   2.5729834642e+01     1.305871    0.8739347 -44.39  0.006163001    1.585    0.369
         4 -14.6616    231.6261     52.7304   6.6302042825e+01   2.0636978895e+01      4.75462     2.420139 -55.37   0.01838182    2.850    0.649
         5 -12.9435    209.0907     65.1752   7.3093071423e+01   2.4382762884e+01     2.945823     1.160539 -51.39  0.007840389    5.349    0.813
         6 -13.5613    170.1867     61.0300   7.9128430890e+01   3.4676694870e+01     4.355803     1.946278 -56.47  0.002952724    6.976    0.857
         7 -14.2892    242.0891    100.2771   7.7020346659e+01   1.2180408589e+01     7.997822     1.860694 -28.94   0.02472238    3.919    0.745
         8 -13.9041    247.1998     23.4933   5.6879285143e+01   2.0347704616e+01    0.9559995     0.559716 -30.96  0.001512526    1.533    0.348
         9 -14.7373    242.5430      8.9180   5.3590890962e+01   2.2845712208e+01     2.722547    0.9619751  62.50   0.01133823    2.692    0.629
        10 -12.3790    187.9020     44.5138   7.0513667157e+01   3.2507151451e+01     2.067684    0.8865613 -42.55  0.007429759    2.574    0.612
        11  -9.2146    115.8006     12.4120   7.3828428290e+01   5.5062918591e+01    0.3397959    0.2223381  51.92  0.001571837    1.442    0.307
        12 -10.7630    120.3144      8.8926   7.1153539720e+01   5.4345163702e+01     0.476395    0.3985972  43.36  0.001646969    1.103    0.094
        13 -13.6966    138.1639     39.5650   7.9092750637e+01   4.5990588252e+01     3.758722     1.422652  56.19 0.0007728589    2.691    0.628
        14 -14.0166    246.9724     42.5354   6.1759788526e+01   1.8338934226e+01     1.128698    0.7613805 -34.09  0.006037344    1.350    0.259
        15 -11.2719      3.9625      5.3453   1.2098083202e+02   7.3431677322e+01    0.4777666     0.428189 -71.04   0.00363629    1.406    0.289
        16  -7.9215    175.6325      8.2996   6.0643824999e+01   3.9860513739e+01    0.1539309    0.1061184 -64.17 0.0007032496    1.733    0.423
        17  -9.5971    183.3822      3.4589   5.8019855802e+01   3.8221082870e+01    0.3857975    0.3280402 -53.43  0.002130397    1.247    0.198
        18  -8.9567    205.3937      3.5129   5.5543222979e+01   3.2435785109e+01    0.2132317    0.1551005 -12.74 0.0002116482    1.473    0.321
        19  -9.2060    172.3484      2.7565   5.9222996047e+01   4.1238888088e+01    0.4240946    0.2106758 -54.80  0.001630762    2.646    0.622
        20  -8.7189    153.5967      2.8746   6.2061305056e+01   4.6270611554e+01    0.3421555   0.09702403 -30.36  0.001128853    3.297    0.697
        21 -10.1549    133.9955      2.9120   6.5608266483e+01   5.1450908315e+01    0.3420315    0.2732225 -36.78  0.001804326    1.401    0.286
        22 -10.1355    116.8573      2.8423   6.9314518424e+01   5.5809401455e+01    0.6381949    0.2001546  63.28  0.002077727    3.363    0.703
        23  -8.4374    213.1478      2.1537   5.4383220580e+01   3.0577469383e+01    0.2233354    0.1414727 -58.10  0.001091937    1.685    0.407
        24  -8.5878    199.5635      1.3957   5.5522942108e+01   3.4129153140e+01    0.1379545    0.1266035 -76.13 0.0003298698    1.087    0.080
        25 -10.7177    225.3406    122.4153   8.5137038023e+01   1.2560813504e+01    0.3569165    0.2894666 -86.37  0.001799854    2.187    0.543
        26  -8.8429     96.3345    231.6718   1.2881330617e+02   1.7741661763e+01    0.1139963   0.06318295  58.91 -0.0001018557    1.722    0.419
        27 -10.9708    167.8019    114.4639   9.4839925469e+01   2.6073925396e+01    0.5104796    0.4652503 -22.92  0.001554478    1.128    0.113
        28  -9.8590    134.7614    113.7668   1.0270808168e+02   3.3104257695e+01    0.4181457    0.1911523 -50.03  0.001458988    2.431    0.589
        29  -8.5151    152.0140    107.0206   9.6691222467e+01   3.0858056266e+01    0.2392493    0.1934398 -86.17  0.001124473    1.796    0.443
        30  -8.4064    141.6638    103.6385   9.8408906312e+01   3.3712154822e+01    0.1622617    0.1172777   2.92 5.698928e-05    1.819    0.450
        31  -9.4449     40.0719    210.6852   1.3751577296e+02   2.7600076035e+01    0.1454503    0.1100242  52.88  0.001158069    1.124    0.110
        32 -10.6730    197.4060     98.9016   8.4509514806e+01   2.2103127317e+01    0.3667264    0.2562574 -42.91 0.0008857073    1.592    0.372
        33  -9.4487    147.6320     98.5612   9.5552764915e+01   3.3421661276e+01    0.3197871    0.2708798  20.37  0.001051323    1.185    0.156
        34  -9.9653    166.3020    209.8472   1.1326927728e+02   1.0759570010e+01    0.2078902    0.1558143  33.44 0.0002733095    1.041    0.039
        35  -8.8279    210.3228     94.4860   8.0898975409e+01   1.9850821849e+01    0.2646365    0.2055444 -53.11 0.0008075777    1.631    0.387
        36  -9.1161    134.5051     95.4382   9.8102024075e+01   3.6839589930e+01    0.2725883    0.2402975 -86.35 0.0005881102    1.428    0.299
        37 -10.1775    158.3008     90.9290   9.0828194836e+01   3.2465989547e+01    0.4606707    0.3372432  23.54  0.002123158    1.480    0.324
        38  -9.7392    141.6608     87.7398   9.4068161013e+01   3.6807070432e+01    0.3204078    0.2807502 -25.18 0.0008880954    1.139    0.122
        39  -8.8680    210.8390     86.1689   7.8595437031e+01   2.0964928556e+01    0.2903783    0.2141711  65.53   0.00139592    1.661    0.398
        40  -8.3593    206.6864     82.8926   7.8448691236e+01   2.2413242007e+01    0.2079641    0.1821627 -20.00 0.0004331194    1.107    0.097
        41 -11.2879    156.5524     80.6040   8.8253591830e+01   3.4732019662e+01    0.4155282    0.3877375   4.67 0.0008299669    1.021    0.020
        42  -9.3064    150.3372     80.3147   8.9683711165e+01   3.6233518590e+01    0.3332643    0.2395323 -76.51 0.0009846584    2.372    0.578
        43  -8.6360    202.2903     80.1001   7.8476080118e+01   2.3865579472e+01    0.2677586    0.2007294 -80.12   0.00111026    2.069    0.517
        44  -9.5947    164.0795     80.3449   8.6409240314e+01   3.2997117594e+01    0.2173622    0.2016849  39.50 0.0007870722    1.094    0.086
        45  -8.1260    145.0150     79.4560   9.0765472690e+01   3.7615439293e+01    0.2278317    0.1250447  27.09 0.0008029183    2.486    0.598
        46  -9.8068    191.1554     77.0273   7.9706224256e+01   2.7004633412e+01    0.2691366    0.2414253  66.58 0.0008431049    1.275    0.216
        47 -12.9622      9.6023    199.5637   1.4246068998e+02   3.2282254315e+01    0.7539783    0.5307885  72.37  0.003738468    1.076    0.071
        48  -9.4756    145.0176     70.8566   8.8108955234e+01   3.9179797162e+01    0.3888498    0.2031946 -51.19  0.001402065    2.560    0.609
        49  -9.2407    150.9910     70.2647   8.6433147249e+01   3.7872496005e+01    0.4352306    0.1700729 -47.93  0.001302021    3.584    0.721
        50 -12.9787     42.5791    176.0216   1.3479328496e+02   3.3628488671e+01    0.7690963    0.6663235 -39.25  0.001729469    1.608    0.378
        51  -9.1075    188.1844     63.1531   7.6193085133e+01   2.9832013903e+01    0.4046919    0.2025682 -41.36  0.000810569    2.129    0.530
        52 -10.6611    190.5932     67.2990   7.6976369946e+01   2.8618361937e+01    0.3885065    0.3560052  65.05 0.0008188773    1.207    0.172
        53 -10.3879    195.6570     64.1520   7.5114651278e+01   2.7823870375e+01    0.4614189    0.2793025  33.56  0.001430959    1.820    0.451
        54  -8.9588    223.4412     69.0453   7.1879284783e+01   2.0447771233e+01    0.3624661     0.206968  62.38   0.00159053    1.995    0.499
        55  -8.5976    124.3660     63.0546   9.1129769908e+01   4.5304515899e+01    0.2107283     0.185679 -25.33 0.0004792866    1.111    0.100
        56 -10.0959    144.3305     59.4420   8.4564946076e+01   4.1327540137e+01    0.3353133    0.2855646  87.91 0.0008286073    1.535    0.348
        57  -8.3980    146.6832     56.3151   8.2928933490e+01   4.1276362960e+01    0.2196782    0.1408986  42.18 0.0005006448    1.517    0.341
        58  -8.2497     72.5470     58.4880   1.0668793966e+02   5.5855359690e+01    0.1392381    0.1257149 -33.71 0.0001007774    1.029    0.028
        59 -12.2784     51.8568    168.8358   1.3221729665e+02   3.4073004832e+01    0.7282027    0.6176797  79.14  0.002495385    1.057    0.054
        60  -9.7305    180.4551     51.0221   7.3904271799e+01   3.3542536488e+01    0.4410532    0.2204122  54.75  0.001091668    1.925    0.480
        61  -8.7602    235.0292    174.0255   9.4421212605e+01   3.9842585197e+00    0.1720103    0.1612438  58.01 0.0008195639    1.735    0.423
        62  -9.0015    179.1560    146.8715   9.9738429542e+01   1.8111681170e+01    0.2394339     0.197838  -6.73 0.0006707968    1.236    0.191
        63  -9.1130    215.7856    168.5671   9.6837865011e+01   7.9976936520e+00    0.2958556    0.2042845  58.89  0.001499323    2.273    0.560
        64  -9.5697    201.4905     32.3450   6.4635976965e+01   3.0500065058e+01    0.4945919    0.2640705 -12.35  0.002008329    2.180    0.541
        65 -10.3166     68.1066    144.5086   1.2579417848e+02   3.7237608706e+01    0.5539767    0.2826678  55.53  0.002597661    2.115    0.527
        66  -8.2230    222.4853    145.4719   9.0854421864e+01   9.8990890565e+00    0.1379255    0.1172802  11.47 -1.957342e-06    1.053    0.051
        67  -8.1591    142.6881     18.3196   6.9979284285e+01   4.7616467172e+01    0.1496626    0.1155061 -61.78 0.0004616154    1.647    0.393
        68  -9.0806    211.6787    166.3402   9.7172634892e+01   9.0322224766e+00    0.2360176    0.1898112  54.35 0.0009569412    1.662    0.398
        69  -8.6045    113.7958    153.7410   1.1596098194e+02   2.8793681336e+01    0.1805869    0.1669188  25.33 0.0004319102    1.130    0.115
        70  -8.0474     20.4149    232.4355   1.4184811558e+02   2.5956857898e+01    0.0930341   0.06630549  61.58 0.0001640372    1.039    0.038
        71  -8.7569    192.1827    143.9971   9.6407982778e+01   1.6006182865e+01    0.1966012     0.188685  22.31 0.0004667024    1.218    0.179
        72  -8.3916    173.7153    144.3422   1.0037470058e+02   1.9605091824e+01    0.1328457    0.1156838  87.49 0.0007016703    1.638    0.390
        73 -10.2798    225.8854    141.1220   8.9290006952e+01   9.8509857416e+00    0.3071952     0.224236  40.87  0.001691784    1.377    0.274
        74  -8.5141    133.0000    141.0365   1.0905725749e+02   2.8000314654e+01     0.370734   0.08094805 -48.60  0.001051159    4.933    0.797
        75 -10.7876    188.2659    137.6558   9.5827648020e+01   1.7803997634e+01    0.3322811     0.284281  17.42  0.001352604    1.039    0.037
        76  -8.1788    111.7493    138.4161   1.1381450388e+02   3.2232264333e+01    0.1679011    0.1277915  28.68 0.0002401503    1.365    0.267
        77  -9.9803    210.8240    136.2764   9.1011343178e+01   1.3475261604e+01    0.2943806    0.1884963 -13.93  0.001422603    1.671    0.401
        78 -10.5722    159.1307    129.1057   1.0031732486e+02   2.5225571712e+01    0.5821043    0.3678938  20.61  0.002527339    1.969    0.492
        79 -10.9163    196.2738    128.9607   9.2203083950e+01   1.7557291866e+01    0.4627431     0.334767  88.64  0.001729573    3.078    0.675
        80  -9.4905    136.1775    127.5980   1.0550402719e+02   3.0058797031e+01    0.3697071    0.1047229 -48.78  0.001127144    3.932    0.746
        81  -8.6344    172.2692    124.9275   9.6362513943e+01   2.3259893275e+01    0.2493472     0.167264  -1.20 0.0008752205    2.002    0.500
