#   1 NUMBER                 Running object number                                     
#   2 MAG_AUTO               Kron-like elliptical aperture magnitude                    [mag]
#   3 X_IMAGE                Object position along x                                    [pixel]
#   4 Y_IMAGE                Object position along y                                    [pixel]
#   5 X_WORLD                Barycenter position along world x axis                     [deg]
#   6 Y_WORLD                Barycenter position along world y axis                     [deg]
#   7 A_WORLD                Profile RMS along major axis (world units)                 [deg]
#   8 B_WORLD                Profile RMS along minor axis (world units)                 [deg]
#   9 THETA_WORLD            Position angle (CCW/world-x)                               [deg]
#  10 FWHM_WORLD             FWHM assuming a gaussian core                              [deg]
#  11 ELONGATION             A_IMAGE/B_IMAGE                                           
#  12 ELLIPTICITY            1 - B_IMAGE/A_IMAGE                                       
         1  -9.4694    217.4783      8.4822   3.5933734718e+02   2.8554163316e+01     0.273546    0.2084545 -63.04  0.001485695    1.288    0.224
         2  -9.4419    219.3306      5.6761   3.5839670328e+02   2.8362679415e+01    0.2159829     0.177831  79.23  0.001232831    1.153    0.133
         3  -8.3981    100.6441      2.9993   1.6552648463e+01   5.9190114074e+01    0.2267455    0.1236638 -19.47  0.001068649    1.851    0.460
         4  -7.5959     56.3461      3.6789   3.1780672319e+01   6.7679025040e+01    0.1122497   0.09960607 -54.45 0.0007049557    1.733    0.423
         5  -8.3097    207.7905      1.5942   3.5838977180e+02   3.1725629170e+01    0.2004209    0.1233249 -89.81 0.0009486916    1.665    0.399
         6  -7.6964    198.6795      1.3389   3.5924720394e+02   3.4136849864e+01    0.1520461    0.0949986 -60.50 0.0006951436    1.714    0.416
         7  -8.6628     80.9765      1.5121   2.1596446972e+01   6.3509388024e+01    0.2981213    0.1019838  46.93  0.001209042    2.588    0.614
         8 -12.2984    216.1702    153.1704   3.7180052112e+01   8.0958305914e+00      1.57179    0.9706931   5.83  0.006964454    2.227    0.551
         9 -10.4084    221.9502    158.5211   3.7249297188e+01   6.1618567353e+00     0.616689     0.342463  -5.38  0.002497672    2.814    0.645
        10 -10.9743    225.9897    153.4865   3.5452756155e+01   6.1001822975e+00    0.7503815    0.3817235 -32.38  0.003439557    1.996    0.499
        11  -8.6949     26.2004    155.4050   7.9443744814e+01   3.9681217853e+01    0.1572825   0.08687919  49.74 0.0008197015    1.690    0.408
        12  -9.9499     35.1023    161.2137   7.8020341464e+01   3.7595855022e+01    0.2659727    0.1410185 -81.73  0.001414288    1.662    0.398
        13 -10.2164    237.8311    139.9447   3.0414966791e+01   5.7099095980e+00    0.4293453    0.2560988  37.06  0.002109074    1.622    0.383
        14  -8.8368    176.7573    157.8124   4.5924786818e+01   1.5376838332e+01    0.2274333     0.180719  -4.78  0.001005822    1.482    0.325
        15  -9.6929    245.8625    132.4064   2.7378840708e+01   5.1897397030e+00    0.4945777    0.2518793  62.98   0.00188844    3.462    0.711
        16 -10.1393    193.7496    124.8912   3.5095980911e+01   1.7463426327e+01    0.5668749    0.3780157 -64.80  0.002341138    2.414    0.586
        17  -9.8827    239.1828    118.5077   2.5253746964e+01   8.5336973762e+00    0.3031428    0.2240021  -9.22  0.001580881    1.358    0.264
        18  -8.4275    197.6549    114.9776   3.1876690359e+01   1.8279679138e+01    0.2524678    0.1078337 -52.88 0.0007050083    4.418    0.774
        19  -8.0710    152.1623    114.8309   4.1710626423e+01   2.8729053762e+01    0.2188689    0.1842466  11.98   0.00107726    1.361    0.265
        20  -9.0906    250.1896    111.9439   2.1953285123e+01   7.2007784785e+00    0.3358719    0.1780649 -21.69  0.001492483    1.902    0.474
        21  -9.6600    240.0640    111.4848   2.3433163488e+01   9.3751700887e+00    0.3681368    0.2355838  46.72  0.001806631    1.600    0.375
        22  -9.7304    192.7650    111.7211   3.2026914992e+01   1.9974592190e+01    0.3419029    0.2280068  15.92  0.001427624    2.017    0.504
        23  -9.0876    199.0548    107.1750   2.9617542275e+01   1.9283318796e+01    0.2789021    0.2233674  72.62  0.001348116    1.536    0.349
        24  -7.8069    188.6455    106.3229   3.1467926305e+01   2.1887056480e+01     0.157303    0.1238346 -78.51 0.0007046626    1.761    0.432
        25 -10.5887    198.4384     95.3697   2.6628290936e+01   2.1423493413e+01    0.5368456    0.3845741  36.96  0.002497395    1.437    0.304
        26  -9.9910    203.7869     96.4157   2.5898847395e+01   1.9961079007e+01    0.4791734    0.3305069 -39.43  0.001841457    1.460    0.315
        27  -8.6057    128.2374     99.5801   4.3726170926e+01   3.7043966977e+01    0.2214406    0.1430063  34.23 0.0009566309    1.710    0.415
        28  -8.3610    238.8160     87.8133   1.7782150670e+01   1.3109110262e+01    0.1985571    0.1672215 -56.51 0.0007052485    1.342    0.255
        29  -8.6718    168.4323     88.1685   3.0790011773e+01   3.0027615796e+01    0.2947024    0.2103754 -80.31  0.001195669    2.168    0.539
        30  -7.8033    187.6535     82.6683   2.5210045088e+01   2.6218329556e+01    0.1675217    0.1187641  19.39  0.000704961    1.763    0.433
        31  -9.9559    176.0900     79.2021   2.6549236541e+01   2.9713367302e+01    0.4420206    0.3051028 -68.21  0.001813103    2.076    0.518
        32 -10.7124    170.4194     72.4387   2.5724790367e+01   3.2305358501e+01    0.5193437    0.4405529 -88.43  0.002156732    1.407    0.289
        33  -9.1052    248.7053     69.9978   1.1901888809e+01   1.3399686241e+01    0.2818508    0.1730619 -78.61  0.001172531    2.700    0.630
        34  -9.2056      6.3331     70.5886   7.5119434656e+01   5.9771317302e+01    0.1805896    0.1084748  25.25  0.001134556    2.086    0.521
        35  -9.8285    178.1885     55.8266   1.9047843255e+01   3.2980762632e+01    0.5282556    0.2187718 -25.37  0.001772964    2.746    0.636
        36  -9.7047    175.6410     48.8966   1.7347798894e+01   3.4684674257e+01    0.5410787    0.3015984  88.28  0.001767036    3.382    0.704
        37  -9.4159    199.5665     54.3791   1.4837037897e+01   2.7599616992e+01    0.3007468    0.2610675  35.84  0.001188024    1.195    0.163
        38  -9.8279    190.1865     50.4463   1.5229591352e+01   3.0619496664e+01      0.31302    0.2413729  17.82  0.001315741    1.524    0.344
        39  -9.8296    184.7173     47.8515   1.5377980250e+01   3.2433980582e+01    0.4621582    0.1726931  50.41  0.001576804    2.549    0.608
        40  -8.8293     81.0308     45.4730   4.0940284071e+01   5.7033275235e+01    0.2106724    0.1353141  37.47 0.0001740703    1.644    0.392
        41  -9.7447    248.3430     40.0957   4.4180952872e+00   1.7385500049e+01    0.5357797    0.3567553  17.90  0.002546438    2.149    0.535
        42  -8.5590    159.3539     34.8676   1.5830587253e+01   4.0956908241e+01    0.3129541    0.1211541 -35.86  0.001097748    2.548    0.608
        43 -10.1878    172.8754     35.8250   1.3634235558e+01   3.7236199451e+01    0.6988063    0.2950763  43.17  0.002434991    2.606    0.616
        44  -9.0755     11.3913     19.8017   6.0786931270e+01   7.0053218943e+01    0.1754116   0.07418483 -46.87 0.0009512196    1.709    0.415
        45  -7.9086     82.6679     11.3232   2.5828511255e+01   6.2049213083e+01    0.1253366    0.1063198 -59.79 0.0007050239    1.703    0.413
        46  -7.9271     57.7983     10.6339   3.4751973567e+01   6.6513786982e+01    0.1663724    0.1169903  45.50 0.0009568464    1.732    0.423
        47  -9.3461    123.9879    206.0111   6.4618456226e+01   1.6721936928e+01    0.1782704    0.1440263  54.02   0.00117008    1.016    0.016
        48  -8.5363    249.6236    190.3635   3.8715916917e+01  -2.9309119322e+00     0.320195    0.1653154  -6.48  0.001520569    2.498    0.600
        49  -8.1803    161.6646    191.6728   5.5138881758e+01   1.2587286473e+01    0.1324646   0.09690019  14.59 0.0007051748    1.722    0.419
        50  -8.1770    161.3206    184.6476   5.4057347951e+01   1.3805223003e+01    0.1339101    0.1008287  73.84 0.0007047484    1.749    0.428
        51  -7.4638    248.9908    176.0000   3.6078241612e+01  -1.1259132410e+00    0.2062745   0.06480792  44.40 0.0008083847    2.984    0.665
        52 -11.1978    211.2365    144.6914   3.6258908354e+01   1.0406984417e+01    0.8515788     0.715263   2.47  0.004758355    1.161    0.138
