#   1 NUMBER                 Running object number                                     
#   2 MAG_AUTO               Kron-like elliptical aperture magnitude                    [mag]
#   3 X_IMAGE                Object position along x                                    [pixel]
#   4 Y_IMAGE                Object position along y                                    [pixel]
#   5 X_WORLD                Barycenter position along world x axis                     [deg]
#   6 Y_WORLD                Barycenter position along world y axis                     [deg]
#   7 A_WORLD                Profile RMS along major axis (world units)                 [deg]
#   8 B_WORLD                Profile RMS along minor axis (world units)                 [deg]
#   9 THETA_WORLD            Position angle (CCW/world-x)                               [deg]
#  10 FWHM_WORLD             FWHM assuming a gaussian core                              [deg]
#  11 ELONGATION             A_IMAGE/B_IMAGE                                           
#  12 ELLIPTICITY            1 - B_IMAGE/A_IMAGE                                       
         1 -14.2425    245.0830    135.6126   5.3901577962e+01   6.4981525173e+00     8.113111     3.467083 -49.70   0.03389657    2.521    0.603
         2 -15.5966    244.4282     74.7699   4.1371222048e+01   1.6516582395e+01     3.326219     2.216434  55.32   0.01157196    1.755    0.430
         3 -14.8846    247.1024     48.9775   3.5867020913e+01   1.9687434578e+01     4.082483     1.809211 -68.43   0.01750193    3.161    0.684
         4 -12.1863    249.4272     16.2848   2.9382694146e+01   2.3297540958e+01    0.8676654    0.5104864 -31.10 0.0006715756    1.968    0.492
         5 -10.1240    195.0349     29.9506   3.7092674630e+01   3.3104383521e+01    0.5591046    0.3374978  -3.51  0.002432654    3.464    0.711
         6  -9.1749    234.2012      6.6157   2.8578474324e+01   2.7329333738e+01    0.3659163    0.1984098 -73.63  0.001940202    1.660    0.398
         7  -9.4061    226.6562      6.6400   2.9107174720e+01   2.8854309756e+01    0.2612492    0.1929424  53.31 0.0007035305    1.748    0.428
         8 -15.0495    202.8866    109.4828   5.5023329399e+01   1.9052860972e+01     8.994454     4.081588  56.04   0.03572394    2.542    0.607
         9  -8.0356    164.9874      8.2358   3.5185795117e+01   4.2388073213e+01    0.1648488    0.1384313  79.87 0.0002901583    1.016    0.016
        10  -7.4920    189.3369      7.2770   3.2335925006e+01   3.6856210416e+01    0.1183447   0.08331227  51.38 0.0002824517    1.611    0.379
        11  -9.4446    249.4053      5.0404   2.7317545154e+01   2.4535790875e+01     0.198994    0.1500717 -65.61 0.0003653116    1.052    0.049
        12  -9.1199    176.8860    171.0823   7.4191176129e+01   1.2001727741e+01    0.3231556    0.2021918 -52.76 0.0008555359    1.800    0.445
        13  -8.9703    230.8328    249.8560   7.7778175352e+01  -9.5959680623e+00    0.1857409    0.1242838  -0.43 0.0004875326    1.248    0.199
        14  -9.8972    194.2044    167.9442   6.9823148219e+01   9.4660178561e+00     0.473421    0.2107742  45.08  0.001429849    2.478    0.596
        15  -8.4206    229.2068    166.9677   6.2923403191e+01   3.6585711992e+00    0.2056204    0.1870384   9.95 0.0005494673    1.170    0.146
        16  -9.5924    198.7809    161.7837   6.7586135802e+01   9.8378132890e+00    0.4021852    0.2797671 -82.18    0.0016006    3.127    0.680
        17  -7.8930    179.6673    167.3717   7.2798078612e+01   1.2246512463e+01    0.2112257    0.1805911 -89.02 0.0009019686    1.625    0.385
        18  -9.0034    222.9944    242.0392   7.7950930275e+01  -7.5541069364e+00    0.1490922    0.1149462  -5.17 0.0006213696    1.057    0.054
        19  -9.8652    200.2364    145.2448   6.3700752926e+01   1.2783632823e+01    0.3624994    0.2316594  27.50  0.001649919    1.894    0.472
        20  -8.9975    143.7045    148.2952   7.7093534060e+01   2.3378032039e+01    0.4035064    0.2063777 -53.06  0.001518162    2.108    0.526
        21  -8.6799    137.8649    138.2673   7.6271822323e+01   2.6847576656e+01     0.312224    0.1890441 -61.02  0.001199304    2.059    0.514
        22  -7.8198    211.7238    231.6314   7.8355668740e+01  -4.5333808048e+00    0.1326122   0.08288578  -7.61 0.0007006992    1.680    0.405
        23 -10.8052     45.7812    138.7156   1.0355694406e+02   4.1802767202e+01    0.4434408    0.3817893   7.60 0.0008698942    1.333    0.250
        24  -9.0212    228.9370    159.1203   6.1368320914e+01   5.0864190668e+00    0.1946604    0.1766656 -50.97 0.0005193576    1.283    0.220
        25  -9.8539    157.0540    120.0674   6.7025672788e+01   2.6826175545e+01    0.4051366    0.2091859 -50.59  0.001340855    2.064    0.515
        26 -10.0977    161.9973    118.6074   6.5508338224e+01   2.6057442538e+01    0.3424889    0.2243362 -42.10 0.0008823667    1.489    0.328
        27  -8.7954    204.3359    156.4288   6.5339145620e+01   9.8596488502e+00    0.2570795    0.1597092 -31.02   0.00119817    1.575    0.365
        28 -10.6852    188.2651    155.5574   6.8405610931e+01   1.3026399556e+01    0.7547339    0.3383819  52.06  0.002706923    2.973    0.664
        29  -9.9216    191.8408    153.1648   6.7136794908e+01   1.2825007658e+01      0.39996    0.2941858  54.40  0.001253301    1.626    0.385
        30  -8.6667    173.4637    155.0471   7.1507579803e+01   1.5989254408e+01    0.2314412    0.1447948 -44.28 0.0005096387    1.559    0.359
        31  -8.2079    138.8824    144.7914   7.7527853634e+01   2.5142932722e+01    0.2187397    0.1884363  70.01  0.001061652    1.365    0.267
        32  -7.3529    147.2783    155.6397   7.7835658136e+01   2.1004644839e+01    0.1546589    0.1252097 -87.86 0.0007010989    1.665    0.399
        33  -7.7490    134.4331    155.2605   8.1020015794e+01   2.3588344405e+01    0.2166648    0.1513565 -61.47 0.0005584516    1.636    0.389
        34  -9.4653    224.4189    152.8232   6.0850442387e+01   6.9734046090e+00    0.2898422    0.2213407 -67.33 0.0006913462    1.848    0.459
        35  -9.6699    112.6416     95.7907   7.2198521908e+01   4.1559022306e+01    0.3044651    0.2729678 -21.46  0.001239743    1.126    0.112
        36  -8.1704     87.9604     95.9945   8.0006147844e+01   4.6281039420e+01    0.2155684    0.2047271 -12.31  0.001178478    1.013    0.013
        37  -8.5908    179.9512    226.6786   8.3948294818e+01   8.7569286029e-01     0.204083    0.1733426 -14.18 0.0005687821    1.140    0.123
        38 -12.2327     18.0790    146.7986   1.1297629993e+02   4.2337573743e+01      0.85212    0.7504306 -78.74  0.004186159    1.037    0.035
        39  -9.4035    129.6908     87.8460   6.5131086925e+01   3.9504106574e+01    0.2795058    0.2084207  34.23  0.001316818    1.398    0.285
        40  -9.4411    133.2659    148.4105   7.9813612327e+01   2.5413897073e+01    0.5924152     0.294225 -46.73  0.002179699    1.992    0.498
        41 -10.3929    156.5679     84.2269   5.7647575336e+01   3.4028536651e+01    0.4563027    0.3652048  43.17    0.0015545    1.277    0.217
        42  -7.5375    109.4360     83.5355   6.9525778552e+01   4.4740469455e+01    0.1519291    0.1416906   4.31 2.222877e-05    1.053    0.050
        43  -9.1198    131.9497    141.4610   7.8576685035e+01   2.7296534100e+01    0.4076069    0.3013659 -67.89  0.001308002    1.652    0.395
        44  -7.7430    137.5127     80.4784   6.0988339451e+01   3.9127931499e+01    0.1493007    0.1455326  36.67 0.0008101474    1.009    0.009
        45  -9.5232    157.7517     74.2072   5.4615074660e+01   3.5512362917e+01    0.3634796    0.2624907 -14.69  0.001695274    1.810    0.448
        46 -10.0968    177.7040    148.0612   6.9004969765e+01   1.6615006673e+01    0.4774047    0.2821367 -42.24  0.002072725    1.624    0.384
        47 -11.6904    178.8351     68.5111   4.9084502123e+01   3.1497559082e+01     1.218947    0.4738173  67.29  0.004026204    3.551    0.718
        48 -10.5504    168.4589     67.5157   5.0673930405e+01   3.4089722979e+01    0.4168154    0.2639375 -34.38  0.001968562    1.651    0.394
        49 -11.8989    184.2829    144.8082   6.6851354857e+01   1.5978560635e+01     1.204505    0.8248296  81.57  0.004746367    2.829    0.647
        50  -8.1076    132.5843     70.2682   5.9159493500e+01   4.2079169172e+01    0.2016863    0.1446875 -24.58 0.0009492377    1.576    0.365
        51  -9.9450     68.3600    143.0063   9.7347862488e+01   3.7892672653e+01    0.8805149    0.5313327 -72.58  0.003822565    1.839    0.456
        52 -12.8371     57.5940    135.1729   9.9239033416e+01   4.1320230534e+01     2.083825     1.258113   9.90  0.006693528    2.224    0.550
        53  -9.8995    174.4426    139.7285   6.7813007422e+01   1.9009052341e+01    0.3843188    0.2261184 -46.07  0.001633195    1.665    0.399
        54  -7.8370    185.8869     64.8581   4.6973477422e+01   3.0435023631e+01    0.1919592    0.1514716 -70.06 0.0004098306    1.298    0.230
        55  -9.6577    143.2565    138.1839   7.4863500580e+01   2.5767288242e+01      0.38188    0.2738476 -65.36  0.001112884    1.725    0.420
        56  -8.7881    135.7437     63.5663   5.6362160386e+01   4.2463754210e+01    0.2095021    0.1387885  64.22 0.0009580727    1.626    0.385
        57  -8.5250    146.6242     59.1948   5.2633495094e+01   4.0583905835e+01    0.2018217    0.1398659 -20.36 0.0007715109    1.755    0.430
        58  -8.9596    206.9024     57.9383   4.2238175709e+01   2.6726196093e+01    0.2951984    0.1989937  48.69  0.001568058    1.718    0.418
        59  -8.6771    152.0612    151.8551   7.5815139056e+01   2.0911135276e+01    0.2366971    0.2164855 -77.64 0.0007314149    1.259    0.206
        60  -7.5532    128.3303     57.2924   5.6181961170e+01   4.5187095485e+01     0.148657    0.1077467  24.93 0.0004476523    1.629    0.386
        61  -8.6037    207.3819     52.7855   4.0975872552e+01   2.7357445216e+01    0.2606663    0.1334083 -51.96   0.00107268    1.896    0.473
        62  -8.4631    148.0489    215.5378   8.9093284889e+01   7.9837247123e+00    0.1961092    0.1936484 -47.89   0.00120306    1.174    0.148
        63  -9.2479    151.0169     48.7334   4.8680376942e+01   4.1069196764e+01    0.4075253    0.1586262 -41.26  0.001571807    2.648    0.622
        64  -9.3931    206.4167     48.0659   3.9999559349e+01   2.8225098370e+01    0.3625591    0.2024115  88.32  0.001489147    2.180    0.541
        65  -8.8768    203.7973     43.2548   3.9197370432e+01   2.9453820633e+01    0.2769834    0.1837368 -16.14  0.001404584    2.209    0.547
        66  -8.6332    169.0054     38.1729   4.2634143992e+01   3.8164611098e+01    0.2159979    0.1989334 -44.99  0.000644895    1.177    0.150
        67  -9.7608    181.2155     35.5961   4.0206691846e+01   3.5604412558e+01    0.4514974    0.2658534 -16.06  0.002098833    2.531    0.605
        68  -9.6784    190.9655     34.6857   3.8719151981e+01   3.3457197655e+01    0.3508317    0.2601928  -5.76 0.0008618198    2.008    0.502
        69  -7.3806    156.3274    198.6577   8.4274721124e+01   9.9943562857e+00    0.1431849      0.11529  71.93 0.0007051178    1.740    0.425
        70  -8.4283    196.4229    164.4554   6.8631808284e+01   9.7462090951e+00    0.1443256    0.1310286 -20.36 8.665427e-05    1.023    0.023
        71  -8.7647    185.4480     28.3784   3.7849202007e+01   3.5489560292e+01    0.2692797    0.2123086   3.51  0.001163892    1.852    0.460
        72  -9.6011    205.3483    161.2822   6.6176170689e+01   8.7504432879e+00    0.4038221    0.2777265  62.41  0.001733226    2.201    0.546
        73  -7.1431     31.2984    197.3585   1.1463064297e+02   2.8708532867e+01    0.1272409    0.0902494 -46.05 0.0007035161    1.708    0.414
        74  -9.0019    191.7524    192.3606   7.5264154078e+01   5.2004759332e+00    0.4016816    0.1597349 -52.06  0.001375135    3.569    0.720
        75  -7.7542    202.9662    185.4459   7.1605712891e+01   4.6225116079e+00    0.2044115    0.1323164  35.20  0.001022428    1.580    0.367
        76  -7.4945    224.2892    175.3302   6.5491484154e+01   2.9758723063e+00    0.1394365   0.09496701 -10.34 0.0007016609    1.622    0.383
        77  -8.1272    194.1644    174.2258   7.1137400020e+01   8.2501413598e+00    0.1844887    0.1771638  84.80 0.0006808362    1.332    0.249
