#   1 NUMBER                 Running object number                                     
#   2 MAG_AUTO               Kron-like elliptical aperture magnitude                    [mag]
#   3 X_IMAGE                Object position along x                                    [pixel]
#   4 Y_IMAGE                Object position along y                                    [pixel]
#   5 X_WORLD                Barycenter position along world x axis                     [deg]
#   6 Y_WORLD                Barycenter position along world y axis                     [deg]
#   7 A_WORLD                Profile RMS along major axis (world units)                 [deg]
#   8 B_WORLD                Profile RMS along minor axis (world units)                 [deg]
#   9 THETA_WORLD            Position angle (CCW/world-x)                               [deg]
#  10 FWHM_WORLD             FWHM assuming a gaussian core                              [deg]
#  11 ELONGATION             A_IMAGE/B_IMAGE                                           
#  12 ELLIPTICITY            1 - B_IMAGE/A_IMAGE                                       
         1 -11.0484    217.7234     32.3695   3.0168851929e+01   2.7509072631e+01    0.6972768    0.5877115  23.62  0.003989573    1.711    0.415
         2  -7.7974    239.4934      5.4983   2.2548594042e+01   2.6035738525e+01    0.1552396    0.1081743 -24.59 -5.990741e-05    1.708    0.414
         3  -9.1147    244.0365      2.4850   2.1671299031e+01   2.5446102334e+01    0.3023715    0.1734146  82.24  0.001863088    1.706    0.414
         4  -9.0868    248.0400      6.0429   2.2182629137e+01   2.4284807705e+01    0.4710185    0.1547826 -40.58   0.00234275    2.201    0.546
         5  -9.4590    244.8916      7.1236   2.2578906295e+01   2.4786648415e+01     0.314122    0.1908069 -47.05  0.001324715    1.303    0.233
         6  -8.8582    245.7677     11.0203   2.3333040058e+01   2.4191081179e+01    0.2564081    0.1724344 -42.75  0.001676318    1.277    0.217
         7  -9.1342    241.8115      9.6131   2.3275612193e+01   2.5129252129e+01    0.2861452    0.1851341 -73.24  0.001453977    1.344    0.256
         8  -7.7745    108.3267      9.3400   3.8090722123e+01   5.6377805610e+01    0.1425184   0.08986937  35.26  0.000705148    1.732    0.423
         9  -8.4954    120.4374      8.4819   3.5473102273e+01   5.3527423401e+01    0.2823575    0.1189048  66.78  0.001198882    2.126    0.530
        10  -8.3207     84.9231    231.8293   9.7981509653e+01   1.5350495509e+01    0.1795626    0.1588432  31.30  0.001069449    1.221    0.181
        11  -9.2643    175.2112    248.9481   8.1883076684e+01  -3.3037297849e-02    0.2563551    0.2294512  58.88  0.001365932    1.566    0.361
        12 -11.1853     19.6199    189.4218   1.0900443431e+02   3.2111326403e+01    0.9218569    0.3432969 -77.07  0.004186322    2.445    0.591
        13 -11.6129     54.9832    235.7511   1.0454568370e+02   1.8427724945e+01    0.9046324    0.7213063  54.68  0.004287905    1.032    0.031
        14 -14.0944     10.6763    242.9362   1.1364334737e+02   2.1873689221e+01     2.722297     1.650365  32.89   0.01822968    1.641    0.391
        15  -9.9189     97.2757    222.9652   9.4416845379e+01   1.5334539182e+01     0.494483    0.2493265  62.34  0.002179832    2.691    0.628
        16  -7.8819    123.0000    223.9827   8.9014932697e+01   1.1399155754e+01    0.1879272   0.07369898 -55.79 0.0008051788    2.961    0.662
        17  -9.9322     82.5194    223.4954   9.7671959505e+01   1.7283948984e+01     0.373923    0.2389378  64.83   0.00182875    1.620    0.383
        18  -9.1173     84.4261    219.1590   9.6809676578e+01   1.7883301381e+01    0.2229797    0.2081995  47.37 0.0003404319    1.145    0.127
        19 -12.7479     10.6662    209.8263   1.1218061373e+02   2.8478657442e+01     1.376864     1.065641  83.99  0.009350926    1.148    0.129
        20  -9.0586     55.4476    221.2894   1.0333243925e+02   2.1232159061e+01    0.3028756    0.1974034 -60.77  0.001325396    1.748    0.428
        21  -7.5785    153.2870    216.6758   8.1653236414e+01   8.1187753315e+00    0.1212976   0.09712131  64.40 0.0003549094    1.604    0.377
        22 -10.3023     55.8495    210.7804   1.0235533820e+02   2.3370670956e+01      0.64411    0.3564704  76.18  0.003267562    1.999    0.500
        23 -10.9196     50.5676    204.3332   1.0298671974e+02   2.5404647354e+01    0.7102455    0.5821168 -45.30  0.004046116    1.588    0.370
        24 -11.6321     46.6025    186.8349   1.0232044449e+02   2.9813105019e+01     1.230887    0.9046854 -46.05  0.007014011    1.709    0.415
        25  -8.8085    155.9556    212.9122   8.0537491148e+01   8.3602340440e+00    0.1864545     0.173556  -2.06 0.0002943082    1.105    0.095
        26 -10.5539     39.6441    208.7049   1.0580979615e+02   2.5733736804e+01    0.4979466     0.477772 -10.21  0.002668443    1.430    0.300
        27  -7.9524    141.4046    209.1450   8.3033353977e+01   1.1306814315e+01    0.2105196    0.1707324 -62.23 0.0009935559    1.465    0.317
        28 -10.2412    132.8636    226.1129   8.7214238286e+01   9.5553792131e+00    0.2339164    0.2235956 -20.67 0.0004638224    1.190    0.160
        29  -8.3142     47.5254    227.5255   1.0549203224e+02   2.0923424547e+01    0.2149009    0.1320223  84.75 0.0009651505    1.636    0.389
        30  -7.8764     83.5282    195.5193   9.4325168016e+01   2.2973066161e+01    0.2264864    0.1301596 -65.88 0.0005808214    1.835    0.455
        31 -10.5548     36.2614    197.4613   1.0571303887e+02   2.8576640109e+01    0.4818024    0.4090026  -4.14  0.001329263    1.689    0.408
        32  -8.9513     35.0578    192.3449   1.0558693034e+02   2.9861161317e+01    0.2793257    0.1772755  29.12  0.001106739    1.691    0.409
        33  -7.2379     89.4283    192.4969   9.2528563594e+01   2.2774547431e+01    0.1363105    0.1206941  61.99 3.753402e-05    1.028    0.027
        34 -10.6342     44.9157    221.2564   1.0559014500e+02   2.2494802498e+01    0.5281396    0.4777111 -60.07  0.003739774    1.413    0.292
        35  -9.6484     16.7442    202.0179   1.1044616567e+02   2.9581952279e+01    0.2480904    0.1876412  70.27 0.0004136399    1.050    0.047
        36  -7.2361      1.2758    182.3213   1.1286281655e+02   3.5346759173e+01    0.1118142   0.08206566 -58.60 0.0003649439    1.577    0.366
        37 -10.0355     19.9696    172.6575   1.0770933188e+02   3.5977463455e+01    0.5706826     0.209562  65.70  0.002176677    3.283    0.695
        38  -9.0844     26.5994    180.7965   1.0669936251e+02   3.3413127173e+01    0.1853931    0.1717001  89.60 0.0007635352    1.192    0.161
        39  -9.2699     24.9980    177.2028   1.0680831259e+02   3.4417261717e+01    0.3528208    0.1430694  56.06  0.001398253    2.402    0.584
        40  -7.7641    116.6847    179.9685   8.4099910710e+01   2.1213896710e+01    0.1831403    0.1754772  84.41 0.0002295123    1.069    0.064
        41  -8.1558     36.5061    203.0570   1.0608876991e+02   2.7310995529e+01     0.177833    0.1107789 -82.86  0.000723824    1.529    0.346
        42  -7.4359    124.4609    177.4473   8.1813817427e+01   2.0442619834e+01    0.1400101    0.1333225  35.09 6.887322e-05    1.038    0.037
        43  -7.0138    101.2534    176.0637   8.7265373938e+01   2.4622507517e+01    0.1626392    0.1202456 -58.69 0.0008326385    1.401    0.286
        44  -8.2006     12.2956    174.7753   1.0977513478e+02   3.6170664068e+01    0.2550445    0.1479309  70.60  0.001210585    1.539    0.350
        45  -8.9489     63.4942    172.9731   9.6511851305e+01   3.0954447879e+01    0.3041083    0.2765253 -40.79 0.0009557215    1.324    0.244
        46  -8.3150     35.1757    213.9331   1.0716761246e+02   2.5118931642e+01    0.1933814    0.1297626  61.47  0.000558313    1.235    0.190
        47  -7.6430     70.6070    178.1975   9.5339575272e+01   2.8746037062e+01    0.2912333    0.1746881   1.17  0.001095643    3.651    0.726
        48  -8.8074     68.4506    167.5816   9.4498877385e+01   3.1575404944e+01    0.2588484     0.232084 -32.37 0.0009788155    1.364    0.267
        49  -7.6350     10.3354    167.3056   1.0975219000e+02   3.8104786563e+01    0.1206294   0.08748595 -48.64 0.0007039955    1.669    0.401
        50  -9.6654    165.1644    160.4223   6.9304956384e+01   1.6653679726e+01    0.2536985    0.2198104 -40.65 0.0002248848    1.154    0.134
        51  -9.8442     78.5487    159.3926   9.0578668993e+01   3.2104911081e+01    0.5132901    0.2869107  59.06  0.000775951    2.078    0.519
        52  -8.1513    171.0830    157.6005   6.7469605909e+01   1.6108446135e+01    0.2459587    0.2045228   7.72 0.0007785159    1.317    0.241
        53  -8.1515     22.0984    157.7418   1.0589704296e+02   3.9384193841e+01    0.2560896    0.1371675 -50.94 0.0006623687    2.090    0.522
        54  -9.5391     10.8009    156.1024   1.0880531316e+02   4.0765155063e+01    0.4217809    0.2846704  33.83  0.002485245    1.575    0.365
        55  -9.3897      2.8717    152.6252   1.1067487001e+02   4.2217209948e+01    0.4469714    0.2585073  55.18  0.002198924    1.617    0.382
        56 -10.1876     65.2437    154.7553   9.3550060740e+01   3.5161186557e+01     0.384902    0.2706313 -42.36 0.0008021818    1.677    0.404
        57  -8.6388    108.6346    154.5374   8.1668519546e+01   2.8353288407e+01    0.2361396     0.228962 -68.79 0.0002397804    1.055    0.052
        58  -8.9735     84.4840    153.6619   8.8016969847e+01   3.2591359733e+01    0.2753178    0.2302743  23.34 0.0008320138    1.354    0.262
        59 -10.9761     69.1470    144.7957   9.0873801906e+01   3.7095495407e+01    0.9272704    0.5789946  79.15  0.004056315    2.052    0.513
        60  -6.8831    163.6653    149.6687   6.7399396398e+01   1.9090410301e+01    0.1511826    0.1138818  -2.77 0.0007052185    1.730    0.422
        61  -7.9347     22.5282    145.9059   1.0463221058e+02   4.2277496047e+01     0.335199    0.1737151  74.72  0.001106416    2.099    0.524
        62 -11.1199      2.1804    128.8092   1.0901782954e+02   4.8114806136e+01      2.21375    0.4041773 -82.37  0.005307301    7.585    0.868
        63  -9.9721      7.2045    141.3875   1.0861231476e+02   4.4654808431e+01    0.4058717    0.3444815  69.88   0.00210235    1.121    0.108
        64  -8.3848    100.5643    138.4413   8.0693751080e+01   3.3605356006e+01    0.3517967    0.2361781 -16.48  0.001402312    2.541    0.606
        65  -9.3531     87.2460    138.2152   8.4431808691e+01   3.5939601868e+01    0.2819988    0.2465626 -56.50 0.0004325444    1.140    0.123
        66  -7.0577    223.6777    133.3632   5.2598089981e+01   1.0832889593e+01    0.1349882   0.09938058 -63.74 0.0007040895    1.783    0.439
        67  -8.4765    248.7745    128.9236   4.7981290195e+01   7.2975037708e+00    0.1884795    0.1866007  70.63 0.0005090508    1.261    0.207
        68  -7.4339    115.5817    129.4523   7.4618672601e+01   3.2955297879e+01    0.1506762    0.1458102 -79.10 0.0001058531    1.011    0.011
        69  -7.9779     97.0944    125.3670   7.8891975193e+01   3.7383716228e+01    0.2356808    0.1944446  11.73  0.001158992    1.490    0.329
        70  -9.5336     10.8408    142.8575   1.0769693197e+02   4.4017669765e+01    0.5684276    0.2635388  20.13   0.00262754    2.574    0.612
        71  -9.0131     59.2004    120.0436   8.9514955398e+01   4.4742131397e+01    0.2146715    0.2012458  42.97 0.0003221617    1.140    0.122
        72  -8.7522    173.6164    114.2265   5.7176158631e+01   2.4134134322e+01    0.3679971    0.2580657 -24.89  0.001439521    1.648    0.393
        73  -8.0844     93.7908    111.7014   7.6689029037e+01   4.1270869144e+01    0.3488781    0.2392778  13.11  0.000847795    2.146    0.534
        74 -10.4009     78.4875    103.0717   7.9408275478e+01   4.6027759572e+01    0.2622273    0.2440114  34.34  0.001441134    1.133    0.117
        75  -7.1478     89.7644    103.3830   7.5850414727e+01   4.3981496389e+01    0.1523937    0.1156467 -83.63 0.0004080637    1.632    0.387
        76  -7.1386    150.6445    101.2577   5.8780215568e+01   3.1746277360e+01    0.1530044    0.1189714  89.45 0.0003993793    1.614    0.380
        77  -7.6443    128.0888     84.5856   5.9544861721e+01   4.0199464842e+01    0.2173405    0.1478026  48.69 0.0009790728    1.483    0.326
        78  -7.0305    152.3102     60.2480   4.6770273104e+01   3.8906828378e+01    0.1404908     0.112143  31.48 0.0001819977    1.510    0.338
        79  -8.4997    144.9545     57.9435   4.7540193453e+01   4.1068009205e+01    0.2091176    0.2071299  81.56 0.0003034497    1.071    0.066
        80  -8.2574    218.8723     51.1561   3.4503549778e+01   2.4776939137e+01    0.1921707    0.1697281 -59.42 0.0006904918    1.056    0.053
        81  -9.8940    196.2818     50.2379   3.6951674609e+01   2.9933675097e+01    0.4561184    0.2612437  79.88  0.001730205    1.982    0.495
        82  -8.7763    114.1011     49.1108   5.1711683044e+01   4.9883698165e+01    0.3253348    0.1948205 -40.63 0.0005195065    1.701    0.412
        83  -7.5794    231.0302     47.2552   3.2349236499e+01   2.2754145832e+01    0.1675883    0.1426573 -64.49 0.0002858512    1.057    0.054
        84 -10.5572    204.6402     44.5379   3.4486425647e+01   2.8822197375e+01    0.6056806    0.4163117 -85.07  0.003270394    1.519    0.342
        85  -8.4683    246.6843    249.6629   6.9663063597e+01  -8.8052458890e+00     0.274903   0.07785477  38.19  0.001057333    3.940    0.746
        86  -7.4099    181.9903     34.4633   3.4580401307e+01   3.5438604706e+01     0.187969    0.1268606  72.90  9.97708e-06    1.439    0.305
        87  -7.4290    109.2468     33.2377   4.7149400423e+01   5.3381267789e+01    0.1880878    0.1606618 -77.46  0.000743838    1.329    0.247
        88  -8.1166    160.0351     19.9502   3.3259142428e+01   4.2545683822e+01    0.1931607     0.174928 -87.56            0    1.023    0.022
        89 -10.2859    196.5314    243.4409   7.7217499715e+01  -2.0942134092e+00    0.2078189    0.1705244  13.65 0.0001944124    1.076    0.071
        90  -9.0333    163.0834    242.7079   8.3349077958e+01   2.5133176161e+00    0.2652759    0.1928068  37.78   0.00109049    1.249    0.199
        91  -8.9617    164.7986    238.2991   8.2425390665e+01   2.9342013709e+00    0.2079066    0.1738198  15.19 0.0003900436    1.065    0.061
        92  -7.7946     77.6336    236.5740   9.9945468570e+01   1.5425313341e+01    0.1765776    0.1129028 -74.05 0.0008558161    1.774    0.436
        93  -7.3469    175.8194    234.4414   7.9769107079e+01   1.9652850609e+00    0.1607525   0.09834512  22.51 0.0009157276    1.514    0.340
        94  -8.1885    165.7562    233.6322   8.1594699853e+01   3.5098692046e+00    0.1992367    0.1541548  14.28 0.0004050388    1.197    0.165
        95  -7.8792    194.0579    231.8828   7.5978251382e+01  -1.8330442752e-01    0.1636924     0.146385  25.36 0.0004493776    1.271    0.213
