#   1 NUMBER                 Running object number                                     
#   2 MAG_AUTO               Kron-like elliptical aperture magnitude                    [mag]
#   3 X_IMAGE                Object position along x                                    [pixel]
#   4 Y_IMAGE                Object position along y                                    [pixel]
#   5 X_WORLD                Barycenter position along world x axis                     [deg]
#   6 Y_WORLD                Barycenter position along world y axis                     [deg]
#   7 A_WORLD                Profile RMS along major axis (world units)                 [deg]
#   8 B_WORLD                Profile RMS along minor axis (world units)                 [deg]
#   9 THETA_WORLD            Position angle (CCW/world-x)                               [deg]
#  10 FWHM_WORLD             FWHM assuming a gaussian core                              [deg]
#  11 ELONGATION             A_IMAGE/B_IMAGE                                           
#  12 ELLIPTICITY            1 - B_IMAGE/A_IMAGE                                       
         1 -14.3203    218.7239      5.6021   3.8928332446e+01   2.8020424173e+01     2.131755     1.185151  69.38  0.005542798    1.829    0.453
         2 -15.1753    193.3805     35.2087   5.0756940016e+01   3.1604940933e+01     3.391517     1.920275  21.15   0.01294217    2.569    0.611
         3 -11.3556    249.2626    244.6505   8.6221198403e+01  -2.2392764186e+00    0.1400023    0.1104944 -16.15  0.001279373    1.710    0.415
         4 -16.7062     69.6622    145.1544   1.0562757830e+02   3.8084918650e+01     9.025049     3.872751  70.31   0.02067501    3.985    0.749
         5 -13.3228     56.9068    200.6541   1.1330236148e+02   2.9532950169e+01     0.354992    0.2614715 -73.73  0.001680398    1.593    0.372
         6 -10.7526     55.9713    211.8557   1.1417532396e+02   2.7846455344e+01    0.2405708    0.1636775  65.94  0.001125984    1.154    0.133
         7  -8.6108     52.5083    208.4491   1.1459876202e+02   2.8784797623e+01    0.1941447    0.1064653  56.63 7.073174e-05    1.324    0.245
         8 -11.7158     38.0359    212.0688   1.1738814812e+02   2.9811679958e+01    0.1851272   0.09537826  47.75  0.001188403    1.376    0.273
         9 -10.3071     35.0343    208.3535   1.1774934673e+02   3.0721821659e+01    0.2831856   0.05864681  52.55   0.00119872    3.061    0.673
        10 -10.2037     32.7005    205.6310   1.1804428362e+02   3.1406041936e+01    0.1224601    0.1063059  78.29 0.0006715492    1.387    0.279
        11 -10.8746     53.9122    231.6344   1.1561748884e+02   2.5116432654e+01    0.1846677    0.1068801  74.71  0.001411164    1.586    0.369
        12 -19.1691      9.0817    102.1673   1.1728693748e+02   5.3797807155e+01     14.62527     0.750254 -78.03   0.02779052   14.959    0.933
        13 -11.0882    143.0322    209.4594   9.8339453131e+01   1.6299053873e+01    0.1561317    0.1352338  49.16 0.0005440893    1.160    0.138
        14 -11.9413     67.4292    206.5209   1.1174658448e+02   2.7313646934e+01    0.2686092    0.1993906  34.88  0.001331434    1.534    0.348
        15  -9.8306     73.9808    204.7698   1.1040906842e+02   2.6769883012e+01    0.2076039     0.153778  37.10 0.0009437092    1.450    0.310
        16  99.0000     71.7365    202.6550   1.1066678168e+02   2.7391497325e+01    0.1696234      0.14077 -77.40 0.0004747346    1.463    0.317
        17  99.0000     43.3485    207.0121   1.1618182284e+02   3.0044543357e+01    0.3586521    0.2032632 -83.90  0.001539569    1.798    0.444
        18 -10.1987     30.4275    210.5174   1.1866705906e+02   3.0852908001e+01     0.146668   0.05859406  48.79  0.000601072    1.670    0.401
        19 -12.3521    195.5392    197.4191   8.7821929374e+01   9.4909648985e+00     0.918957    0.7632132  75.69  0.006430215    1.896    0.473
        20 -11.3647     97.7786    200.3967   1.0559569620e+02   2.4267381517e+01    0.3086504    0.2484359  23.76 0.0008414788    1.660    0.397
        21  -9.4313     93.8179    205.9949   1.0684448039e+02   2.3957196029e+01    0.1821861    0.1332333 -32.38  0.001073856    2.555    0.609
        22  -9.6046     87.7869    202.6448   1.0766839735e+02   2.5293876919e+01    0.1608954    0.1149073  38.14 0.0007939787    1.391    0.281
        23  -9.8669    161.2800    200.0176   9.3987122627e+01   1.4670375228e+01     0.150162    0.1272764  43.89 0.0003840682    1.117    0.105
        24  -9.8316     44.1045    198.8752   1.1559573151e+02   3.1295703808e+01    0.1898965     0.163079 -50.69  0.001523992    1.865    0.464
        25 -10.9462     36.0528    197.8537   1.1705010965e+02   3.2340277868e+01    0.1708329   0.09542395  53.38 0.0004112422    1.278    0.218
        26 -12.1584     31.6806    198.1091   1.1787972236e+02   3.2755224146e+01    0.1822211     0.117478  51.34 0.0005060418    1.180    0.152
        27 -11.7074    151.6541    196.3633   9.5213459539e+01   1.6684396404e+01    0.2577933    0.1759374  45.59 0.0008139694    1.150    0.131
        28 -10.0949     82.2107    194.9873   1.0805660457e+02   2.7268243962e+01    0.1985055    0.1293554  49.28  0.001002163    1.180    0.153
        29  -9.3869     56.8995    193.0942   1.1279225723e+02   3.0795812548e+01    0.1249754    0.1056504  59.02 0.0009870542    1.238    0.192
        30 -11.4945     96.9112    190.7443   1.0481401582e+02   2.5919821548e+01    0.2672535    0.2247829  36.60 0.0007703159    1.356    0.262
        31 -18.0003     30.8143    243.1282   1.1984078177e+02   2.5954816541e+01     7.120347     2.955666  36.86   0.03371225    2.036    0.509
        32 -13.0428     67.2692    186.8971   1.1029074399e+02   3.0579756636e+01    0.5553769    0.5154223  73.03  0.002993535    1.348    0.258
        33 -10.7280    153.6161    184.7309   9.3284566548e+01   1.7957831186e+01    0.1784918    0.1531246 -71.49 0.0009735103    1.506    0.336
        34 -11.3055     99.3946    180.7329   1.0325867764e+02   2.7212037208e+01    0.2446313    0.1794175  41.08 0.0005839294    1.282    0.220
        35 -10.7305    204.3898    176.0632   8.3029947805e+01   1.0427526844e+01    0.2517974    0.2243119 -11.95 0.0008983485    1.281    0.219
        36 -10.3653    196.9044    176.4307   8.4342214740e+01   1.1663722357e+01     0.280139    0.1906499  43.19  0.001033168    1.259    0.206
        37 -10.6012     69.0094    176.5370   1.0904671030e+02   3.2181094273e+01    0.4034299    0.1390489  54.74  0.001849707    2.686    0.628
        38 -10.1031    188.4204    174.7968   8.5525941203e+01   1.3327487351e+01    0.1999195    0.1740548  76.07  0.001220299    1.582    0.368
        39  99.0000     43.3418    220.9042   1.1688076973e+02   2.7871079534e+01    0.1489722    0.1458002 -34.01  0.001367451    1.786    0.440
        40  -9.7265     42.7972    172.1062   1.1416741219e+02   3.6160199918e+01    0.2107212    0.1323556  66.45  0.001423203    1.266    0.210
        41  -9.4434     39.2081    177.0479   1.1524212329e+02   3.5645468951e+01    0.1489536    0.1029746  57.50 0.0005555218    1.103    0.094
        42 -10.6231    229.8265    165.8524   7.7195078693e+01   7.2316663764e+00    0.1464129    0.1375801  24.29 0.0006651039    1.338    0.253
        43 -11.5908     60.8721    233.6833   1.1456648817e+02   2.4031972904e+01    0.1657283    0.1062475  63.39 0.0003918599    1.211    0.174
        44  -9.5298     72.7760    217.7180   1.1155722323e+02   2.4928948187e+01    0.1369154   0.08365034  59.28 0.0004241447    1.253    0.202
        45  -9.3749    149.4229    156.1605   8.9676549582e+01   2.2971004876e+01    0.1665401    0.1223374 -65.63 0.0009427163    1.755    0.430
        46 -11.6707    133.9949    145.9298   9.1107282992e+01   2.7507489478e+01     1.006296    0.2843303 -55.37  0.003065594    5.634    0.823
        47  -8.9234     50.1225    216.6856   1.1548772683e+02   2.7766084291e+01    0.2592279     0.184213   9.68  0.001669893    3.089    0.676
        48 -10.5037    174.5025    148.9985   8.3522936673e+01   1.9368633686e+01    0.2553917    0.2032016  55.88 0.0008725814    1.283    0.221
        49 -11.2405    143.9695    146.2819   8.9069868582e+01   2.5599201312e+01    0.3393526    0.1919863 -60.89  0.001592236    2.420    0.587
        50 -11.7721    106.9244    139.2960   9.6009745702e+01   3.3528556673e+01    0.5343761    0.3274989 -42.81  0.002718773    2.100    0.524
        51  -9.6991    111.2480    141.1991   9.5327928377e+01   3.2424449578e+01     0.185404    0.1373468  69.60 0.0007679558    1.371    0.271
        52 -12.5838     95.1913    138.6537   9.8659472833e+01   3.5595473929e+01    0.2972703    0.2195504  45.85 0.0004874922    1.266    0.210
        53 -11.3900    105.5153    131.1006   9.4957076177e+01   3.5373118815e+01     0.400373    0.3580253 -22.20  0.002436516    1.501    0.334
        54 -11.1386    135.7054    127.9528   8.7379241602e+01   3.0398311060e+01    0.5300565    0.1509598 -48.62  0.001774776    3.902    0.744
        55 -10.0297    160.8487    128.0938   8.2049763514e+01   2.5331166150e+01    0.2136324     0.189764  82.56  0.001247498    1.289    0.224
        56 -11.2220    102.1115    125.5863   9.4805516611e+01   3.7064907265e+01    0.2518898    0.2236612  11.05 0.0006826434    1.505    0.335
        57 -11.3098    119.9275    123.4238   9.0095369809e+01   3.4280121353e+01    0.4564819    0.3032244 -16.78  0.001906064    3.129    0.680
        58 -11.0486    114.5367    129.6786   9.2560892341e+01   3.4058630978e+01    0.2859767    0.2595004   1.27 0.0006074827    1.441    0.306
        59 -10.2648    109.9423    118.8315   9.1597427004e+01   3.7040155537e+01    0.2084398    0.1892983 -78.83 0.0003728252    1.105    0.095
        60 -10.6291     61.9841    220.3567   1.1362003774e+02   2.5839611391e+01    0.1624223   0.09743138  56.61  0.001206496    1.187    0.158
        61 -10.2602    167.6804    112.4742   7.7195324941e+01   2.6464572104e+01    0.3346683    0.2376886 -84.35  0.001511602    2.270    0.559
        62 -11.6990    118.4426    110.4763   8.7754478539e+01   3.7111925950e+01    0.5791277    0.3491897  63.20   0.00261517    1.937    0.484
        63 -10.2627    205.4506    110.1646   6.9691631132e+01   1.8612978196e+01    0.2984052    0.1824732  42.36  0.000976631    1.557    0.358
        64 -10.1373    134.6267    105.9943   8.2841148882e+01   3.4710197091e+01    0.3202453    0.1373039 -44.99  0.001245385    2.443    0.591
        65 -11.3708    158.2328    236.9722   9.8794857105e+01   1.0806796407e+01    0.2569501    0.1659762 -44.42  0.001945721    2.212    0.548
        66  -9.5648    168.7819    235.0095   9.6912993713e+01   9.5158206975e+00    0.1336147     0.103595  37.76 0.0004006146    1.109    0.098
        67 -11.9235    160.1495     61.6893   6.4807389297e+01   3.6631087465e+01    0.9007205    0.5203004 -88.26  0.001742019    3.526    0.716
        68 -11.3330    161.4747     54.8103   6.2334451250e+01   3.7365369057e+01    0.3756461    0.2966411 -72.36 0.0003318632    1.487    0.327
        69  -8.9715    168.2863    248.2534   9.8372758262e+01   8.2536223152e+00    0.0943447    0.0580574  28.73 0.0001785289    1.476    0.322
        70 -13.4931    178.0523     49.8976   5.7759758014e+01   3.3757226771e+01    0.8816584    0.7787704  20.79 0.0008291822    1.204    0.169
