#   1 NUMBER                 Running object number                                     
#   2 MAG_AUTO               Kron-like elliptical aperture magnitude                    [mag]
#   3 X_IMAGE                Object position along x                                    [pixel]
#   4 Y_IMAGE                Object position along y                                    [pixel]
#   5 X_WORLD                Barycenter position along world x axis                     [deg]
#   6 Y_WORLD                Barycenter position along world y axis                     [deg]
#   7 A_WORLD                Profile RMS along major axis (world units)                 [deg]
#   8 B_WORLD                Profile RMS along minor axis (world units)                 [deg]
#   9 THETA_WORLD            Position angle (CCW/world-x)                               [deg]
#  10 FWHM_WORLD             FWHM assuming a gaussian core                              [deg]
#  11 ELONGATION             A_IMAGE/B_IMAGE                                           
#  12 ELLIPTICITY            1 - B_IMAGE/A_IMAGE                                       
         1 -14.4284    201.9879     40.7148   4.1904321638e+01   2.9829842773e+01     1.552534     1.341642  13.74  0.004478745    1.567    0.362
         2 -14.4034    213.4075     29.7046   3.8003218807e+01   2.8634733882e+01      1.06396    0.8889588  20.73  0.002651446    1.730    0.422
         3 -11.6731    216.9727     12.1321   3.3722960715e+01   2.9861794088e+01    0.3709468     0.278906  36.60  0.002259754    1.929    0.481
         4 -12.9535    241.5355      4.9270   3.0386410288e+01   2.5461564399e+01    0.5339519    0.4649058 -53.73  0.003459621    1.262    0.207
         5 -12.6862    235.4097      4.6158   3.0737118154e+01   2.6743176452e+01    0.5650811    0.2973104 -44.67  0.003129313    1.651    0.394
         6 -10.2041     58.2593      6.4723   6.0721290417e+01   6.6046238418e+01    0.1567436    0.1099868  52.97 0.0007390614    1.616    0.381
         7 -10.4631      2.6047      3.1944   8.6224118833e+01   7.3840830384e+01    0.2065298    0.1107796 -30.89  0.001322019    1.498    0.332
         8 -10.7452    111.6720    204.6665   9.8973463104e+01   1.6447699438e+01    0.3574438    0.2387426 -84.22  0.001028636    2.027    0.507
         9 -11.2350    140.2094    249.5578   9.9013050124e+01   3.4058805224e+00    0.3264602    0.2442828  52.58  0.002010003    1.380    0.276
        10 -13.8355     69.0367    171.2518   1.0449800795e+02   3.0644509939e+01     2.377556     1.161417 -29.51  0.006586222    6.311    0.842
        11 -15.8983     41.5432    196.5940   1.1425896453e+02   2.8086697365e+01     6.512813     2.176826  61.74    0.0192623    5.684    0.824
        12 -15.9731      6.6570    170.0215   1.1998744026e+02   3.7637238982e+01     7.347148     1.252216 -71.68   0.02495155    4.102    0.756
        13 -13.6598     68.2163    155.2461   1.0223630790e+02   3.4695857288e+01    0.6166434     0.474476 -48.72  0.001769924    1.320    0.242
        14 -10.5129    149.4799    187.4915   8.7294665141e+01   1.3583077461e+01    0.3501511    0.2438041 -81.37  0.001517025    2.372    0.578
        15  -9.8736     79.7274    182.6909   1.0343851283e+02   2.6379262808e+01    0.2857615    0.1851121 -79.73  0.001373735    1.706    0.414
        16 -10.2141     99.4070    180.7408   9.8208878355e+01   2.3800959488e+01    0.2448726    0.2410624 -19.66 0.0005672554    1.118    0.106
        17 -10.6507    189.1441    177.3034   7.6557143871e+01   8.3714667186e+00    0.4653326    0.3687817 -75.19  0.002324526    1.908    0.476
        18 -12.0722    193.7604    196.1682   7.9308001398e+01   4.0770821395e+00     1.076251    0.5953577 -62.78  0.003760814    4.346    0.770
        19  -9.7300    148.5338    175.2702   8.5174777193e+01   1.6345612378e+01    0.2574614    0.1473866 -53.85 0.0006441327    1.912    0.477
        20 -10.2088    146.0500    171.0766   8.4928707016e+01   1.7720895594e+01    0.2801487     0.202741 -80.87 0.0009783392    2.060    0.515
        21 -10.4561     34.9451    172.1154   1.1331244879e+02   3.4560597304e+01    0.2553236    0.1778963  81.75 0.0005116176    1.372    0.271
        22  -9.4072    194.4957    171.9589   7.4356039481e+01   8.4112259419e+00    0.2175084    0.1353619 -40.17 0.0008097927    1.560    0.359
        23  -9.5551    185.5843    169.7809   7.5754186349e+01   1.0480878806e+01    0.1990942    0.1363054 -51.24 0.0006167131    1.619    0.382
        24 -11.0654    230.9666    167.9384   6.6591844255e+01   2.7517300160e+00    0.3958668    0.1491707 -48.22  0.001415777    3.384    0.705
        25  -9.0705    110.8682    167.8259   9.3039714532e+01   2.4904568842e+01     0.202934    0.1720372  80.37 0.0003983832    1.309    0.236
        26 -11.1278     33.5161    156.1373   1.1182879728e+02   3.8597236593e+01    0.2958772    0.2677361  76.87 0.0008562467    1.102    0.093
        27 -12.2818     87.4181    153.3538   9.6596411925e+01   3.2317801066e+01    0.6468698     0.461387 -21.68  0.002604863    1.940    0.485
        28 -11.2493    133.7307    144.7116   8.2364125381e+01   2.6031812197e+01     1.244244    0.3291608 -54.69  0.002828234    5.992    0.833
        29 -11.7926     54.2074    147.6107   1.0492643934e+02   3.8421075831e+01    0.7521635    0.5621587 -55.87   0.00407806    1.255    0.203
        30 -10.5331    174.4186    148.8636   7.3619138356e+01   1.6874104823e+01    0.3072906    0.2710804  87.24 0.0008375533    1.406    0.289
        31  -9.2713    164.3451    148.6870   7.5839915611e+01   1.8958079880e+01    0.1541277    0.1238579  86.85 0.0004894554    1.710    0.415
        32 -10.2489    143.6165    145.8217   8.0127552790e+01   2.3799500138e+01    0.2290398    0.1459173 -57.47 0.0009562104    1.762    0.432
        33 -10.7373     29.9061    144.4155   1.1132902823e+02   4.1839019577e+01    0.4208984    0.2801971  15.71  0.002270881    1.895    0.472
        34 -10.9956    101.6044    138.9481   8.9729793952e+01   3.3464028430e+01    0.5728436    0.3732929 -17.41  0.002246707    2.480    0.597
        35 -10.2067    197.6880    139.1400   6.6558384282e+01   1.4108447948e+01    0.3094131    0.2247719 -62.61  0.001255837    1.741    0.426
        36 -12.3813     88.8288    138.7399   9.3328677692e+01   3.5688900194e+01    0.2970912    0.2597419 -41.01 0.0003924883    1.158    0.137
        37 -10.9905     25.8772    137.5528   1.1156533153e+02   4.3901111434e+01     0.352664    0.1982598  39.44  0.001393669    1.932    0.482
        38  -9.2305    111.6851    149.9620   8.9301412801e+01   2.9004125828e+01    0.3221758     0.181169  61.39  0.001156843    2.677    0.626
        39 -10.6778    106.0305    131.0358   8.6704428905e+01   3.4568762291e+01    0.4074029    0.3117206 -56.83  0.001905912    1.308    0.235
        40 -10.1665    110.9196    129.8500   8.5048360280e+01   3.3938796178e+01    0.3262029    0.2618807  12.14 0.0007881344    1.481    0.325
        41 -10.9569    135.7271    128.0054   7.7916248558e+01   2.9421911984e+01    0.5377914    0.1988074 -48.79  0.001741383    2.750    0.636
        42 -10.4956     43.9808    129.6906   1.0499883066e+02   4.4077483424e+01    0.1871523    0.1812372 -77.82 0.0009629371    1.097    0.088
        43  -9.9795    160.7883    127.8772   7.1756899685e+01   2.4125336662e+01    0.3009665    0.2212417 -61.99  0.001357148    1.601    0.375
        44 -14.0566     20.3348    221.1967   1.2072352272e+02   2.4980555440e+01    0.6322448     0.482885 -84.02  0.001750857    1.216    0.178
        45 -11.1686     98.1630    125.7145   8.7733671764e+01   3.7264242132e+01    0.3088361    0.2519263  -1.69 0.0005528001    1.485    0.327
        46 -17.6446     17.2459    242.6708   1.2258015596e+02   2.0982386048e+01     7.312517     2.604969  26.68   0.03256312    3.932    0.746
        47 -10.7921    118.4916    122.9687   8.1273411315e+01   3.4078012968e+01    0.6001078    0.3639094   4.79  0.001870113    3.885    0.743
        48 -10.0879    135.0041    120.2631   7.6167617120e+01   3.1299981788e+01    0.2839503    0.1599709 -45.25   0.00109551    1.750    0.429
        49  -9.8113     86.4054    119.9883   8.9908929394e+01   4.0658486524e+01    0.2872555    0.2038138  57.46  0.001156217    1.696    0.410
        50  -9.9605    107.5306    118.8405   8.3340870899e+01   3.7165917478e+01     0.232035    0.2036132  19.37 0.0003545704    1.219    0.179
        51  -9.2356    167.8088    112.9490   6.6435627290e+01   2.5668954538e+01    0.2652835    0.1768095 -67.26  0.001079802    2.096    0.523
        52  -9.5825    134.6942    112.5191   7.4242527030e+01   3.3063189287e+01    0.2942134    0.1407037 -44.79  0.001086373    2.065    0.516
        53 -10.3294    205.4277    110.1914   5.8345378806e+01   1.7957382258e+01    0.2943813    0.2397353  47.22 0.0009510526    1.325    0.245
        54 -11.4380     33.5463    108.5247   1.0454838468e+02   5.0340503946e+01    0.3903189    0.2603208 -70.81  0.002071473    1.432    0.302
        55 -11.5138    248.6744    106.3344   5.0803279318e+01   1.0054499715e+01    0.3067543    0.1572669 -44.10  0.001487268    1.669    0.401
        56 -14.2603     51.8350    188.5259   1.1101712239e+02   2.8741159704e+01     1.531764    0.9877474  76.48  0.008056644    1.615    0.381
        57  -9.7944    134.6299    105.0691   7.2264930142e+01   3.4672320906e+01    0.3626194    0.1470021 -43.42  0.001242869    2.442    0.590
        58  -8.9199    137.7757    104.6000   7.1330337438e+01   3.4081760853e+01    0.2080076    0.1488072  57.45 0.0004035246    1.541    0.351
        59  -9.1495     65.6473    104.3130   9.2800263137e+01   4.7592399583e+01    0.1449877    0.1121698  73.34 0.0003742121    1.730    0.422
        60 -10.7299     36.4260    100.8850   1.0204704030e+02   5.1899588501e+01    0.2523395    0.2075712  70.58  0.001459563    1.483    0.326
        61 -12.2822    243.5961     95.6405   4.9185147376e+01   1.2731870087e+01    0.4840046    0.1522881 -35.80  0.001777948    2.935    0.659
        62  -9.9526     41.1714     98.1939   9.9803120030e+01   5.2055670499e+01     0.186182    0.1594772  81.68 0.0007163218    1.400    0.286
        63 -14.6586     68.5459    144.3174   1.0026827529e+02   3.7372549716e+01     3.928731      2.06322  77.90  0.009434059    4.515    0.779
        64 -10.2444     53.1204     91.0853   9.3844072871e+01   5.2335776044e+01    0.2251918    0.1728875 -31.60 0.0006584889    1.256    0.204
        65 -10.0556    234.1730     85.8689   4.8288244937e+01   1.6146978038e+01    0.1777215    0.1576144 -14.68 0.0005819931    1.326    0.246
        66  -9.2014     75.2464     85.2223   8.4423461043e+01   5.0472906622e+01    0.1852947    0.1708381  83.79 0.0005992831    1.342    0.255
        67 -10.0862    159.0844     82.6732   6.0233525550e+01   3.3487309412e+01     0.213767    0.1938867  50.24 0.0005804785    1.105    0.095
        68  -9.4495    150.9637     82.9205   6.2089145033e+01   3.5347981179e+01    0.2285895    0.1806518 -77.02 0.0004248146    1.564    0.361
        69  -8.5764     76.4005    194.4334   1.0586111086e+02   2.4120505629e+01    0.1346418    0.1205661  74.95 2.797027e-05    1.017    0.017
        70  -9.5683    110.6432     80.5293   7.1739506122e+01   4.4835104073e+01    0.2829053    0.2019154  73.85  0.001223141    2.109    0.526
        71  -8.9225     69.1539     81.3768   8.5419732421e+01   5.2256687476e+01    0.1845963    0.1296007  45.38 0.0003954814    1.638    0.390
        72  -8.6745     58.3174     67.2614   8.5059818595e+01   5.6778825437e+01    0.1368796   0.09736425 -11.19 0.0001808136    1.544    0.352
        73 -10.8112     13.5047     60.0651   1.0141060848e+02   6.2954059652e+01    0.2719104    0.1968643 -60.73  0.000489855    1.351    0.260
        74 -13.6420    192.3115     47.8298   4.4953526996e+01   3.1120696155e+01      1.07903    0.7073148  49.03 0.0009766137    1.665    0.400
        75 -11.5441    203.8468    199.9911   7.8006251870e+01   1.7352078864e+00    0.4322922    0.1722828  29.83  0.001652266    2.907    0.656
        76 -10.0390    111.5127    197.4855   9.7922456365e+01   1.8028761102e+01    0.1395844    0.1313024  49.97 1.987259e-05    1.017    0.017
        77 -11.0680    138.7107     44.5397   5.3239352009e+01   4.4461421349e+01    0.3284309    0.2539647 -85.88  0.001691656    1.570    0.363
        78 -10.8708    187.8494     31.1206   4.1284197441e+01   3.4342281526e+01    0.2113728    0.1653457 -74.10 0.0005992453    1.231    0.188
        79 -10.3410    198.0684     23.9077   3.8275728606e+01   3.2806712551e+01    0.2704672    0.1907643 -21.12  0.001005569    1.768    0.434
        80 -10.7876      3.2896     25.1156   9.5398590218e+01   7.0329615350e+01    0.2712544    0.1658617  28.87  0.001716764    1.989    0.497
        81  -9.2386     37.2055     56.7734   9.0182188194e+01   6.1519286948e+01    0.1734053       0.1267 -21.20 0.0003353241    1.259    0.206
        82  -9.5221    189.6725     15.0470   3.7023231335e+01   3.5734157525e+01    0.1746957    0.1541484 -64.97 0.0006442454    1.117    0.105
        83  -9.5370    169.0597    236.4255   9.1283846467e+01   1.1572054310e+00    0.1788147    0.1613184 -17.29 0.0004461742    1.198    0.165
        84 -10.9275    107.5832    203.7611   9.9789258669e+01   1.7300157128e+01    0.2758135    0.2201706  77.21 0.0007542627    1.387    0.279
        85 -15.5186      9.6810    207.2702   1.2196683428e+02   2.8968946865e+01     1.233196     1.036122  -9.94  0.006332923    1.856    0.461
        86 -10.0365     89.9431    212.5774   1.0503467423e+02   1.8121207571e+01    0.2361252     0.184343 -84.63 0.0005064781    1.351    0.260
