#   1 NUMBER                 Running object number                                     
#   2 MAG_AUTO               Kron-like elliptical aperture magnitude                    [mag]
#   3 X_IMAGE                Object position along x                                    [pixel]
#   4 Y_IMAGE                Object position along y                                    [pixel]
#   5 X_WORLD                Barycenter position along world x axis                     [deg]
#   6 Y_WORLD                Barycenter position along world y axis                     [deg]
#   7 A_WORLD                Profile RMS along major axis (world units)                 [deg]
#   8 B_WORLD                Profile RMS along minor axis (world units)                 [deg]
#   9 THETA_WORLD            Position angle (CCW/world-x)                               [deg]
#  10 FWHM_WORLD             FWHM assuming a gaussian core                              [deg]
#  11 ELONGATION             A_IMAGE/B_IMAGE                                           
#  12 ELLIPTICITY            1 - B_IMAGE/A_IMAGE                                       
         1 -10.2481     10.2774     18.7662   8.8904844448e+01   7.0480402657e+01      1.13804     0.424587 -19.53  0.003943656    5.220    0.808
         2 -11.1376     23.7517     32.2207   8.7516414756e+01   6.7033422900e+01     1.583324    0.4850143 -34.69  0.003322766    3.323    0.699
         3 -11.0415     32.1494     64.0420   9.4557354151e+01   6.0148751363e+01     1.956673    0.6118518 -34.16  0.006160094    4.578    0.782
         4 -10.2066      4.7960     41.8004   1.0009540870e+02   6.6736236298e+01    0.7446392     0.302083 -56.16  0.003749299    2.073    0.518
         5  -9.5161     85.3674     13.2269   5.5019076958e+01   5.9962921701e+01    0.4193332    0.2565946 -48.32  0.001475109    2.419    0.587
         6 -10.0813     69.7415     40.6799   7.1327249806e+01   5.9429868210e+01    0.9427663    0.3752859 -31.89  0.003256237    2.594    0.614
         7  -9.6232     79.1924     24.0534   6.1361813736e+01   6.0000040099e+01    0.5070574    0.2581941  26.16  0.001540223    2.306    0.566
         8  -9.7429     63.0589     20.8778   6.5576362511e+01   6.3334514019e+01    0.5800907    0.2572105 -42.06  0.002192003    2.979    0.664
         9  -9.8064     64.6684     13.3443   6.1648641585e+01   6.3925181896e+01    0.3973685    0.2442715 -26.03  0.001649131    1.664    0.399
        10 -10.1523     46.2722     29.5024   7.6049844748e+01   6.4787244733e+01    0.4717913    0.2675177 -43.81  0.001107432    2.015    0.504
        11 -10.2640     51.0988     15.2695   6.7678304717e+01   6.6000580431e+01    0.9192657    0.4668314   9.16  0.003993186    2.968    0.663
        12  -9.3061     91.5821     26.4265   5.8530850980e+01   5.7250421194e+01     0.475363    0.2329423 -43.76  0.001831947    2.680    0.627
        13  -9.3396     77.9761      4.4304   5.3431698409e+01   6.2265835479e+01    0.4680226    0.2599126  -1.37  0.001494606    2.101    0.524
        14  -8.8606     72.0458      8.2690   5.6910049820e+01   6.3074924713e+01    0.1887474     0.158831  16.55 0.0003925854    1.063    0.059
        15  -9.8584     73.4117     18.7754   6.1036587047e+01   6.1716657389e+01    0.6509066    0.1966725 -32.40  0.002241256    3.341    0.701
        16  -7.5053     74.7565     10.9888   5.7245865961e+01   6.2289579997e+01    0.2051991    0.1716558  22.12 0.0005310188    1.027    0.026
        17  -9.0911    103.0219     21.1173   5.3396668768e+01   5.5430227945e+01    0.3359287    0.2154089 -29.42  0.001040642    1.680    0.405
        18  -8.7581    120.0617     16.0774   4.7688561233e+01   5.2130991122e+01    0.4050305    0.2176931  35.07  0.001379467    2.001    0.500
        19  -8.9094    125.1462     12.9194   4.5600448006e+01   5.1259705944e+01    0.2628327    0.2105721 -40.69 0.0006690253    1.419    0.295
        20  -9.7944    125.3178      5.5661   4.3091050504e+01   5.1863443265e+01    0.5673341    0.2077648  61.69  0.002436463    2.257    0.557
        21  -8.6969    126.9844      8.7652   4.3864342152e+01   5.1206677157e+01    0.2290173    0.1674245  59.53 0.0006823658    1.191    0.160
        22 -10.6582     37.1930      9.8716   7.1088957364e+01   6.8733170085e+01    0.8455286     0.275573 -38.59  0.002311183    3.448    0.710
        23 -10.5180     27.3227     11.2873   7.6505594396e+01   6.9845143165e+01    0.8675022    0.3652442  36.89  0.004423875    2.518    0.603
        24  -9.8419     18.0758      3.9244   7.7585045602e+01   7.1882785130e+01    0.4429109    0.2794562  40.53  0.002233574    2.266    0.559
        25  -9.6072      2.3710     14.4636   9.1458680603e+01   7.1776487534e+01    0.4379145    0.2115726 -56.23  0.002042459    2.781    0.640
        26 -10.5190      5.5105      4.6598   8.5076468100e+01   7.3021855828e+01    0.5046535    0.3559794  -0.19  0.001862922    1.179    0.152
        27  -9.6646    132.2715      5.3792   4.1840271308e+01   5.0264176286e+01    0.4113041    0.2277302  63.51  0.001568712    1.554    0.357
        28  -9.6652    133.0273     16.4346   4.5301144600e+01   4.9089878960e+01    0.4492821    0.2377948  -3.75  0.001521646    2.831    0.647
        29  -8.6831    133.2315     10.2777   4.3264039950e+01   4.9618076677e+01    0.2757473    0.1361012 -36.79  0.001046448    2.218    0.549
        30  -9.1034     96.1448     15.0170   5.2812792981e+01   5.7539443027e+01    0.5005046    0.2244783 -15.89   0.00208976    2.725    0.633
        31  -8.6829    112.0052     15.1741   4.9083290308e+01   5.4047083694e+01    0.3562108    0.1953054 -48.12  0.001259503    2.463    0.594
        32  -8.8413    114.1241      9.8996   4.6735141053e+01   5.4056473300e+01    0.2788498     0.167591  41.72 0.0003769587    1.516    0.340
        33  -9.2198    110.2917      4.9039   4.5723927152e+01   5.5343527644e+01    0.4744479    0.2575066 -19.62  0.002458894    2.072    0.517
        34  -8.9222    115.2966      4.2623   4.4497106507e+01   5.4265701777e+01    0.3120781    0.2111588 -44.12 0.0006834685    1.783    0.439
        35  -9.1428     18.8957      9.3570   7.9900648873e+01   7.1071152320e+01    0.3655771    0.1932933   5.25  0.001363449    2.070    0.517
        36  -9.0926    141.3571     12.0047   4.2458574099e+01   4.7552189573e+01    0.3026723    0.1642017 -11.27  0.001111472    2.417    0.586
        37  -7.7149    192.0455     10.2907   3.5433987158e+01   3.5845864976e+01    0.1721842    0.1413052  85.26 0.0003334538    1.075    0.070
        38  -7.9972    137.3974      9.7943   4.2409452970e+01   4.8684759848e+01    0.1777758     0.122167   2.28 0.0009617734    1.832    0.454
        39  -8.7243    102.0844      8.4329   4.8822145812e+01   5.6867215938e+01     0.231399    0.1814092 -54.21 0.0006356665    1.665    0.400
        40  -8.4800    154.6631      6.1314   3.8727260309e+01   4.4939612918e+01     0.337472    0.1476446 -65.06   0.00119175    4.232    0.764
        41  -7.9895     96.0050      2.9582   4.8120914967e+01   5.8643256718e+01    0.1983247    0.1753497  -7.33 0.0007855708    1.244    0.196
        42  -8.3077     85.4834      6.2065   5.2083730506e+01   6.0591494611e+01    0.3045822    0.1237437  33.68  0.001286355    2.649    0.623
        43  -8.4960     89.0790      2.9267   4.9794190377e+01   6.0118565676e+01    0.3084066    0.2019202 -13.57 0.0008713371    1.655    0.396
        44  -9.9462     63.0269      3.1596   5.7549574876e+01   6.5237015181e+01    0.4106666    0.3139953  27.72   0.00187015    1.059    0.056
        45  -7.8548     80.6157     12.6312   5.6155964651e+01   6.0978227829e+01    0.2365572    0.1317787 -44.01 0.0007269296    2.519    0.603
        46  -8.4157    104.3929      2.2633   4.5981335359e+01   5.6866847269e+01    0.2806209    0.1571844  35.91  0.001163204    1.707    0.414
        47  -8.3544     97.7076      5.6826   4.8785246222e+01   5.8054100660e+01    0.2613614     0.163992  10.00 0.0008246549    1.829    0.453
        48  -8.2334    136.3710      1.5630   3.9972128223e+01   4.9615298533e+01    0.2328051    0.1124194  70.93 0.0006672206    1.911    0.477
        49  -7.1356    161.3222    129.6761   7.2234170551e+01   2.3777229244e+01    0.1550154    0.1254247 -83.64 0.0007046926    1.681    0.405
        50 -10.1415    197.2474    249.9610   8.8070464599e+01  -4.7544240228e+00    0.4366693    0.1720365  32.18  0.002072125    2.194    0.544
        51  -9.7389    180.5055    250.0510   9.1317458897e+01  -2.4190713315e+00    0.2719417    0.2049218 -17.78  0.001523124    1.385    0.278
        52  -7.2609     55.6512    133.7009   1.0224391446e+02   4.1294784865e+01    0.1463569    0.1004754 -31.75 0.0001149444    1.686    0.407
        53 -10.0585    127.7959    102.4968   7.3507995713e+01   3.6648657596e+01    0.5096056    0.4740309  44.24  0.001190625    1.123    0.109
        54  -9.9320     42.0542    122.8018   1.0443603448e+02   4.5519297967e+01    0.7299289    0.3814612  89.01  0.002697746    3.352    0.702
        55 -10.0447     27.1887    122.8516   1.0903666461e+02   4.6890277355e+01    0.5946223    0.3431653  70.28  0.002241988    2.411    0.585
        56  -9.8039     98.5223    128.5845   8.8468629284e+01   3.6297205309e+01    0.6345084    0.4114802  73.40  0.002297867    2.698    0.629
        57  -7.2665    158.2518    121.6334   7.0946908252e+01   2.6119484623e+01    0.1550776    0.1212577 -69.71 0.0006132062    1.626    0.385
        58  -7.6465    151.2842    121.2196   7.2499824641e+01   2.7686084919e+01     0.242939    0.1245794  53.90 0.0008820289    2.365    0.577
        59  -8.9756     99.4605    119.3292   8.5990306732e+01   3.8341570272e+01     0.595115     0.370248  -2.75   0.00213895    2.999    0.667
        60  -8.5550      1.6347    116.8511   1.1596039396e+02   5.0104443959e+01    0.3507501    0.1419182 -83.69  0.001486692    2.626    0.619
        61 -10.3365     91.9908    112.9182   8.6639216043e+01   4.1142595480e+01    0.6651976    0.5446397  89.85  0.001758398    1.589    0.371
        62  -9.2532     92.7859    103.3308   8.3902147506e+01   4.3226483984e+01    0.6869935    0.3900646  20.66  0.002692103    2.395    0.582
        63  -8.1730    244.5037    116.5050   5.3541227279e+01   9.6214718474e+00    0.1353341    0.1144949 -34.72 0.0008106403    1.011    0.011
        64 -10.3491     78.3064    112.9817   9.0907004092e+01   4.3328154959e+01    0.5882306     0.379488 -78.18  0.001812319    2.323    0.569
        65  -7.7599     82.4962     93.5112   8.4491626615e+01   4.7178740770e+01     0.291746    0.1874486 -15.31  0.001078515    2.142    0.533
        66  -8.5288     77.9338    105.4402   8.9164201686e+01   4.5173002507e+01    0.4406555    0.2770658  -2.72  0.001777738    2.506    0.601
        67  -9.5024     81.4971    100.4005   8.6700818054e+01   4.5783223736e+01    0.4967672    0.2950136 -63.10  0.001003901    2.074    0.518
        68  -9.1642     55.9920    114.7693   9.8451330608e+01   4.5944614409e+01    0.4078202    0.2254884 -76.33   0.00164777    2.468    0.595
        69  -8.2142    152.9930    115.3014   7.0567518800e+01   2.8572918511e+01    0.2096893     0.206303  32.32 0.0004658713    1.062    0.059
        70  -8.1274     63.5560     81.7395   8.7629045869e+01   5.2658175279e+01    0.1966537    0.1698614  79.44 0.0005011739    1.611    0.379
        71  -8.8854     64.8921     86.0676   8.8390082008e+01   5.1520646094e+01    0.6469373    0.3653331  -2.63  0.002415903    3.186    0.686
        72 -10.2454     66.9150    104.1925   9.2459707232e+01   4.7077427064e+01    0.8184725    0.4098862  19.64  0.003227482    2.661    0.624
        73 -10.3965     62.9079     95.5395   9.1636871312e+01   4.9649723208e+01    0.6044498      0.38719 -75.31  0.001657537    2.307    0.567
        74 -10.3564     65.8280    110.9697   9.4427462162e+01   4.5606194750e+01    0.5357924     0.433481  60.10 0.0009998349    1.507    0.337
        75  -9.3697     58.9349    109.1367   9.6262175206e+01   4.6950403472e+01    0.4352796    0.2575773 -70.26 0.0008390598    1.984    0.496
        76  -7.2563    167.2581    113.9575   6.6935196581e+01   2.5761127322e+01    0.1950454    0.1287246 -41.43  0.000453751    1.456    0.313
        77  -9.5945     14.1716    111.3198   1.1133332462e+02   5.0687772721e+01    0.4708616    0.2462793  84.49   0.00208019    2.657    0.624
        78  -8.1920     14.4157    104.7568   1.1022850534e+02   5.2254008404e+01    0.2210161     0.134967 -28.86  0.001184365    1.823    0.451
        79  -8.2408    158.8993    111.8353   6.8276769399e+01   2.8011331073e+01    0.2614118    0.2123014 -39.09 0.0003747387    1.189    0.159
        80  -9.0970     35.8481    110.9488   1.0424967123e+02   4.9046169986e+01    0.2873521     0.167825 -56.01 0.0009331309    1.424    0.298
        81 -10.8702     21.8205    101.6441   1.0721410753e+02   5.2481206718e+01     1.560704    0.8069727 -88.12   0.00595298    2.920    0.658
        82  -8.4120    217.8321    249.6113   8.4154297254e+01  -7.4706230702e+00    0.1627105    0.0957472  36.66 0.0009479162    1.722    0.419
        83  -9.6746    191.2763    247.3781   8.8822330866e+01  -3.5530752163e+00    0.2526787    0.1850285 -54.02  0.001521121    2.036    0.509
        84 -10.6152     25.8749     77.9932   1.0078804895e+02   5.7673631515e+01    0.9027947    0.5644262 -79.95  0.004457404    2.219    0.549
        85 -10.8235    163.2772    247.2495   9.4315790633e+01   5.0114018169e-01    0.7667508    0.3199557  48.42  0.003154442    3.160    0.684
        86  -9.6729     15.9938     70.5871   1.0291394250e+02   6.0057320894e+01    0.4352993    0.2121998 -54.33    0.0014327    1.604    0.377
        87 -10.8533     21.8722     53.3262   9.5739698182e+01   6.3259369904e+01    0.7655166    0.5160204  86.59  0.002957179    3.449    0.710
        88 -10.1572     12.2550     45.7216   9.7765578312e+01   6.5496481710e+01    0.7475657    0.3527609  -5.87  0.002817954    2.660    0.624
        89  -8.2295     91.2968    248.1179   1.0891827594e+02   1.0726817162e+01    0.2019039    0.1445397  33.01 0.0003206261    1.332    0.249
        90 -10.0468     34.2955     90.2377   1.0049678737e+02   5.4139654146e+01    0.6049461    0.3155397 -76.28  0.001903574    2.769    0.639
        91  -9.7898     36.9335     80.8864   9.7264088645e+01   5.6027885728e+01    0.7461026     0.371028 -13.43  0.002903007    3.334    0.700
        92  -9.5746      6.8733     32.5083   9.6035245185e+01   6.8363971151e+01    0.2531706    0.1799448 -10.51 0.0008691564    1.275    0.215
        93 -10.0844      7.3491     28.3010   9.4273376437e+01   6.9088709062e+01    0.3128499    0.2540597  23.58  0.001058729    1.566    0.361
        94  -8.7534    240.4843    108.0206   5.2269384501e+01   1.1761823279e+01    0.2081835    0.1160408 -38.05 0.0003898143    1.532    0.347
        95  -8.6646     40.2022    107.0658   1.0204792631e+02   4.9568906667e+01    0.2466854    0.1745742 -82.13 0.0008211201    1.639    0.390
        96 -10.7777     44.6711    102.0553   9.9477358810e+01   5.0314636788e+01    0.8269234    0.4911071  85.25  0.002852804    3.256    0.693
        97  -9.1186      6.4996    103.6970   1.1266466937e+02   5.2988748269e+01    0.3736428    0.2262942  81.14   0.00157896    2.034    0.508
        98  -8.2993    165.9416    103.8522   6.4590804298e+01   2.8059014354e+01    0.2702124    0.2148023 -58.30 0.0008242721    1.385    0.278
        99  -9.8460    149.1044    102.4094   6.8067284806e+01   3.2076661530e+01    0.6680799    0.3617484 -57.03  0.001509305    2.501    0.600
       100  -8.8694     64.5141    101.3549   9.2562074379e+01   4.8076330117e+01    0.4228585    0.1900924  23.09  0.001611346    2.816    0.645
       101  -8.4908    158.9964    100.9377   6.5359623840e+01   3.0176982827e+01    0.2688053    0.2120379 -43.50 0.0006366046    1.242    0.195
       102  -9.5028     94.2884     97.2309   8.1760995192e+01   4.4333024907e+01    0.3558047    0.2913816 -49.69   0.00065035    1.220    0.181
       103  -9.1471     96.2693     90.3705   7.9177399749e+01   4.5468986474e+01    0.5367109    0.3352328  -3.09   0.00201189    2.757    0.637
       104 -10.0914    240.6324     95.0879   4.9396293155e+01   1.3846987344e+01    0.4558816    0.3100024 -12.71  0.002289641    2.014    0.504
       105  -8.5090    164.5025     93.5971   6.2152175258e+01   3.0352037074e+01      0.46801     0.210931 -38.14  0.001301094    2.169    0.539
       106  -9.4076    138.7740     92.5441   6.7847915127e+01   3.6329261711e+01    0.4439637    0.2857936 -57.85 0.0008026457    1.937    0.484
       107  -8.3339    139.5172     87.5091   6.6212832964e+01   3.7146806894e+01    0.3481735    0.1864866  35.78  0.001345506    2.161    0.537
       108  -9.0568    157.6098     91.0624   6.2967973334e+01   3.2392840427e+01    0.4829374    0.2483058 -30.35  0.001732366    2.201    0.546
       109  -9.1902    150.1453     89.9433   6.4357748924e+01   3.4295376958e+01    0.4679503    0.3049898 -26.03  0.001815152    1.730    0.422
       110 -10.0454      4.4404     89.5448   1.1112223446e+02   5.6433579937e+01    0.5608943    0.2901411 -89.91  0.001901982    2.630    0.620
       111  -9.4046      6.2434     78.8097   1.0851217115e+02   5.8805694878e+01    0.6656175    0.2431328 -33.36  0.002832233    2.939    0.660
       112  -8.2926    192.5013     90.8084   5.5900200673e+01   2.4555008078e+01    0.2704525     0.212461 -66.62 0.0009276894    1.442    0.306
       113  -8.5797     47.8010     90.6933   9.5721513582e+01   5.2644148594e+01    0.3977778    0.2881749  59.10  0.001565331    1.939    0.484
       114 -10.1260     48.0109     84.4942   9.4056542028e+01   5.4033782377e+01    0.5208994    0.3685183  73.31  0.001702635    2.414    0.586
       115  -9.2908     48.3335     77.5210   9.2034183944e+01   5.5542583623e+01    0.6747841    0.3783747  -3.18  0.002866286    2.662    0.624
       116 -10.1614     85.3625     86.5599   8.1547821673e+01   4.8217282021e+01    0.4540655    0.3611956 -85.05 0.0009471258    1.879    0.468
       117  -9.6751     87.4797     78.8156   7.8500856409e+01   4.9467876582e+01     0.675439    0.3871007  17.87  0.001968032    2.488    0.598
       118  -9.9632     81.6954     72.5283   7.8438507365e+01   5.1740319157e+01    0.5094634    0.3433573 -61.20  0.000981317    2.055    0.513
       119  -9.2770     83.1764     64.9089   7.5420268429e+01   5.2947967383e+01    0.5501015    0.4152305   1.02  0.002684778    1.440    0.305
       120  -8.1514    163.4949     87.0764   6.0580225828e+01   3.1791015633e+01    0.2263566    0.1447316 -39.93 0.0004520225    1.525    0.344
       121  -8.8503    126.5955     83.6443   6.8384367329e+01   4.0732851887e+01    0.6737711    0.3719119  18.79  0.002119335    3.806    0.737
       122 -10.4000    103.9157     82.5121   7.4470054476e+01   4.5649719432e+01    0.5843732    0.3725192 -57.19 0.0009422977    1.978    0.495
       123  -9.4776    105.2935     71.4637   7.0575378719e+01   4.7516774829e+01    0.6521109    0.4016141 -25.58  0.002874096    1.818    0.450
       124  -8.4997    157.7961     82.8867   6.0636357549e+01   3.3859850823e+01    0.3811519    0.1891841 -41.31  0.001396485    1.978    0.494
       125  -8.8600    139.8065     75.5792   6.2620056575e+01   3.9294049789e+01    0.7119005     0.309783 -45.51  0.002514698    2.467    0.595
       126  -8.7645    140.3534     83.0090   6.4693707495e+01   3.7812922018e+01    0.3143378    0.2559106 -56.67 0.0005744441    1.364    0.267
       127  -8.1671    141.3412     79.3079   6.3363318559e+01   3.8273210831e+01    0.3042612    0.2143307  30.08  0.001244903    1.609    0.379
       128  -7.5996    170.5223     83.0970   5.8033811151e+01   3.0891885479e+01    0.2304799     0.142415 -38.87  0.001023717    1.573    0.364
       129  -9.0232    149.9666     80.1685   6.1600848455e+01   3.6149249777e+01    0.5651132    0.2141311 -37.81  0.001169386    2.615    0.618
       130  -9.3008     74.4431     79.1654   8.3014938521e+01   5.1582155119e+01    0.7214031    0.3025979 -49.74  0.001511994    2.369    0.578
       131  -9.2381    115.2946     72.4505   6.8007822139e+01   4.5263395184e+01    0.5460067    0.2862192 -39.00 0.0009274044    1.899    0.473
       132  -8.6746    119.0191     80.4969   6.9483292413e+01   4.2962585240e+01    0.3239421    0.2266527 -50.74 0.0006118722    1.571    0.363
       133  -8.5169    119.8733     75.8581   6.7814802173e+01   4.3658310821e+01    0.2495584    0.2145049 -25.84 0.0005405839    1.152    0.132
       134  -8.6595    166.6782     78.4901   5.7537925227e+01   3.2584903100e+01    0.4805947     0.214738 -33.99   0.00157895    2.301    0.565
       135  -8.3646     68.7835     78.3688   8.4762151736e+01   5.2621850776e+01    0.4064215    0.1706491 -50.23  0.001589269    2.325    0.570
       136  -7.8795    150.2660     96.5616   6.6182379768e+01   3.2986251820e+01     0.211274    0.1446555  35.22  0.000933211    1.587    0.370
       137  -7.5371    174.4420     78.9198   5.6125293604e+01   3.0714295719e+01    0.2058349    0.1159478 -57.56 0.0008030152    2.303    0.566
       138  -8.0168    184.1365     78.1121   5.4107781399e+01   2.8621802391e+01    0.2149765    0.1965008  14.13 0.0005288839    1.232    0.188
       139  -8.8356    156.7698     75.5944   5.8779853683e+01   3.5386067378e+01    0.3674027    0.2508096 -44.86 0.0009126552    1.483    0.326
       140  -9.2985    127.3889     75.2488   6.5622172706e+01   4.2136224714e+01    0.3783591    0.2686747 -58.57 0.0009412108    1.761    0.432
       141  -8.7386    129.3754     68.8946   6.3138757665e+01   4.2825029030e+01    0.4891954    0.2712907  24.49  0.001765277    2.902    0.655
       142  -8.5055    130.5767     64.3465   6.1409273658e+01   4.3327880359e+01    0.3946241    0.2093831 -37.79  0.001011426    1.902    0.474
       143  -9.8090     17.1546     60.9729   9.9991160397e+01   6.2047597300e+01    0.7435163    0.5849789 -31.20  0.004449047    1.078    0.073
       144 -10.6535     54.8992     70.8414   8.7570290518e+01   5.6151015701e+01    0.8145846    0.6096483  86.99  0.001114682    2.488    0.598
       145  -8.8922     54.7127     63.4348   8.5288924611e+01   5.7681484561e+01    0.4296073    0.3194535 -22.59  0.002036986    1.245    0.197
       146  -9.8367     61.7463     60.7906   8.1703032161e+01   5.7209060722e+01    0.4125986    0.3095731  -0.02 0.0005537064    1.365    0.267
       147  -8.6818     67.6180     60.6784   7.9469154695e+01   5.6340030626e+01     0.333239    0.2210276  30.17  0.001719219    1.530    0.347
       148  -8.5148    169.4148     71.4172   5.5029228386e+01   3.3143205792e+01     0.330754    0.1680209 -43.76  0.001022154    1.967    0.492
       149  -8.1568    162.7691     72.7894   5.6728892163e+01   3.4467045237e+01    0.2889053    0.1846203 -46.98 0.0006618208    1.612    0.380
       150  -9.2761    146.9920     69.3086   5.9076782341e+01   3.8729950932e+01     0.379497    0.2576482 -59.48 0.0009431691    1.850    0.459
       151  -8.0780    156.4225     69.7865   5.7176155303e+01   3.6452418182e+01    0.2562643    0.1858086 -27.43 0.0009166582    1.459    0.315
       152  -8.2236     95.8348     53.6295   6.7407650755e+01   5.2535512833e+01    0.3485776     0.237825 -37.75  0.001757759    1.500    0.333
       153  -9.6122     94.7575     68.2153   7.2742060080e+01   5.0195188255e+01    0.4454831    0.2511094 -45.43 0.0007786735    1.854    0.461
       154  -8.4590     95.4630     61.0305   7.0099970916e+01   5.1356401332e+01    0.3486006    0.2209985 -20.45  0.001011554    1.802    0.445
       155  -8.8808     99.0045     56.8147   6.7555626450e+01   5.1374822543e+01    0.4561275    0.2883817  12.35  0.001971917    2.192    0.544
       156  -9.4783    109.8511     64.0414   6.6817382568e+01   4.7912343440e+01    0.4140258    0.2591873 -50.60 0.0007586348    1.912    0.477
       157  -9.5972    138.1494     66.3015   6.0193419180e+01   4.1275678321e+01    0.3283158    0.2576449 -65.03 0.0005457212    1.571    0.364
       158  -9.1937    121.2191     66.1176   6.4368282311e+01   4.5112557182e+01    0.3639653    0.2507397 -47.61 0.0006648697    1.596    0.374
       159  -8.3774    122.2152     61.2199   6.2523581648e+01   4.5718990611e+01    0.2975909    0.2130305  25.21 0.0008276015    1.563    0.360
       160  -8.1308    170.7990     64.8268   5.2932551335e+01   3.3881072203e+01    0.1971063     0.163588 -68.76  0.000368369    1.311    0.237
       161  -8.2633    157.4840     63.0407   5.4994298592e+01   3.7297633799e+01    0.2881299    0.2123955 -57.04 0.0009521125    1.525    0.344
       162  -8.2952    149.8402     47.8812   5.2008238930e+01   4.1367779682e+01    0.3067555    0.2021412 -30.63 0.0005741181    1.592    0.372
       163  -8.2606    149.6726     43.6961   5.0768818796e+01   4.1982177066e+01    0.2236928    0.2125014  59.43 0.0006932202    1.005    0.005
       164  -8.4846    164.4969     60.5831   5.2914063647e+01   3.6026128538e+01    0.3325513    0.1449356 -31.04  0.001270098    2.460    0.593
       165  -9.8056     73.1580     59.3154   7.6983666555e+01   5.5701234379e+01    0.4514594    0.2592518 -50.48  0.001146766    2.047    0.511
       166  -9.4062     74.5841     51.3787   7.3635218959e+01   5.6862671308e+01    0.6015732    0.3495918   0.01  0.002435003    2.788    0.641
       167  -9.0392    153.4932     41.0593   4.9253215217e+01   4.1423216484e+01    0.3202271    0.2361163 -42.99  0.001198358    1.418    0.295
       168  -8.6909    111.0800     57.8119   6.4388094525e+01   4.8702959220e+01    0.2848878    0.2543834   2.84  0.000900558    1.093    0.085
       169  -8.5830     87.5737     58.5263   7.1759540459e+01   5.3301304540e+01    0.2606616    0.2385691 -64.63 0.0008558001    1.414    0.293
       170  -9.3448    138.8721     56.6562   5.7032389122e+01   4.2656813151e+01    0.3903677    0.1992227 -44.19 0.0008909299    2.117    0.528
       171  -7.7827    139.3388     51.3193   5.5254681774e+01   4.3349243963e+01    0.2396896    0.1381888  51.53 0.0006189264    1.640    0.390
       172  -8.8213    141.9225     48.3552   5.3770158168e+01   4.3170763199e+01    0.5525866      0.21305 -31.39   0.00160335    2.731    0.634
       173  -8.9884    130.1323     56.4815   5.9010949972e+01   4.4697285024e+01    0.6860124    0.2362223 -30.07  0.002224938    3.402    0.706
       174  -9.6510    130.3867     46.5721   5.5737387862e+01   4.6111291182e+01     1.044531    0.3718307 -25.38  0.001765873    3.777    0.735
       175  -8.5662    136.2932     26.6879   4.8016015169e+01   4.7247868823e+01    0.2718967    0.1749142 -35.94  0.001099467    1.668    0.400
       176  -8.8280    133.1425     36.0926   5.1705153006e+01   4.6869916794e+01    0.3777737    0.2130335 -45.42  0.001152078    2.036    0.509
       177 -10.6845    133.9959     30.9883   4.9863612871e+01   4.7292456426e+01    0.2503423    0.2301683  33.27  0.001521645    1.071    0.067
       178  -9.4311    118.1101     54.8282   6.1486005830e+01   4.7655086121e+01     0.445292    0.3080043 -35.45 0.0009870414    1.481    0.325
       179  -8.9351    121.0338     46.9635   5.8097748311e+01   4.8186992368e+01    0.3339593    0.2039994 -28.31 0.0004348272    1.726    0.420
       180  -8.6123     53.3764     39.1753   7.7048957397e+01   6.2259397124e+01    0.2409442    0.1727808 -13.16  0.001089662    1.294    0.227
       181 -10.2551     50.0003     53.9918   8.3961397642e+01   6.0129055363e+01    0.6444355    0.3624929 -54.66  0.002344235    2.190    0.543
       182  -9.5218     55.7719     43.6526   7.7829387626e+01   6.1169463570e+01    0.7251506     0.384223  -0.89  0.002734469    3.552    0.718
       183  -9.2734    162.6912     53.5303   5.1227225252e+01   3.7509702903e+01    0.4054904    0.2373625 -30.09  0.001423081    1.806    0.446
       184  -8.8226    105.3734     53.0579   6.4372573988e+01   5.0676683257e+01     0.344688    0.2283646 -52.52  0.001206255    1.948    0.487
       185  -7.5318    106.3571     48.3348   6.2442564171e+01   5.1199331970e+01    0.2537938    0.1249403  39.86 0.0009735244    2.013    0.503
       186  -8.6480     89.1442     53.1289   6.9337901983e+01   5.3923372730e+01    0.5384396    0.2801984  29.21  0.002256962    2.235    0.553
       187 -10.2522     85.0985     47.9924   6.8788172580e+01   5.5524497492e+01    0.4447889    0.3165181 -55.34 0.0009764726    1.976    0.494
       188  -8.3312    152.7198     53.1944   5.3039068992e+01   3.9923803317e+01    0.2274554    0.1705428 -52.29  0.000704601    1.450    0.310
       189  -8.4064    157.3754     48.9813   5.0888661609e+01   3.9423859571e+01    0.2520165    0.1939825 -81.73 0.0009102355    1.550    0.355
       190 -10.3041     90.2075     38.1734   6.3475351698e+01   5.6003382111e+01     1.072803    0.3118531  39.80   0.00351509    3.688    0.729
       191  -8.5586    111.9598     46.8923   6.0406520151e+01   5.0207756114e+01    0.2277043    0.1977775 -23.53 0.0004523214    1.179    0.152
       192  -9.4311    203.5120    244.7241   8.6061089814e+01  -4.8782591732e+00     0.222556    0.1788095  17.99  0.000789689    1.113    0.101
       193  -7.8838    242.1603    239.1962   7.8070323094e+01  -9.1963669635e+00    0.1811905    0.1239353   1.29 0.0004576377    1.190    0.160
       194  -9.8245     76.1183     32.1317   6.5675765462e+01   5.9541883066e+01    0.4236027    0.3016547  52.09  0.001064028    1.635    0.388
       195  -9.2594    188.0928    234.2908   8.7391125532e+01  -1.1225318330e+00    0.2255719    0.1854754 -36.40  0.001437938    1.394    0.283
       196  -8.9984     84.6542     21.5560   5.8637663788e+01   5.9221424020e+01     0.268828    0.2276175  -8.84  0.000718156    1.186    0.156
       197  -9.9297     37.8179     42.0089   8.4769594049e+01   6.3821353083e+01    0.3471982     0.326353  77.79  0.001485859    1.702    0.413
       198 -10.3706     35.8995     37.9741   8.4084110238e+01   6.4748352120e+01     0.569855     0.302095 -12.26 0.0003706088    2.468    0.595
       199  -9.1746    110.3158     32.8717   5.5876468667e+01   5.2469675790e+01     0.394383    0.2310277 -35.24  0.001336699    1.824    0.452
       200  -8.8531    104.8880     40.8063   6.0169480700e+01   5.2602932869e+01    0.3002543    0.2257107 -46.87 0.0009267708    1.581    0.368
       201  -8.5187    106.0247     36.4627   5.8289714667e+01   5.2946472931e+01    0.3524618    0.1988319  29.70  0.001141214    2.025    0.506
       202  -8.8356    139.6049     40.1130   5.1655731321e+01   4.4839132123e+01    0.3741751    0.2199542 -40.03  0.001235128    1.801    0.445
       203  -8.1760    122.8741     40.8499   5.5585390371e+01   4.8621492629e+01    0.2884359     0.172567   8.30  0.001175228    2.672    0.626
       204  -9.5998    147.0173     56.5917   5.5234734677e+01   4.0762283193e+01    0.8356134    0.2760986 -28.51  0.002605209    3.846    0.740
       205  -9.0732     43.9609     54.1389   8.6492733969e+01   6.0860263021e+01    0.2577695     0.170473 -40.39 0.0005681848    1.340    0.254
       206  -9.0663    144.0900     36.3878   4.9592795804e+01   4.4255816702e+01    0.2504908    0.1875948 -45.60 0.0005118646    1.444    0.307
       207  -8.4850    118.8587     34.7326   5.4441997397e+01   5.0327971566e+01    0.2461544    0.1890223 -29.92 0.0006614009    1.382    0.277
       208  -9.2966     60.3370     33.7173   7.2070810074e+01   6.2041868531e+01    0.3686466    0.2866803 -48.59  0.001336354    1.737    0.424
       209  -8.4772     61.5479     27.2226   6.8886145539e+01   6.2767566648e+01    0.3913642     0.203426  14.46   0.00162719    2.815    0.645
       210  -8.9475    202.5354    227.3677   8.3403205183e+01  -2.1709404796e+00     0.248741    0.2260995 -63.09 0.0006544942    1.707    0.414
       211 -10.3805    222.3669    221.0127   7.8517175182e+01  -4.0549247429e+00    0.2216633    0.1890766   0.18 0.0001677501    1.140    0.123
       212  -8.5112    152.5571     34.5066   4.7453839168e+01   4.2475485125e+01    0.2992132    0.1290139  62.87  0.001222749    2.220    0.550
       213  -9.0680    100.9632     32.0406   5.8033011904e+01   5.4600571807e+01    0.4034207    0.1864209 -30.97  0.001088262    2.248    0.555
       214  -8.1625     45.4007     15.7266   7.0269244738e+01   6.6820747044e+01    0.1801643    0.1345755  12.87  0.001157374    1.116    0.104
       215  -8.4223     42.1577     28.0937   7.7240791552e+01   6.5564027740e+01    0.2277407    0.1517268 -18.24 -0.0006383859    1.347    0.258
       216  -8.9526    190.7758    221.5116   8.4731520526e+01   5.1931727368e-01    0.2717679    0.1941743  36.15   0.00101715    1.379    0.275
       217  -8.9602    191.9442    216.9850   8.3713045088e+01   1.0869776970e+00    0.2174857    0.1799485  -4.03 0.0003093981    1.091    0.084
       218  -9.4104    156.0110     26.9545   4.4618017342e+01   4.2539374377e+01    0.3489295     0.167635  68.97  0.001522601    2.089    0.521
       219  -8.0929    192.7221    212.1965   8.2709783296e+01   1.7690844660e+00    0.1953423    0.1673223 -31.45 0.0004180494    1.254    0.203
       220  -8.5356     92.4865     20.5469   5.5964727906e+01   5.7735464611e+01    0.2907028    0.1983195   6.62  0.001088451    1.613    0.380
       221  -8.9344     70.7084     26.0897   6.5059343113e+01   6.1328216936e+01    0.3729474     0.251606  26.71  0.002098573    1.361    0.265
       222  -7.3177    218.9968    209.0538   7.6991590960e+01  -1.7341316549e+00     0.156011    0.1277351   1.82 0.0003974657    1.032    0.031
       223 -10.0096     11.0575    207.1383   1.2162600732e+02   2.8345034231e+01    0.5783457    0.2838688  20.32  0.003020321    2.846    0.649
       224 -10.1903    159.5702    206.5370   8.8690909912e+01   8.1704399760e+00    0.2417385    0.2261108  14.38  0.000425428    1.057    0.054
       225  -8.4407    111.8542    203.3832   9.8948303643e+01   1.6609008369e+01    0.2211706    0.1918053 -47.89 0.0003835364    1.231    0.188
       226  -8.5886    128.4965     25.9634   4.9325673099e+01   4.9152787068e+01    0.2645926    0.2009148 -65.38 0.0006714325    1.663    0.399
       227  -8.6371    144.2496     25.6342   4.6212574024e+01   4.5484803285e+01    0.2326698     0.183194 -30.59 0.0006341603    1.375    0.273
       228  -8.5756    231.0725     24.7105   3.5013793406e+01   2.5735314999e+01    0.1933827    0.1636256 -41.86 0.0003469519    1.239    0.193
       229  -8.9893    192.2447    195.0045   7.9627314308e+01   4.8498793289e+00    0.7963555    0.4092024 -61.76  0.002303471    6.242    0.840
       230  -9.1981    118.9346     21.4614   4.9802643501e+01   5.1843405523e+01    0.2664026    0.2406515  67.19 0.0004822289    1.156    0.135
       231  -8.7293    181.9375    191.9436   8.1192561922e+01   7.1524703665e+00    0.2047017    0.1817469  -1.76            0    1.019    0.019
       232  -7.1228    167.3217    188.6939   8.3733241608e+01   1.0311554608e+01    0.1369261    0.1156524  74.31 0.0003082794    1.639    0.390
       233  -7.4704     90.8143    181.2156   1.0061074453e+02   2.4828922339e+01      0.18861    0.1574444 -36.44 0.0003830267    1.347    0.258
       234  -8.3129    111.5468     21.3579   5.1423448342e+01   5.3523746666e+01    0.3035805     0.133615 -22.17  0.001301492    2.585    0.613
       235  -7.5412    109.5048    180.4130   9.5833739364e+01   2.2081862332e+01    0.1409639    0.1369143  47.76 9.301667e-05    1.017    0.016
       236  -8.6657     40.8533     20.5753   7.4500948680e+01   6.6830827151e+01    0.2514439    0.1544812 -28.42 0.0003512763    1.493    0.330
       237  -9.1976     45.7089    177.7224   1.1132332998e+02   3.1585134753e+01    0.2209887    0.1988002 -89.21 0.0003726966    1.041    0.039
       238  -6.7803    114.5625    176.5234   9.3896875975e+01   2.2137216065e+01    0.1416669    0.1410399  -9.35 0.0002019323    1.020    0.019
       239  -9.3552     43.9965    193.2542   1.1341266585e+02   2.8140423981e+01    0.2081549    0.1799657 -79.40 0.0002178892    1.107    0.097
       240  -7.5813    230.4576    167.5149   6.6728163646e+01   3.3473647269e+00     0.137019    0.1158701 -18.72 0.0002516385    1.018    0.017
       241  -8.7553    133.7574    146.6929   8.3004929367e+01   2.5568484176e+01    0.7376059     0.173362 -52.41  0.001744604    5.417    0.815
       242  -8.1539    243.0724     19.5339   3.2940585050e+01   2.3892354495e+01    0.1714924    0.1336494 -51.87 0.0004133322    1.139    0.122
       243  -8.3229    155.4238     17.7617   4.2005380133e+01   4.3662833503e+01    0.1653605     0.128388  -2.67 0.0009418258    1.585    0.369
       244  -8.4777    139.8546     17.6602   4.4483728940e+01   4.7363327568e+01    0.2104825    0.1782708   0.96 0.0005415247    1.347    0.258
       245  -9.4121    239.4622    145.6470   6.0595812440e+01   5.5839186274e+00    0.2493468    0.1701901  36.00  0.001348837    1.657    0.397
       246  -9.7988     66.5413    143.9945   1.0090269582e+02   3.7352479366e+01    0.5267096    0.3575945  77.03  0.001923081    1.920    0.479
       247  -9.5798    187.4173    138.4278   6.8601628979e+01   1.6616017017e+01    0.2635365    0.2460781 -28.47 0.0002740194    1.041    0.039
       248  -8.0545    131.4309    137.2424   8.1436871020e+01   2.8181871318e+01    0.2041771     0.148741 -57.76 0.0003225274    1.479    0.324
       249  -7.8358    192.5026    135.1339   6.6790724904e+01   1.6242693448e+01    0.2219685    0.1389848 -39.39 0.0004571211    1.491    0.329
       250  -8.7764    112.1010    133.7777   8.5821650628e+01   3.2649637988e+01    0.3947362    0.2727999 -76.54  0.001072454    2.051    0.513
       251 -11.0077     70.2530    126.5031   9.6439605560e+01   4.1202109130e+01     1.010831    0.6315855 -37.20  0.001657816    1.719    0.418
       252 -10.2825     58.2114    124.4307   9.9721833512e+01   4.3292198381e+01       0.6876     0.420792  79.19  0.002095779    2.711    0.631
       253  -9.2219     83.2329    131.6773   9.3633931689e+01   3.8029984658e+01    0.6787919    0.4146905  74.57  0.002179534    3.082    0.676
       254 -10.2531    140.5798    117.3732   7.4162795348e+01   3.0770431899e+01    0.8288738    0.3664134 -48.26  0.001365809    2.311    0.567
       255  -7.9585    248.5269     20.5163   3.2720265157e+01   2.2703330324e+01    0.1172246    0.0932657 -64.89 0.0008098496    1.002    0.002
       256 -10.0470    133.8143    131.2142   7.9378454321e+01   2.9084135561e+01    0.6895081    0.6049092  46.61  0.003380203    1.197    0.164
       257 -10.7943    131.7939    119.9954   7.7110146044e+01   3.2011224728e+01    0.8831768    0.6866233  76.82  0.003031759    1.776    0.437
       258 -11.0327    133.5038    110.0370   7.4051599815e+01   3.3840541120e+01    0.9409435    0.6107202 -48.14  0.002368683    1.547    0.353
       259  -9.9840    139.2576    104.0711   7.0951945424e+01   3.3881748428e+01    0.6480789    0.3663903 -50.56   0.00155024    1.898    0.473
       260  -9.6895    129.8899     97.0785   7.1429646403e+01   3.7339778633e+01     1.058568    0.5018949  26.74  0.003100073    4.068    0.754
       261  -9.7720    109.9777     90.1390   7.4963747153e+01   4.2892310327e+01    0.7812831    0.3939052  29.24  0.002378151    2.579    0.612
       262 -10.4626    117.4734    123.9839   8.1987246419e+01   3.3938648481e+01     1.087146    0.6590375 -52.81  0.002896704    1.676    0.403
       263 -10.3551    123.2267     91.4428   7.1599964497e+01   3.9906322936e+01    0.7647134    0.5392073 -32.23  0.001817422    1.440    0.305
       264 -10.0247    108.7639    114.7013   8.2106650512e+01   3.7730500419e+01    0.6382991    0.4318417 -78.11  0.001504671    2.423    0.587
       265 -10.9324    108.6521    101.1717   7.8514980238e+01   4.0794671134e+01     1.072155    0.7512684 -64.46  0.004736912    1.826    0.452
       266 -11.2679    121.0798    110.5707   7.7537833041e+01   3.6273004761e+01     1.367146    0.6648191 -51.72  0.002760423    2.199    0.545
