#   1 NUMBER                 Running object number                                     
#   2 MAG_AUTO               Kron-like elliptical aperture magnitude                    [mag]
#   3 X_IMAGE                Object position along x                                    [pixel]
#   4 Y_IMAGE                Object position along y                                    [pixel]
#   5 X_WORLD                Barycenter position along world x axis                     [deg]
#   6 Y_WORLD                Barycenter position along world y axis                     [deg]
#   7 A_WORLD                Profile RMS along major axis (world units)                 [deg]
#   8 B_WORLD                Profile RMS along minor axis (world units)                 [deg]
#   9 THETA_WORLD            Position angle (CCW/world-x)                               [deg]
#  10 FWHM_WORLD             FWHM assuming a gaussian core                              [deg]
#  11 ELONGATION             A_IMAGE/B_IMAGE                                           
#  12 ELLIPTICITY            1 - B_IMAGE/A_IMAGE                                       
         1 -14.4854    131.1248     74.9296   5.8827802709e+01   4.1457383222e+01     4.869431     3.229429  -0.94   0.01948647    2.560    0.609
         2 -14.8199    152.3636    106.7145   6.2646856362e+01   3.0440362485e+01     4.746802     2.450249 -30.99   0.01732139    2.402    0.584
         3 -14.2839    164.5409    127.0656   6.5014272370e+01   2.3474056036e+01     4.148046     2.266601 -19.69   0.01270551    3.823    0.738
         4 -14.5626    180.3955    170.7298   7.1414370654e+01   1.0955714946e+01     3.906654     2.971304  18.85   0.01956078    1.420    0.296
         5 -15.0937    180.3617    132.5643   6.2879269891e+01   1.9009223468e+01     5.627914     2.194869 -36.12   0.01866955    2.828    0.646
         6 -10.3227     12.1917     11.9470   7.9762748897e+01   7.2257817211e+01    0.1977443    0.1373539   9.38  0.000601496    1.214    0.176
         7  -8.5035     98.0000      5.9156   4.3573492763e+01   5.8011991972e+01    0.1756862   0.07194802 -21.19 0.0007916653    2.868    0.651
         8  -9.0046     91.0413      8.7702   4.6281367612e+01   5.9302566152e+01    0.1695715   0.09040488  58.34 0.0004993027    1.613    0.380
         9  -7.9456    130.3690    247.2874   9.6117714504e+01   3.6933108618e+00    0.1333649   0.09534167   1.55 0.0007021468    1.707    0.414
        10  -7.9504    201.6580    250.6772   8.1670556150e+01  -6.8938993809e+00    0.1320029   0.08044892  -2.62 0.0007050612    1.727    0.421
        11  -8.3499    141.4053    250.1570   9.4109654665e+01   1.5616628643e+00    0.1491268    0.1279372 -72.07 0.0003079431    1.542    0.352
        12  -7.8655    128.6536    250.7076   9.6942450165e+01   3.3159047764e+00    0.1301153   0.09454469   1.13 0.0007028991    1.665    0.399
        13  -8.3666     88.8557    250.1930   1.0551129303e+02   9.0790562416e+00    0.1570092    0.1427787   6.68 0.0003595068    1.299    0.230
        14  -8.5250     75.9435    250.4815   1.0830148411e+02   1.0766891109e+01    0.1801765    0.1083066  36.46 0.0003419935    1.452    0.311
        15  -8.3909     24.8147    250.4207   1.1872713815e+02   1.6928917425e+01    0.1426236    0.1257862 -80.68 0.0003750648    1.312    0.238
        16  -8.9854     21.7115    248.0973   1.1919214002e+02   1.7727368867e+01    0.1719118    0.1254256  64.19 0.0004412105    1.081    0.075
        17  -9.8778     93.2301    246.2036   1.0413160032e+02   9.2593478235e+00    0.4376459    0.2475758  39.77  0.001616534    1.504    0.335
        18  -9.1443     81.8012    246.2209   1.0662188047e+02   1.0832981377e+01    0.1907043    0.1765279 -48.97 0.0004269096    1.294    0.227
        19  -8.8169     75.4936    245.0577   1.0786971698e+02   1.1917782186e+01    0.1711057    0.1542512  68.12 0.0005341902    1.088    0.081
        20  -8.6023     78.7728    243.3947   1.0699050288e+02   1.1817161867e+01    0.2093927    0.1470155  27.91 0.0002709278    1.445    0.308
        21  -8.0112     39.3185    247.2917   1.1564867169e+02   1.5958597994e+01    0.1048826   0.09348782 -30.18 0.0003305993    1.602    0.376
        22  -9.7142     42.8485    244.8980   1.1475392989e+02   1.6042783188e+01    0.2155622     0.181486  70.87 0.0002990675    1.064    0.060
        23 -10.4617     33.4519    246.3875   1.1676824460e+02   1.6807384177e+01    0.2113934    0.2066148  49.22 0.0005168113    1.341    0.254
        24  -8.9570     37.4474    243.5121   1.1575983742e+02   1.6952214374e+01    0.1921153    0.1455238  -9.08  0.001124937    2.197    0.545
        25  -8.3959      7.8170    247.4427   1.2180939276e+02   1.9261423236e+01    0.1264886    0.1051898  28.29 0.0002811354    1.523    0.343
        26  -8.3478    155.7637    246.4354   9.0488770492e+01   1.2866528076e-01    0.1845347    0.1103828  20.18 0.0006705956    1.643    0.391
        27  -8.6281    136.0747    245.9993   9.4695179742e+01   3.0919397503e+00    0.2011342    0.1471991  -3.33 0.0005346566    1.631    0.387
        28  -8.4511    119.0384    246.4710   9.8495960257e+01   5.5052462197e+00    0.1948165    0.1145627  32.21 0.0004083114    1.492    0.330
        29  -9.5475    104.4100    245.7935   1.0163155588e+02   7.7549879267e+00    0.2329486    0.1860435  20.74 0.0006832662    1.286    0.222
        30  -8.1299     86.2948    246.3046   1.0565507719e+02   1.0201916931e+01    0.1182448   0.09881787 -11.50 0.0002793008    1.580    0.367
        31  -9.8349     58.0435    243.6350   1.1147670227e+02   1.4467409433e+01    0.2679069    0.2471544 -56.12  0.001178081    1.335    0.251
        32  -9.2829     56.8125    239.1941   1.1135089272e+02   1.5551078034e+01    0.2225868    0.1809112 -56.93 0.0004145819    1.442    0.306
        33  -9.5947     50.3238    245.2186   1.1323177379e+02   1.5088760205e+01    0.2039295    0.1633539  51.99  0.000405063    1.078    0.072
        34  -8.0984    205.6451    245.7039   8.0087005734e+01  -6.6568958461e+00    0.1318772    0.0808381  -1.42 0.0007033607    1.693    0.409
        35  -8.5460    186.6883    245.6402   8.3875193156e+01  -4.1208696871e+00     0.135497   0.08582695  -5.66 0.0007042168    1.745    0.427
        36  -8.4145     66.7828    244.8020   1.0971892307e+02   1.3114670725e+01    0.1701814    0.1227193  59.93 0.0003706707    1.256    0.204
        37 -10.4656    226.9280    243.9304   7.5731244169e+01  -9.0427772809e+00    0.2630956    0.1518839  28.54 0.0009911102    1.665    0.400
        38  -8.5660    197.3071    244.3369   8.1517157329e+01  -5.3510374420e+00    0.1327819   0.08360959  -5.30 0.0007041758    1.676    0.403
        39  -9.2045    113.0595    243.3579   9.9421750112e+01   6.9782310135e+00    0.2238687     0.176842 -27.19 0.0007283157    1.540    0.351
        40  -8.9763     22.7776    242.3306   1.1863838585e+02   1.8801209571e+01    0.2634632    0.1352953 -76.34  0.001474223    1.860    0.462
        41  -8.9881     17.3459    242.5304   1.1972150635e+02   1.9320852784e+01    0.3078841     0.185274 -32.26  0.001195115    3.512    0.715
        42  -8.7263      3.6772    242.9126   1.2236929752e+02   2.0577701872e+01    0.2116356    0.1463013 -47.73  0.001349182    2.101    0.524
        43  -8.6737    209.7674    243.0171   7.8841634955e+01  -6.7793926244e+00    0.1533388   0.09362076 -34.65 0.0005328181    1.601    0.375
        44  -8.8149    133.9996    242.4932   9.4665768749e+01   4.0494866269e+00    0.1835513    0.1719761   4.59 0.0004280753    1.106    0.096
        45  -9.5792     71.7399    242.9138   1.0847179503e+02   1.2855560527e+01    0.2093167    0.1838807  31.93 0.0004324342    1.210    0.174
        46  -8.4508     10.8903    243.1378   1.2100726615e+02   1.9839962111e+01    0.1353618    0.1251918  71.08  0.000427453    1.289    0.224
        47  -8.8014    141.7052    241.9617   9.2892273926e+01   3.0013753471e+00    0.1739761    0.1620274  -8.77 0.0004282299    1.135    0.119
        48  -8.3589     98.4348    241.7704   1.0247806984e+02   9.4096245154e+00    0.1632259    0.1214831 -45.09 0.0004838156    1.578    0.366
        49  -8.7368     63.5972    241.2303   1.1007314209e+02   1.4264881893e+01     0.311832    0.1530453 -74.92  0.001354737    2.272    0.560
        50  -9.3366     36.9281    235.1020   1.1525133192e+02   1.8790764065e+01    0.1998368    0.1589373 -80.45 0.0003259611    1.249    0.200
        51 -10.3591     35.7773    229.0935   1.1503821069e+02   2.0228310508e+01    0.3245698    0.2173959  29.85 0.0004620676    1.600    0.375
        52  -9.2456     29.8871    228.0703   1.1622101575e+02   2.1100894193e+01    0.3892679     0.195094 -50.56  0.001895887    2.580    0.612
        53  -9.7250     27.8848    223.8099   1.1633752046e+02   2.2261354400e+01    0.3787123    0.1579699 -69.85  0.001698792    2.225    0.551
        54  -9.0940     35.4638    239.4513   1.1587634825e+02   1.8027863132e+01    0.2198246    0.1723918  63.97 0.0005330771    1.043    0.041
        55 -11.1599     31.2841    234.0207   1.1635577572e+02   1.9651116054e+01    0.3081362    0.2264583  85.90 0.0005018243    1.222    0.182
        56  -9.5483     27.7628    241.8920   1.1761390720e+02   1.8362368054e+01    0.1864439    0.1801033   0.11 0.0006587245    1.443    0.307
        57  -9.0847     31.4326    240.5368   1.1677993917e+02   1.8246847780e+01    0.2158253    0.1814061  86.39 0.0004816094    1.151    0.131
        58  -8.2337    102.4295    242.4409   1.0166978985e+02   8.7021133265e+00    0.1295898    0.1152512  36.99 0.0002550162    1.043    0.042
        59  -8.2917    126.5183    241.4904   9.6186077650e+01   5.3529010397e+00    0.1334741     0.116768  21.54 6.467734e-05    1.067    0.063
        60  -8.3529    122.3549    241.1922   9.7072849067e+01   6.0291937305e+00    0.2198322    0.1907008 -50.43 0.0007713273    1.306    0.234
        61  -8.1044    122.7367    237.6764   9.6513046076e+01   6.6580570594e+00    0.1950586    0.1610467  21.22 0.0002056947    1.159    0.137
        62  -8.6544    125.8740    234.3023   9.5336892178e+01   6.8512247028e+00    0.2752213     0.222585 -16.17 0.0006166807    1.429    0.300
        63  -8.6178    126.5306    230.5016   9.4645571021e+01   7.5109312092e+00    0.1886559    0.1520023  -2.75 0.0001028549    1.408    0.290
        64  -9.1884     83.6382    241.1228   1.0568474637e+02   1.1619796956e+01    0.2288535    0.1715611  28.11 0.0004063662    1.341    0.254
        65  -9.9062     50.8886    239.5294   1.1264711390e+02   1.6209017116e+01    0.4230356    0.3207152 -37.58  0.001793801    1.858    0.462
        66  -9.5458     43.9589    207.2754   1.1129046534e+02   2.4301672486e+01    0.4347587    0.2463641 -30.53   0.00181084    3.253    0.693
        67  -9.5229     61.2763    214.2195   1.0789596455e+02   2.0538852785e+01    0.2147274    0.2080183 -53.13 0.0004070508    1.211    0.174
        68  -9.8473     64.9068    211.4964   1.0672665974e+02   2.0702777989e+01     0.494812    0.3660601  10.52  0.002609633    1.761    0.432
        69  -9.7502     64.6772    206.4918   1.0620416385e+02   2.1918975162e+01    0.4663308     0.248898  42.80  0.002179723    1.743    0.426
        70  -8.8264     37.4319    221.7304   1.1408848134e+02   2.1687166446e+01    0.2128069    0.1718968 -42.24 0.0005054105    1.611    0.379
        71 -10.4673     44.8557    218.9589   1.1218205368e+02   2.1465672650e+01    0.4151583    0.3043624  25.38  0.001709363    1.549    0.355
        72 -10.9759     43.6183    214.3607   1.1204393607e+02   2.2672306904e+01    0.6345173    0.5640635 -33.83  0.002602608    1.449    0.310
        73 -10.5458     56.5202    210.4459   1.0862195076e+02   2.2029998504e+01     0.497172    0.3324564  79.20  0.001703596    1.567    0.362
        74  -9.5413     49.2191    234.7508   1.1260215351e+02   1.7431659803e+01    0.3288061    0.2264084 -47.42  0.001873263    1.857    0.461
        75 -10.2116     56.2747    228.7139   1.1051263966e+02   1.7883801230e+01    0.8103144     0.351882 -41.05  0.002855929    4.655    0.785
        76  -9.9161     61.1100    203.7955   1.0676546553e+02   2.3032359219e+01    0.4354225    0.2850234  -7.13  0.001908109    2.640    0.621
        77 -10.5192     54.5500    216.8785   1.0975372528e+02   2.0773370246e+01    0.4675457    0.3940647 -37.49   0.00145275    1.500    0.333
        78  -9.6428     51.9071    212.4604   1.0992659225e+02   2.2127785248e+01    0.2222473    0.2131526 -72.71 0.0004640487    1.189    0.159
        79  -9.7760     55.7587    203.9543   1.0809814719e+02   2.3675179451e+01    0.2430527    0.2254537 -70.28 0.0004462878    1.151    0.131
        80  -8.9945     56.9987    199.7677   1.0731674737e+02   2.4535493507e+01    0.1931397    0.1787552 -49.17  0.000241256    1.230    0.187
        81  -9.6489     58.1904    221.5651   1.0938310524e+02   1.9243629560e+01    0.5003576     0.277099 -36.58  0.002155695    2.996    0.666
        82  -9.8988     62.7839    221.3212   1.0829872876e+02   1.8710804635e+01    0.2339382     0.227586  62.30 0.0003013541    1.159    0.137
        83  -8.1257    130.5592    240.4815   9.5148786664e+01   4.9431186300e+00    0.1332742    0.1169438  19.68  0.000154407    1.061    0.058
        84  -9.8222     67.8346    239.0593   1.0894749321e+02   1.4171913398e+01    0.2564569    0.1804481 -80.75 0.0004632515    1.502    0.334
        85  -8.9197    118.1059    239.1100   9.7746412304e+01   7.0672730127e+00    0.1973719    0.1669805   8.53 0.0004527528    1.261    0.207
        86  -9.5498     77.2946    238.1603   1.0677398607e+02   1.3102055892e+01     0.211441    0.1915052  32.33 0.0005483654    1.174    0.148
        87  -8.4135    146.3690    242.8533   9.1999043311e+01   2.1453602665e+00    0.1787945    0.1162262 -34.59 0.0009407028    1.731    0.422
        88  -9.5500    130.1778    235.4921   9.4532695559e+01   5.9641889626e+00    0.3856256    0.2350308 -21.52  0.001730296    2.477    0.596
        89  -8.5942    134.2357    232.0006   9.3109628148e+01   6.0301455383e+00    0.2016076    0.1700252   2.95 0.0003100593    1.228    0.186
        90  -8.6844    111.9331    238.2948   9.9027623625e+01   8.1443000007e+00    0.1850388    0.1543385  29.55 0.0005121572    1.105    0.095
        91  -9.5405    104.2828    237.5337   1.0065557253e+02   9.4222039091e+00     0.353253    0.2261033  16.57  0.001745924    1.889    0.471
        92  -9.5898     42.1021    236.3973   1.1425832406e+02   1.7919765005e+01    0.3448778    0.2172544 -55.25   0.00168782    1.859    0.462
        93  -8.2715     17.4952    233.5658   1.1916239592e+02   2.1196107355e+01    0.1547844   0.09974324 -70.86 0.0001413029    1.544    0.352
        94  -8.9835     17.3310    237.5395   1.1943389454e+02   2.0366781945e+01    0.1934566    0.1618174  83.79 0.0009021023    1.141    0.124
        95  -8.3865     21.4870    238.4225   1.1865554418e+02   1.9754860485e+01    0.1858586    0.1035714 -81.02 0.0002010447    1.679    0.404
        96  -8.6974     20.8540    235.1891   1.1858186783e+02   2.0506946439e+01    0.1620362    0.1306094  60.84 0.0003547343    1.081    0.075
        97  -8.8820    157.0065    236.6647   8.8745249952e+01   1.6863423007e+00    0.1893555    0.1478799  23.79 0.0003594933    1.126    0.112
        98  -9.0722    134.8921    236.8751   9.3671957522e+01   4.9822352282e+00    0.2071461    0.1687018  -0.27 0.0007287025    1.319    0.242
        99  -9.4871     95.3963    235.8886   1.0246243547e+02   1.1048222561e+01     0.230518     0.215616 -44.73 0.0007661292    1.225    0.184
       100  -9.4703     99.6121    232.9510   1.0114497878e+02   1.1050136886e+01    0.2761471    0.2396346 -86.07 0.0009377775    1.265    0.210
       101  -9.6564    101.9143    228.4261   1.0003891607e+02   1.1665901365e+01    0.2561452    0.1985362 -40.60 0.0001301575    1.491    0.329
       102  -8.5217      1.8649    237.4907   1.2245407110e+02   2.1866634668e+01    0.1461471    0.1015655  39.56 0.0003820234    1.439    0.305
       103  -8.6093    183.4032    235.7534   8.2956867823e+01  -2.0279363908e+00     0.181988    0.1104119 -27.95 0.0009322098    1.704    0.413
       104  -9.2805    146.1935    236.0061   9.1025187727e+01   3.4366008836e+00    0.2182057    0.1741067  22.50 0.0004061151    1.118    0.106
       105  -7.8502    120.3087    235.3146   9.6738882542e+01   7.4908253927e+00    0.1333613    0.1017923  -7.47 0.0003600529    1.629    0.386
       106  -9.7497     90.7766    234.2361   1.0331317592e+02   1.2054323401e+01    0.2460158    0.2013773 -39.13 0.0003984809    1.465    0.317
       107  -8.8051    180.4766    234.4613   8.3356969404e+01  -1.3860109177e+00    0.1344427    0.1107002   4.24 0.0005156758    1.043    0.041
       108  -9.1356    170.0664    233.9286   8.5482018805e+01   2.3224447779e-01    0.2173471    0.1449855 -10.57  0.001113874    1.728    0.421
       109  -8.6848    162.4564    233.5594   8.7068685857e+01   1.4341731136e+00    0.2479209    0.1282903 -44.30 0.0008921652    2.057    0.514
       110  -9.0269    140.0980    233.3137   9.1981955264e+01   4.8764312659e+00    0.2063902    0.1743529 -19.87 0.0002948531    1.261    0.207
       111  -9.6042     77.1818    233.2545   1.0627810581e+02   1.4157986460e+01    0.2336131    0.2065586 -37.58 0.0007121434    1.384    0.277
       112  -8.7910     79.9421    229.3633   1.0522197383e+02   1.4619107391e+01    0.1898549    0.1794833 -16.04 0.0004044759    1.274    0.215
       113  -8.7469    226.1344    239.1711   7.5081941538e+01  -8.2529242041e+00    0.1502489    0.1300891 -10.49 0.0003961354    1.290    0.225
       114  -8.6393    152.8855    232.8812   8.9063475475e+01   3.0068283288e+00    0.2036907    0.1642627   1.03 0.0003244255    1.240    0.194
       115  -9.9468    152.9187    227.4589   8.8199147281e+01   4.0290565352e+00    0.3452331    0.2634456 -19.50 -7.317066e-06    1.408    0.290
       116 -10.5455    114.6704    232.3505   9.7619934041e+01   8.9390975832e+00    0.2764975    0.2165733  26.01 0.0002130582    1.218    0.179
       117  -8.8725    107.4995    233.2287   9.9377165551e+01   9.8308940247e+00     0.203662    0.1729314  11.99 0.0008972436    1.276    0.216
       118  -8.2204    212.7134    232.3281   7.6469626960e+01  -5.5050111429e+00    0.1047784    0.1045387  75.42 0.0003587672    1.612    0.380
       119  -8.2523    166.4438    232.4822   8.6029602918e+01   1.0313632224e+00    0.1364743    0.1148944   5.46 0.0006583827    1.063    0.059
       120  -9.5133     84.0394    231.8977   1.0457392698e+02   1.3501832974e+01     0.227233    0.1970191  34.79  0.000414658    1.136    0.120
       121  -8.2194     87.6567    229.7033   1.0349123316e+02   1.3463435054e+01    0.1758902    0.1306729 -44.39 0.0005671502    1.584    0.369
       122  -9.5716     72.9999    222.3121   1.0603239692e+02   1.7131197394e+01     0.245731    0.1950436 -47.38 0.0003905595    1.462    0.316
       123  -8.8077     75.6660    227.0126   1.0594007662e+02   1.5721629116e+01    0.1783287    0.1602042  89.04 0.0003826972    1.122    0.109
       124 -10.0049     72.6204    232.2012   1.0719357232e+02   1.5001454997e+01    0.2641309     0.172349 -66.73 0.0007360412    1.615    0.381
       125 -10.3655     71.5751    227.4193   1.0692271456e+02   1.6185860429e+01    0.2968139    0.2478023 -43.94 0.0001621293    1.440    0.306
       126  -9.4206     75.4836    218.0693   1.0496045405e+02   1.7752736945e+01     0.239955    0.1851061  38.16 0.0003814494    1.231    0.188
       127  -8.9246     71.4600    216.7857   1.0576596541e+02   1.8596979015e+01     0.201877     0.185672  30.54 0.0004673043    1.181    0.153
       128  -8.3306    194.4984    231.0653   7.9882151352e+01  -2.8128490515e+00    0.1838717    0.1193801 -35.51 0.0005500304    1.518    0.341
       129  -8.6081    187.7355    230.8744   8.1242263168e+01  -1.8173579292e+00    0.2387338    0.1297278  -6.72  0.000965317    2.932    0.659
       130  -9.2806    146.4785    230.4478   9.0113059342e+01   4.4495652760e+00    0.2325438    0.1950851  21.42  0.000481457    1.066    0.062
       131  -9.0137    121.9077    231.1493   9.5796334323e+01   8.0870291314e+00    0.2038168    0.1810736  18.18 0.0005149498    1.098    0.090
       132  -8.8338     66.8449    230.7511   1.0834342489e+02   1.6082361381e+01    0.1781901     0.171003  34.51 0.0005897857    1.197    0.165
       133  -9.2542    132.8239    229.0054   9.2986858581e+01   6.8418186114e+00    0.3826893    0.2232366  -9.14  0.001439432    3.410    0.707
       134 -10.3398    176.4758    228.0300   8.3135509969e+01   3.3186469815e-01    0.3098183    0.1765175 -35.38  0.001499866    1.797    0.443
       135  -9.3030    136.9038    223.1673   9.1159323512e+01   7.3819478297e+00    0.2921079    0.2089937 -25.27 0.0005056523    1.635    0.388
       136  -9.6631    140.7474    219.4624   8.9683567902e+01   7.5275014641e+00    0.3101436    0.2166917 -23.81 0.0004866955    1.695    0.410
       137  -9.5181    132.0686    207.9837   8.9848693712e+01   1.1357289704e+01    0.4407661    0.2722845 -14.08  0.001313777    2.666    0.625
       138  -9.8172    139.1587    205.1870   8.7674853215e+01   1.0790184265e+01    0.2855125    0.2281257 -24.71 0.0004788956    1.346    0.257
       139 -10.5909    139.7400    197.5790   8.6192842643e+01   1.2356358747e+01    0.8878657    0.4930791 -70.94  0.002976338    3.352    0.702
       140 -10.0889    147.3652    220.9169   8.8397433850e+01   6.1805140101e+00    0.6439312    0.3846343  -4.27 0.0009389492    2.829    0.646
       141 -10.8423    154.2157    212.8930   8.5483030027e+01   6.6961717474e+00     1.997735    0.9410486  12.08  0.004889851    7.081    0.859
       142  -9.2981    130.9267    213.8988   9.1089811287e+01   1.0267472193e+01    0.2162925    0.1960188   5.71 0.0004551475    1.102    0.092
       143  -9.4273    134.8547    210.8353   8.9656657318e+01   1.0284778982e+01     0.260606    0.2143509   8.70 0.0005196969    1.269    0.212
       144 -10.0240    149.2181    203.0177   8.4907267414e+01   9.5709455873e+00    0.4376023    0.2961556 -15.61   0.00175441    1.892    0.471
       145  -9.0577    145.1707    201.4619   8.5586229716e+01   1.0585855359e+01    0.2834415    0.2482424 -14.35  0.001351561    1.155    0.134
       146  -9.0051    133.4428    221.3293   9.1674473091e+01   8.3048334554e+00    0.2806089    0.1619445 -45.63 0.0006338206    1.852    0.460
       147  -9.3674    129.9123    219.8725   9.2272255600e+01   9.1667015746e+00    0.2649441    0.2108411  36.73 0.0004566638    1.168    0.144
       148  -9.4000    138.8819    227.6740   9.1403059956e+01   6.1674391372e+00    0.2869147    0.2035729 -29.61  0.001012796    1.599    0.375
       149  -9.5060    143.3531    226.5214   9.0207206246e+01   5.6988989945e+00    0.3191189    0.2257927   7.07  0.001079517    1.614    0.380
       150 -10.8951    160.4815    208.8852   8.3350041991e+01   6.4858911841e+00      1.07141    0.5933156  -3.36  0.003537073    4.007    0.750
       151 -10.2066    156.6365    205.8370   8.3685420914e+01   7.7417625885e+00    0.6823893    0.2956633 -43.42  0.002702271    2.351    0.575
       152  -9.3179    134.9212    216.9004   9.0629244705e+01   8.9897002933e+00    0.2288071    0.1982473 -32.45  0.000484301    1.213    0.175
       153 -10.4464    139.4058    212.6452   8.8880716737e+01   9.1579471108e+00     1.183868    0.6095794   5.37  0.002936871    7.064    0.858
       154  -9.6898    143.5428    214.5814   8.8234893158e+01   8.0818809132e+00    0.2455579    0.2184927  23.01 0.0004512665    1.040    0.038
       155 -10.7520    147.0077    211.6629   8.6936205835e+01   8.1225188771e+00    0.5833435    0.3372106  21.10  0.002348121    1.950    0.487
       156 -10.2056     92.4591    227.7756   1.0214927860e+02   1.3190779374e+01    0.3914233    0.2737398  50.10   0.00111353    1.344    0.256
       157  -9.3849    119.7053    211.0701   9.3330054599e+01   1.2689497702e+01    0.2545019    0.2267944 -21.96 0.0003494878    1.213    0.175
       158 -10.4351    109.7118    226.2784   9.7938525926e+01   1.0952989584e+01    0.3503859    0.2348104 -38.00 0.0005826236    1.782    0.439
       159  -9.4026    113.5998    223.1962   9.6597895101e+01   1.1014673350e+01    0.3436996    0.2289181 -49.46  0.001407362    1.624    0.384
       160  -9.7453    116.5227    219.9526   9.5439649490e+01   1.1256474035e+01    0.3758513    0.2937609  76.78  0.001488788    1.597    0.374
       161  -8.6824    120.2911    219.2876   9.4448934530e+01   1.0809413807e+01     0.205909    0.1904865  -2.51 0.0002228147    1.133    0.118
       162  -9.8408    120.0112    215.2135   9.3898385502e+01   1.1732367840e+01    0.2446621    0.2224575 -33.62 0.0003452709    1.174    0.148
       163  -8.2675    229.3702    227.5022   7.2476887040e+01  -6.8957900433e+00       0.1247   0.09621674 -12.19 0.0001126372    1.036    0.035
       164  -8.7544    210.3769    226.8743   7.5980935528e+01  -4.3175384053e+00    0.1843386    0.1018388 -27.21 0.0005109786    1.748    0.428
       165  -8.5706    184.3595    226.7808   8.1252216119e+01  -6.1528997136e-01    0.1858036    0.1122385 -30.49 0.0006979881    1.672    0.402
       166  -8.0672     61.7042    227.7072   1.0919620106e+02   1.7418587137e+01    0.1189391    0.1011978 -27.91 0.0001749939    1.559    0.359
       167  -9.1362     46.6759    225.6268   1.1236945946e+02   1.9740873361e+01    0.2904686    0.1815098 -40.22  0.001104271    2.310    0.567
       168  -8.6349     19.8509    227.3497   1.1828616720e+02   2.2308139645e+01    0.1598779    0.1336917  63.10 0.0004842968    1.096    0.088
       169  -9.4240      9.7049    225.8724   1.2028915411e+02   2.3622590943e+01    0.3136961    0.2743477  22.06  0.002219145    1.495    0.331
       170  -9.1764     14.7832    223.1331   1.1907351314e+02   2.3741610419e+01    0.1928757    0.1668807 -67.15 0.0003688842    1.344    0.256
       171  -8.9519    162.2090    225.4894   8.5812922945e+01   2.9667832018e+00    0.2725872    0.1909292 -59.15  0.001399722    1.873    0.466
       172 -10.0090    126.6594    224.8016   9.3780176911e+01   8.6536238356e+00    0.2691874    0.2354525 -32.19 0.0007484241    1.234    0.190
       173 -10.0786     99.5485    223.6825   9.9970398906e+01   1.3037954119e+01    0.3513657    0.2476946 -29.46 0.0008867421    1.872    0.466
       174  -8.4648     95.5582    223.5027   1.0088567735e+02   1.3667899777e+01    0.1881601    0.1291494  21.53 0.0001179516    1.602    0.376
       175  -9.7731     65.7114    225.3914   1.0804971166e+02   1.7413544056e+01    0.2131559    0.2066978  52.97 0.0003232426    1.162    0.139
       176  -9.1406     42.1032    225.6140   1.1338044554e+02   2.0280330693e+01    0.2130595    0.1671272 -72.63 0.0004629469    1.292    0.226
       177  -8.7018    190.4327    224.7958   7.9641934163e+01  -1.1575801844e+00    0.1879026    0.1127257 -28.15 0.0009445273    1.676    0.403
       178  -9.1092    156.5840    224.0133   8.6819949540e+01   4.1213714985e+00    0.2821912    0.1979688 -21.79  0.001454198    1.592    0.372
       179  -8.7694    167.6491    225.0212   8.4539148278e+01   2.2174101067e+00    0.1833676    0.1603675 -12.18 0.0003930411    1.096    0.088
       180  -9.5892    119.9973    224.2028   9.5243573763e+01   9.8139072427e+00    0.2229437    0.1951323 -33.67 0.0002964885    1.248    0.199
       181  -9.7643     98.0342    218.4666   9.9632818948e+01   1.4412541136e+01    0.4168411    0.2139635  40.34  0.001595484    1.770    0.435
       182 -10.9671     86.1488    222.5338   1.0297751143e+02   1.5247678875e+01    0.6697165    0.3885203 -25.87  0.001507236    3.339    0.701
       183  -9.2572     91.8621    221.8553   1.0154549021e+02   1.4572631040e+01    0.2115231    0.1936995 -65.58 0.0003536912    1.170    0.145
       184  -8.4746    217.6972    224.6779   7.4176629320e+01  -4.9451261261e+00    0.1336795   0.08390252  -8.14 0.0002082068    1.633    0.388
       185  -9.7416    104.8632    223.1040   9.8641389550e+01   1.2366575666e+01    0.2340171    0.2305311  79.15 0.0003824659    1.086    0.080
       186  -9.2585    104.8569    205.6268   9.6129699117e+01   1.6281028698e+01    0.2235655    0.1912271 -42.14 0.0003934755    1.256    0.204
       187  -8.6515    102.4158    209.4284   9.7298875012e+01   1.5787102653e+01    0.2044465    0.1839807 -81.37 8.189668e-05    1.176    0.150
       188  -9.5322    106.0279    210.2279   9.6531010298e+01   1.5043892783e+01    0.2394512    0.2033735 -44.64 0.0003190182    1.264    0.209
       189  -9.1808     89.1234    210.2050   1.0067298881e+02   1.7617677573e+01    0.2519511    0.2203758  54.49 0.0002628436    1.078    0.073
       190 -10.3856     98.5899    211.6614   9.8557336436e+01   1.5863416750e+01    0.3432767    0.2955547 -68.64 0.0008029451    1.222    0.182
       191 -10.5204     92.9614    211.3902   9.9894807818e+01   1.6774029005e+01    0.5294334    0.2479885 -51.12  0.001229984    2.253    0.556
       192  -9.0225    104.4839    218.5334   9.8100445937e+01   1.3422904457e+01    0.2527169    0.1956562 -60.51 0.0007033903    1.385    0.278
       193  -9.1338    106.5573    215.5581   9.7180995745e+01   1.3763967522e+01    0.2595994    0.1926769  31.34 0.0005739608    1.288    0.223
       194  -9.6411    102.7100    214.5849   9.7970472842e+01   1.4572714897e+01    0.2744081    0.2568188 -39.62 0.0009018177    1.164    0.141
       195  -9.2499     78.9643    223.3009   1.0475347282e+02   1.6090092368e+01    0.2172014    0.1880791 -56.29 0.0003444847    1.274    0.215
       196  -8.8087      2.0590    221.6678   1.2161190480e+02   2.5242727422e+01     0.178457     0.130783  87.39 0.0003970984    1.135    0.119
       197  -9.5526      1.3389    218.2525   1.2157450389e+02   2.6061563702e+01    0.3725526   0.08523575 -73.23  0.001458681    3.488    0.713
       198  -9.0771      6.9223    220.1611   1.2052993429e+02   2.5140956144e+01    0.3606364    0.1402204  58.64  0.001124225    2.376    0.579
       199  -9.3780      5.1786    215.8912   1.2064453473e+02   2.6253250060e+01    0.3268594    0.1565064  80.54  0.001643919    1.947    0.486
       200  -8.0896    179.3323    221.2667   8.1368655792e+01   1.1256529328e+00     0.138914   0.09569856  -0.61 0.0005905208    1.582    0.368
       201  -9.7346    179.1585    216.2608   8.0527468702e+01   2.0763047891e+00    0.4517578    0.2435492   7.40  0.001724055    3.049    0.672
       202  -9.4395    124.0079    220.1665   9.3704019291e+01   1.0037867646e+01    0.2691199    0.1954302 -37.50 0.0004219182    1.530    0.347
       203  -8.9734    126.5082    216.5215   9.2553346300e+01   1.0416414780e+01    0.2340656    0.2019252  -4.44 0.0005592244    1.251    0.200
       204  -9.0177    108.9912    219.4013   9.7148114132e+01   1.2542272949e+01    0.2317944    0.1854475 -37.32 0.0003054282    1.410    0.291
       205  -8.6989     68.0726    220.1485   1.0694263526e+02   1.8282893942e+01    0.1795322    0.1730205   8.29 0.0002893863    1.234    0.190
       206  -9.0983    163.5907    218.2468   8.4286320080e+01   4.1346102194e+00    0.3948255    0.2167228 -14.74  0.001464256    3.240    0.691
       207  -9.4175     81.7331    218.7355   1.0355631943e+02   1.6728272450e+01    0.2031599    0.1957614  -8.64 0.0004369321    1.205    0.170
       208 -10.1562     84.7464    214.2427   1.0227119430e+02   1.7323274669e+01     0.258423    0.2235235  11.36  0.000258497    1.334    0.250
       209  -8.5438     80.0792    214.8403   1.0347228467e+02   1.7851660783e+01    0.1975942    0.1843549   1.99 0.0003663797    1.251    0.200
       210  -8.5373     16.4738    219.4526   1.1847849722e+02   2.4400395665e+01    0.1221836    0.1009122  77.11 9.876752e-05    1.039    0.037
       211  -8.2106    195.2934    218.2939   7.7492827226e+01  -7.2984761766e-01    0.1364434   0.09245838  -6.37 0.0002547348    1.557    0.358
       212  -8.1449    183.7157    218.6199   7.9970552942e+01   9.4312320293e-01    0.1447471   0.09504353 -11.32 0.0007012489    1.727    0.421
       213  -8.5752    157.0541    217.7562   8.5669285186e+01   5.2673721454e+00    0.1908004    0.1659827  13.65  0.000270966    1.043    0.041
       214  -8.5489    169.7684    217.2598   8.2747602457e+01   3.3515638232e+00    0.1894726    0.1457506  -6.23 0.0004044503    1.324    0.245
       215  -9.0399     36.8031    217.1935   1.1384910640e+02   2.2792902525e+01    0.1874852    0.1489976  71.67 0.0004146748    1.088    0.081
       216  -8.3082    160.9985    215.9282   8.4467580455e+01   4.9983664143e+00    0.1678954    0.1504817   6.00 0.0004528867    1.006    0.006
       217  -9.2908     65.9250    215.9479   1.0698396509e+02   1.9530850391e+01    0.1938729     0.179573  71.15 0.0003161207    1.053    0.050
       218  -9.1429     69.1514    212.7092   1.0584543177e+02   1.9853539555e+01    0.2218729    0.2020004 -23.62 0.0004423457    1.347    0.258
       219  -9.3977     13.1412    215.4760   1.1892976904e+02   2.5619364272e+01    0.2013626    0.1619526 -63.51 0.0005081738    1.386    0.279
       220  -9.2023    119.5166    194.4595   9.0645799970e+01   1.6495782645e+01    0.2461369    0.2356116 -25.49 0.0001445284    1.070    0.066
       221  -9.6796    124.7879    210.9554   9.2085295174e+01   1.1896094565e+01    0.2503294    0.2190531  -9.42  0.000389972    1.234    0.190
       222  -8.8854    118.9878    206.7269   9.2816494785e+01   1.3773020626e+01    0.2195701    0.1923441  -9.70 0.0002342917    1.254    0.203
       223  -8.9972    116.5331    201.5213   9.2579467172e+01   1.5355110560e+01    0.2524126    0.1763639  24.01 0.0002046499    1.500    0.333
       224  -8.8424    119.5615    198.5783   9.1336183148e+01   1.5533550518e+01    0.2398836    0.2071887 -38.57 9.398482e-05    1.209    0.173
       225 -10.2494    111.6343    213.2149   9.5611505518e+01   1.3495027063e+01    0.2930575    0.2416529 -25.95 0.0003563826    1.397    0.284
       226 -10.4014    124.9129    206.3378   9.1306851728e+01   1.2894383374e+01    0.5417194    0.2566093  29.40  0.001058654    2.184    0.542
       227  -9.6502    120.9336    202.9918   9.1731152632e+01   1.4298478964e+01    0.2851761    0.2300888  -2.76 0.0003082295    1.447    0.309
       228  -9.8120    114.8492    209.1871   9.4216391892e+01   1.3886231593e+01     0.308024    0.2690629 -48.07 0.0007138856    1.208    0.172
       229  -9.6358    114.5598    205.5208   9.3712223098e+01   1.4761184594e+01    0.2625299    0.2376515 -16.50 0.0006276437    1.199    0.166
       230  -8.2362    200.4985    214.5125   7.5748514917e+01  -8.2891928740e-01     0.138667    0.1118742  -6.08 0.0008093232    1.079    0.073
       231  -8.8858    193.4734    214.4465   7.7176835592e+01   2.2571515646e-01    0.1384035    0.1151051  -3.80 0.0001579114    1.044    0.042
       232  -8.7302    186.9531    214.0650   7.8472090047e+01   1.2832273960e+00    0.2125035    0.1745838   0.82 0.0004623136    1.094    0.086
       233  -8.4426    184.6869    210.6943   7.8341632175e+01   2.2580714585e+00    0.2094429    0.1606709 -22.94 0.0008097813    1.234    0.190
       234  -8.8489     29.0429    213.9717   1.1532887463e+02   2.4378500449e+01    0.1860952    0.1593827  78.66 0.0003039231    1.042    0.041
       235 -10.0211    170.3625    210.9585   8.1502891363e+01   4.4732333973e+00    0.4101741    0.2500823 -18.49  0.001826475    2.089    0.521
       236  -8.8146    167.5918    208.2425   8.1630868852e+01   5.4548728633e+00    0.2068147    0.1895334  20.43 0.0003908659    1.111    0.100
       237  -9.0547     74.3923    213.1488   1.0463540372e+02   1.9036987738e+01    0.2124301     0.178044  26.79 0.0004293067    1.275    0.216
       238  -9.3983     36.0482    210.4753   1.1344022842e+02   2.4439027111e+01    0.3766799     0.233096 -24.99  0.001303762    2.945    0.660
       239 -12.4524     63.6535    161.7617   1.0030583877e+02   3.3367801762e+01     1.556497     1.178264  30.69  0.007897706    1.409    0.290
       240 -10.3610     66.3108    193.1214   1.0413685404e+02   2.4961688995e+01    0.2408112    0.2346478 -62.36 0.0003518383    1.128    0.113
       241 -12.5665     68.3403    111.0220   8.8611151460e+01   4.5877383489e+01     2.554059     1.301635 -67.83  0.009255268    2.686    0.628
       242 -12.3211     49.0918    104.1506   9.3827663373e+01   5.0145659679e+01     2.164318     1.021034  16.41  0.008418564    2.723    0.633
       243 -10.5830     55.3624    169.1969   1.0380752292e+02   3.2488737315e+01    0.3045552    0.2564425  -7.67 0.0005539246    1.464    0.317
       244 -12.1677      9.3916    201.3736   1.1880864313e+02   2.9228733003e+01     1.547279    0.8215218  77.69   0.00588464    1.774    0.436
       245 -13.2489     27.9825    126.6717   1.0568244631e+02   4.6575634890e+01     2.869184     1.203112  44.35   0.01137096    2.893    0.654
       246 -11.6733     63.2391    173.4521   1.0222825749e+02   3.0370897190e+01     1.162771     0.696679 -30.26  0.004822517    2.416    0.586
       247 -12.0114     30.3391    188.9351   1.1281355755e+02   3.0263231892e+01     1.214459    0.5391107 -56.36  0.005413923    2.187    0.543
       248 -11.0255     78.7793    143.8586   9.2527752681e+01   3.5905500695e+01    0.7321394    0.3944562 -32.17  0.002462493    2.592    0.614
       249 -12.7110     12.4025    131.5714   1.1141743232e+02   4.6517300882e+01     1.344385    0.9899531   2.91  0.005883614    1.673    0.402
       250 -12.2216     27.1951    177.7350   1.1249383661e+02   3.3389902262e+01     1.921556    0.4177655 -55.37  0.006192015    3.984    0.749
       251 -11.2156     22.9374    171.0046   1.1291881734e+02   3.5502968643e+01    0.5327838    0.3833858  84.97  0.002973991    1.293    0.227
       252 -13.3294     12.5786    175.4471   1.1603146147e+02   3.5275433742e+01     2.014751     1.170225 -65.74   0.01071143    1.502    0.334
       253 -11.3931     35.1720    173.4741   1.0991951748e+02   3.3679263377e+01     1.153237    0.4664466 -88.63  0.003804461    3.733    0.732
       254 -13.1942     18.0002    155.9303   1.1265727451e+02   3.9804244436e+01     2.784745     1.252992 -29.37   0.01019702    3.922    0.745
       255 -11.9283     47.1394    147.6160   1.0295139653e+02   3.9148526804e+01     1.752963    0.4840167 -68.88  0.005047444    4.043    0.753
       256 -12.7615     55.9747    148.3448   1.0037005877e+02   3.7899871573e+01     1.579414     1.260423  56.49  0.008229118    1.357    0.263
       257 -12.4679     45.4612    176.7309   1.0754057520e+02   3.1718182145e+01     1.493753    0.8922595 -51.56  0.007167888    1.694    0.410
       258 -13.5655     38.8974    161.3911   1.0739223035e+02   3.6425961353e+01     2.199001     1.596924  85.64    0.0115003    1.399    0.285
       259 -11.9186     24.5598    140.5882   1.0883861202e+02   4.3246244102e+01     1.660012    0.6866581  -2.46   0.00496298    5.871    0.830
       260 -11.5114     42.1941    131.8029   1.0187005287e+02   4.3859028243e+01     1.058709     0.479124 -38.61  0.004022209    2.613    0.617
       261 -11.6553     75.8769    150.5405   9.4717773338e+01   3.4594896324e+01    0.9590722    0.5196347  26.20  0.003885531    2.079    0.519
       262 -12.5257     63.6171    128.2302   9.4128986790e+01   4.2182073375e+01     1.567731     1.026099  14.87  0.007055513    1.842    0.457
       263 -12.5859     69.5433    136.9162   9.4004820463e+01   3.9090408333e+01     1.387763     1.024717 -61.34  0.004798509    1.289    0.224
       264 -11.8243     62.3509    139.6319   9.6818028441e+01   3.9374441586e+01    0.8574437    0.4876235 -61.63  0.003243367    1.642    0.391
       265  -8.7413    180.7517    211.2446   7.9284863286e+01   2.7698102156e+00    0.1947179    0.1465332  -5.03 0.0005863977    1.347    0.257
       266 -11.8932     52.7201    193.1916   1.0762777016e+02   2.6688540271e+01     1.076086    0.8452865 -86.54  0.004310041    1.205    0.170
       267  -9.4103    193.7320    209.6303   7.6243860362e+01   1.0598999415e+00    0.2862868    0.1894275  -5.94 0.0008802126    1.712    0.416
       268  -9.9541     77.8927    209.0665   1.0327881708e+02   1.9504186703e+01    0.2350995     0.221646 -48.94 0.0003063905    1.182    0.154
       269  -8.8943     79.4823    205.5732   1.0243520082e+02   2.0105530886e+01    0.2172436    0.1693211 -55.86 0.0004658128    1.338    0.253
       270  -9.9438      1.9273    209.8932   1.2098119939e+02   2.7894832918e+01    0.2619073    0.2058059  85.13   0.00104359    1.052    0.049
       271  -9.4657      4.9653    206.9899   1.2015386870e+02   2.8302090283e+01    0.2184249    0.1783706  79.28 0.0009491144    1.034    0.033
       272  -8.7768    225.1002    208.4918   6.9850626872e+01  -3.2913490214e+00    0.2068683    0.1409682 -31.26 0.0007668901    1.282    0.220
       273  -8.8478    110.0553    208.6706   9.5310020491e+01   1.4764736534e+01    0.1998553    0.1740066  31.73 0.0004378747    1.102    0.093
       274  -8.5839     72.7007    209.0767   1.0455111541e+02   2.0224151956e+01    0.1815893    0.1684596 -78.21 0.0003353795    1.104    0.094
       275  -8.9020    176.4727    207.7378   7.9574540092e+01   4.1197416709e+00    0.1941029    0.1239139 -29.86 0.0009338373    1.601    0.376
       276  -9.7391     82.7462    201.4431   1.0106194337e+02   2.0623168143e+01    0.3616855    0.2286304 -36.19  0.001577229    2.059    0.514
       277  -8.4835     88.5818    196.4979   9.8870891668e+01   2.0954027670e+01    0.2416601    0.2207062 -41.07 0.0001008935    1.189    0.159
       278  -9.0795     91.0310    187.5172   9.6857801545e+01   2.2783432250e+01    0.2387617    0.1975397 -44.26 0.0004726654    1.277    0.217
       279  -9.1065     86.8013    193.1422   9.8831913545e+01   2.2040435138e+01    0.3735225    0.2482393 -31.73 0.0003791571    1.980    0.495
       280  -9.2479     90.5022    191.1534   9.7566390067e+01   2.1967546290e+01    0.2307802    0.1755578 -52.66 0.0005192657    1.338    0.253
       281  -9.6578     84.2611    206.3761   1.0135547544e+02   1.9226980603e+01     0.230605    0.2111239 -61.21  0.001018841    1.146    0.128
       282 -10.5948     88.3489    202.7204   9.9829424127e+01   1.9492725626e+01    0.5900081    0.3180157 -66.28  0.002251051    1.989    0.497
       283  -8.7898    183.5477    205.5368   7.7635605512e+01   3.4130712265e+00    0.2327341      0.17039 -26.40  0.001231988    1.314    0.239
       284  -9.4286    181.4636    202.7455   7.7563262793e+01   4.2848469087e+00     0.450364     0.167895 -39.68  0.001640295    2.683    0.627
       285  -8.4082     74.9891    205.9282   1.0359532621e+02   2.0654342902e+01    0.1878046     0.178065  65.55 0.0004514389    1.047    0.045
       286  -8.1086     77.2823    203.2782   1.0268196418e+02   2.0966137564e+01    0.1974974    0.1764669  24.92 0.0001961212    1.211    0.174
       287  -9.3781     39.0747    205.7007   1.1229724398e+02   2.5234493851e+01    0.2231756    0.1713999 -70.72 0.0003693464    1.258    0.205
       288  -8.6549    189.1478    204.0757   7.6170788093e+01   2.8033762319e+00    0.3154639    0.1796011 -12.59  0.001279511    2.593    0.614
       289 -10.1699    180.9596    196.5108   7.6488588033e+01   5.5898207976e+00     0.576656    0.1868418 -41.42  0.001912381    3.026    0.669
       290  -8.7621    199.1914    191.1543   7.1600674468e+01   3.6538104370e+00    0.2153632    0.1709438  -8.25 0.0006365536    1.207    0.171
       291  -8.8722    183.2981    184.9482   7.3709223299e+01   7.5129868769e+00    0.2275191    0.1778223 -14.70 0.0004529257    1.291    0.225
       292  -8.8813    194.0438    188.5005   7.2137793219e+01   5.0011791189e+00    0.2573968    0.1987071   1.20 0.0004984641    1.334    0.250
       293 -10.0459    185.8293    191.4522   7.4454764234e+01   5.7831827462e+00    0.3013017    0.2097692 -31.32  0.000223195    1.370    0.270
       294 -10.3678    187.8713    185.8426   7.2907023867e+01   6.5545510878e+00    0.5360711    0.2253606 -35.83   0.00201949    2.471    0.595
       295  -9.4979    190.4872    189.8944   7.3158230677e+01   5.3164807253e+00    0.3141663    0.2469194 -51.28  0.001337677    1.450    0.310
       296  -9.5745    181.8340    190.1557   7.5062175548e+01   6.7116744435e+00    0.2238365     0.196044 -16.95 0.0004174267    1.042    0.040
       297  -8.5720    180.2812    187.3117   7.4837862862e+01   7.5503683274e+00    0.2042083    0.1774305  21.43 0.0002369124    1.143    0.125
       298  -9.0666    195.4841    194.4667   7.3009885370e+01   3.6186986361e+00    0.3156359    0.2838881  12.94 0.0006184113    1.135    0.119
       299 -10.8814    194.6559    200.1276   7.4271105778e+01   2.6788603914e+00    0.5448542    0.4389075  46.50  0.002303477    1.542    0.351
       300  -9.7651    191.4996    197.0329   7.4336954279e+01   3.7685314484e+00    0.4891225    0.2234959 -36.05  0.002024413    2.167    0.538
       301  -9.3417     70.8484    204.7205   1.0446903227e+02   2.1514462579e+01    0.2134178    0.1819349 -55.86 0.0003587638    1.248    0.199
       302  -9.2387    102.1374    197.0780   9.5490906937e+01   1.8717029231e+01    0.2384244    0.2049577  28.52 0.0003028844    1.169    0.144
       303  -9.4550    109.7033    196.0295   9.3395960659e+01   1.7749364436e+01    0.2727372    0.2331733  46.55 0.0003523945    1.148    0.129
       304 -10.4589    109.7436    203.2141   9.4541607153e+01   1.6063687389e+01    0.3234444     0.284794  47.99 0.0006188125    1.107    0.097
       305 -10.1410    105.9511    198.5311   9.4752558231e+01   1.7764631371e+01     0.285114    0.2397325 -56.27 0.0003345543    1.226    0.184
       306  -9.9598    175.8435    202.7279   7.8786020890e+01   5.2014554001e+00     0.236999    0.1765167 -24.93 0.0005437103    1.325    0.246
       307  -9.6049     94.6904    193.8363   9.6894476329e+01   2.0666190961e+01    0.2472425    0.2291089 -42.24 0.0004672608    1.146    0.127
       308 -10.6855     97.3958    202.4423   9.7514390072e+01   1.8186764076e+01    0.2809417    0.2560852  30.98  0.001586806    1.099    0.090
       309  -9.0091     97.6978    198.0050   9.6766661782e+01   1.9193860197e+01    0.2497532    0.1876112 -49.25 0.0003567719    1.388    0.280
       310  -8.3325     98.2825    194.3986   9.6055868567e+01   1.9968664456e+01    0.1931712    0.1498114  15.09 0.0004612261    1.478    0.323
       311  -9.3572    153.1272    198.7431   8.3212021840e+01   9.8191607232e+00    0.4676381    0.2169245 -49.86  0.001675604    2.246    0.555
       312  -9.1516    161.7641    189.1913   7.9383411314e+01   1.0367283113e+01    0.4225392    0.2796911  34.36  0.001992518    1.496    0.332
       313  -9.6196    160.9606    201.2836   8.1862659342e+01   7.9611815254e+00    0.2871807    0.1946437 -36.37 0.0003882613    1.487    0.327
       314  -9.1912    162.4904    197.5399   8.0814227007e+01   8.4804029502e+00    0.2567452    0.2440401 -21.78   0.00058811    1.102    0.092
       315  -9.3898    156.7753    195.4513   8.1744574976e+01   9.8965405919e+00    0.2900965     0.230352 -12.31  0.000643561    1.345    0.257
       316  -9.8572    161.8969    193.1417   8.0116041874e+01   9.5049965753e+00    0.3323392    0.2469192  11.03 0.0007986103    1.467    0.318
       317  -9.4565    158.4576    192.4442   8.0781023489e+01   1.0247872380e+01    0.2602096    0.2377256  33.85 0.0005389789    1.139    0.122
       318 -10.2974    142.6131    183.5288   8.2859357327e+01   1.5009891539e+01    0.3209775    0.2731849 -22.24  0.000187965    1.213    0.175
       319  -9.6021    129.0767    201.5395   8.9486025106e+01   1.3276326453e+01    0.2973162    0.2139706 -36.00 0.0008772395    1.505    0.335
       320 -10.1040    133.7032    200.0290   8.8094636497e+01   1.2837028974e+01    0.3829232    0.2918124  66.59  0.001226558    1.701    0.412
       321  -9.0333    134.1792    195.5902   8.7191994423e+01   1.3750624962e+01     0.251619    0.1968286 -20.56 0.0003361856    1.445    0.308
       322  -9.1335    134.6824    192.0215   8.6421405294e+01   1.4471878456e+01    0.2703138    0.2115289 -35.48 0.0004289651    1.325    0.245
       323  -9.4733    138.4230    189.7232   8.5073195906e+01   1.4343252294e+01    0.3265804    0.2496629 -25.75 0.0004611867    1.439    0.305
       324  -9.6486    138.3834    185.8005   8.4342350479e+01   1.5243564663e+01    0.5007606     0.243639 -40.62  0.001918154    2.209    0.547
       325 -10.3619     67.7166    200.9535   1.0477996540e+02   2.2848341497e+01    0.2740233    0.2412736 -48.83 0.0002951957    1.257    0.205
       326  -9.0978    186.4587    199.3525   7.5848215883e+01   4.1349343399e+00    0.2537964    0.1714542 -24.71 0.0008335119    1.493    0.330
       327  -8.7728    169.4900    200.4157   7.9765278413e+01   6.7122241295e+00      0.21346    0.1833596 -39.26 0.0002237508    1.201    0.167
       328  -9.9264    172.4474    197.7864   7.8607407126e+01   6.7508111177e+00    0.3169616    0.2058536 -20.43  0.001154915    1.793    0.442
       329 -10.2504    175.9982    193.7525   7.7044642172e+01   6.9710472441e+00    0.5058298    0.2066149 -48.59  0.001899213    2.573    0.611
       330 -10.0708     79.9456    196.8682   1.0113850798e+02   2.2137658167e+01    0.4658572    0.2369087 -49.07  0.001362786    2.105    0.525
       331 -10.2000     80.8279    191.5351   1.0014910785e+02   2.3321094123e+01    0.3047156    0.2445161 -18.07 0.0006976729    1.587    0.370
       332  -9.1070     77.8533    188.8025   1.0053040673e+02   2.4432326513e+01    0.2065513    0.1905203 -33.72 0.0004510652    1.211    0.174
       333  -8.9554     92.9377    198.5856   9.8067169560e+01   1.9789391400e+01    0.2253948    0.1906058 -49.56  0.001212963    1.242    0.195
       334  -9.7512     73.8946    198.8695   1.0295347983e+02   2.2508434732e+01    0.2342966    0.2075945  58.03 0.0003051392    1.070    0.065
       335  -8.6195    210.1443    198.3148   7.0796724322e+01   6.2321747438e-01    0.1825708    0.1546405   8.85 0.0004510609    1.136    0.120
       336  -8.6630    152.7748    193.1816   8.2257128233e+01   1.1074618522e+01    0.2036445    0.1795498 -23.98 0.0003873497    1.114    0.103
       337  -8.4739    149.2435    198.3955   8.4064081605e+01   1.0555469799e+01    0.2265334    0.1629677 -12.37 0.0004154117    1.689    0.408
       338  -8.4935    149.5723    195.4978   8.3451285567e+01   1.1125779108e+01    0.2318673    0.1724589 -13.26 8.661322e-05    1.570    0.363
       339  -9.7545    124.0422    197.4668   9.0029820466e+01   1.5041746989e+01    0.2571316    0.2126106 -46.04 0.0003580385    1.245    0.197
       340  -9.4872    114.1767    197.7738   9.2552204023e+01   1.6608444705e+01    0.2667562    0.2204507 -29.55 0.0005927217    1.340    0.254
       341  -8.6477    231.7511    197.1194   6.6501772230e+01  -2.2973635758e+00    0.2473837    0.1485698  -0.35  0.001205984    2.111    0.526
       342  -9.1828    223.9086    196.0400   6.7731367237e+01  -1.0037603740e+00    0.2997729    0.2249028   2.88  0.001746848    1.307    0.235
       343  -9.5061    167.5380    196.1980   7.9409125273e+01   7.9022550383e+00    0.2708285    0.2115167   3.43 0.0006136925    1.346    0.257
       344  -9.6201    151.2831    185.5700   8.1149520955e+01   1.3004859704e+01    0.2733715    0.2344443 -15.49 0.0006591991    1.188    0.158
       345 -10.0237    145.1036    194.8826   8.4406112392e+01   1.2030557433e+01    0.3090157    0.2710513  -7.88  0.000498131    1.158    0.136
       346  -9.0501    148.7657    190.8010   8.2761538507e+01   1.2292960371e+01      0.29138    0.2270959  32.58 0.0005150732    1.254    0.203
       347  -9.6932    164.6516    171.7743   7.5185020613e+01   1.3619960965e+01    0.2962437    0.2262493 -24.85 0.0005387837    1.360    0.264
       348  -9.5786    143.7766    190.1300   8.3839520307e+01   1.3315050081e+01    0.4807886    0.2692903 -30.82  0.001771936    2.252    0.556
       349  -9.0918    147.4262    186.4561   8.2251750108e+01   1.3492833045e+01    0.4335915    0.2505048 -41.51    0.0014957    1.752    0.429
       350  -8.9194    158.7573    181.3594   7.8536237608e+01   1.2595243554e+01    0.2646747    0.2089978  -2.96 0.0003111799    1.410    0.291
       351  -9.9783    163.5471    176.6315   7.6451965811e+01   1.2761435057e+01    0.4721788    0.2692606 -24.23  0.001215838    2.416    0.586
       352  -9.6945    152.9256    173.1730   7.8257663622e+01   1.5481323153e+01    0.2662128    0.2108993 -33.03  0.000257633    1.256    0.204
       353  -9.4913    150.7365    181.0019   8.0379103993e+01   1.4120765569e+01    0.4980399    0.2955611  13.24  0.001785165    2.532    0.605
       354  -9.7254    159.1320    174.2446   7.6995057391e+01   1.4094963078e+01    0.3194792    0.2330188 -33.58 0.0006946475    1.372    0.271
       355  -9.7861    155.7496    179.0147   7.8776219744e+01   1.3655907239e+01    0.4875028    0.3015703 -32.12  0.002096058    1.770    0.435
       356  -8.9397    152.4886    177.5084   7.9252764573e+01   1.4585960997e+01    0.2634273    0.2276759 -26.05 0.0004976558    1.143    0.125
       357  -9.2709    155.4570    188.4690   8.0719930682e+01   1.1629522738e+01    0.2705685     0.218875 -11.94  0.000529719    1.317    0.241
       358  -9.4722    157.6811    184.9790   7.9511446859e+01   1.1996505632e+01    0.2868935    0.2550995 -17.84 0.0003359901    1.091    0.083
       359  -9.0545     12.6502    196.0625   1.1768348255e+02   3.0205203311e+01    0.1918038    0.1505415  64.75 0.0003809152    1.152    0.132
       360  -8.9883    202.5760    194.5960   7.1585748441e+01   2.4688037535e+00    0.4088762    0.2257046  12.97   0.00168488    2.615    0.618
       361  -9.3450    129.4549    194.4917   8.8162895167e+01   1.4806863283e+01    0.2654297    0.2304673 -18.51  0.001400426    1.225    0.184
       362 -11.9391     47.7572    200.5934   1.0969328595e+02   2.5465440846e+01    0.8895863    0.7440487  70.11  0.005309396    1.089    0.082
       363  -8.1537    172.2813    194.2941   7.7976302370e+01   7.4892481838e+00    0.1456619    0.1064647  -9.28 0.0002043417    1.535    0.348
       364  -9.4428     74.1521    194.0099   1.0223235099e+02   2.3664948236e+01    0.2234401    0.1983119  42.63 0.0003376137    1.124    0.110
       365  -9.3175    130.9280    189.0184   8.6804333808e+01   1.5810845676e+01    0.2419164    0.2086202  24.53 0.0003042715    1.145    0.127
       366  -9.8572    124.9731    192.2439   8.8883185009e+01   1.6088801503e+01    0.2984807    0.2374306 -18.98 0.0003713514    1.451    0.311
       367  -8.3590    130.2612    181.6692   8.5593357566e+01   1.7641171222e+01    0.2128642    0.1724324 -27.98 0.0002292611    1.321    0.243
       368  -9.1066    126.3714    188.1709   8.7796337794e+01   1.6797469644e+01    0.2481597    0.2187134  32.70  0.000366698    1.109    0.098
       369  -9.4833    129.3154    185.0389   8.6471369082e+01   1.7017467408e+01     0.285239    0.2396455  18.37 0.0004211508    1.228    0.186
       370  -9.8075    115.2931    192.0438   9.1301303570e+01   1.7769853036e+01    0.2714027    0.2337675  -7.72    0.0004995    1.305    0.234
       371 -11.2084    218.5730    183.7941   6.6345370392e+01   1.9698977983e+00    0.6543396    0.3910504 -34.86  0.003311935    1.471    0.320
       372 -10.8403    222.8048    187.3451   6.6254845151e+01   6.8836326919e-01    0.6563962    0.2547181 -36.69  0.002361922    2.321    0.569
       373  -9.7287    224.0000    181.9977   6.4983053745e+01   1.4649705067e+00     0.292832    0.1428534 -34.10  0.001045409    1.846    0.458
       374  -8.2046    210.4335    192.4095   6.9599699338e+01   1.6512438613e+00     0.138654    0.1150607 -12.81 0.0001367156    1.050    0.048
       375  -8.5345    124.0083    249.5035   9.7796426469e+01   4.2121384762e+00    0.1734078    0.1064532   8.72 0.0005490371    2.271    0.560
       376  -8.0509    232.4233    190.2722   6.5074324667e+01  -1.2246641772e+00    0.1379187    0.0887085  -3.93 0.0003674497    1.808    0.447
       377  -8.8751    215.8277    190.3677   6.8158511742e+01   1.1974938379e+00     0.185545    0.1540545   0.58 0.0007210519    1.133    0.118
       378 -10.2046    210.2317    180.6446   6.7309573375e+01   3.8657150950e+00    0.4651711    0.2627895 -48.54  0.002151774    1.873    0.466
       379  -9.4682    206.4690    185.0545   6.8930330397e+01   3.6400276058e+00    0.3572148    0.1892309 -21.24   0.00107823    2.513    0.602
       380  -9.5079    202.4717    187.5434   7.0223062890e+01   3.8118503872e+00     0.250777     0.192305  54.69 0.0008216794    1.807    0.447
       381  -9.6874     68.9319    182.2634   1.0195707650e+02   2.7338559351e+01    0.2468531    0.1976523 -59.65 0.0002300567    1.222    0.182
       382  -9.4091     81.3825    176.1670   9.7633182518e+01   2.7111383346e+01    0.3508009    0.2444825  28.20  0.001609777    1.524    0.344
       383 -10.1532     89.1097    166.9885   9.3905092328e+01   2.8278622548e+01    0.2738118    0.2568828   4.63 0.0002814407    1.155    0.134
       384 -10.3241     95.1988    162.8406   9.1413023429e+01   2.8359422684e+01    0.5329215    0.4906484  88.00  0.002803443    1.133    0.118
       385 -10.2387    100.3531    162.7370   8.9937639759e+01   2.7524117273e+01      0.43551    0.3030748 -15.24   0.00035128    2.040    0.510
       386  -9.9026    108.7675    157.3409   8.6488171913e+01   2.7430090368e+01    0.4895084    0.2565287  28.81  0.001843812    2.155    0.536
       387 -10.0199     72.7007    187.1286   1.0164890868e+02   2.5584322711e+01    0.2669203    0.2355376 -69.22 0.0002924216    1.107    0.096
       388 -11.1367     74.4480    179.5388   1.0006141226e+02   2.7261654295e+01    0.8491698    0.6582448  67.23  0.003212278    1.375    0.273
       389 -10.6545     83.6262    168.8430   9.5778594539e+01   2.8654429947e+01    0.3881087    0.2969225 -53.64 0.0002314458    1.274    0.215
       390  -9.5025     80.8024    184.8814   9.9163489571e+01   2.4985882344e+01    0.2674298    0.2331628 -30.65 0.0003600772    1.304    0.233
       391 -11.1806     76.8328    170.7872   9.8016827973e+01   2.9167877928e+01    0.5834857    0.4361428  46.52  0.001315722    1.362    0.266
       392  -9.6062     88.9773    163.0128   9.3215395461e+01   2.9324260111e+01    0.3817554     0.227961  24.86            0    1.909    0.476
       393  -9.8181     85.5247    160.1838   9.3682058398e+01   3.0602431487e+01    0.4275607    0.2965962 -25.51 0.0002944128    1.862    0.463
       394  -9.6695     83.7213    180.3029   9.7662302286e+01   2.5707560769e+01    0.4980655    0.2601887 -34.21  0.001196655    2.908    0.656
       395 -10.2374     90.0318    173.6745   9.4830528433e+01   2.6420966501e+01    0.6730074     0.389192 -24.47  0.001871724    3.011    0.668
       396  -9.4201     79.9139    164.2032   9.6023807102e+01   3.0419426157e+01    0.2488465    0.2361189  54.89  0.000665025    1.075    0.070
       397  -9.9669     75.0626    164.0285   9.7386095034e+01   3.1182356866e+01    0.3329095    0.2806461   2.07 0.0003134887    1.404    0.288
       398  -9.6295    106.8947    150.5528   8.5585943442e+01   2.9478080719e+01    0.2975738    0.2418667 -26.65 0.0003751538    1.353    0.261
       399 -10.2524     99.8823    156.8883   8.8910967377e+01   2.9096343806e+01    0.4182501    0.3038525  34.44 0.0003140203    1.410    0.291
       400 -10.2050    103.1981    153.7509   8.7319280472e+01   2.9322320289e+01    0.4500272     0.286837 -64.03  0.001450828    1.711    0.416
       401  -8.3562    210.6326    187.2087   6.8540517236e+01   2.5773918036e+00    0.1865504    0.1141343 -31.03 0.0002276889    1.502    0.334
       402 -10.5630    120.3094    186.1622   8.8976796593e+01   1.8315641225e+01    0.3483028    0.2564065  32.62  0.001672754    1.343    0.255
       403 -12.9942     10.7726    147.2107   1.1375955258e+02   4.2604743938e+01     1.761183     1.040686 -51.04  0.009182836    1.600    0.375
       404 -12.3303    188.4186    152.6744   6.5789934983e+01   1.3232165040e+01     1.284444    0.8240409 -22.92  0.003419534    1.851    0.460
       405  -9.9869     85.9559    185.3154   9.7856237635e+01   2.4107811488e+01     0.277281    0.2075151 -54.29 0.0003077264    1.336    0.251
       406 -10.4284     89.7096    181.0903   9.6171208608e+01   2.4593116420e+01    0.2780782    0.2448102   3.50  0.000320397    1.298    0.229
       407  -8.1785    196.2938    185.3003   7.1034401396e+01   5.2516926623e+00     0.144591    0.1023482  -9.53 0.0003333152    1.570    0.363
       408  -8.9402    108.7210    247.9120   1.0093833834e+02   6.7249449610e+00    0.2359372    0.1630136 -42.40  0.001093762    1.728    0.421
       409 -12.6117    135.8991    123.5734   7.1148065334e+01   3.0334276537e+01     1.267232     1.101108 -30.24  0.004352734    1.164    0.141
       410  -9.6803    134.6180    181.8843   8.4531856353e+01   1.6816142126e+01    0.2777941     0.220833 -21.07 0.0005270073    1.402    0.287
       411  -8.0153    229.3024    181.2997   6.3886016372e+01   7.9301300237e-01    0.1355718   0.09183651 -11.37 0.0004449516    1.585    0.369
       412  -8.8475    198.9968    181.0017   6.9615104639e+01   5.6385130905e+00    0.2204817    0.1812712 -15.82 0.0005462843    1.129    0.114
       413  -8.6783    204.4845    179.5313   6.8213466881e+01   5.0127139926e+00    0.2129792    0.1632046 -40.99 6.785178e-05    1.257    0.204
       414 -11.1485    203.1470    174.3554   6.7422059440e+01   6.2347848005e+00    0.5391678    0.4763491   4.81  0.003127419    1.122    0.109
       415  -9.0473    124.9403    170.4954   8.4780810194e+01   2.1263418379e+01     0.267051    0.2121377 -47.16 0.0003536506    1.248    0.199
       416  -8.9336    123.9914    166.4840   8.4218774865e+01   2.2410424908e+01    0.2292203    0.2046343 -43.05 0.0003324944    1.107    0.097
       417 -10.0918    122.1323    178.9543   8.7167361233e+01   1.9722746339e+01    0.4124337    0.3250887  -4.93  0.001432137    1.539    0.350
       418  -9.5437    124.4095    174.8333   8.5779250091e+01   2.0311033867e+01    0.2776709    0.2346161   5.78 0.0003621308    1.309    0.236
       419  -8.5939    142.4607    175.0592   8.1214699606e+01   1.6980965212e+01    0.2127388    0.1966415 -39.18 0.0004096896    1.076    0.070
       420  -9.6260    145.6430    178.4898   8.1118414164e+01   1.5611830691e+01    0.2742967    0.2393653 -13.09 0.0002418892    1.181    0.153
       421  -9.7132    147.7084    173.8572   7.9670623160e+01   1.6291085272e+01    0.4806953    0.4053837  -2.89  0.002417816    1.280    0.219
       422  -8.6697    141.3323    179.2980   8.2345446342e+01   1.6208629521e+01    0.2363243     0.206728  16.46 0.0005342027    1.154    0.134
       423  -9.5235    138.6797    176.1720   8.2385714279e+01   1.7414199152e+01    0.5530453    0.2252913 -51.57  0.001647235    2.505    0.601
       424  -9.2831    218.3651    177.8989   6.5208215592e+01   3.0816378563e+00    0.3166161    0.1789387  17.28  0.001225874    2.481    0.597
       425 -12.0806    104.3169    113.4753   7.7474616138e+01   3.9107955850e+01     1.599032    0.8491709 -42.35  0.005558423    1.871    0.466
       426  -9.0089    129.9082    177.8000   8.4936053158e+01   1.8617589004e+01    0.2260005    0.1996381 -12.98 0.0004224791    1.199    0.166
       427 -10.0978    230.5875    175.9046   6.2591132997e+01   1.5578014836e+00    0.3103856    0.2003451 -44.02  0.001651411    1.470    0.320
       428  -8.8773    134.8242    176.5919   8.3443771690e+01   1.8016672101e+01    0.2435423    0.1983996 -32.81 0.0004525166    1.261    0.207
       429 -10.4913    119.0047    169.5539   8.6165684784e+01   2.2561520881e+01    0.3750217    0.3001713 -67.78  0.000601249    1.371    0.271
       430  -8.3589    110.0171    177.2758   9.0046461323e+01   2.2231558279e+01    0.2176919    0.1584444  30.88 0.0003318309    1.398    0.285
       431  -9.2528    113.0883    174.6631   8.8737923460e+01   2.2347359019e+01     0.229788    0.2173659 -17.73 0.0004296275    1.093    0.085
       432  -9.8085    112.3099    169.6093   8.7976825499e+01   2.3732930512e+01    0.5313827    0.2509487 -57.16  0.001964359    2.197    0.545
       433  -9.2814    115.4672    166.0649   8.6420757899e+01   2.4053988001e+01    0.3468627    0.2384812 -30.23 0.0003991418    1.721    0.419
       434 -10.2670    100.4334    175.9064   9.2376910488e+01   2.4179734298e+01    0.6953542    0.2629303  46.94  0.001957923    3.054    0.673
       435  -8.4924     94.5432    176.9321   9.4158756627e+01   2.4878744679e+01    0.2287675      0.20514 -12.86 0.0003608446    1.254    0.203
       436  -9.4291    117.7399    175.4987   8.7660660941e+01   2.1331200297e+01    0.2554762    0.2241286 -42.03 0.0002466133    1.146    0.127
       437  -9.1472    224.4204    173.5853   6.3227763353e+01   2.9217459849e+00     0.352892    0.1117259 -36.93   0.00124937    2.954    0.661
       438  -8.0976    209.6829    174.2862   6.6125706481e+01   5.1580873821e+00    0.1276139     0.112806 -76.91 0.0002150308    1.588    0.370
       439 -10.1271    107.1294    172.0723   8.9853652842e+01   2.4015586738e+01    0.3189757    0.2521234 -41.15 0.0004056653    1.303    0.232
       440  -9.1341     56.8880    174.0673   1.0407309708e+02   3.1032001178e+01     0.209907    0.1936685 -67.13 0.0003739246    1.075    0.070
       441  -9.7730    129.6559    173.0014   8.4052939780e+01   1.9805148491e+01    0.2701705     0.223431  28.61 0.0002184511    1.221    0.181
       442  -7.8856    241.6751    172.6859   6.0056381489e+01   4.8165814028e-01    0.1344943   0.08961388 -12.08  0.000704213    1.664    0.399
       443  -9.0676    233.5202    171.9960   6.1301898723e+01   1.8097545606e+00    0.1958791    0.1126929 -37.18  0.000350619    1.465    0.318
       444  -8.8146    218.8189    172.1982   6.3971180217e+01   4.0637100409e+00    0.1913893    0.1447516 -12.60 0.0003953716    1.335    0.251
       445  -9.8259    142.9182    169.9753   8.0056511536e+01   1.8075194019e+01    0.2913623    0.2261224 -26.72  0.000309015    1.382    0.276
       446  -9.0331    133.8830    170.8648   8.2531501955e+01   1.9541017397e+01    0.2309672     0.199517 -18.74 0.0004207499    1.226    0.184
       447  -9.7477     95.6354    170.7490   9.2762182904e+01   2.6268260145e+01    0.2642055    0.2517144 -26.02 0.0006113995    1.102    0.093
       448  -8.9488    138.0525    169.8043   8.1248538341e+01   1.9020743371e+01    0.3328959    0.2456596  -9.81  0.001392712    1.734    0.423
       449  -8.7755    134.9621    166.8797   8.1431795996e+01   2.0287791534e+01    0.2296995    0.2157141 -12.66 0.0003166684    1.064    0.060
       450 -10.1473    101.3912    169.3813   9.0918583829e+01   2.5663282342e+01    0.2810229    0.2546257 -21.09 0.0006629886    1.191    0.161
       451 -10.0633    204.5625    167.4574   6.5710122363e+01   7.3374738083e+00    0.4636599     0.321946   3.21  0.002088702    1.831    0.454
       452  -9.1625    247.1266    167.1950   5.8089339549e+01   6.3818645269e-01    0.3657041    0.2181327  30.84  0.001964879    2.012    0.503
       453 -10.2386    229.3605    165.5259   6.0722080560e+01   3.6115544986e+00      0.41677    0.2291031 -23.94  0.001430378    2.071    0.517
       454  -9.0187    234.1201    162.0957   5.9211208273e+01   3.4839999068e+00     0.240029    0.1596913 -20.44 0.0004767004    1.558    0.358
       455 -11.7533    112.5627    114.7670   7.5346979065e+01   3.7183695688e+01    0.9597894    0.6003568 -27.71  0.003805391    2.004    0.501
       456  -9.3648    164.9948    166.3617   7.3956204295e+01   1.4743988099e+01    0.2771609    0.2103224 -32.15 0.0004021494    1.301    0.231
       457  -9.3275    147.9889    167.0168   7.8173840808e+01   1.7808340499e+01    0.2315487    0.2137893 -15.47  0.001206297    1.066    0.062
       458 -10.0738    129.0078    166.1358   8.2823862446e+01   2.1572305653e+01    0.2773227    0.2176898 -42.75 0.0003059189    1.263    0.208
       459  -9.3706    106.9020    166.1809   8.8785747872e+01   2.5531119408e+01    0.2501097     0.214914 -35.89 0.0002642113    1.204    0.169
       460  -8.1126    217.3031    166.3186   6.3046385946e+01   5.4087107223e+00    0.1425548   0.09984015 -11.71 0.0003759464    1.626    0.385
       461  -9.9890    207.7334    158.6815   6.3243041130e+01   8.4988803855e+00    0.2418278    0.2001211 -13.69 0.0008255653    1.207    0.172
       462 -13.3688    132.4894    107.9207   6.7930800147e+01   3.4562385817e+01     1.895352     1.629847  -2.60   0.00932714    1.327    0.246
       463 -10.4382    200.5428    164.5251   6.5887872008e+01   8.6137523195e+00    0.5004236    0.3043188  -1.42  0.001934377    2.884    0.653
       464 -12.2029    119.5521    102.6163   7.0010672163e+01   3.8491999348e+01     1.638442    0.8988624 -29.64  0.006046365    2.346    0.574
       465  -9.7177    146.8161    162.0873   7.7408438315e+01   1.9170454829e+01    0.2525405     0.231327  -3.79 0.0002972022    1.108    0.097
       466  -9.5990    119.7158    163.0166   8.4650608689e+01   2.4040677687e+01    0.2570584    0.2243614  15.34 0.0002945437    1.218    0.179
       467  -9.6407    111.2204    162.4908   8.6861215780e+01   2.5700393806e+01    0.2771069     0.230518 -31.63 0.0004341064    1.274    0.215
       468 -10.8544    138.1282    160.6340   7.9291000098e+01   2.1173395184e+01    0.5956634    0.3615655 -64.88  0.001990038    2.176    0.540
       469  -8.8392    132.8524    161.8666   8.0921054282e+01   2.1880786495e+01    0.2263989    0.2042322 -17.39 0.0002893748    1.144    0.126
       470  -8.6291    107.0130    161.7026   8.7868317021e+01   2.6639804326e+01    0.2077935    0.2003372  25.31  0.000339288    1.057    0.054
       471  -9.4454    124.3840    160.2583   8.2817844769e+01   2.3857741460e+01    0.2517739    0.2230623 -15.33 0.0004077048    1.205    0.170
       472 -10.2539     91.0725    157.0556   9.1480384488e+01   3.0525589824e+01    0.3647018    0.2835744 -47.10  0.000474802    1.266    0.210
       473 -10.4923     79.5409    157.6611   9.4957581010e+01   3.2181203324e+01    0.3090039      0.24853 -39.20 0.0005647099    1.302    0.232
       474  -9.0181     75.5733    155.5267   9.5735602142e+01   3.3332212968e+01    0.2709771    0.2189439 -39.23 0.0001270328    1.293    0.226
       475  -8.7292    119.5719    158.4580   8.3736378643e+01   2.5191792466e+01    0.2377998    0.2025832  14.97 6.480594e-05    1.272    0.214
       476  -9.1571    122.2107    155.7874   8.2447509287e+01   2.5359505621e+01    0.2488541    0.2207395 -20.83 0.0004123166    1.187    0.157
       477  -9.9417    111.4213    152.7089   8.4766028631e+01   2.8117397650e+01    0.3556193    0.2795349  11.46 0.0004326226    1.495    0.331
       478 -10.0764    122.9084    148.8979   8.0739840066e+01   2.6919161994e+01    0.3048863    0.2541528 -16.35 0.0003648434    1.349    0.259
       479 -10.0464    114.2829    157.2180   8.4926371047e+01   2.6468540110e+01    0.2876176    0.2556652  -6.30 0.0004670535    1.228    0.186
       480 -10.0677    117.0426    151.8639   8.3013098576e+01   2.7293804146e+01    0.5701578    0.3592258 -20.63  0.001648416    2.425    0.588
       481  -8.6396    237.7538    156.3798   5.7450049328e+01   3.9375046890e+00    0.2265539    0.1399051 -23.76 0.0008074401    1.691    0.409
       482 -10.1779    227.8562    154.9154   5.8806627435e+01   5.7901831381e+00    0.3762025    0.2106167 -27.99  0.001358058    1.843    0.457
       483  -8.8300    127.1835    155.7357   8.1096091912e+01   2.4434834005e+01     0.256002    0.2045054 -56.25 0.0002467835    1.277    0.217
       484  -8.7885    217.7877    155.2242   6.0642466864e+01   7.4210243644e+00    0.1873506    0.1445048 -19.42 0.0002572943    1.295    0.228
       485  -9.1519    204.8973    154.0283   6.2789131412e+01   9.9140043144e+00    0.2171281    0.1903445 -25.44 0.0004425262    1.037    0.036
       486  -9.7151     95.8496    153.9624   8.9480041818e+01   3.0530950818e+01    0.2673796    0.2498979  18.66 0.0003257534    1.122    0.109
       487  -9.6098     97.9018    150.0169   8.8069546031e+01   3.1194224354e+01    0.2443984    0.2364113 -40.00 0.0003201951    1.023    0.022
       488  -9.9276     84.6914    153.9241   9.2738421482e+01   3.2360847259e+01    0.2567657    0.2428904   8.00 0.0003629689    1.131    0.116
       489 -10.1341     84.9679    148.4334   9.1572930334e+01   3.3745916326e+01    0.3517395     0.256464 -40.59 0.0005991019    1.410    0.291
       490  -8.2853    113.5212    248.5714   9.9968354429e+01   5.9073123877e+00    0.1299852    0.1119237  31.73 0.0001467201    1.043    0.041
       491  -9.2020    208.7454    152.3836   6.1703000292e+01   9.5466160193e+00    0.2454916    0.1869148  64.80  0.001240833    1.824    0.452
       492  -8.5773    223.7649    150.3665   5.8562416126e+01   7.3146040722e+00    0.1665132    0.1288067  24.41 0.0001886066    1.499    0.333
       493 -10.1271     91.1283    148.1727   8.9680473303e+01   3.2812254184e+01    0.2709547    0.2383213 -29.82 0.0003359281    1.191    0.160
       494 -10.3746    214.5293    147.1160   5.9503526033e+01   9.5330854014e+00    0.3315956    0.2196487  23.47  0.001199219    1.954    0.488
       495  -9.4266    102.9377    147.3582   8.6036658222e+01   3.0993245346e+01    0.2841186    0.2107207 -48.07 0.0005454396    1.308    0.235
       496  -9.6621    106.3144    144.9436   8.4528536268e+01   3.0998893191e+01    0.3701433    0.2550575  24.19  0.001281017    1.640    0.390
       497  -8.8576    226.5436    146.4780   5.7269686908e+01   7.5638626691e+00    0.2490018    0.1146934 -32.04 0.0005534274    2.241    0.554
       498  -8.1519    206.2866    145.7149   6.0716728537e+01   1.1295270680e+01    0.2053504    0.1237494 -33.57 0.0004335192    1.581    0.368
       499  -9.3160    208.6578    142.9593   5.9671597840e+01   1.1397283757e+01    0.2033359    0.1891141 -21.12 0.0004298527    1.072    0.067
       500  -9.2967    103.9066    141.1024   8.4370916745e+01   3.2403510482e+01    0.3139475    0.2126446 -46.54 0.0004798285    1.433    0.302
       501  -9.1075     88.9764    144.2693   8.9509816189e+01   3.4176203838e+01    0.2381029     0.216767 -43.88 0.0002785055    1.070    0.065
       502 -10.8396     92.2383    139.6740   8.7534442846e+01   3.4813245047e+01    0.5329193    0.2875649 -50.72 0.0004093443    1.757    0.431
       503  -8.7646     85.0486    143.9776   9.0637729544e+01   3.4890536220e+01    0.2306586    0.2158532 -42.77 0.0004204167    1.047    0.045
       504  -9.0223     86.9979    140.7464   8.9362389248e+01   3.5410937943e+01    0.2573464    0.2302795  30.59 0.0003152908    1.168    0.143
       505  -8.8357     98.7362    140.9488   8.5864586313e+01   3.3364565170e+01    0.2341902    0.2037191 -23.39 0.0002845258    1.225    0.184
       506  -9.6676    101.1224    137.1693   8.4299567476e+01   3.3897173300e+01     0.277574    0.2373769 -32.88 0.0003122276    1.191    0.160
       507 -12.9017    133.4412    145.5641   7.7144260370e+01   2.5677211113e+01     2.418304     1.242249 -62.63  0.008134452    2.785    0.641
       508  -9.1004    229.5976    141.7586   5.5769542592e+01   7.9119441292e+00    0.2049212    0.1121088 -47.56 0.0009572431    1.690    0.408
       509  -9.5001     98.7949    145.3880   8.6821737985e+01   3.2223374793e+01    0.2706608    0.2284898 -36.65  0.000325739    1.201    0.168
       510  -9.2720    200.2970    135.3327   5.9537348410e+01   1.4472613772e+01    0.2789083    0.1655057 -28.44 0.0008459357    1.878    0.468
       511 -10.8683    197.3723    135.1549   6.0055708404e+01   1.5076101452e+01    0.5105403    0.3313998 -21.24  0.002251738    1.930    0.482
       512  -8.7226    219.9118    136.3398   5.6233989397e+01   1.0612373657e+01    0.1806009    0.1692412 -19.69 0.0004041477    1.110    0.099
       513  -9.6767     87.8324    135.7883   8.8024569161e+01   3.6549088677e+01    0.2569322    0.2309402 -48.02 0.0003408479    1.062    0.058
       514  -9.0160     83.1621    135.9610   8.9513246569e+01   3.7267619188e+01    0.2423554    0.2234369  22.86  0.000474071    1.141    0.124
       515  -9.7264    206.1025    134.8878   5.8355346766e+01   1.3446834219e+01    0.2147704      0.18732 -58.60  0.000565602    1.208    0.172
       516 -10.4772     97.3763    131.9603   8.4219301243e+01   3.5878791296e+01     0.437702    0.2701678 -52.84  0.001474557    1.569    0.362
       517  -8.8925    212.5103    132.5484   5.6685688972e+01   1.2688922490e+01    0.1433003    0.1264845 -40.41 -0.0001957599    1.018    0.018
       518 -10.0972    104.0487    130.0214   8.1743402469e+01   3.5149827425e+01    0.2681809    0.2400896 -19.76 0.0003400114    1.165    0.141
       519  -9.1960    102.1230    126.6244   8.1497174203e+01   3.6346206914e+01    0.2904126    0.2198517 -40.20 0.0001438376    1.305    0.234
       520  -9.1528     87.8720    130.6768   8.6856718316e+01   3.7847507941e+01     0.247846    0.1998446 -39.79 0.0003470977    1.219    0.180
       521  -9.6342     87.1723    126.0342   8.5993798123e+01   3.9140189349e+01    0.2472048    0.2315972 -26.52 0.0003643907    1.057    0.054
       522 -10.9032     89.9499    121.2263   8.3949114144e+01   3.9866866684e+01     1.205081     0.467816  48.97  0.003636947    3.595    0.722
       523 -10.1565     97.2993    117.7823   8.0765345133e+01   3.9398782507e+01    0.3102027     0.259466   0.49 0.0004537779    1.347    0.257
       524 -10.0630     92.9318    115.1545   8.1467466024e+01   4.0828479560e+01    0.3924447    0.2674352 -45.04  0.001169083    1.409    0.290
       525  -9.6673     77.0120    123.0042   8.8559585629e+01   4.1557772678e+01    0.5967075    0.3237584 -23.17  0.001892409    3.263    0.694
       526  -9.5902     82.2286    122.7954   8.6809798782e+01   4.0776245018e+01    0.4741946    0.2711816 -55.84 0.0009114565    1.702    0.413
       527 -10.5078     81.0691    130.1596   8.8888038720e+01   3.9093594358e+01    0.3345281    0.2696473 -42.38 0.0003701893    1.198    0.165
       528  -9.2105     81.7423    126.6412   8.7869603057e+01   3.9882873514e+01    0.2631317    0.2165803 -14.10 0.0003733644    1.366    0.268
       529  -9.9710     92.8156    129.0632   8.4939158599e+01   3.7410461291e+01     0.283989    0.2372683 -37.47  0.000327216    1.183    0.154
       530  -9.2917    110.5037    191.0012   9.2350484413e+01   1.8813498624e+01    0.2542817    0.2116878  23.11 0.0003692032    1.240    0.193
       531  -9.6041    206.4839    129.0121   5.6968380996e+01   1.4513585098e+01    0.1953143    0.1926438 -18.01 0.0003232668    1.112    0.101
       532  -9.1563     50.0245    128.5265   9.8688542542e+01   4.3835993600e+01    0.2734923    0.1759634 -45.80 0.0004773414    1.462    0.316
       533  -8.3913    212.0070    126.9960   5.5541539174e+01   1.3840509725e+01    0.1748085    0.1465845 -40.98 0.0003733218    1.051    0.048
       534 -10.1111     96.7218    123.3165   8.2337849935e+01   3.8150011138e+01    0.2877299     0.257573 -20.26  0.000301028    1.151    0.131
       535  -9.8481     33.5405    117.7972   1.0226699102e+02   4.8361321849e+01    0.2463436    0.2162049 -43.80 0.0003674317    1.075    0.069
       536 -11.9677     63.4316    188.7056   1.0430480652e+02   2.6448334592e+01      1.59307    0.8534105 -62.09  0.007177799    1.772    0.436
       537 -10.5781     39.1742    118.3660   1.0041777966e+02   4.7661298048e+01    0.5066202    0.2084408 -50.43  0.001438768    2.074    0.518
       538  -8.7331     37.2326    114.9679   1.0043716162e+02   4.8726641984e+01    0.2156344    0.1862177 -47.66 0.0002786777    1.036    0.034
       539  -9.0074      2.9330    123.4765   1.1340092803e+02   4.9166939069e+01    0.1995314    0.1460986 -67.10 0.0004256054    1.103    0.093
       540 -10.2822    202.4280    121.7647   5.6051243711e+01   1.6708389669e+01    0.3533247    0.2175662 -15.29  0.001387237    2.718    0.632
       541 -12.9550    119.9932    139.1570   7.9307646177e+01   2.9866150530e+01     2.057858     1.712982  46.49  0.009944508    1.254    0.202
       542 -10.0161     58.7346    117.5740   9.3470521115e+01   4.5574386575e+01    0.2785577    0.2296356 -39.27 0.0002964486    1.146    0.127
       543  -9.5208     86.7561    116.0127   8.3674253966e+01   4.1703624213e+01    0.2802511    0.2315041 -25.38 0.0003185811    1.260    0.207
       544  -8.6542     48.6566    115.0300   9.6424875467e+01   4.7474029346e+01    0.2039871    0.1677051 -50.64 0.0003987058    1.086    0.079
       545  -8.3832     48.5621    111.5467   9.5703525279e+01   4.8366283275e+01    0.2098606    0.1731891  68.22 0.0001262638    1.491    0.329
       546  -9.3333     52.9966    116.3136   9.5182130082e+01   4.6626470187e+01    0.2653268     0.219143 -74.59  0.000351161    1.289    0.224
       547  -9.1326     52.3017    112.6982   9.4630099215e+01   4.7627387913e+01    0.2731696    0.1896291 -58.38 0.0007658717    1.334    0.250
       548  -9.1943     17.0183    117.0568   1.0784329546e+02   4.9913857592e+01     0.202353    0.1694257 -58.88 0.0003299033    1.011    0.010
       549 -12.5716    164.5036    144.4554   6.9174883337e+01   1.9683336261e+01     2.484109    0.9830313 -31.90  0.006782644    4.269    0.766
       550 -10.8457    122.1545    125.6364   7.5404972756e+01   3.2694676540e+01    0.6213263     0.461356  13.49 0.0005960981    1.694    0.410
       551 -10.0665     28.5118    114.5667   1.0343337167e+02   4.9641916919e+01    0.2652914    0.2084507 -44.12 0.0002242213    1.159    0.137
       552  -9.2277     32.6807    112.1281   1.0149974485e+02   4.9886705120e+01    0.2373878    0.2009621 -30.63 0.0003792931    1.175    0.149
       553  -8.7144      1.4621    115.0217   1.1281354712e+02   5.1373267690e+01      0.19523    0.1050022 -68.33 0.0003857226    1.483    0.326
       554 -10.0220     43.2515    113.2475   9.7958832790e+01   4.8536632049e+01    0.2582346    0.2185734 -40.54 0.0003032876    1.091    0.083
       555  -9.4004     77.9658    113.1056   8.5845426691e+01   4.3878940499e+01    0.2262174    0.2052496 -28.61 0.0003177827    1.062    0.059
       556  -8.5628     17.5124    113.4056   1.0708890645e+02   5.0805175030e+01    0.2177633    0.1157078 -66.40 3.209038e-05    1.593    0.372
       557  -9.7963     24.6001    105.5255   1.0315721451e+02   5.2248773052e+01    0.4158858    0.2308621  43.74  0.001332905    2.229    0.551
       558  -8.2824     26.2534     99.3517   1.0131526104e+02   5.3640572895e+01    0.1929426    0.1272123  -4.12  0.000332109    1.766    0.434
       559  -9.5864     14.2114    112.1469   1.0803874555e+02   5.1350295006e+01    0.2912572     0.177654 -57.33    0.0012045    1.330    0.248
       560  -9.7931     17.8635    108.6530   1.0616841504e+02   5.1977570181e+01    0.3611426    0.2072558  31.21   0.00181398    1.992    0.498
       561 -10.1878     24.6940    110.3595   1.0402361139e+02   5.1028589784e+01    0.2758989    0.2209195 -25.77  0.000230774    1.294    0.227
       562  -8.5484     21.6953    107.7057   1.0462133546e+02   5.1932145297e+01    0.2092858    0.1643321 -45.61 0.0002174455    1.123    0.110
       563 -10.0440    211.1158    111.5255   5.2213435120e+01   1.6910617027e+01    0.2365897    0.1900588 -24.53   0.00128018    1.352    0.260
       564  -9.3498     81.9173    111.9713   8.4236021366e+01   4.3509625669e+01     0.225968    0.2099239 -29.18 0.0002856187    1.024    0.024
       565  -9.3439     54.1691    107.4740   9.2764216667e+01   4.8700428331e+01    0.2682411    0.2024225 -38.46 0.0003322424    1.241    0.194
       566  -9.9286     56.5890    111.7801   9.2905984725e+01   4.7317253914e+01    0.2717946    0.2350622 -30.34 0.0002610891    1.119    0.106
       567 -10.0535     59.9304    107.1822   9.0627612156e+01   4.8016438146e+01    0.2738863    0.2425222  -2.39 0.0003939031    1.171    0.146
       568  -9.5388     17.9283    103.0703   1.0515660381e+02   5.3364750055e+01    0.2774079    0.1860534 -23.69 0.0003833069    1.600    0.375
       569  -9.7493      6.0099    112.0268   1.1086327161e+02   5.1881220244e+01    0.2964625    0.1894339   7.04 0.0003272634    1.894    0.472
       570  -9.3318      8.7783    109.0186   1.0945454749e+02   5.2475265594e+01    0.3025208     0.172924 -82.03 0.0008430147    1.802    0.445
       571 -10.5477     11.9840    107.0106   1.0799914522e+02   5.2781743205e+01    0.4757343    0.3241172 -70.71  0.001702709    1.307    0.235
       572 -10.1311     92.5888    101.9901   7.8040826558e+01   4.3999083448e+01     0.516133    0.3514782  52.01  0.001328487    1.718    0.418
       573  -9.8289     90.3235    109.3272   8.0779070842e+01   4.2694682977e+01    0.5994263     0.220927 -40.94  0.001630434    2.979    0.664
       574 -10.4491     77.5732    105.2251   8.3942720966e+01   4.5853302172e+01    0.3194395    0.2414187 -29.88  0.000356938    1.355    0.262
       575  -9.9549     74.8389    100.7626   8.3689910736e+01   4.7353789611e+01    0.4947854    0.2469085  23.20  0.001352297    2.510    0.602
       576  -9.1327     88.3974     94.1469   7.7182723539e+01   4.6540277272e+01     0.239468    0.2000242  13.12  0.000495737    1.252    0.201
       577 -10.7489     85.1896    105.1538   8.1348244808e+01   4.4588015334e+01    0.3633913    0.3146996 -56.57 0.0005210325    1.200    0.166
       578 -11.0103     96.4025    106.8524   7.8158017981e+01   4.2165749926e+01    0.5877508    0.3578069 -19.74  0.002175102    2.528    0.604
       579  -9.8976    100.1627    100.0738   7.5080867775e+01   4.2998676160e+01    0.4276953    0.2992063  25.80 0.0008295154    1.576    0.365
       580 -10.1606     85.6348     99.0381   7.9510111016e+01   4.5932404374e+01    0.3898085    0.2903779  -3.71 0.0009081624    1.640    0.390
       581  -8.5590     80.9549     99.0116   8.1090793504e+01   4.6750278573e+01    0.2077018    0.2046587 -52.43 0.0002962871    1.118    0.106
       582  -9.4670     38.9344    110.3240   9.8895469938e+01   4.9731888396e+01    0.2609375    0.1786151 -53.09 0.0003929345    1.265    0.209
       583  -8.8983     35.5666    108.4468   9.9727335569e+01   5.0540670124e+01    0.2087382    0.1940786 -30.36 0.0001081736    1.096    0.087
       584  -8.8141     74.2613    110.1813   8.6362813996e+01   4.5183903254e+01    0.2239487    0.1956639 -24.49 0.0009401974    1.132    0.116
       585  -8.4635     22.8502    101.1765   1.0296621988e+02   5.3466588138e+01    0.1915109    0.1332056 -40.21 0.0002624702    1.296    0.228
       586  -9.8300    250.0715    106.4876   4.5485310435e+01   1.0584965965e+01    0.2079745    0.1463001 -43.50  0.001230562    1.151    0.131
       587  -8.5629    210.2989    107.2790   5.1381974802e+01   1.7852630952e+01    0.1314497    0.1099151  -2.28 0.0001922358    1.540    0.350
       588  -8.9687    206.3736    106.2702   5.1797074024e+01   1.8831755159e+01    0.1372404    0.1112786  10.30 0.0006996416    1.678    0.404
       589  -8.9073      4.8648    106.5159   1.1045557112e+02   5.3316789522e+01    0.1630494    0.1297618   1.94 0.0004592891    1.480    0.325
       590 -10.4430    176.0112    100.3033   5.5869991823e+01   2.6444139689e+01    0.3218087    0.2619975  45.47  0.001034765    1.311    0.237
       591 -10.8016    166.5000    103.4273   5.8623736703e+01   2.7952480806e+01    0.6296721    0.3614133  37.03  0.002133343    2.103    0.525
       592 -10.6537    168.6565     98.7110   5.6951403911e+01   2.8394055209e+01    0.5540092    0.3007098  49.15  0.002115785    1.904    0.475
       593 -12.7449    141.0183     90.7534   6.0999832365e+01   3.6223123029e+01     1.562808     1.176149 -33.64  0.007489493    1.378    0.274
       594 -12.6114     30.2116    201.8840   1.1404509230e+02   2.7108928824e+01     1.872928      1.14224 -42.61  0.009477007    2.152    0.535
       595  -8.7096     30.4995    100.0579   9.9853799342e+01   5.3098916630e+01    0.1931567    0.1713006 -30.46 0.0003655152    1.094    0.086
       596  -9.8304     16.7504     97.8325   1.0462329592e+02   5.4735858387e+01     0.433427    0.1647253  25.51  0.001839623    2.853    0.649
       597  -9.0227     18.4455     93.8353   1.0318898849e+02   5.5588249403e+01    0.1884415     0.152006 -56.47  0.001119588    1.085    0.078
       598 -10.7750     15.0246     93.4719   1.0444636041e+02   5.5911509020e+01    0.8172425     0.189399 -51.91  0.002985646    2.858    0.650
       599  -8.5730     71.4455     97.4357   8.3975845920e+01   4.8671241129e+01    0.2201553    0.1821191   6.66 0.0001972847    1.271    0.213
       600  -9.8693     74.8779     94.4366   8.1917350975e+01   4.8813826440e+01    0.2882336    0.2314258  -5.38 0.0005142392    1.346    0.257
       601  -9.8316     50.6690     97.3812   9.1589479519e+01   5.1598951870e+01    0.2524127    0.2083794 -32.50   0.00030465    1.115    0.103
       602  -9.7552     40.3040     96.4464   9.5299605905e+01   5.3015403132e+01    0.5028591    0.1657508 -45.68    0.0011002    2.661    0.624
       603 -11.0531    241.4927     96.5125   4.4533596695e+01   1.3750124153e+01    0.2795175    0.2197535  48.08  0.001709138    1.580    0.367
       604  -9.7634     45.6569     96.3861   9.3238901472e+01   5.2436083261e+01    0.2560599    0.2025109 -34.58 0.0003561697    1.156    0.135
       605  -8.6526     22.7505     96.6334   1.0209395618e+02   5.4587731418e+01    0.1815077    0.1638057 -23.11 0.0002734795    1.141    0.123
       606  -9.3466     27.6063     94.7449   9.9816632093e+01   5.4647713507e+01    0.3045884    0.1630821  18.75  0.001059169    2.087    0.521
       607 -10.4305    177.8452     95.4707   5.4287503645e+01   2.6952218879e+01    0.3035923    0.2303924   4.98  0.001118691    1.953    0.488
       608  -8.7919    100.7486     89.9491   7.1941458262e+01   4.5089818286e+01    0.2629035     0.204416   7.22 0.0003319675    1.512    0.339
       609  -9.4053    105.0540     90.7790   7.0857282964e+01   4.4047015570e+01    0.4583077    0.2731346 -65.20  0.001682045    2.743    0.635
       610  -8.7386     94.7039     91.2841   7.4265393560e+01   4.5987021735e+01    0.2416575    0.2071822  35.32 0.0005510095    1.177    0.150
       611  -9.9492     94.3102     95.7497   7.5704859114e+01   4.5085264493e+01    0.3291297    0.2741638 -57.85 0.0006740454    1.314    0.239
       612 -10.3633    100.3465     94.0158   7.3273196696e+01   4.4298645802e+01    0.7629926    0.3281688  46.70  0.002713769    2.511    0.602
       613  -8.5304     31.8206     95.9987   9.8461584236e+01   5.3968131748e+01    0.1879914    0.1612936 -44.95 0.0003922697    1.015    0.014
       614  -9.6465    227.9680     95.4889   4.6106195715e+01   1.6449216098e+01    0.1798942    0.1329809  61.65 0.0005206147    1.539    0.350
       615  -8.1157     99.2735    248.3645   1.0305480040e+02   7.9839416265e+00    0.1227591   0.09743378 -17.34 0.0007003206    1.664    0.399
       616  -9.9134      3.4875     92.0412   1.0864360841e+02   5.6920482453e+01    0.3784283    0.1890828 -85.16  0.001680445    2.512    0.602
       617  -9.9074     81.0292     93.2469   7.9423795215e+01   4.8049962828e+01    0.2535746    0.2147783 -27.70 0.0003008212    1.139    0.122
       618  -8.4064     68.5706     94.2195   8.4115145745e+01   4.9862367261e+01    0.1993269    0.1290833 -38.48 0.0003214787    1.483    0.326
       619  -9.5223     55.4751     93.4771   8.8761373524e+01   5.1909135577e+01    0.3701549    0.2164445 -35.30   0.00151054    1.721    0.419
       620  -9.9850     60.5562     89.5505   8.5763825107e+01   5.2118484729e+01    0.4523498    0.2942301  54.93  0.001467561    2.208    0.547
       621 -11.0708    249.1165     91.6931   4.2615305596e+01   1.3170082252e+01     0.430594    0.2109168 -54.88  0.001621615    1.986    0.496
       622  -9.3834     49.0056     91.4977   9.0706200054e+01   5.3197186791e+01    0.2506155    0.1709241 -37.91 0.0003766239    1.347    0.257
       623  -9.7347     35.2067     91.5218   9.6100065553e+01   5.4718093661e+01    0.2562275     0.226855  -3.21 0.0009267401    1.176    0.149
       624  -8.0567      8.2559     92.3106   1.0685223564e+02   5.6604934988e+01    0.1366887   0.07573915 -43.80 0.0002672549    1.523    0.343
       625  -9.6825    224.4175     90.8009   4.5574879499e+01   1.7931362171e+01    0.2793082    0.1509164 -82.88 0.0009705678    4.241    0.764
       626  -8.5901     66.6192     91.0192   8.3923678945e+01   5.0892676606e+01    0.2046226     0.168723 -37.54  0.000426082    1.125    0.111
       627  -8.7684     22.0143     91.4438   1.0129195466e+02   5.5898186761e+01    0.1756105    0.1307893   9.33 0.0003792858    1.489    0.328
       628  -8.9355     43.1308     89.8549   9.2565342168e+01   5.4272482287e+01    0.2119741    0.1774452 -29.70 0.0005041259    1.079    0.073
       629 -10.8482    199.2750     88.2934   4.8744514026e+01   2.3543388528e+01    0.4132113    0.2153041  44.22   0.00122397    2.338    0.572
       630  -9.3867     88.0620     88.2869   7.5557685169e+01   4.7882498637e+01    0.2486738    0.2065183 -38.28 0.0005406734    1.173    0.148
       631 -10.2275     71.4610     88.7323   8.1493462482e+01   5.0652201301e+01    0.2717611    0.2304615 -11.54 0.0004423915    1.170    0.145
       632  -9.2488     29.7231     89.4001   9.7769153477e+01   5.5739959554e+01    0.1707452    0.1238587  -6.61 0.0003498699    1.484    0.326
       633  -9.1508     67.1945     98.3068   8.5736374079e+01   4.9118938605e+01    0.2434157     0.198331 -24.46 0.0005532988    1.214    0.176
       634  -8.5819     11.9820     89.2744   1.0481627981e+02   5.7112739051e+01    0.1780704    0.1468859 -40.15 0.0003556194    1.075    0.070
       635  -9.2612     83.2876     87.0072   7.6794392793e+01   4.9024699708e+01    0.4648724    0.2350862 -30.84  0.001086495    2.485    0.598
       636 -12.0370    242.1746     84.1241   4.1893335365e+01   1.5635277794e+01    0.4585255    0.3142278 -55.28   0.00269859    1.255    0.203
       637  -8.5326     59.5297     83.5239   8.4414565040e+01   5.3617904532e+01    0.1849766    0.1358116  36.99 0.0001812442    1.480    0.324
       638  -9.8432     65.8998     86.1491   8.2778119212e+01   5.2095622075e+01    0.4502448    0.3077719  47.28  0.001729265    1.757    0.431
       639  -8.4111     67.4444     82.5730   8.1130981979e+01   5.2640136337e+01    0.3686532    0.1879472  31.45 0.0001397446    2.027    0.507
       640  -8.3741     47.0366     87.5458   9.0419521462e+01   5.4353872504e+01    0.1963082    0.1368948  24.16 0.0004756088    1.518    0.341
       641  -9.0517     35.1862     86.3865   9.4840178896e+01   5.5927724626e+01    0.2267106      0.15869 -41.65  0.000555446    1.234    0.190
       642  -8.7331     21.8678     86.7893   1.0032664795e+02   5.7015217570e+01    0.2021488    0.1487036 -36.43 0.0003429126    1.192    0.161
       643  -8.9158      5.9406     87.0770   1.0679276802e+02   5.7979200013e+01    0.1927409    0.1532988 -46.61 0.0003216657    1.040    0.039
       644 -11.5709    179.5386     83.9463   5.1040972059e+01   2.8666811346e+01    0.5297691    0.2727542 -59.32  0.002018044    2.579    0.612
       645  -9.1475     76.2255     86.0953   7.8994138511e+01   5.0448404307e+01    0.2343625    0.2032385  18.71 0.0005367412    1.148    0.129
       646  -9.2786    107.4328     85.1011   6.8425875946e+01   4.4728856428e+01    0.2370623    0.2020507  22.15 0.0004703907    1.204    0.169
       647  -9.0611     15.9805     85.0849   1.0234286191e+02   5.7844851189e+01    0.1989838    0.1595447 -42.63 0.0003524886    1.035    0.034
       648 -10.0847    214.0153     84.4993   4.5628978123e+01   2.1084334330e+01     0.296481    0.1212411  51.11   0.00121194    2.746    0.636
       649  -8.4893     80.1699     84.1353   7.7001995318e+01   5.0191035474e+01    0.1827156    0.1736179 -70.67  0.000257447    1.249    0.199
       650  -8.7710     40.9546     83.8159   9.1838055371e+01   5.5911883323e+01    0.2082968    0.1611907 -24.63 0.0003331278    1.213    0.176
       651  -8.8280     27.6310     84.0339   9.7328964684e+01   5.7183713042e+01    0.1929325    0.1670514  -8.52 0.0002820323    1.177    0.150
       652  -9.2381    102.8599     82.8109   6.9112221993e+01   4.6135089071e+01    0.2377535    0.1968312 -22.58 0.0003578161    1.248    0.199
       653  -8.5995    104.4940     78.9648   6.7414424148e+01   4.6558380013e+01    0.2028291    0.1820662 -27.82  0.001078151    1.113    0.101
       654  -9.1116     88.9819     82.4550   7.3460756406e+01   4.8939486641e+01    0.2342699    0.1925611 -24.09 0.0003190892    1.216    0.177
       655 -10.1758     93.0846     78.3802   7.0820792272e+01   4.8977439669e+01    0.4943028    0.3228495   6.48  0.001685679    2.273    0.560
       656  -8.3874     97.7420     81.3299   7.0252001754e+01   4.7467740687e+01    0.2080737     0.168939 -12.63 0.0002770773    1.333    0.250
       657  -8.9928     99.0123     78.0409   6.8815017392e+01   4.7864362488e+01    0.2375151    0.2063277 -29.96 0.0003320577    1.146    0.127
       658  -8.6533     71.5440     83.3050   7.9838908071e+01   5.1827723985e+01    0.1916689    0.1311675 -34.42 0.0004694031    1.423    0.297
       659  -9.8482    219.1736     82.5814   4.4479659874e+01   2.0346567090e+01    0.1726434    0.1246704  48.70 0.0004400911    1.648    0.393
       660  -9.4696    115.5990     81.5932   6.4975580683e+01   4.3685054416e+01    0.2480806    0.2351546  20.00 0.0002482593    1.033    0.032
       661  -8.5002     56.4603     81.9557   8.5139620865e+01   5.4395854174e+01     0.205513    0.1311993 -47.69 0.0003005143    1.468    0.319
       662  -8.6239     51.7225     81.9110   8.6989517992e+01   5.5042519585e+01    0.1938792    0.1628337 -38.72 0.0003433019    1.095    0.087
       663  -8.3805     34.4837     82.3973   9.4098591211e+01   5.6917995940e+01     0.138188    0.1161221 -30.51 0.0001773596    1.039    0.038
       664  -8.1097      5.5091     82.4833   1.0608410285e+02   5.9081355075e+01    0.1314592    0.1032623 -47.62 -1.855484e-05    1.018    0.018
       665  -9.5631    109.7369     81.0266   6.6491266890e+01   4.5054143523e+01    0.2567181    0.2093104  30.42 0.0002052786    1.237    0.191
       666  -8.9921     14.7029     81.2839   1.0203597363e+02   5.8817328512e+01    0.1989241    0.1542766  10.00 0.0004919386    1.431    0.301
       667  -8.9105      2.4844     80.8835   1.0701252729e+02   5.9603509670e+01    0.1923991    0.1042373 -62.95 0.0005278369    1.517    0.341
       668 -10.2453    248.3930     79.7521   4.0296106380e+01   1.5184769881e+01    0.2287793    0.1921115  45.36 0.0008967294    1.596    0.373
       669  -8.9958    231.3289     80.3190   4.2408227211e+01   1.8297597436e+01    0.1200068     0.102981   2.04 0.0007047378    1.685    0.407
       670 -11.5120    116.8023    120.2747   7.5555334124e+01   3.5041268096e+01    0.9230258    0.5217563  21.21  0.003218734    2.712    0.631
       671 -12.2349    169.0452     76.3139   5.0992401284e+01   3.2397556462e+01    0.7157898    0.3951041 -23.69  0.002817616    2.587    0.613
       672  -9.6105    112.8703     64.2227   6.0265798509e+01   4.7442488799e+01    0.2432344    0.2203406  -5.58 0.0002629636    1.146    0.127
       673  -9.8353    114.4221     75.0581   6.3287101023e+01   4.5180241511e+01    0.5411226     0.388588 -11.00   0.00198775    1.799    0.444
       674  -9.4637    108.1309     75.9613   6.5381542420e+01   4.6368849588e+01    0.2659721    0.2344432  39.76 0.0007494405    1.110    0.099
       675 -10.2106    109.8822     69.2375   6.2727671318e+01   4.7226008948e+01    0.7897553    0.3396053 -40.76  0.002287806    2.392    0.582
       676 -10.2379    122.6069     67.8152   5.8808405814e+01   4.4648481068e+01    0.5461881    0.3814191   6.05  0.002406136    2.096    0.523
       677  -9.8274    116.0063     68.6933   6.0840423753e+01   4.5977629610e+01    0.2965434     0.233264  18.58 0.0003369141    1.445    0.308
       678  -9.7801    120.1385     63.9434   5.8228359708e+01   4.5862872885e+01    0.4358207     0.266285  38.70  0.001142798    1.689    0.408
       679 -10.9724    114.0176     58.2098   5.7991391677e+01   4.8176318168e+01    0.7984931       0.5741 -82.69   0.00228646    2.212    0.548
       680 -10.2155    105.9961     50.1183   5.7458861994e+01   5.1204700471e+01    0.4564575    0.3691213 -10.80  0.002499352    1.359    0.264
       681 -10.2697     82.0961     78.4852   7.4561194515e+01   5.1025023712e+01    0.4725766    0.4090254 -75.33  0.001721053    1.524    0.344
       682 -10.5421     94.4920     65.9438   6.6294962302e+01   5.1046800070e+01    0.7939346     0.500518  20.14  0.003455374    2.034    0.508
       683 -10.6523     87.1562     73.2763   7.1141391885e+01   5.1121856372e+01    0.5957454     0.525629  78.34  0.002616952    1.499    0.333
       684  -9.1551     86.5150     68.4641   6.9762226779e+01   5.2158899306e+01    0.3719282    0.2422336  17.56   0.00057505    1.884    0.469
       685  -9.6294    107.2040     60.5782   6.0657321903e+01   4.9295636850e+01    0.4015971    0.1985023  35.97  0.001339932    2.269    0.559
       686  -9.9305    104.9534     69.0997   6.4120793756e+01   4.8308890617e+01    0.3978098    0.2890097 -15.07  0.001361518    1.633    0.388
       687  -9.6086    101.0580     66.3168   6.4376314888e+01   4.9627003882e+01     0.359202    0.3333921  28.09  0.001889264    1.033    0.032
       688 -10.2781    103.1479     62.7577   6.2563921672e+01   4.9803161724e+01    0.6275523    0.4049054 -54.41  0.002843286    1.990    0.498
       689  -9.6471     75.2701     79.3512   7.7257629923e+01   5.2045018733e+01    0.2576992    0.2191896  -6.01  0.001334803    1.155    0.134
       690  -9.0023     38.2250     80.0118   9.1916646935e+01   5.7071227004e+01    0.2195225    0.1859969   5.42 0.0003263864    1.208    0.172
       691  -8.6800     23.8050     79.8598   9.7891965662e+01   5.8469971217e+01    0.1597308    0.1520872 -72.48 0.0003496032    1.264    0.209
       692 -11.1753    183.9965     77.7380   4.8686458060e+01   2.8730595626e+01    0.4490999    0.2685637 -85.37  0.001783163    2.716    0.632
       693 -11.1600    190.4850     77.0034   4.7429100084e+01   2.7397351788e+01    0.3710002     0.289875  -6.93  0.001518212    1.821    0.451
       694  -9.3233     63.8947     78.9649   8.1363414061e+01   5.3962656478e+01    0.2991906    0.2160536 -45.35  0.001078051    1.341    0.255
       695  -8.5346     65.5621     75.4941   7.9637152952e+01   5.4434346626e+01    0.1924652    0.1736701 -20.62  7.76047e-05    1.044    0.042
       696  -8.8098     64.0220     72.1156   7.9139265446e+01   5.5368145557e+01    0.1991534    0.1968334  81.54 0.0007645125    1.277    0.217
       697  -8.5899     60.1782     79.5855   8.2982567584e+01   5.4383748168e+01    0.2036344    0.1394121  27.48 0.0004255286    1.495    0.331
       698  -8.8250     58.0053     76.9780   8.3028697213e+01   5.5256351879e+01    0.2105976    0.1893256 -18.45 0.0003167496    1.028    0.027
       699  -8.8568     28.2432     78.9036   9.5783523272e+01   5.8305943119e+01    0.1832669    0.1663267 -45.31 0.0005327457    1.144    0.126
       700  -8.6424     69.7057     78.4473   7.9012549837e+01   5.3158548081e+01    0.1824355    0.1349795  15.91 0.0003322325    1.415    0.293
       701  -9.3576     43.7022     77.3669   8.8908653607e+01   5.7042098757e+01    0.2530283    0.2223502  -8.34 0.0007746633    1.091    0.083
       702  -8.0085     34.3665     78.2210   9.3030256348e+01   5.7874967272e+01    0.1369304   0.09045242 -18.46 0.0003929317    1.579    0.367
       703  -8.6131      7.7940     78.2614   1.0427184709e+02   5.9936408642e+01    0.1842529     0.115053 -40.73 0.0004436746    1.326    0.246
       704  -8.4920     54.0692     77.1664   8.4644399852e+01   5.5766552861e+01    0.2135938    0.1652338 -19.06 0.0003501457    1.249    0.200
       705  -8.2923     17.7918     77.1655   9.9781163099e+01   5.9548404007e+01      0.18505    0.1211398 -37.44 0.0003294179    1.302    0.232
       706  -9.0314     48.6873     76.0665   8.6480482340e+01   5.6713457089e+01    0.1978226    0.1586228 -35.02 0.0003948642    1.113    0.102
       707  -9.2898    102.4841     74.2538   6.6531288373e+01   4.7879063926e+01     0.257776       0.2084   8.91 0.0004051005    1.370    0.270
       708  -9.6839     73.9190     73.1615   7.5761057883e+01   5.3538629968e+01    0.2243031     0.193469 -27.47 0.0003042221    1.106    0.096
       709  -8.2326     69.4951     74.0062   7.7673266652e+01   5.4109413279e+01    0.2016124    0.1346625 -40.52 0.0003526996    1.440    0.306
       710  -9.5084     10.1528     72.6548   1.0201022088e+02   6.1073544589e+01    0.3604443    0.1584691 -67.03  0.001614564    2.300    0.565
       711 -10.6107     94.8955     85.8265   7.2556330771e+01   4.7108098578e+01    0.4197032    0.2523307  40.09  0.001145266    1.665    0.399
       712  -9.1863     79.4999     70.3194   7.2812048171e+01   5.3113794137e+01    0.2416238    0.1848457 -17.31 0.0005161487    1.361    0.265
       713  -8.6378     50.3327     71.0707   8.4262876133e+01   5.7559143620e+01    0.1909077    0.1580631 -29.31  0.000538572    1.078    0.072
       714  -8.1624     42.5803     71.5344   8.7637716027e+01   5.8434980878e+01    0.1372665    0.1184062 -25.54 7.492604e-05    1.025    0.024
       715  -9.4434     37.1194     70.3105   8.9594566345e+01   5.9316703114e+01    0.2572766    0.2070564 -57.76  0.001273695    1.381    0.276
       716  -9.8179    206.8674     70.1427   4.3344705984e+01   2.4923663933e+01    0.1711978    0.1652957  18.86  0.001070703    1.312    0.238
       717 -10.8339    194.0365     78.1342   4.7137699416e+01   2.6420470612e+01    0.2884219    0.2351305 -54.73  0.001610983    1.132    0.117
       718  -8.6696     69.9178     68.9165   7.5836653187e+01   5.5053553690e+01    0.3845006    0.2854345 -73.79  0.001799364    2.257    0.557
       719  -9.9574    222.1359     69.1523   4.1134513718e+01   2.1883057916e+01    0.3103024   0.09568875  64.68  0.001112889    3.871    0.742
       720  -8.7320     74.0194     68.6997   7.4243178638e+01   5.4397246190e+01     0.194712     0.168937  12.57 0.0003240421    1.087    0.080
       721  -8.3271     58.5704     69.2105   8.0325371099e+01   5.6784014040e+01    0.1836824    0.1203183 -31.87 0.0002499168    1.468    0.319
       722  -8.2708     44.5153     66.9537   8.5383015006e+01   5.9157472792e+01    0.1944983    0.1231576 -45.65 -0.000113847    1.467    0.318
       723  -8.4232     64.5381     66.0357   7.6915497832e+01   5.6492551608e+01    0.1992966    0.1308422 -39.58 0.0003324638    1.470    0.320
       724  -8.9497     81.7266     65.2873   7.0328117849e+01   5.3651660193e+01    0.1891281    0.1521804   2.02 0.0003402563    1.283    0.221
       725  -8.4208     76.5392     64.9452   7.2049176101e+01   5.4663341354e+01    0.1984339    0.1359368 -39.00 4.541278e-06    1.460    0.315
       726  -8.7117     71.6732     64.9214   7.3823039478e+01   5.5521843668e+01    0.1926029    0.1630897 -23.83 0.0003172013    1.124    0.111
       727  -8.4005     23.4575     71.4886   9.5880558547e+01   6.0377093670e+01    0.1356129    0.1080703 -33.68 0.0002375512    1.039    0.038
       728  -9.4168     24.0369     64.9438   9.3789112596e+01   6.1741415319e+01    0.1564781    0.1291452 -27.66  0.000400108    1.020    0.019
       729  -9.5275    250.0000     64.0021   3.7001534911e+01   1.7261664400e+01    0.2040066   0.05809275 -38.87 0.0008060519    2.968    0.663
       730  -9.9289     87.1177     62.9503   6.7683840650e+01   5.3045342403e+01    0.3446575    0.2878651 -57.36  0.001146759    1.487    0.327
       731  -9.4793     88.6949     58.9072   6.5757120370e+01   5.3436936919e+01    0.3082538    0.1891275 -39.67  0.001451238    1.696    0.411
       732  -8.5541     66.9032     62.3319   7.4726171625e+01   5.6811307439e+01    0.1909607    0.1579199  12.59  0.000335411    1.137    0.120
       733  -8.2132     58.1415     62.4220   7.8205633070e+01   5.8181436451e+01     0.169509     0.127235  38.70 0.0003915424    1.464    0.317
       734  -8.4166     41.2862     61.0289   8.4836753881e+01   6.0749749121e+01    0.1869549    0.1536321 -27.08 0.0007267916    1.068    0.064
       735  -8.9342     80.8356     60.2005   6.8872633287e+01   5.4732218353e+01    0.2444751    0.1869595  21.39 0.0003026855    1.289    0.224
       736  -8.4772     77.7002     60.6768   7.0146695390e+01   5.5229169465e+01    0.2054415    0.1360963  22.62  0.000287359    1.605    0.377
       737  -8.0940     72.6833     60.7374   7.1989940614e+01   5.6117801073e+01    0.1413143    0.1019259   4.28 0.0002019646    1.545    0.353
       738  -8.4409     62.2749     60.0722   7.5732744351e+01   5.7982819540e+01    0.1883909    0.1593303 -20.36 0.0003181122    1.094    0.086
       739  -9.3527     95.1059     59.0480   6.3751783891e+01   5.2115633438e+01    0.4155652    0.1835599  38.93  0.001623303    2.282    0.562
       740  -8.4827     57.3751     57.7484   7.6871747295e+01   5.9174960729e+01     0.181938    0.1170648 -30.80 0.0003693011    1.497    0.332
       741  -8.1017     49.3061     58.7314   8.0581920383e+01   6.0159380268e+01    0.1185222    0.1083203  58.44 0.0002570678    1.535    0.349
       742  -8.1327     32.0113     58.0395   8.8004792631e+01   6.2395433412e+01     0.159098    0.1293899 -25.50 0.0005501488    1.031    0.030
       743  -8.4725    104.9035     57.1584   6.0167816759e+01   5.0352953418e+01    0.1920101     0.157431  20.95 0.0003574447    1.255    0.203
       744  -9.4217     82.7104     55.8131   6.6666703506e+01   5.5128653445e+01    0.2600423    0.2230748 -42.23  0.000865848    1.312    0.238
       745  -7.9548     70.6926     56.7221   7.1295401835e+01   5.7180408201e+01    0.1405047    0.1004409   3.20 0.0002637828    1.554    0.356
       746 -12.9219    141.3184    135.2502   7.2643228790e+01   2.6515537570e+01     2.443214     1.335617 -37.06  0.009370966    1.954    0.488
       747  -9.8974    171.9665     50.0125   4.3517749767e+01   3.5822743622e+01    0.2005786    0.1844326 -81.16            0    1.029    0.028
       748 -11.3384    166.0559     53.4935   4.5409624040e+01   3.6713142923e+01    0.3613838    0.2755869 -79.74  0.001161288    1.408    0.290
       749  -8.5359     62.7114     55.0160   7.3741337975e+01   5.8827219280e+01     0.189984    0.1580799 -17.94 0.0003957837    1.115    0.103
       750  -9.7448     97.4063     71.7792   6.7305104204e+01   4.9387995997e+01    0.2573262    0.2206022  13.27 0.0003909344    1.177    0.151
       751  -9.8122     99.9967     51.8795   5.9780212609e+01   5.2239372667e+01      0.77482    0.1954753 -32.98  0.002244156    4.782    0.791
       752  -9.2856     95.7155     53.4234   6.1604604641e+01   5.2903960165e+01    0.3630287    0.1281913 -30.31  0.001204372    3.593    0.722
       753  -8.6373     69.0069     53.7083   7.0829243678e+01   5.7995012840e+01      0.33811    0.1575861  32.20   0.00141756    2.211    0.548
       754  -7.8453     43.4644     54.5480   8.1636512387e+01   6.1727547398e+01    0.1358396    0.1117094 -12.29 0.0001198146    1.036    0.035
       755 -10.8094    113.9982     52.9894   5.6273357271e+01   4.8992580856e+01    0.5688736    0.3298737  -0.32  0.002024907    3.607    0.723
       756  -9.7553    118.2418     41.9738   5.1553172119e+01   4.9593878794e+01    0.2276837    0.1604793  28.31 0.0004670946    1.603    0.376
       757 -10.6021    113.3875     47.7397   5.4679110745e+01   4.9903871753e+01    0.3617819    0.2594699 -49.64  0.001853609    1.627    0.385
       758 -10.9203    115.5031     44.5217   5.3067018318e+01   4.9875752987e+01    0.4731587     0.285394  64.09  0.002207793    1.788    0.441
       759  -8.9294     90.9762     51.3479   6.2343366999e+01   5.4209635633e+01    0.2095877    0.1890644 -35.90 0.0004438902    1.226    0.184
       760  -8.5799     86.8077     52.2971   6.4028697859e+01   5.4901241481e+01    0.1897441    0.1491628  10.78 0.0005293547    1.318    0.241
       761 -10.5302    122.5638     50.5229   5.3317203268e+01   4.7404829352e+01    0.2491271    0.2126721 -64.92 3.651389e-05    1.353    0.261
       762 -11.0668    123.7657     45.6759   5.1468705983e+01   4.7814621232e+01    0.5371375    0.2359211 -29.72  0.002168779    2.585    0.613
       763  -8.5336     71.0066    248.5088   1.0916324350e+02   1.1811518939e+01      0.17823    0.1102989  34.97 0.0003614161    1.460    0.315
       764  -8.7834    113.8376    187.2073   9.0832992018e+01   1.9166584708e+01    0.1987006    0.1717834  -6.65  0.000252533    1.300    0.231
       765  -8.3737     19.8024     48.3983   9.0600988514e+01   6.5457789670e+01    0.1647866    0.1048132  -1.82 0.0004308529    1.555    0.357
       766  -9.0582     90.9926     47.0634   6.0791984434e+01   5.4859815797e+01    0.1633255    0.1491781   8.32 0.0004117992    1.058    0.055
       767  -8.6743     73.7339     46.2568   6.6289673135e+01   5.8362992840e+01    0.1866587    0.1416941   9.81 0.0005198108    1.324    0.245
       768  -9.9841    103.3300    189.1904   9.3903350818e+01   2.0424292983e+01    0.3599729    0.2340502 -42.62  0.001426716    1.665    0.399
       769  -8.3372    104.3040     44.3269   5.5918134632e+01   5.2413426418e+01    0.1438813    0.1010841  20.92 0.0003290936    1.646    0.393
       770  -9.3995     84.8717     43.8433   6.1555991438e+01   5.6578938292e+01     0.199927      0.16525  17.04 0.0002988325    1.144    0.126
       771  -8.4425    179.3770     43.2901   4.0676895364e+01   3.5019390887e+01    0.1337877   0.09781999  38.99 0.0007019888    1.733    0.423
       772  -8.3883    108.2809     43.3284   5.4504140540e+01   5.1670177453e+01    0.1407001    0.1013232  20.80 0.0007000737    1.601    0.375
       773  -7.8174     97.2934     43.3261   5.7541347693e+01   5.4075472709e+01    0.1420227    0.1000381  18.41 0.0004844242    1.622    0.383
       774  -9.0036     71.8385     41.8318   6.5270756122e+01   5.9384660032e+01    0.2001473    0.1587829   9.52 0.0003854422    1.195    0.163
       775  -7.7930     49.2989     42.6888   7.4597651097e+01   6.3004958388e+01    0.1130285    0.1077579  73.95 0.0003246671    1.601    0.376
       776 -10.2500    133.0567     40.0549   4.7658969648e+01   4.6388034691e+01    0.2378522    0.2071876  35.34 0.0003846534    1.198    0.165
       777  -8.5897     90.5000     41.4919   5.8900862959e+01   5.5765136918e+01    0.1381931    0.1219419  26.55  0.000810631    1.008    0.008
       778  -8.7935    127.3211     44.3122   5.0225137009e+01   4.7172755638e+01      0.14369    0.1016957  28.82 0.0002496137    1.651    0.394
       779  -8.1776     77.5255     40.4686   6.2731188036e+01   5.8510944978e+01    0.1380199    0.1167979  17.64 6.007084e-05    1.052    0.050
       780  -9.0015    126.9980     39.0356   4.8611589539e+01   4.7943847333e+01    0.1644063    0.1463154  56.56 0.0003387704    1.021    0.020
       781 -10.0298    108.4949     38.6866   5.2842384557e+01   5.2242212998e+01    0.2596544    0.2389477 -27.01 0.0007761194    1.191    0.160
       782  -8.8837     97.0241     38.7700   5.5970966126e+01   5.4755232071e+01    0.1898657    0.1585117  38.40 0.0002832865    1.070    0.065
       783  -8.0554     85.3243     39.3322   5.9711270058e+01   5.7127139248e+01    0.1439588   0.09617779  17.52 0.0007050658    1.706    0.414
       784  -8.2505     40.2980     39.6565   7.7421872492e+01   6.4765638316e+01    0.1105738    0.1059287  83.03 0.0003937501    1.671    0.401
       785  -8.8228    190.1823     37.3694   3.7790521267e+01   3.3319430261e+01    0.1696327    0.1555421 -64.92  0.000652513    1.135    0.119
       786  -8.8017    103.9451     37.0193   5.3440709785e+01   5.3471777581e+01    0.2019375    0.1778108  35.68 0.0003081519    1.033    0.032
       787 -10.3867    149.5742     34.9541   4.3038619000e+01   4.3107210703e+01    0.2726119    0.1653708  50.68  0.001113476    1.589    0.371
       788  -9.7445    112.7813     34.7733   5.0432507905e+01   5.1766657624e+01    0.2304094    0.1766048  56.47 0.0003887854    1.195    0.163
       789  -9.7416     99.9929     33.5106   5.3237357846e+01   5.4783136087e+01    0.1931261     0.175732   1.47 0.0005770902    1.149    0.129
       790  -7.9526     80.4618     34.5534   5.9443220212e+01   5.8747180125e+01    0.1353319    0.1149663  23.96 0.0001106795    1.027    0.026
       791  -7.8923     65.6503     34.7162   6.4718350937e+01   6.1532049991e+01    0.1383523   0.08997528  15.10 0.0003481917    1.653    0.395
       792  -9.2502    105.2414     32.8832   5.1637537404e+01   5.3698538523e+01    0.1925293    0.1807986  82.89 0.0006464269    1.213    0.176
       793  -9.5120     77.0902     29.6778   5.8621346894e+01   6.0037752747e+01    0.1893563    0.1435426  35.87 0.0004495243    1.149    0.129
       794  -8.8158    118.2125     29.5954   4.7436052307e+01   5.1133338175e+01    0.1990762     0.105164  48.67  0.000935529    1.684    0.406
       795  -8.5324    112.8747     29.2194   4.8508739657e+01   5.2403699788e+01    0.2416225    0.1250525  37.91  0.001080711    2.076    0.518
       796  -8.1616    105.4788     26.4113   4.9279226875e+01   5.4395084661e+01    0.1345235    0.1135815  43.77 0.0002476488    1.041    0.039
       797  -9.7062    109.2544    186.9533   9.1978870242e+01   1.9994582034e+01    0.8687812    0.3156365  48.80  0.002650131    3.583    0.721
       798  -8.0343    123.6951     23.2437   4.4201513774e+01   5.0555342134e+01    0.1244779    0.0959279 -85.98 0.0001953781    1.495    0.331
       799  -8.6686     90.9902     23.0000   5.1775841067e+01   5.7946428980e+01    0.2162099    0.0661061  55.14 0.0007944234    2.887    0.654
       800  -8.5255     87.6887     18.6928   5.1022288048e+01   5.9100001894e+01    0.1353704   0.08443679  29.39 0.0003539993    1.619    0.382
       801  -7.8882    127.7100     17.2787   4.1531703191e+01   5.0218577811e+01    0.1239926   0.09365651 -77.61 0.0003333061    1.523    0.343
       802  -9.7368     73.2160     16.6106   5.4502636032e+01   6.2283289667e+01    0.2336519    0.1357809  41.71 0.0008318892    1.445    0.308
       803  -9.7296     61.4952    247.6620   1.1109768854e+02   1.3206451635e+01    0.2019477    0.1830941  53.40 0.0004608824    1.131    0.116
       804  -8.8470    149.6378    246.3348   9.1793159679e+01   1.0393919360e+00    0.2688226    0.1710764 -10.45  0.001316648    2.145    0.534
