#   1 NUMBER                 Running object number                                     
#   2 MAG_AUTO               Kron-like elliptical aperture magnitude                    [mag]
#   3 X_IMAGE                Object position along x                                    [pixel]
#   4 Y_IMAGE                Object position along y                                    [pixel]
#   5 X_WORLD                Barycenter position along world x axis                     [deg]
#   6 Y_WORLD                Barycenter position along world y axis                     [deg]
#   7 A_WORLD                Profile RMS along major axis (world units)                 [deg]
#   8 B_WORLD                Profile RMS along minor axis (world units)                 [deg]
#   9 THETA_WORLD            Position angle (CCW/world-x)                               [deg]
#  10 FWHM_WORLD             FWHM assuming a gaussian core                              [deg]
#  11 ELONGATION             A_IMAGE/B_IMAGE                                           
#  12 ELLIPTICITY            1 - B_IMAGE/A_IMAGE                                       
         1 -15.2750     68.4415    144.2545   1.0632806056e+02   3.7167528381e+01     4.957312     2.462266  72.00   0.00520636    4.197    0.762
         2 -14.0469    221.7166     17.7882   3.9254863946e+01   2.7816888433e+01     1.093801    0.8905078  42.08   0.00407856    1.547    0.353
         3 -13.4891    197.2654     39.8863   4.7730617272e+01   3.0940753464e+01     1.180801    0.8985822  -4.90  0.003420708    1.709    0.415
         4 -13.8754    206.3314     33.9553   4.4974409949e+01   2.9506082842e+01     1.141194    0.9462374  73.98  0.005141305    1.181    0.153
         5 -12.5994    213.9201     26.0612   4.2076240175e+01   2.8671318488e+01    0.5753179    0.4120968  46.85  0.001128665    1.645    0.392
         6 -11.5660      2.1588      3.5755   9.2556178695e+01   7.3897215789e+01    0.4649008    0.1494717 -43.58  0.002370922    2.403    0.584
         7 -11.0995     47.4603      2.3538   6.8806496496e+01   6.8769979671e+01    0.2145588    0.1820395  14.07 0.0007201533    1.187    0.158
         8 -10.4403    244.3275      1.4443   3.3752621274e+01   2.4560294499e+01    0.2872084    0.1085835  79.86   0.00130635    2.633    0.620
         9  -9.4656     61.3153      1.3456   6.2990698529e+01   6.6552338366e+01    0.1325607    0.0770233  18.30 0.0007047852    1.717    0.418
        10  -9.9353     67.0028    195.6788   1.1373106080e+02   2.5348655979e+01    0.2816565    0.1825035 -73.38  0.001585457    1.466    0.318
        11 -15.6778     94.0139    227.8172   1.1169544728e+02   1.4960988674e+01     8.247031     1.026392  38.05  0.003415114    6.892    0.855
        12 -11.7480     78.1605    164.1419   1.0702302854e+02   3.0993096902e+01    0.3838456    0.3007387 -88.55 0.0004153674    1.239    0.193
        13 -12.8428     84.8041    157.9500   1.0437413924e+02   3.1475464368e+01     1.143658    0.8096274 -70.50  0.001405059    1.365    0.268
        14 -13.3963     40.1970    234.2919   1.2237305199e+02   2.0815812465e+01    0.8016061    0.3934155  68.70  0.003350985    1.860    0.462
        15 -10.4527    133.3940    140.2279   8.8480065964e+01   2.7013941702e+01     0.291552    0.1424394 -48.47  0.001109346    2.014    0.504
        16  -9.4588    162.4525    167.4363   8.7516328846e+01   1.5290457708e+01    0.1448936    0.1406771  31.06 8.665721e-06    1.029    0.028
        17 -13.6733     37.6297    207.3263   1.2089086392e+02   2.6476431068e+01    0.8081828    0.5216244  43.04  0.001695047    1.520    0.342
        18 -10.1444    101.8281    139.7849   9.6546228253e+01   3.3058766120e+01    0.3580405    0.2604993 -22.37  0.001631485    1.908    0.476
        19 -10.8378     99.0224    143.0071   9.7948007220e+01   3.2768039710e+01    0.2877375    0.2569718 -81.72 0.0007572299    1.099    0.090
        20 -12.2477     87.2264    141.7904   1.0085184172e+02   3.4999307340e+01     0.294492     0.257858 -44.37 0.0004639493    1.208    0.172
        21 -10.7185     81.7116    141.5286   1.0228486545e+02   3.5917851170e+01    0.3515368    0.2080702  61.02 0.0007428793    2.115    0.527
        22 -16.5242     10.8184    241.4019   1.2777242155e+02   2.2659671397e+01     2.785803     1.993191  85.62    0.0220515    1.195    0.163
        23 -15.1713      9.0806    207.2261   1.2632051996e+02   2.9431444585e+01     1.190482     1.097759  84.12  0.004129813    1.400    0.286
        24 -10.4326    109.8253    131.4231   9.2590270756e+01   3.3621155851e+01    0.3203344    0.2746742   9.39 0.0009260954    1.404    0.288
        25 -10.4506    106.3999    131.1929   9.3462539295e+01   3.4302711659e+01    0.3822749    0.2966582 -85.66  0.001715523    1.541    0.351
        26 -12.2953     46.1217    129.6104   1.1002927302e+02   4.3522959631e+01    0.4066503    0.2385776  42.66  0.002067616    1.869    0.465
        27 -10.8806     32.5899    126.2159   1.1331856882e+02   4.5732696584e+01    0.2482873    0.1059019 -68.61   0.00110482    1.959    0.490
        28  -9.9944    159.4939    163.0105   8.7259890097e+01   1.6788194072e+01    0.2226628     0.146527 -45.47 0.0005459281    1.544    0.352
        29 -10.6205     97.3220    127.6870   9.5169244080e+01   3.6749366753e+01    0.2864777    0.2413996 -24.10 0.0004629969    1.380    0.275
        30 -10.3986    116.1475    125.1579   8.9427738176e+01   3.3903383307e+01    0.2392502    0.2143629 -23.27 0.0009014048    1.215    0.177
        31 -13.0973     32.0272    155.5305   1.1724108326e+02   3.8714431984e+01    0.6280501    0.3919822  84.66   0.00324884    1.530    0.346
        32  -9.9656    137.6693    170.6864   9.3800880938e+01   1.9390208402e+01    0.1471804    0.1166531  -4.35 0.0007044639    1.677    0.404
        33  -9.9726    107.0010    119.9423   9.0668785397e+01   3.6862761209e+01    0.2216409      0.20914 -47.95 0.0002899297    1.029    0.028
        34  -9.9502    174.8524    148.8473   8.0747075686e+01   1.6578278880e+01    0.2054076    0.1856604 -87.33 0.0004255916    1.319    0.242
        35 -12.1320     13.1868    113.0641   1.1702423992e+02   5.0484812200e+01    0.3518013    0.1788725 -80.06  0.001702277    1.781    0.438
        36 -10.7885     39.8794    113.1431   1.0905606517e+02   4.8207777146e+01    0.2051216    0.1663707  88.74 0.0005864444    1.272    0.214
        37  -9.6572    205.4001    110.1320   6.5134463763e+01   1.7510093940e+01    0.2477959    0.2068969  34.43 0.0006649789    1.303    0.233
        38  -9.6246    168.1019    113.0627   7.3448728430e+01   2.5424307695e+01    0.2592139    0.1957888 -76.24  0.001128579    1.789    0.441
        39 -10.8102     29.3005    106.9929   1.1122643282e+02   5.0687911729e+01    0.1922934    0.1432604 -65.57 0.0004492423    1.097    0.089
        40 -11.9899     63.7822    179.3956   1.1254396348e+02   2.9424424598e+01    0.3986546    0.2995304 -33.81  0.001170759    1.919    0.479
        41 -10.2014    134.4950    148.4917   9.0040445435e+01   2.4919762441e+01    0.3840096    0.1499324 -52.50  0.001300709    2.685    0.628
        42 -11.9662      1.8599     86.0105   1.1660829080e+02   5.7499367716e+01     1.055971   0.05585336 -68.59  0.002540458    7.930    0.874
        43  -9.4660     73.3789     83.6863   9.1320210222e+01   5.0966423381e+01    0.2012658    0.1653658 -89.32 0.0005784456    1.622    0.384
        44 -11.8794     68.6458    173.8894   1.1070945319e+02   3.0044044800e+01    0.3208813    0.2573667 -45.84 0.0008805731    1.487    0.328
        45 -10.3315     13.5387     59.7287   1.0698680953e+02   6.2702968644e+01    0.2140119    0.1727325 -57.37 0.0004234734    1.139    0.122
        46 -16.4241     39.3188    191.1791   1.1918252665e+02   2.9751406036e+01     8.524808     3.389894  75.51   0.03159811    3.950    0.747
        47 -15.2394     72.6409    248.2798   1.1762661827e+02   1.4213075930e+01     6.183043     1.230898  34.69   0.01719935    7.937    0.874
        48  -9.3684     99.5294    180.5575   1.0442032080e+02   2.3903396027e+01    0.1379981    0.1261086  74.56 0.0001285581    1.008    0.008
        49 -13.4962     65.5865    160.0671   1.0953388925e+02   3.3721964798e+01    0.6205577    0.4398565 -42.27  0.002093197    1.699    0.412
        50 -10.8504    138.4675     44.3726   5.9383777346e+01   4.4972130077e+01    0.2829322    0.2415181 -74.98 0.0003911261    1.373    0.271
        51 -10.4516    142.0867     39.5452   5.6970281886e+01   4.4766583998e+01    0.3231593    0.2267188 -80.15  0.001471626    1.981    0.495
        52  -9.9437    189.5258     15.0287   4.1894347756e+01   3.5845323039e+01    0.1932877    0.1307075 -29.92 0.0006821057    1.563    0.360
        53 -10.1239    142.3360    174.6700   9.3484029978e+01   1.7660893011e+01    0.1504446    0.1134677  77.41 -1.991286e-05    1.730    0.422
        54 -11.7541    193.0901    193.7202   8.6247543267e+01   4.5724915512e+00    0.7413616    0.3924945 -54.40  0.003108782    2.786    0.641
        55  -9.6318    160.2742    199.3344   9.4007352935e+01   9.4549996622e+00    0.1348939    0.1046342  -2.91 0.0004011751    1.601    0.375
