#   1 NUMBER                 Running object number                                     
#   2 MAG_AUTO               Kron-like elliptical aperture magnitude                    [mag]
#   3 X_IMAGE                Object position along x                                    [pixel]
#   4 Y_IMAGE                Object position along y                                    [pixel]
#   5 X_WORLD                Barycenter position along world x axis                     [deg]
#   6 Y_WORLD                Barycenter position along world y axis                     [deg]
#   7 A_WORLD                Profile RMS along major axis (world units)                 [deg]
#   8 B_WORLD                Profile RMS along minor axis (world units)                 [deg]
#   9 THETA_WORLD            Position angle (CCW/world-x)                               [deg]
#  10 FWHM_WORLD             FWHM assuming a gaussian core                              [deg]
#  11 ELONGATION             A_IMAGE/B_IMAGE                                           
#  12 ELLIPTICITY            1 - B_IMAGE/A_IMAGE                                       
         1 -13.1428    227.9102    113.9535   3.6919795373e+01   1.5967642288e+01     5.869132     1.699762 -53.57   0.01542668    5.471    0.817
         2 -12.0253    220.3802     25.9188   2.1298276229e+01   2.9510667032e+01     1.489739    0.8425422 -29.52  0.005504346    2.329    0.571
         3 -12.1626    245.4786     32.5397   2.0812978086e+01   2.4519537261e+01     1.621488    0.4955112 -63.27   0.00702566    4.126    0.758
         4 -14.5476    241.3388     91.8792   3.1401520744e+01   1.7327344178e+01     3.397158     2.305622  52.07    0.0231475    1.936    0.483
         5 -10.5296    247.8696     15.7184   1.7923970407e+01   2.6012166884e+01    0.3549531    0.2947342 -51.40  0.001183203    1.426    0.299
         6  -8.9698    202.6251     21.2924   2.1709486050e+01   3.3281376696e+01    0.4204483    0.2101274 -28.38  0.002320312    2.687    0.628
         7 -13.0566    231.9986     43.4089   2.3602691507e+01   2.5429607500e+01      2.43085     1.584498 -11.39   0.01215836    4.363    0.771
         8  -9.8892    119.0354     10.2529   2.7894902893e+01   5.2082830332e+01    0.5974862    0.2875218  53.42  0.003112647    1.909    0.476
         9  -9.0595    235.3466      2.3353   1.6349752016e+01   2.9429771135e+01    0.4201165    0.1552655  58.08  0.002230847    4.087    0.755
        10 -13.4133    244.1003     45.5019   2.3085227132e+01   2.3188070165e+01     2.211392     1.039421 -36.14  0.008733901    2.186    0.543
        11  -8.0717    248.4042      2.1290   1.5737743348e+01   2.7328477226e+01     0.207023    0.1086592 -84.28  0.001538407    1.622    0.383
        12  -7.9954     99.9350      2.4940   2.8515439045e+01   5.7048743074e+01    0.1800991   0.09854391  70.35 0.0003926355    1.488    0.328
        13  -8.5578    247.1069    209.8683   5.0853654979e+01  -1.9226722576e+00    0.1598226    0.1296213 -33.23 0.0005661296    1.293    0.226
        14  -7.8936     55.7992    209.2315   9.3682241962e+01   2.2272581673e+01       0.1922    0.1603231 -28.06 0.0003542441    1.324    0.244
        15  -7.5282     31.1432    208.5858   1.0045961141e+02   2.5082987216e+01    0.1788653     0.130923   2.88  0.000353764    1.568    0.362
        16  -8.8302    247.8477    203.4382   4.9715987810e+01  -1.0126947208e+00    0.2237999    0.1950923  38.24  0.001263198    1.754    0.430
        17  -7.4319     85.0758    199.9741   8.4257673857e+01   2.0868675411e+01     0.172374    0.1608597  18.32 0.0003316624    1.019    0.018
        18  -8.7483    241.5394    198.4244   4.9842548325e+01   3.9673577265e-01    0.2467261    0.1948342  86.98  0.001437588    3.155    0.683
        19  -8.4394    191.7107    192.8571   5.7377558680e+01   7.1874987646e+00    0.3087673    0.1601967 -60.38  0.001209115    3.474    0.712
        20  -9.2698    210.6462    190.5796   5.3515379593e+01   5.1865524932e+00    0.3356366    0.1486438 -43.04  0.001626564    1.901    0.474
        21  -8.9113    224.4673    189.3287   5.0981642191e+01   3.7466839719e+00    0.2567069    0.1943634 -79.34  0.001410985    2.773    0.639
        22  -9.6755    135.8541    185.5523   6.8279916085e+01   1.6784977327e+01    0.2657913    0.2193141 -36.21 0.0003276968    1.159    0.137
        23 -10.2620    213.7185    180.1632   5.1153898567e+01   6.6341160556e+00    0.4611887    0.3399487   3.41  0.002422359    1.528    0.345
        24  -7.9478    141.7552    183.0599   6.6373835800e+01   1.6423601248e+01    0.2031744    0.1796467 -21.67 0.0002862137    1.051    0.049
        25  -8.2324    239.5030    176.7902   4.6535169165e+01   4.0865475088e+00     0.182985    0.1447956 -77.12  0.001158464    2.181    0.541
        26  -9.9113    224.9853    175.2715   4.8461215842e+01   6.0673644754e+00    0.3282216    0.1480188 -41.30  0.001668481    1.771    0.435
        27  -8.1289    212.8314    174.8486   5.0352770146e+01   7.6872977419e+00    0.1642015    0.1359716 -49.92 0.0006749499    1.307    0.235
        28  -8.1125    101.0177    175.9846   7.5796214167e+01   2.4507402218e+01    0.2105026    0.2007444 -11.73            0    1.012    0.012
        29  -8.4857     79.1648    173.5672   8.1814056216e+01   2.8405838972e+01    0.2389169    0.2088309 -53.33 0.0003259376    1.151    0.131
        30  -9.7791    230.4982    167.4734   4.6250962489e+01   6.7032939126e+00     0.327322    0.1667098 -45.87  0.001652674    1.647    0.393
        31 -10.1055    235.0398    161.3086   4.4508996031e+01   7.1661562260e+00    0.3078689    0.2604198  41.02  0.002209087    1.537    0.349
        32  -8.6531    197.9621    161.5673   5.0456904242e+01   1.2171904604e+01    0.3308099     0.169607 -40.03 0.0009994202    1.685    0.407
        33  -8.0838    223.0245    161.8140   4.6374264155e+01   8.6251992012e+00    0.1800714    0.1479188 -53.38 0.0009669574    1.308    0.235
        34  -9.7935    243.1716    159.2558   4.3023602529e+01   6.5017181858e+00    0.2271376    0.1632065  34.51  0.001495761    1.788    0.441
        35  -9.9926    190.5322    154.2142   5.0373456676e+01   1.4685994399e+01    0.4974329    0.3629878 -17.11  0.002241789    1.573    0.364
        36  -8.4594    249.0101    249.1434   5.6577222095e+01  -7.7583566764e+00    0.1880671   0.09156419 -10.95   0.00110406    2.103    0.525
        37 -10.3191     98.0416    247.9563   8.7212458609e+01   8.3647563460e+00    0.2516718    0.2211452 -33.97 0.0005682146    1.231    0.187
        38  -7.8271     48.9686    249.0136   9.9317571498e+01   1.3774158188e+01    0.1966835    0.1464009 -25.21 0.0005259343    1.665    0.399
        39 -13.1821    236.3612    107.4370   3.4720924167e+01   1.5722588577e+01     2.740861    0.8825051 -55.49  0.002514523    4.928    0.797
        40  -8.2991    229.1646    238.8920   5.8249777534e+01  -4.6372523850e+00    0.1589424    0.1260711 -23.90 0.0004282807    1.245    0.197
        41  -9.2464    198.3114    133.9997   4.5034189804e+01   1.7215659174e+01    0.3054464     0.245522 -41.85   0.00186425    1.074    0.069
        42 -11.1931     50.7901    130.1959   8.3368980353e+01   4.3843118972e+01    0.7330425    0.6115395 -65.04  0.002114622    1.228    0.185
        43 -11.4763     42.6245    130.4830   8.6472193649e+01   4.4770478855e+01      1.05243    0.8259422 -32.42  0.004254928    1.284    0.221
        44 -10.0949     34.0845    132.0870   8.9979008583e+01   4.5280131740e+01    0.3920378    0.3205108   3.07 0.0005594105    1.278    0.218
        45 -10.7550     61.9462    132.3698   7.9755306214e+01   4.1749461502e+01    0.4927726    0.4187933  61.00  0.002461672    1.340    0.254
        46  -8.6179    221.1686    132.9139   4.1344889919e+01   1.3845007366e+01    0.1871949    0.1456464 -54.41 0.0008049395    1.199    0.166
        47  -7.4508     88.9881    149.2723   7.4230340266e+01   3.3184902804e+01    0.1849178    0.1365124  30.71 0.0002731792    1.349    0.259
        48 -10.6192     55.4067    118.6282   7.9192450089e+01   4.6231575840e+01    0.5896792    0.3211738 -57.38  0.002430574    1.819    0.450
        49  -8.8768    122.7307    236.9250   7.9812038525e+01   7.5549428494e+00    0.2278553    0.1745648  24.28 0.0003282389    1.184    0.156
        50  -6.6845     44.4492    157.5109   9.0377016046e+01   3.7234404489e+01    0.1509815    0.1432462 -41.98  0.000157917    1.038    0.036
        51  -8.3659    221.5642    136.8287   4.2018231971e+01   1.3120738678e+01     0.169769    0.1552062  72.11 0.0007610869    1.364    0.267
        52  -9.7622     68.0408    144.6208   8.0111895069e+01   3.7645348937e+01    0.5506196    0.3951361  53.39  0.002481662    1.596    0.374
        53  -7.9741    127.0427    125.2934   5.7886602006e+01   3.2013431522e+01    0.2013345    0.1914096  36.68 0.0003545324    1.071    0.066
        54  -9.8441     66.4511    120.9861   7.5637494965e+01   4.4003295365e+01    0.4456332    0.2312064 -40.70 0.0009817587    2.062    0.515
        55  -8.9434    135.2284    121.2195   5.4873829330e+01   3.1287813633e+01    0.2450168    0.1161531 -55.82 0.0008906924    2.487    0.598
        56  -8.0868    151.6393    114.6969   4.9601787554e+01   2.9376331115e+01    0.1437856    0.1141213   2.31 0.0007037818    1.725    0.420
        57  -8.8528    134.6847    111.7989   5.2737905303e+01   3.3362249324e+01     0.309955    0.1283944 -38.91  0.001095514    2.669    0.625
        58  -9.8415      2.8663    142.5098   1.0288744542e+02   4.4948935759e+01    0.4083512    0.3146939  81.27  0.001615207    1.334    0.251
        59 -10.8500      3.8543    136.6722   1.0190768165e+02   4.6470951111e+01    0.8833234     0.564572  71.62  0.004217174    1.788    0.441
        60  -9.1865    157.7986    107.0763   4.6558875000e+01   2.9627519907e+01    0.3025036    0.2256026  22.48  0.001508369    1.852    0.460
        61  -9.1157    161.7803    106.5974   4.5668664875e+01   2.8925903580e+01    0.2812547    0.1361064  54.62 0.0007706063    2.270    0.560
        62  -7.9814    149.2194    108.6299   4.8690497334e+01   3.1051534184e+01    0.1969151    0.1328893  38.65 0.0009408598    1.659    0.397
        63  -7.3305    106.7053    106.6636   5.8812697386e+01   4.0113965985e+01    0.1533407    0.1197125  -7.68   0.00070284    1.647    0.393
        64  -8.2229    134.7004    102.9468   5.0544897421e+01   3.5139777241e+01    0.2010531    0.1853712 -52.96 0.0001937556    1.069    0.065
        65  -7.7690    170.3526    102.2677   4.3095513764e+01   2.8030438274e+01    0.1282709    0.1075412  11.67 0.0006990279    1.626    0.385
        66  -9.6178    158.3694     99.5269   4.4681010106e+01   3.0917423414e+01     0.292272    0.2322764 -43.11 0.0004834826    1.228    0.186
        67  -8.2041    142.8626    100.0044   4.7971937408e+01   3.4014993504e+01    0.2464275    0.2015502  62.68 0.0009044246    1.262    0.208
        68  -8.4186    180.9748     96.9363   4.0118310384e+01   2.6905957660e+01    0.2529708    0.1595006 -45.27  0.001321892    1.439    0.305
        69  -9.0612    213.0452    141.0227   4.4064033711e+01   1.3655342116e+01    0.5604324    0.2795034 -64.21  0.002002186    4.510    0.778
        70 -10.4473    175.6360     93.2480   4.0167645783e+01   2.8574268119e+01    0.3727461    0.3058137 -30.71  0.002194932    1.373    0.272
        71  -7.3415    201.6815     76.7519   3.2929493447e+01   2.6244376656e+01    0.1033464   0.09564175  24.30 0.0002074395    1.525    0.344
        72  -8.3755    207.9794     85.1939   3.3861118054e+01   2.3817392090e+01    0.2520422    0.1420264 -58.83  0.001175526    1.718    0.418
        73  -8.7617    204.9867     79.3132   3.3046982182e+01   2.5253178913e+01     0.358844    0.2114801 -51.79  0.001240444    1.453    0.312
        74  -7.3475    133.6545     84.8075   4.6133359343e+01   3.8774932843e+01    0.1860014    0.1264968 -52.57 0.0002712479    1.515    0.340
        75  -8.0873    200.1305     83.2305   3.4450548948e+01   2.5539416498e+01    0.1641275    0.1515834 -57.91 0.0004159683    1.166    0.143
        76  -8.1634    126.9981     81.8579   4.6859795311e+01   4.0741647180e+01    0.2039121    0.1944965  84.85 0.0003541521    1.014    0.014
        77  -8.7254    213.1941     80.4097   3.2297026084e+01   2.3624793015e+01    0.2144804    0.1380952 -45.70 0.0006296856    1.326    0.246
        78  -7.3707     95.3184     81.2588   5.5138574110e+01   4.7623148360e+01    0.1433349    0.1119498  15.25 0.0003421978    1.542    0.351
        79  -9.4456    184.0784     79.1133   3.5749646098e+01   2.9231576266e+01    0.3290613    0.2961675  72.57  0.002061432    1.194    0.162
        80  -8.0168    188.8260     70.1217   3.3158049492e+01   2.9676718295e+01    0.3175119   0.09178842 -36.59  0.001147148    3.751    0.733
        81  -8.6196    199.0021     69.1560   3.1694409031e+01   2.7868726128e+01    0.2379315    0.1490082 -39.07  0.001230726    1.571    0.363
        82  -8.5069     97.9548     68.8012   5.0598237617e+01   4.9330453731e+01    0.2093289    0.2020456 -41.47 0.0003310069    1.114    0.102
        83  -8.1978    206.9998     64.9280   2.9931237358e+01   2.6989084554e+01    0.3456514    0.1546489 -37.96  0.001744667    2.162    0.538
        84  -7.5490    188.2305     62.0200   3.1493715745e+01   3.0971543603e+01     0.160027   0.09223858 -42.21 0.0008731438    1.623    0.384
        85  -9.1991    148.7304    140.7844   5.6136998348e+01   2.4535696985e+01    0.3532342    0.2575834 -24.65  0.001141382    1.567    0.362
        86  -8.9273    196.8059     55.4882   2.9123456084e+01   3.0210323693e+01    0.2921315    0.2080107 -69.17  0.001878137    1.243    0.195
        87  -9.3712    209.1086     52.1719   2.7193132543e+01   2.8341518584e+01    0.3882978     0.273064 -52.30  0.001708171    1.204    0.170
        88  -8.7610    213.4269     48.8139   2.6137446654e+01   2.7991356810e+01    0.3568442    0.1274341 -34.72  0.001618288    3.113    0.679
        89  -8.3323    199.2650     50.2308   2.7783964157e+01   3.0441329504e+01     0.301088    0.1418196 -36.94  0.001576344    2.136    0.532
        90  -8.5158    191.3085     51.1326   2.8816807280e+01   3.1863068876e+01    0.2160259    0.1508128 -33.08 0.0008843941    1.665    0.399
        91  -7.1155     95.3451     52.7558   4.6258346032e+01   5.2473964855e+01    0.1340829    0.1026149  80.00 0.0005105837    1.570    0.363
        92  -8.5767    146.9680     46.0370   3.3453812741e+01   4.1844005207e+01     0.189831       0.1652 -85.29 0.0003340786    1.031    0.030
        93  -7.5767    199.0483     34.6860   2.4655433369e+01   3.2431966700e+01    0.1518175    0.1186072 -85.58 0.0003675024    1.117    0.105
        94  -7.4165    158.3239     32.7347   2.8533188161e+01   4.1005406415e+01    0.1251101   0.08016785 -75.89 0.0001370321    1.563    0.360
        95  -9.0079    184.3743     26.0789   2.4210573998e+01   3.6317221852e+01    0.3671861    0.1549779 -44.93  0.001960586    2.087    0.521
        96  -7.3339    179.3288    236.6855   6.7162715319e+01   7.6998403699e-01    0.1106067    0.1000711  47.03 0.0007044438    1.674    0.403
        97  -7.2535    134.3542     23.2651   2.9327960951e+01   4.7360059020e+01    0.1231617   0.08267513  48.47 0.0005837135    1.625    0.385
        98  -8.4416     48.9250    235.7667   9.8192999418e+01   1.6712095738e+01    0.2002242     0.186766 -75.28 0.0005958163    1.169    0.145
        99  -7.8954    108.1442    231.8821   8.2681892457e+01   1.0455960695e+01    0.2048911    0.1830591  48.82  0.001203372    1.278    0.217
       100 -10.5354     69.6337    131.1431   7.6782230663e+01   4.0924700246e+01    0.8698231      0.32015 -49.87  0.002925934    2.580    0.612
       101  -7.7558    245.3041    220.6525   5.2828194538e+01  -3.3784546121e+00   0.09743343   0.08138201 -47.39  0.000704093    1.694    0.410
       102  -7.1927    146.6982    217.6694   7.1231533280e+01   8.3485758607e+00    0.1457468   0.09561801 -16.19 0.0002696925    1.650    0.394
       103  -7.5774     49.9231    211.8269   9.5596305840e+01   2.2297976751e+01    0.2058704    0.1810205 -20.13 0.0004825224    1.252    0.202
