#   1 NUMBER                 Running object number                                     
#   2 MAG_AUTO               Kron-like elliptical aperture magnitude                    [mag]
#   3 X_IMAGE                Object position along x                                    [pixel]
#   4 Y_IMAGE                Object position along y                                    [pixel]
#   5 X_WORLD                Barycenter position along world x axis                     [deg]
#   6 Y_WORLD                Barycenter position along world y axis                     [deg]
#   7 A_WORLD                Profile RMS along major axis (world units)                 [deg]
#   8 B_WORLD                Profile RMS along minor axis (world units)                 [deg]
#   9 THETA_WORLD            Position angle (CCW/world-x)                               [deg]
#  10 FWHM_WORLD             FWHM assuming a gaussian core                              [deg]
#  11 ELONGATION             A_IMAGE/B_IMAGE                                           
#  12 ELLIPTICITY            1 - B_IMAGE/A_IMAGE                                       
         1 -14.0737    210.1120     10.4452   4.0920160654e+01   3.0950675344e+01     2.826149      1.59365  37.73   0.01275754    2.548    0.608
         2 -13.4394    188.6807     40.0960   5.1713316603e+01   3.2821463308e+01     1.018064    0.9317229  46.02  0.003622989    1.166    0.143
         3 -13.2163    173.7097     54.0221   5.8369825397e+01   3.4688304586e+01     1.924092     1.270927  26.47  0.005537975    2.049    0.512
         4 -11.4679     60.8841      2.2749   6.7226563131e+01   6.6930334487e+01    0.4685252    0.1725557  47.47  0.002120514    2.569    0.611
         5 -10.6102    245.3857      1.7100   3.5931984502e+01   2.3570802532e+01    0.6060152    0.1241349  74.90  0.001999398    4.730    0.789
         6  99.0000     63.4735    221.9311   1.1951710392e+02   2.1007933115e+01    0.4537884    0.1923871  71.92  0.001932624    3.264    0.694
         7 -12.7705    247.7403    246.2623   8.8249051319e+01  -1.1201874318e+01    0.9770257    0.7796071  -4.93  0.007402258    1.258    0.205
         8 -19.4860     26.0277    147.3882   1.2043763283e+02   4.1480437640e+01     19.18079      4.92246 -74.83   0.06786072    3.699    0.730
         9 -11.3316    195.4171    204.6095   9.0702747014e+01   2.4285662335e+00    0.7377732     0.227459  33.63  0.002344504    4.084    0.755
        10  -7.7753     56.4081    224.3458   1.2104076259e+02   2.1460759970e+01    0.1199341   0.08128192  64.99 0.0002321232    1.166    0.142
        11  -8.1397     86.6312    217.7174   1.1462470881e+02   1.8590294403e+01    0.1104297   0.09789652   6.98 0.0003193443    1.695    0.410
        12 -10.9184     58.8578    202.7716   1.1870032892e+02   2.5443153778e+01    0.2925201    0.2106313 -44.20  0.001733344    2.055    0.513
        13  -9.0361     87.6944    202.6175   1.1272982956e+02   2.1438590452e+01    0.1723656    0.1527895 -12.35 0.0007960935    1.700    0.412
        14 -10.6989    192.9240    194.8074   8.9418824846e+01   4.4581636900e+00    0.8348326    0.4452392 -62.85  0.002681337    5.408    0.815
        15 -10.1743    150.7094    196.7072   9.8459273210e+01   1.1941841553e+01    0.2579989    0.1672104 -75.62  0.001161189    2.457    0.593
        16 -11.4553     61.6108    195.6556   1.1743652574e+02   2.6577758189e+01    0.3485509    0.2292282 -46.07  0.001410617    2.135    0.532
        17  -9.1597     82.3648    195.1003   1.1296994773e+02   2.3798967854e+01    0.2038884    0.1697554  46.02  0.001204953    1.239    0.193
        18  -8.8354     98.3009    214.5703   1.1194015317e+02   1.7438442679e+01    0.1718699    0.1129468  34.12  0.000946203    1.633    0.388
        19  -9.3323    156.6624    189.9516   9.6036296877e+01   1.2107665230e+01    0.1818677    0.1797748 -53.82 0.0004709809    1.118    0.105
        20 -11.4695    149.8895    188.1674   9.7183167860e+01   1.3722608602e+01    0.4065723    0.3095227  68.71  0.001424878    1.545    0.353
        21 -10.9132    141.0055    188.5114   9.9177578628e+01   1.5310257627e+01    0.2749162    0.2235703 -53.35  0.001531197    1.345    0.256
        22 -11.2952    150.9651    179.8634   9.5463541417e+01   1.5150413015e+01    0.4583092    0.3255426 -73.13  0.002192122    1.897    0.473
        23 -11.2745    145.0562    180.8576   9.6952708384e+01   1.6080913530e+01    0.4098224    0.2997307  45.92  0.001336679    1.264    0.209
        24 -11.8769    141.7387    175.0407   9.6641115425e+01   1.7901334569e+01     0.769448    0.4960988  77.18  0.002603021    2.526    0.604
        25 -10.6530    189.0670    177.0965   8.6789457972e+01   8.2344348768e+00    0.6130726    0.3757231 -56.29  0.002338469    2.238    0.553
        26  -9.7259    184.5169    212.2200   9.4147179595e+01   3.1557769241e+00    0.2063079    0.2042522  27.31  0.001377394    1.226    0.184
        27 -10.0372     43.9801    211.8532   1.2240107670e+02   2.5436276832e+01    0.2524416    0.1361317 -80.87  0.001187335    1.706    0.414
        28  -9.7124    234.6629    173.6852   7.7324577224e+01   2.3361538707e-01    0.1423087   0.09513441   6.38  0.000464193    1.695    0.410
        29 -11.4221     39.3460    212.8178   1.2335061483e+02   2.5786596877e+01    0.1743934    0.1390303  63.27 0.0003044422    1.156    0.135
        30  -9.9361    240.4950    169.4526   7.5418126870e+01  -1.5100646239e-01    0.1358985    0.1153451  -1.33 4.286689e-05    1.020    0.020
        31 -10.9065     99.5156    180.8175   1.0726140241e+02   2.4210471128e+01    0.2750098    0.2562955  55.37  0.000644022    1.140    0.123
        32 -10.0556    156.0014    207.9923   9.9184227916e+01   8.9324586624e+00    0.1610522    0.1515329  40.41  0.001016019    1.082    0.076
        33 -11.3099     67.3885    206.3454   1.1731807789e+02   2.3577614386e+01    0.2112069    0.1778177  71.69 0.0003090214    1.079    0.073
        34 -11.8585     97.5746    151.2245   1.0288571062e+02   3.1263280760e+01     0.619192    0.4994772 -23.61  0.003192398    1.670    0.401
        35 -11.0715    133.9385    145.8602   9.2675575380e+01   2.5739903564e+01     1.274173    0.3332995 -55.03  0.003044858    5.728    0.825
        36  -9.8579    188.0171    152.1669   8.1726728105e+01   1.3062691518e+01    0.2406758    0.1770308  73.40 0.0006440721    1.970    0.492
        37  -9.7221    113.5787    151.3109   9.8858763840e+01   2.8426596932e+01    0.3276743    0.2314873  78.42   0.00149859    1.793    0.442
        38  -9.7455    174.9165    149.1716   8.3861954273e+01   1.6432655604e+01    0.2325463    0.2093218  76.89  0.000557882    1.281    0.219
        39  -9.9846    143.7305    145.5033   9.0215766626e+01   2.3814950485e+01    0.3277825    0.1830947 -59.70  0.001273029    2.190    0.543
        40 -10.9479    105.9424    130.9463   9.6642760857e+01   3.4581877813e+01    0.4565149    0.3445012 -56.62  0.001921258    1.282    0.220
        41 -10.3980    107.1900    145.5279   9.9346251623e+01   3.0927223187e+01    0.3698608    0.2472105 -73.82 0.0009861164    1.733    0.423
        42 -11.4273    108.5673    137.6828   9.7388521203e+01   3.2516442412e+01    0.6055943    0.3861229 -44.19  0.002735711    1.648    0.393
        43 -11.8270     96.8479    137.1815   1.0039296681e+02   3.4708305232e+01    0.3119082    0.2819528  88.49 0.0002732518    1.078    0.072
        44  -9.9381    135.7790    128.8841   8.8355334661e+01   2.9165340944e+01    0.3764143    0.1269797 -48.95  0.001166376    3.015    0.668
        45 -10.3674    115.4402    128.9206   9.3645678310e+01   3.3273689430e+01    0.3349895    0.2788572 -37.50 0.0005772673    1.280    0.219
        46  -7.6633     72.5962    203.3029   1.1594544592e+02   2.3486425516e+01    0.3287772    0.1793222  62.41  0.001708699    1.776    0.437
        47  -9.5806    160.9045    127.9052   8.2009401589e+01   2.3887456851e+01    0.3026038    0.2246828 -50.64  0.001387932    1.392    0.282
        48 -10.5666    103.1847    124.5775   9.5976322533e+01   3.6587062027e+01    0.2997563    0.2531967  -6.12 0.0006338962    1.504    0.335
        49 -10.5358    120.5147    122.7667   9.0845844730e+01   3.3699202634e+01    0.4968978     0.280635 -26.73  0.001713711    3.008    0.668
        50  -9.4213    134.9862    119.5183   8.6250487435e+01   3.1427434065e+01    0.2633529    0.1998811 -46.79 0.0008777828    1.304    0.233
        51  -9.5247    110.6524    118.1313   9.2398577442e+01   3.6706605985e+01    0.2421587    0.2018983  56.21 0.0003739138    1.259    0.206
        52  -8.4664    150.6208    117.2692   8.1762854434e+01   2.8467930163e+01    0.1618315    0.1256748  83.40 0.0006992873    1.689    0.408
        53  -9.9846    231.2139    113.7400   6.4460793362e+01   1.0758101076e+01    0.2718278    0.2674823  32.50 0.0007789635    1.112    0.101
        54  -8.2569    147.6399    114.3136   8.1720592738e+01   2.9775919692e+01    0.1650563    0.1271014 -89.75 0.0007042539    1.751    0.429
        55  -9.3381    134.7960    112.4942   8.4486593649e+01   3.3025794040e+01    0.4505531    0.1239623 -45.05  0.001257669    3.588    0.721
        56  -9.7490    167.3663    112.3246   7.6531805133e+01   2.5636204710e+01    0.3398231    0.2640432 -79.74  0.001194901    1.697    0.411
        57 -11.5082    118.8598    110.3734   8.8180425300e+01   3.6865281946e+01    0.6437727    0.4626078  67.10  0.002533006    1.752    0.429
        58  -9.6358    205.4498    110.1909   6.8111591723e+01   1.7111060810e+01    0.3225777     0.217972  41.61 0.0009829048    1.571    0.363
        59  -9.9532    134.6189    105.5235   8.2661602350e+01   3.4590384106e+01    0.4497729    0.1496603 -43.81  0.001380085    2.964    0.663
        60  -8.1517    224.2745    206.6926   8.5623718207e+01  -2.8409114966e+00    0.1076562    0.1037477  74.15 0.0002834753    1.548    0.354
        61  -8.9561    183.1438     83.1288   6.5125944631e+01   2.7416723969e+01      0.24536     0.219754  16.68  0.001238552    1.242    0.195
        62  -8.5038    153.6911     81.7328   7.1035908814e+01   3.4995040346e+01    0.1562794    0.1229982  18.33 0.0002830363    1.538    0.350
        63  -8.2508     75.5993    247.4386   1.1941225139e+02   1.4741553456e+01    0.1111581   0.08656074  61.44 0.0002248645    1.069    0.064
        64 -10.6127     71.9197    245.1580   1.1987912535e+02   1.5631538550e+01    0.1994895     0.145034 -68.76  0.001184838    1.600    0.375
        65  -8.6518     93.1642     62.1283   8.1322449887e+01   5.2185941139e+01    0.1862373    0.1739764 -75.40 0.0004781724    1.302    0.232
        66 -12.6503    193.2575     34.1823   4.9350302278e+01   3.2424718089e+01    0.5690179    0.5060056  49.00  0.001487115    1.202    0.168
        67 -10.9591     59.1029    230.4145   1.2102185652e+02   1.9971496986e+01    0.1831675    0.1345154  86.39 0.0002937051    1.226    0.184
        68  -8.5297    167.6467    230.5119   1.0028093789e+02   3.2131614947e+00    0.1219584     0.104552  35.73 0.0007914984    1.046    0.044
