#   1 NUMBER                 Running object number                                     
#   2 MAG_AUTO               Kron-like elliptical aperture magnitude                    [mag]
#   3 X_IMAGE                Object position along x                                    [pixel]
#   4 Y_IMAGE                Object position along y                                    [pixel]
#   5 X_WORLD                Barycenter position along world x axis                     [deg]
#   6 Y_WORLD                Barycenter position along world y axis                     [deg]
#   7 A_WORLD                Profile RMS along major axis (world units)                 [deg]
#   8 B_WORLD                Profile RMS along minor axis (world units)                 [deg]
#   9 THETA_WORLD            Position angle (CCW/world-x)                               [deg]
#  10 FWHM_WORLD             FWHM assuming a gaussian core                              [deg]
#  11 ELONGATION             A_IMAGE/B_IMAGE                                           
#  12 ELLIPTICITY            1 - B_IMAGE/A_IMAGE                                       
         1 -16.2450      4.0660     84.8878   1.1568588847e+02   5.7702941018e+01     7.804016    0.8007892 -61.51   0.02707909    3.697    0.730
         2 -15.7679      4.2956     43.6366   1.0684979211e+02   6.6716743488e+01       5.2224   0.01897014 -51.47   0.01786418    3.934    0.746
         3 -15.0210    241.0342     84.2597   5.1650967737e+01   1.4896483844e+01     3.592887     1.611608 -37.40   0.01334517    1.924    0.480
         4 -14.1612    231.3868     39.7417   4.2307383220e+01   2.3472947219e+01     1.867624     1.342457 -75.61  0.007704798    1.395    0.283
         5 -12.6719    183.8453     40.6619   4.8606694020e+01   3.4597372592e+01      1.04866    0.7876647  18.13   0.00373752    1.764    0.433
         6 -13.9595    127.9574     11.5122   4.8877860548e+01   5.1708712688e+01     2.355652    0.6798778  60.94  0.008548629    2.905    0.656
         7 -12.2899    206.9339      8.9977   3.7341455932e+01   3.2697946465e+01    0.7815825    0.6994464  89.82  0.005155797    1.075    0.069
         8 -10.5139    235.1380    208.0889   7.9436219451e+01  -4.0972243501e+00     0.192733    0.1619321  13.29  0.001259933    1.153    0.133
         9 -12.8630     35.2415    186.8477   1.1922864894e+02   3.1152844890e+01     1.170581     0.413593  36.42  0.002168336    2.667    0.625
        10 -18.2491     32.5502    239.5942   1.2359775966e+02   2.0561040279e+01     5.050768     3.450969  36.12   0.02105427    1.605    0.377
        11 -10.9431     60.2351    214.5580   1.1645515189e+02   2.2259363163e+01    0.2836876    0.1580897  61.98  0.001306454    1.705    0.413
        12 -13.6057     24.7534    205.2945   1.2286246852e+02   2.8205716715e+01    0.3548683    0.1986697  36.18  0.001944079    1.843    0.457
        13 -11.2333    107.9093    204.5124   1.0510186780e+02   1.7599070063e+01    0.2432032     0.180576 -89.10 0.0007651372    1.549    0.354
        14  -8.8962    204.7293    204.6978   8.4535005772e+01   1.2152811061e+00    0.1325707   0.09293301   0.58 0.0002117576    1.531    0.347
        15 -11.2778     96.9648    201.2825   1.0709769280e+02   1.9967861889e+01    0.4195739     0.282288 -37.24   0.00109234    2.031    0.508
        16  -9.7667     80.9767    197.7209   1.1021779004e+02   2.3079887571e+01    0.1765383    0.1505723  60.38 0.0002498127    1.062    0.059
        17 -11.7455     66.6467    196.2954   1.1324415813e+02   2.5342057482e+01    0.3645146    0.2561932 -44.55   0.00119794    1.822    0.451
        18 -10.0429    173.0094    195.1313   8.9266529619e+01   8.3350831532e+00    0.2001355    0.1835418  20.33 0.0003675409    1.028    0.027
        19 -10.3028     97.5285    194.0712   1.0599431533e+02   2.1435417027e+01    0.3266678    0.2258822 -31.85  0.001620102    2.080    0.519
        20 -12.8504    109.8322    190.9132   1.0270350005e+02   2.0178305524e+01    0.6875962    0.6078143   7.14  0.003990748    1.367    0.268
        21 -12.0283    118.2503    193.2571   1.0112632559e+02   1.8290688122e+01    0.5189626    0.2898609  49.46  0.002393736    1.769    0.435
        22 -12.6711     75.9233    182.9208   1.0950853686e+02   2.7102923690e+01    0.7668951    0.6648318 -69.06  0.004686356    1.159    0.137
        23  -9.8027     58.3664    188.6121   1.1425213993e+02   2.8112339670e+01    0.3383916    0.1667451 -63.84  0.001662872    1.902    0.474
        24 -10.6425    103.9976    173.2977   1.0129596854e+02   2.5072973826e+01    0.2050094    0.1848443  53.40 0.0007325772    1.078    0.072
        25 -11.1276     81.4924    170.5695   1.0643103615e+02   2.9188609128e+01    0.2567999     0.233069 -80.96 0.0004685608    1.046    0.044
        26 -11.2603     85.0066    171.4986   1.0569910691e+02   2.8454895173e+01    0.2815091    0.2575603  -3.40 0.0005390224    1.359    0.264
        27 -11.9435     88.2161    167.0565   1.0420570873e+02   2.9022641578e+01    0.4506668    0.3241831 -47.39  0.001478259    1.484    0.326
        28 -10.9017     34.8873    171.2701   1.1783534228e+02   3.4759655804e+01    0.3560115    0.1578967  46.11  0.001411783    2.193    0.544
        29  -9.5184     81.6374    166.2810   1.0574369737e+02   3.0184634485e+01    0.1474387   0.09901889  66.98 0.0003639446    1.677    0.404
        30 -10.5057     23.0447    169.1904   1.2039094933e+02   3.6379524258e+01     0.447969    0.1725813 -79.95  0.001996267    2.380    0.580
        31 -10.2644      3.0284    163.0618   1.2445802138e+02   3.9413829557e+01    0.1825716    0.1605206  60.19  0.000636544    1.273    0.215
        32 -10.2926      8.9494    161.8072   1.2301467066e+02   3.9262905678e+01    0.1771039    0.1398232 -64.85 0.0008491433    1.284    0.221
        33 -12.4057    113.8536    209.0604   1.0442173638e+02   1.5730077126e+01    0.4011727    0.2872432  61.82  0.002204614    1.447    0.309
        34 -10.6422     94.5921    158.3768   1.0111534537e+02   3.0100202542e+01    0.2452662     0.232058 -52.45 0.0003335949    1.109    0.098
        35 -11.4817     62.6112    156.3424   1.0913099132e+02   3.5177928999e+01    0.2804688    0.2300209  81.85 0.0007820746    1.178    0.151
        36 -12.1455     22.6027    156.5885   1.1930880512e+02   3.9372762964e+01    0.3082734    0.2683449 -32.93  0.001454308    1.491    0.329
        37 -11.7306     71.4812    209.9111   1.1366003102e+02   2.1772426138e+01    0.5008468    0.3178399  16.70  0.001136471    2.480    0.597
        38  -9.5630     22.9888    210.0682   1.2352788363e+02   2.7383828028e+01    0.1190446   0.09082206  76.10 0.0008304331    1.003    0.003
        39 -11.2919     99.4756    152.1003   9.8687865561e+01   3.0813303370e+01    0.5349495    0.3756744 -27.97  0.001929365    1.887    0.470
        40 -12.5284     83.8502    152.6041   1.0292855398e+02   3.3153773145e+01    0.3670955    0.2722665 -40.60 0.0009079047    1.503    0.335
        41 -11.4772     34.3402    148.8026   1.1549386327e+02   4.0167609590e+01    0.2117468    0.1632213  55.41 0.0008350136    1.346    0.257
        42 -12.8808     26.2052    145.6345   1.1723662229e+02   4.1679748434e+01    0.4995236    0.2720093  24.29  0.002614658    2.246    0.555
        43 -10.0767    109.7067    138.3588   9.3148265547e+01   3.2347426124e+01    0.4052508    0.2403575 -29.68  0.001567266    2.392    0.582
        44 -13.0266     47.2447    132.8849   1.0976248902e+02   4.2756816158e+01    0.6320013    0.4465905 -71.89  0.001334724    1.255    0.203
        45 -11.4790     98.6681    137.6539   9.6029337511e+01   3.4438978116e+01    0.2660963    0.2475381 -34.16 0.0005798589    1.128    0.113
        46 -10.3730     78.3548    135.7033   1.0135079458e+02   3.8111978459e+01    0.2579405    0.1668568  47.39 0.0007591507    1.663    0.399
        47  -9.3588    116.2660    129.5586   8.9368000136e+01   3.3228427227e+01      0.20372    0.1506332  24.40 0.0005571322    1.561    0.359
        48  -9.0145    198.0319    126.0068   6.9007603457e+01   1.6746212672e+01    0.1722755    0.1630829 -16.73            0    1.018    0.018
        49 -10.2266    104.3279    125.2069   9.1679839196e+01   3.6458677282e+01    0.2656896     0.221198 -19.37 0.0008011204    1.380    0.276
        50 -13.5090     48.7067    218.3335   1.1909925161e+02   2.2885907900e+01    0.7771986    0.1954367  49.99  0.003045877    3.495    0.714
        51  -8.9754    111.2967    118.7322   8.8134507684e+01   3.6714017162e+01    0.1480866     0.121586  81.47 0.0001978485    1.516    0.341
        52  -9.4874     69.8346    117.1470   1.0010917331e+02   4.3889283870e+01    0.1963764    0.1585912 -34.37 0.0004024075    1.299    0.230
        53 -10.3067    104.3165     80.8959   7.9600418503e+01   4.6493738929e+01    0.2463644    0.2103247  25.14 0.0002881596    1.203    0.169
        54 -11.6946    169.2320     55.0789   5.5295943179e+01   3.6175588245e+01    0.3826763    0.3512082  72.83  0.000797576    1.085    0.078
        55 -11.4599     62.9052    207.2391   1.1520076380e+02   2.3455535900e+01    0.3008366    0.2132302  74.31  0.000970091    1.301    0.232
        56 -13.5701     11.3169    206.9353   1.2557474550e+02   2.9144280296e+01    0.3468865    0.2689886  57.88  0.001602051    1.219    0.179
        57 -11.4738    188.8222     34.3116   4.6098614979e+01   3.4191558125e+01    0.3970513    0.3115147  19.29  0.001034137    1.649    0.394
        58 -12.6734      7.4531    206.5283   1.2628379790e+02   2.9574784968e+01    0.2403074    0.1818791  89.07 0.0009562608    1.126    0.112
