#   1 NUMBER                 Running object number                                     
#   2 MAG_AUTO               Kron-like elliptical aperture magnitude                    [mag]
#   3 X_IMAGE                Object position along x                                    [pixel]
#   4 Y_IMAGE                Object position along y                                    [pixel]
#   5 X_WORLD                Barycenter position along world x axis                     [deg]
#   6 Y_WORLD                Barycenter position along world y axis                     [deg]
#   7 A_WORLD                Profile RMS along major axis (world units)                 [deg]
#   8 B_WORLD                Profile RMS along minor axis (world units)                 [deg]
#   9 THETA_WORLD            Position angle (CCW/world-x)                               [deg]
#  10 FWHM_WORLD             FWHM assuming a gaussian core                              [deg]
#  11 ELONGATION             A_IMAGE/B_IMAGE                                           
#  12 ELLIPTICITY            1 - B_IMAGE/A_IMAGE                                       
         1 -12.5298      8.8015     26.1978   4.7730649078e+01   7.4318781006e+01    0.7025993    0.2294019 -57.56  0.002821527    2.932    0.659
         2 -11.4289      1.4278     20.5038   5.1785473729e+01   7.6105388223e+01    0.5183731     0.132507 -59.55  0.001966757    3.428    0.708
         3 -12.5928      9.0702     15.7196   4.2233123754e+01   7.6366088213e+01    0.6664088    0.3825724  -3.30  0.003274317    2.143    0.533
         4 -13.3501    242.5075     14.3463   3.4536380573e+02   2.6891812641e+01    0.6867565    0.3683153 -15.04  0.003459759    3.765    0.734
         5 -11.2474    240.4972      2.9310   3.4324882082e+02   2.8407231074e+01    0.1617633   0.07912228 -37.81  0.001031859    1.607    0.378
         6 -12.1224    249.5280     16.5463   3.4547081474e+02   2.5494975671e+01    0.2805731    0.1207247 -34.51  0.001125399    1.916    0.478
         7 -10.4342     35.2205     15.4579   2.2297058435e+01   7.2500688505e+01    0.3129155    0.1798874 -16.30  0.001406946    2.598    0.615
         8 -12.3327     23.2092     12.9929   2.8765089570e+01   7.4943384796e+01     0.364134    0.2691355  -6.30  0.002113853    1.495    0.331
         9 -11.9862      9.1857      7.2310   3.6814103692e+01   7.7869410319e+01    0.4133092    0.2501882 -38.05  0.001674394    1.658    0.397
        10 -11.7087      2.9895      3.3153   4.0474678305e+01   7.9247046969e+01    0.5451783    0.3408991   8.49  0.003140917    1.573    0.364
        11 -11.2180     11.6907      1.8716   3.0453812757e+01   7.8392864202e+01    0.3453855    0.1649777  31.31  0.001304558    1.939    0.484
        12 -11.7059      3.6872     10.0560   4.4155397801e+01   7.7971893480e+01    0.3902714    0.2498414 -13.62  0.001805131    1.613    0.380
        13 -11.7543     16.3115      7.9449   3.0837200487e+01   7.6791877493e+01    0.3053213    0.2102594 -15.50  0.001333238    1.611    0.379
        14 -10.6419     19.4150      2.1047   2.3947236279e+01   7.7164388916e+01    0.3287508    0.1984156  11.48   0.00164483    2.233    0.552
        15 -10.8228    211.4119      8.2276   3.4560413330e+02   3.3139609023e+01    0.1634942   0.07551409 -45.15 0.0008257095    1.609    0.379
        16 -12.0652    248.8468      3.2387   3.4300768140e+02   2.6980086182e+01    0.3527776    0.1634965 -53.13  0.002356007    1.464    0.317
        17 -11.2225     27.5904      3.1834   1.8844370610e+01   7.5586421987e+01    0.3803303    0.2355974  11.04  0.001914092    2.206    0.547
        18 -11.5716    108.6742    241.3081   5.0745066694e+01   9.9682444358e+00    0.2450883    0.1659781  50.72  0.001423975    1.738    0.425
        19 -12.4275    242.1342    237.0038   2.5106965991e+01  -2.9176453989e+00    0.4639106    0.2140635 -22.99  0.001949074    1.818    0.450
        20 -11.1986    248.0989    233.6009   2.3763915211e+01  -2.9931310716e+00    0.2817851    0.1380661 -28.01  0.001434315    1.548    0.354
        21 -12.5375    247.3305    226.4446   2.2852739115e+01  -2.0679583478e+00    0.5009893    0.2086799 -27.57    0.0027806    1.956    0.489
        22 -12.2869    243.2937    245.1644   2.6065632515e+01  -3.9716508116e+00    0.5873518    0.2215691 -25.59  0.003419547    2.361    0.576
        23 -11.3977    248.5624    249.9738   2.5952244732e+01  -4.9214091474e+00    0.3260506    0.1679648   3.43  0.001736259    1.760    0.432
        24 -12.3234    249.1383    240.0959   2.4522971493e+01  -3.8381476245e+00    0.5588594    0.1760048 -37.34  0.003171802    2.601    0.615
        25 -11.2243    233.5077    250.5009   2.8251072242e+01  -3.8239784191e+00    0.2403422    0.1127385  19.16  0.001449757    1.953    0.488
        26 -12.3611    234.3200    244.2160   2.7274088796e+01  -3.1456329868e+00    0.3822367    0.1987084 -11.07  0.002447509    1.742    0.426
        27 -11.1845    124.7018    250.0069   4.8190801879e+01   6.7097628021e+00    0.3342992    0.1359527  11.88  0.001309708    3.501    0.714
        28 -10.2846    110.0306    250.4930   5.1412478060e+01   8.2233080647e+00    0.1890131   0.09842375  24.78 0.0004732786    1.560    0.359
        29 -11.2400     65.4618    249.3009   6.1343532279e+01   1.3209361736e+01    0.3723101    0.1447474  37.69  0.001791487    1.979    0.495
        30 -10.3863     51.4053    249.7757   6.4604042345e+01   1.4544895244e+01    0.2485226    0.1072118  34.92  0.001262927    1.730    0.422
        31 -11.2231     21.2765    248.8675   7.1434626425e+01   1.7542773853e+01    0.3400275    0.1911884  48.83  0.002021559    1.434    0.303
        32 -10.6398     62.3771    241.3793   6.1467503486e+01   1.5041448009e+01    0.2877391    0.1610308  49.18  0.001553122    1.691    0.409
        33 -10.6301     38.5380    241.3734   6.7092158019e+01   1.7438365548e+01    0.2931926    0.1350257  53.44  0.001461708    2.036    0.509
        34 -11.6096     17.1871    239.6662   7.2011349257e+01   1.9727751950e+01    0.6298063    0.2122847  40.32    0.0029854    2.081    0.519
        35 -11.5886    125.7611    240.1305   4.6833877214e+01   8.2432121758e+00    0.3550988    0.1335818  43.35  0.001449905    3.308    0.698
        36 -10.2262    203.3393    240.3144   3.1729345583e+01   6.1177392021e-02     0.115651   0.06512818  -9.20 0.0007047342    1.699    0.411
        37 -11.0938     83.5647    238.9830   5.6277925907e+01   1.3214597545e+01    0.2650183    0.1392121  38.22  0.001384308    1.617    0.382
        38 -10.5837    213.5713    250.4688   3.1398091951e+01  -2.1696770251e+00    0.1996202   0.08469848  22.45  0.001106093    2.131    0.531
        39 -10.5379      6.8303    235.1795   7.4266464257e+01   2.1512133543e+01    0.2692243    0.1555109  48.85  0.001265956    1.366    0.268
        40 -10.8984     32.6959    232.6576   6.8002691154e+01   1.9774908774e+01    0.3923324    0.1904674  70.95  0.001897178    2.349    0.574
        41 -10.0964      1.4002    234.6927   7.5513879805e+01   2.2042774150e+01    0.2129168    0.1039516  84.46  0.001132737    2.095    0.523
        42 -10.4007     45.5169    237.1399   6.5180671456e+01   1.7609196380e+01    0.3231536    0.1487246  61.83  0.001494701    2.510    0.602
        43 -10.2371     40.4695    230.3996   6.5976705664e+01   1.9499631294e+01    0.2974686    0.1508134  83.47  0.001432386    2.434    0.589
        44 -10.2081     48.1395    229.8683   6.4058456532e+01   1.8842773949e+01     0.212103      0.14409  48.29  0.001110169    1.301    0.231
        45 -11.0994      6.1327    227.6522   7.4193953830e+01   2.3151947433e+01    0.3966824    0.1710004  89.50   0.00192956    2.442    0.591
        46 -11.4062    236.9928    228.7783   2.4699918037e+01  -1.4800697228e+00    0.1904665    0.1172505 -27.09  0.001342516    1.267    0.211
        47 -10.3406     96.1769    228.4101   5.2233029091e+01   1.3809203836e+01    0.1943272   0.09749792  35.98 0.0009488775    1.709    0.415
        48 -10.7624     12.1434    226.8376   7.2716951100e+01   2.2836796093e+01    0.3467049    0.1623038  55.27  0.001449209    1.836    0.455
        49  -9.5614     33.6446    224.3209   6.7295745930e+01   2.1458358659e+01    0.1446958   0.07285417  50.63  0.000704609    1.758    0.431
        50 -11.3925      2.3840    220.3847   7.4875016415e+01   2.5021640900e+01    0.3694907    0.1881176  77.69  0.001931761    1.915    0.478
        51 -10.4970     43.9408    221.2690   6.4505249421e+01   2.1107742537e+01    0.2902533    0.1669059  73.99  0.001457879    1.998    0.499
        52 -11.9983     15.4137    218.7689   7.1582267233e+01   2.4326134606e+01    0.8513243    0.1318197  45.27   0.00287947    3.832    0.739
        53  -9.6713     77.3142    217.6359   5.5713555300e+01   1.8223530066e+01    0.1423063   0.08854017  55.20 0.0007040211    1.763    0.433
        54 -10.6852     35.1383    215.7749   6.6388914460e+01   2.3199671762e+01     0.306773    0.1377274  36.47  0.001440698    1.778    0.438
        55 -10.8922     25.6009    211.7238   6.8621057898e+01   2.5018948944e+01    0.5999168    0.2315051 -83.49  0.002504369    2.880    0.653
        56 -11.3235    248.3795    212.6767   2.0679700245e+01  -4.4454084552e-01    0.2836269    0.1249544 -16.67  0.001494775    2.792    0.642
        57 -11.3595      3.0704    212.6500   7.4460180912e+01   2.6696709952e+01     0.373839    0.2565241  60.77  0.002109961    1.249    0.200
        58 -10.6833      2.5196    206.2858   7.4388556752e+01   2.8198957094e+01    0.3084106    0.1768755  72.59  0.001287538    1.620    0.383
        59 -11.6997     13.3782    204.8596   7.1483746496e+01   2.7676818478e+01    0.5648743    0.2700934  57.32  0.002693666    1.893    0.472
        60 -10.5775     39.3920    205.6494   6.4565245341e+01   2.5097178179e+01    0.3410442    0.1498674  79.68  0.001320932    3.099    0.677
        61  -9.9313     52.3210    206.6844   6.1175838160e+01   2.3496962029e+01    0.1468647   0.08665007  53.33 0.0007040923    1.659    0.397
        62 -10.5606     29.9633    201.2063   6.6809976750e+01   2.7070280426e+01    0.2964073    0.1928502  63.49  0.001544501    1.480    0.324
        63 -10.4217    250.3604    199.5907   1.8410931804e+01   1.0591480671e+00    0.2619583   0.07105796 -35.51  0.001240481    2.882    0.653
        64 -10.5265    243.5695    199.2214   1.9298530091e+01   1.7502336697e+00    0.2690082   0.07834117 -37.02  0.001303387    2.686    0.628
        65 -12.4313      5.5840    195.2246   7.3160578069e+01   3.0591351343e+01    0.5719667    0.3618739  65.75  0.003112904    1.423    0.297
        66 -12.4235      3.6752    188.3566   7.3408180158e+01   3.2412208383e+01    0.4525414    0.3354173  86.71  0.002480948    1.285    0.222
        67 -12.1687     19.1211    194.3788   6.9380546652e+01   2.9702109576e+01    0.8173931    0.2696516  58.42  0.002932001    3.227    0.690
        68 -11.0912    237.4223    196.1329   1.9692622481e+01   2.7725073506e+00    0.3135042   0.07906295 -37.25  0.001369852    3.178    0.685
        69 -10.1543     33.1339    193.9795   6.5421638420e+01   2.8509696855e+01    0.2411689    0.1281519  64.10  0.001084684    1.974    0.493
        70 -11.3790    245.9873    191.8055   1.7791431816e+01   2.5098629513e+00    0.2046877    0.1233661 -32.25  0.001420676    1.267    0.211
        71 -11.0388     27.6796    187.3764   6.6497155351e+01   3.0664710197e+01    0.4581084    0.1636396  41.76  0.001813084    2.331    0.571
        72 -11.2494      2.1667    165.6948   7.2850291996e+01   3.8297607057e+01    0.4621528    0.2508675  72.41  0.002172576    1.746    0.427
        73 -13.2535      7.0620    173.9664   7.1762473008e+01   3.5803887475e+01    0.8465675    0.4248248 -88.87  0.003859703    1.936    0.483
        74 -12.2985      9.9800    167.0597   7.0485202623e+01   3.7390829204e+01    0.3438443    0.2890009 -64.97  0.001191073    1.254    0.203
        75 -10.9750     31.2861    173.2088   6.4302945320e+01   3.3943328597e+01    0.5295925    0.1863038 -86.86  0.001719141    3.659    0.727
        76 -10.9623     16.1052    182.2629   6.9534467103e+01   3.2974650662e+01    0.4021609    0.2197503  63.92  0.001892871    1.768    0.434
        77 -11.6743     19.1055    172.0850   6.7974719837e+01   3.5345134613e+01    0.6142293    0.3062692  71.34  0.002619815    2.121    0.529
        78 -12.0290      9.8098    137.1306   6.8482116155e+01   4.5513528558e+01    0.7558221     0.305427 -73.71  0.002969464    2.241    0.554
        79 -13.0596     10.5719    152.2774   6.9344166220e+01   4.1303501777e+01     1.071504    0.3665562  56.43  0.003686934    3.132    0.681
        80 -11.7326      7.2853    145.3656   6.9993546111e+01   4.3416509984e+01    0.3776605    0.2967316  29.40  0.001497294    1.290    0.225
        81 -10.6747    249.3258    149.9934   1.0385097591e+01   7.9640746065e+00    0.1812936   0.06794029 -50.93 0.0007051125    4.331    0.769
        82 -10.3340     36.0000    148.0004   6.0210789830e+01   4.0231972314e+01    0.2394347     0.156502  75.12   0.00108263    1.648    0.393
        83 -11.6953     20.5874    141.8846   6.4996269918e+01   4.3374854963e+01    0.5110499    0.2545883 -89.81  0.002070883    2.119    0.528
        84 -11.3699    247.5889    129.7822   7.0094652748e+00   1.1066035983e+01     0.167175   0.08077221 -44.23 0.0009527016    1.674    0.403
        85 -11.5642     21.9609    123.1263   6.2434054121e+01   4.8489716989e+01    0.5973234    0.2107426 -75.05  0.002060141    2.738    0.635
        86 -12.0865      5.4994    125.2896   6.9152785249e+01   4.9076329714e+01    0.7169706    0.3819681  70.66  0.003104886    1.955    0.488
        87 -11.8789     10.0290    113.2107   6.6187471344e+01   5.2160940515e+01    0.7527617    0.3415715  86.97  0.002883054    2.432    0.589
        88 -10.3476     21.5864    105.8013   6.0247432554e+01   5.3356979385e+01    0.3027485    0.2203189  73.02  0.001322032    1.472    0.321
        89 -11.5923     13.9385     99.4577   6.2781571291e+01   5.5713378585e+01    0.5656784    0.2839653 -80.60  0.002348569    2.001    0.500
        90  -9.1476     64.3109    100.6984   4.1121121370e+01   4.9351845520e+01     0.158895    0.1180144  68.57 0.0003792368    1.606    0.378
        91 -12.1349      2.7673     95.7518   6.7534834524e+01   5.7405812525e+01    0.7284713    0.2973557 -85.86  0.002772274    2.511    0.602
        92 -12.3355     16.5581     86.2430   5.9438595585e+01   5.9122079127e+01    0.8930306          nan -58.49  0.002116369    5.893    0.830
        93 -10.4830    243.5129     83.5239   3.5876538236e+02   1.8198503443e+01    0.1159769   0.08576348 -46.24 0.0001083851    1.019    0.018
        94 -11.5883      4.5824     81.3226   6.4820542920e+01   6.1223825720e+01    0.5026521   0.06006948 -67.81  0.001382331    4.585    0.782
        95 -11.8403     11.1846     70.2388   5.9300156341e+01   6.3745983628e+01     0.540476    0.2032478 -53.15  0.002131823    2.285    0.562
        96 -10.6245     24.6968     68.1389   5.1154863325e+01   6.3110699863e+01    0.3509495    0.1658761 -29.28  0.001269364    2.951    0.661
        97 -10.0556    221.9771     63.4872   3.5674123552e+02   2.4478137411e+01    0.1470858    0.1138825  77.16 0.0003402132    1.486    0.327
        98  -9.8661    231.4694     58.5264   3.5486970829e+02   2.3510063346e+01    0.1165836   0.08922059 -50.00 6.747304e-06    1.031    0.030
        99 -11.5564     16.7456     52.9408   5.1630424490e+01   6.7613940104e+01    0.5597537    0.2863925 -74.20  0.002378066    2.382    0.580
       100 -12.1605      3.0989     51.1754   6.0224404260e+01   6.9042557188e+01    0.6448571    0.2669001 -57.93  0.002826891    2.043    0.511
       101 -10.4489    249.3204     50.3400   3.5190381554e+02   2.1637305575e+01   0.09640498    0.0809475 -12.36 0.0005817189    1.716    0.417
       102 -12.4146     12.1730     39.5500   5.0390743295e+01   7.1129114548e+01    0.7165128    0.3302409 -57.97  0.003256178    2.050    0.512
       103 -11.6064      1.4829     38.5636   5.8153171108e+01   7.2131293237e+01    0.5295964    0.1229697 -69.34  0.001712853    4.283    0.767
       104 -10.4760    201.0328    248.8503   3.3284526961e+01  -8.5256440160e-01    0.2654743    0.1144744   4.82  0.001255343    3.234    0.691
       105 -10.8578    152.2875    249.4334   4.2421767640e+01   3.8554814317e+00    0.2281025   0.09580224  21.07  0.001142609    2.124    0.529
       106 -11.9379     99.4365    245.9019   5.3298893490e+01   1.0182087377e+01    0.5134983    0.2863785  62.93  0.002416951    3.069    0.674
       107 -11.1016      1.8741     29.8057   5.5047583670e+01   7.4086352319e+01    0.2717187    0.1813089 -69.27  0.001357954    1.619    0.382
       108 -11.8367     21.8595     24.3618   3.6457135182e+01   7.3175303276e+01    0.3968872    0.1621589 -41.88  0.001686347    2.536    0.606
       109 -10.9948     90.3746    247.9724   5.5543780321e+01   1.0804522268e+01    0.2891948    0.1841195  65.65  0.001591914    2.208    0.547
       110 -10.8838     76.8298    248.2056   5.8649931590e+01   1.2219470682e+01    0.2732713    0.1786556  45.69   0.00163649    1.435    0.303
       111 -10.8525     35.2676    248.2257   6.8219307029e+01   1.6399205037e+01    0.3285464     0.153412  43.48  0.001755103    1.680    0.405
       112 -10.7729      9.9320    247.9936   7.3954177165e+01   1.8679127275e+01    0.4332993   0.07019474  46.51  0.001680271    3.413    0.707
       113 -11.9517      4.1501    242.7693   7.5101566875e+01   2.0181953621e+01    0.5271477    0.2656843  60.47  0.002794594    1.720    0.419
       114 -11.0492     83.9123    246.6066   5.6890883966e+01   1.1753170173e+01    0.2365247    0.1592854  41.50  0.001337855    1.345    0.256
       115 -11.1826    218.8571    245.3796   2.9851321487e+01  -1.9912375077e+00    0.2045164    0.1181719 -24.17 0.0009737862    1.401    0.286
       116 -10.7421     45.4496    244.6233   6.5662790335e+01   1.6125218112e+01    0.3443362    0.1648804  31.30  0.001807256    1.610    0.379
       117 -11.6359    223.9879    243.4965   2.8774963429e+01  -2.1973955899e+00    0.1789067    0.1316239 -35.19  0.001388159    1.596    0.374
       118 -10.4761    193.6028    243.7892   3.3897373964e+01   5.1473650435e-01    0.2401649    0.1042476  -0.56 0.0009619574    4.307    0.768
       119 -11.1692     72.9425    241.7950   5.9016155553e+01   1.3839024665e+01    0.3004531     0.191321 -89.69  0.001669654    2.125    0.529
       120 -11.2755     54.3850    240.9304   6.3322863391e+01   1.5956359521e+01    0.4105534    0.2224485  74.57  0.002069575    2.409    0.585
       121 -10.8562     28.7323    241.7201   6.9409345501e+01   1.8287467508e+01    0.3866536     0.134117  40.78  0.001812372    2.090    0.522
