#   1 NUMBER                 Running object number                                     
#   2 MAG_AUTO               Kron-like elliptical aperture magnitude                    [mag]
#   3 X_IMAGE                Object position along x                                    [pixel]
#   4 Y_IMAGE                Object position along y                                    [pixel]
#   5 X_WORLD                Barycenter position along world x axis                     [deg]
#   6 Y_WORLD                Barycenter position along world y axis                     [deg]
#   7 A_WORLD                Profile RMS along major axis (world units)                 [deg]
#   8 B_WORLD                Profile RMS along minor axis (world units)                 [deg]
#   9 THETA_WORLD            Position angle (CCW/world-x)                               [deg]
#  10 FWHM_WORLD             FWHM assuming a gaussian core                              [deg]
#  11 ELONGATION             A_IMAGE/B_IMAGE                                           
#  12 ELLIPTICITY            1 - B_IMAGE/A_IMAGE                                       
         1 -12.7527    199.4157     34.5291   5.7986841000e+01   3.0869960367e+01      1.22676    0.9081811  37.49  0.005976404    1.498    0.332
         2 -13.6258    215.1978     17.6847   5.1003946502e+01   2.8745144400e+01     1.457822     0.988807  32.50  0.006995485    1.799    0.444
         3 -10.8355      2.0001      6.9262   1.0821814415e+02   7.3848036126e+01    0.7386889   0.05113791 -57.60  0.002044715    7.355    0.864
         4 -10.0977     16.1807      4.1489   9.8768710306e+01   7.3309664449e+01    0.1467372    0.1245507 -50.23 0.0005003552    1.349    0.259
         5 -14.2320     32.6534    247.3525   1.3041011222e+02   2.3027437933e+01     9.347509     3.005072  31.13   0.02945212   11.312    0.912
         6 -11.4425    163.2133    249.4736   1.1019129121e+02   5.6611246449e+00    0.3832483    0.1179905  46.88  0.001885855    2.511    0.602
         7 -11.9352    139.6400    248.1633   1.1380467894e+02   9.2604059597e+00    0.3261968    0.2735941 -73.67  0.002709931    1.554    0.356
         8 -12.2602    126.5026    249.8333   1.1605233084e+02   1.0926593812e+01    0.5541241    0.1934562  43.75  0.002974858    2.079    0.519
         9 -13.7822     28.0581    184.0910   1.2789535814e+02   3.4209463900e+01      4.14598     1.128072  69.88 0.0004308421   11.151    0.910
        10 -12.5728     28.8540    223.7159   1.2993196743e+02   2.7120809810e+01    0.2590965    0.2197534  76.00 0.0008389268    1.384    0.278
        11 -13.8034     35.1089    216.0669   1.2852384798e+02   2.7733012181e+01    0.7459423     0.488913  64.98  0.003041035    1.078    0.073
        12 -14.6369     11.0184    243.0085   1.3341378423e+02   2.5857454349e+01     5.089861    0.9197932 -82.12   0.02281932    5.709    0.825
        13 -10.9740     89.7996    245.9738   1.2155999919e+02   1.6458518647e+01    0.1878171    0.1125715  50.15 0.0007752274    1.213    0.176
        14 -10.2832     83.0323    229.9684   1.2145425234e+02   1.9719514913e+01    0.1649732    0.1239931  60.50 0.0007793761    1.051    0.048
        15 -10.8546    150.2301    228.5206   1.0998281719e+02   1.0219201275e+01    0.1762775    0.1648577 -70.80  0.001415493    1.361    0.265
        16  -8.8579     95.5181    219.4628   1.1844873045e+02   1.9678688524e+01    0.1113804   0.08494232  59.30 6.429861e-05    1.020    0.020
        17 -10.6694    105.8138    240.8206   1.1858735039e+02   1.5037661579e+01    0.1488615   0.09472925  61.86 0.0003785564    1.322    0.244
        18 -10.6299    225.2732    199.9207   9.3306148371e+01   1.6309766340e+00    0.3435083    0.2290269 -53.24 0.0009881781    2.631    0.620
        19 -15.1059      9.4052    209.5532   1.3245381130e+02   3.1413055014e+01     10.38222     1.066979 -80.65   0.02827056   12.169    0.918
        20 -11.4631     57.3159    191.9024   1.2296981993e+02   2.9478667706e+01    0.2753882    0.2214758 -56.27 0.0006156319    1.704    0.413
        21  -8.3058    181.5411    192.4774   9.9581027360e+01   1.0035112352e+01    0.1244096    0.1045971  36.92 0.0001505909    1.005    0.005
        22 -11.5536     63.7258    184.5065   1.2110096640e+02   3.0071941288e+01    0.2310125    0.2010265 -72.43 0.0007277368    1.386    0.279
        23  -8.7374     41.3102    179.0699   1.2501247058e+02   3.3772266537e+01    0.1561342    0.1130305  81.92   0.00042673    1.093    0.085
        24 -10.7411     74.3297    172.8237   1.1779883705e+02   3.0947228145e+01    0.2150993    0.1784918  81.00 0.0004082819    1.063    0.059
        25 -13.0036     60.8542    170.1748   1.2029987737e+02   3.3229229251e+01     0.421088    0.2507063 -50.39  0.001884326    2.238    0.553
        26 -11.6957     82.2547    164.3181   1.1513726706e+02   3.1542005516e+01    0.5623008    0.4346451  61.12  0.003616345    1.136    0.119
        27 -10.6715     22.5746    156.3485   1.2707703011e+02   4.0230528296e+01    0.1905213    0.1347294  38.96  0.001309786    1.610    0.379
        28  -9.7439     95.8109    149.3460   1.1006813320e+02   3.2581117127e+01    0.2451394    0.2195893  47.94 0.0007607004    1.223    0.182
        29 -12.3247     67.6027    144.0190   1.1578450734e+02   3.7802165980e+01    0.6626047    0.4069589  69.36  0.002822149    1.673    0.402
        30 -11.7702     84.1765    148.0104   1.1251532440e+02   3.4633319352e+01    0.2571442    0.2193242 -62.67 0.0005819122    1.264    0.209
        31  -8.8314     98.9730    145.4653   1.0873491267e+02   3.2887656232e+01    0.1847571    0.1241363  42.92 0.0003345799    1.491    0.329
        32  -9.2506     58.3151    145.3048   1.1810078054e+02   3.8711448735e+01    0.1122903   0.09185202 -44.94 0.0002888105    1.622    0.384
        33 -11.1860     57.0727    130.7298   1.1650637094e+02   4.2048218374e+01    0.4281382    0.1778876 -74.30  0.001870928    2.465    0.594
        34  -9.2928    108.4134    135.1272   1.0474943243e+02   3.3487744009e+01    0.2702225    0.2188675   2.49  0.001361376    1.883    0.469
        35  -9.3356     68.5264    134.5461   1.1424203487e+02   3.9741043690e+01    0.1280929    0.1087902  88.41 7.333464e-05    1.006    0.006
        36 -10.3549     95.2547    132.2206   1.0736673756e+02   3.6307671577e+01    0.2310096    0.2150239 -49.35  0.000466241    1.254    0.202
        37  -8.9662    105.9337    122.4858   1.0290383816e+02   3.6621365569e+01    0.1884892    0.1341813  45.87 0.0003240467    1.422    0.297
        38 -14.2010     43.6389    204.8028   1.2639844232e+02   2.8742626309e+01     2.251594     0.772773  55.68   0.00688428    2.352    0.575
        39 -10.6398     53.7866    119.2770   1.1569287721e+02   4.5006221166e+01    0.3233175    0.1551713 -82.78  0.001424477    2.457    0.593
        40  -9.7252    167.8300    112.8110   8.6357482231e+01   2.6051742997e+01    0.3267226     0.264004 -81.16  0.001122821    1.564    0.361
        41  -8.8830    203.4750    111.5103   7.9055027011e+01   1.8256753618e+01     0.147363    0.1357923   8.02  0.000104242    1.056    0.053
        42 -10.3342     12.5904     60.7390   1.1847414047e+02   6.2061998423e+01    0.2413872   0.08246747 -64.31  0.001140061    2.098    0.523
        43  -9.3645    203.6641    249.6730   1.0389600182e+02  -2.9144738513e-01    0.1082356   0.06429863  22.17 0.0007051715    1.722    0.419
        44 -11.6206    173.2574    249.2812   1.0858499008e+02   4.2046443534e+00    0.3526211    0.1685879  49.90  0.002138325    1.787    0.441
        45 -10.2411      1.7358     27.8598   1.1547725749e+02   6.9730593317e+01    0.2665597   0.08147585 -66.92  0.001180497    2.737    0.635
        46 -10.6531     18.6218     26.3461   1.0692409749e+02   6.8958544974e+01    0.3510264     0.166169  45.91  0.001712101    3.380    0.704
        47 -12.0165     99.4152    249.0060   1.2026953591e+02   1.4764003182e+01    0.4889997    0.1702336  49.99  0.002751265    2.087    0.521
