#   1 NUMBER                 Running object number                                     
#   2 MAG_AUTO               Kron-like elliptical aperture magnitude                    [mag]
#   3 X_IMAGE                Object position along x                                    [pixel]
#   4 Y_IMAGE                Object position along y                                    [pixel]
#   5 X_WORLD                Barycenter position along world x axis                     [deg]
#   6 Y_WORLD                Barycenter position along world y axis                     [deg]
#   7 A_WORLD                Profile RMS along major axis (world units)                 [deg]
#   8 B_WORLD                Profile RMS along minor axis (world units)                 [deg]
#   9 THETA_WORLD            Position angle (CCW/world-x)                               [deg]
#  10 FWHM_WORLD             FWHM assuming a gaussian core                              [deg]
#  11 ELONGATION             A_IMAGE/B_IMAGE                                           
#  12 ELLIPTICITY            1 - B_IMAGE/A_IMAGE                                       
         1 -15.3293    204.5772     68.1183   3.1333447801e+01   2.4813092485e+01     1.516115     1.106854 -81.87  0.006957735    1.673    0.402
         2 -11.3000    176.9638     32.3559   2.5572125005e+01   3.7276462784e+01    0.2971011    0.1404195 -46.14   0.00115094    2.329    0.571
         3 -11.5853     24.2256    235.2731   1.0064188550e+02   2.3953437015e+01    0.3636606    0.1932831  30.67  0.002220293    2.710    0.631
         4  -9.9218      4.9217    232.0000   1.0353804250e+02   2.6490187395e+01    0.1428339   0.04734758  37.66 0.0007959583    2.898    0.655
         5 -10.3614    235.9617    227.7539   6.1287756162e+01  -7.3322571881e+00    0.1640956   0.08453852  36.81 0.0008894412    1.610    0.379
         6 -10.1449    229.9568    222.4859   6.1463784196e+01  -5.7300656946e+00    0.1950559    0.1016968  37.65  0.001038589    1.609    0.379
         7 -11.4651     12.2284    219.9787   1.0182736933e+02   2.7955701353e+01    0.2304587    0.2132174  56.38  0.001531044    1.608    0.378
         8 -10.1208    249.5574    219.2163   5.7464267245e+01  -8.4372513929e+00    0.1640731    0.1004968 -11.53 0.0009458853    1.690    0.408
         9 -10.5517     35.7556    219.1631   9.7778890697e+01   2.5629594250e+01    0.1642957    0.1484516  -2.45  0.001229329    2.048    0.512
        10 -10.3076    172.6710    217.3292   7.1364018675e+01   4.9111542132e+00     0.129525   0.09567973  67.40 0.0007051341    1.711    0.415
        11 -10.8739     20.7560    214.3644   1.0009254665e+02   2.8154101766e+01    0.2162904    0.1616884 -37.43  0.001444541    2.672    0.626
        12 -10.3955      2.1244    214.8948   1.0325211342e+02   2.9851851247e+01     0.160454    0.1204646  53.36 0.0009248409    1.395    0.283
        13 -10.8280    241.9032    210.3331   5.7218680724e+01  -6.1394386851e+00    0.1990063    0.1654102 -24.52  0.001313944    1.367    0.268
        14 -11.9777     11.4731    208.2126   1.0135571908e+02   3.0245758282e+01    0.3653848    0.2200352  19.00  0.002203226    3.151    0.683
        15 -10.7950      2.0009    207.0188   1.0291315156e+02   3.1345043081e+01    0.1799401    0.1225293 -82.87 0.0007009301    1.312    0.238
        16 -11.8879      4.7159    201.0004   1.0215345492e+02   3.2261341467e+01    0.2636749    0.2093223  69.43  0.002148352    1.227    0.185
        17 -12.0938     14.6851    198.8789   1.0026911459e+02   3.1759102642e+01     0.202313    0.1297478  56.14  0.001071148    1.342    0.255
        18 -12.9666     38.8650    195.9269   9.5547299459e+01   2.9846762018e+01    0.3275803    0.1772161  42.90  0.001685181    1.764    0.433
        19 -12.0069     19.8771    196.9073   9.9201852479e+01   3.1648773048e+01    0.1612133     0.129983 -79.88  0.001226661    1.331    0.248
        20 -11.7565    215.0429    192.9954   5.8936505130e+01   9.3132564297e-01    0.5156729    0.1975849 -39.42  0.002103464    2.850    0.649
        21 -11.5447    247.6293    194.1796   5.3212393585e+01  -4.9774206645e+00    0.2487499    0.2358401  -9.05  0.001306261    1.350    0.259
        22 -12.9806     10.4929    193.4109   1.0071057659e+02   3.3237670955e+01    0.3411138    0.2100118 -42.10  0.002016892    3.055    0.673
        23 -13.9610     34.4050    191.5242   9.6068030375e+01   3.1242769214e+01    0.6567693    0.3499267 -46.86   0.00336947    3.131    0.681
        24 -11.1611    224.0158    193.2839   5.7302338291e+01  -7.4776284495e-01    0.1928971    0.1586287  24.36 0.0007022601    1.056    0.053
        25 -11.4350     17.7139    192.1400   9.9299042257e+01   3.2818887348e+01    0.1764866    0.1430768 -31.99  0.001242571    2.175    0.540
        26 -13.2492     19.8011    165.0786   9.6929112611e+01   3.8301348307e+01    0.3674625    0.1699619 -75.96   0.00203661    1.746    0.427
        27 -12.1414      4.5824    190.5224   1.0162448550e+02   3.4338964821e+01    0.2620258    0.2262086  24.64   0.00157559    1.776    0.437
        28 -13.0577      3.1815    181.5721   1.0138134627e+02   3.6264850908e+01    0.6343697    0.2807887  87.32  0.003667329    1.857    0.461
        29 -13.0844     12.1351    183.9074   9.9826501745e+01   3.5015866553e+01    0.2940604    0.1834502  40.99   0.00149754    1.711    0.416
        30 -14.9644     12.0899    176.0273   9.9318163993e+01   3.6654083334e+01    0.9006879    0.5929869  38.95  0.006237052    1.708    0.415
        31 -10.9861    250.1285    185.9346   5.1177290059e+01  -4.2823328462e+00    0.2338188    0.1615799 -17.74  0.001084503    1.376    0.273
        32 -12.5373    247.3847    177.1205   4.9895520295e+01  -2.5751935339e+00    0.4223986    0.2700115 -35.81  0.001983602    1.614    0.380
        33 -12.9513    242.9412    181.2789   5.1513635054e+01  -2.3878570562e+00      0.70078    0.2749463 -30.91  0.002854635    2.622    0.619
        34 -12.2984    240.3003    173.8104   5.0471424546e+01  -8.2573986580e-01    0.5959287    0.3663938   4.27  0.002790061    2.114    0.527
        35 -11.4513    234.9761    182.2286   5.3131874381e+01  -1.1038031448e+00    0.2292204    0.1850512 -19.40 0.0008003396    1.211    0.174
        36 -11.0461     67.6694    190.6631   8.9281340521e+01   2.7379013023e+01    0.1134123    0.0963797 -39.24 0.0007052058    1.734    0.423
        37 -10.1927    230.4804    181.0172   5.3711785365e+01  -1.0489263042e-01    0.1974262    0.1274892 -31.18 0.0008544201    1.573    0.364
        38 -12.0472    177.3294    179.9090   6.3992323930e+01   1.0407159691e+01     0.267553    0.1852603  49.85  0.001334315    1.387    0.279
        39 -13.0886     29.9012    187.3239   9.6625124413e+01   3.2590545705e+01    0.2783844    0.2106917 -55.84  0.001910356    1.697    0.411
        40 -11.2925    244.0996    188.4974   5.2734293632e+01  -3.6063970751e+00    0.1934295    0.1167117  39.02 0.0009088441    1.566    0.361
        41 -10.9889    223.6053    183.8222   5.5546153112e+01   7.4137141150e-01    0.1820246    0.1250241 -43.81 0.0009485162    1.717    0.418
        42 -10.6092    225.7235    173.3893   5.3048182338e+01   1.9562678667e+00    0.2436481     0.165281 -43.35  0.001245549    1.678    0.404
        43 -11.3416    238.2962    188.1298   5.3696002498e+01  -2.5467948155e+00    0.2437747    0.1804758  38.03 0.0009154917    1.315    0.240
        44 -15.2839      9.7855    159.5020   9.8611256747e+01   4.0361162657e+01     1.421381    0.4458243 -77.57  0.006629116    2.558    0.609
        45 -14.4640     16.9204    149.0265   9.6187388885e+01   4.2070660149e+01    0.8037549    0.2498483 -60.47  0.003697269    2.692    0.629
        46 -15.3035      5.8619    133.6126   9.7368789293e+01   4.6325288338e+01     1.485571    0.6889148  78.18  0.007711026    2.260    0.558
        47 -13.5279     24.0219    161.4829   9.5720110356e+01   3.8698683569e+01     0.469192    0.1931267 -83.68  0.002280073    2.237    0.553
        48 -12.4431     28.9961    161.1551   9.4602610655e+01   3.8298670151e+01    0.2246672    0.1437598 -79.77  0.001066372    1.274    0.215
        49 -11.6296    178.3201    159.4760   5.9677443870e+01   1.4033063567e+01    0.2660894    0.1388119 -43.08  0.001091476    2.033    0.508
        50 -12.0299      1.9147    168.0208   1.0081183620e+02   3.9169400427e+01    0.5428228    0.1256554 -77.01  0.002307466    3.301    0.697
        51 -10.4127    231.4864    159.0747   4.8966206894e+01   3.1144570406e+00      0.21154     0.132175 -33.30 0.0009990952    1.575    0.365
        52 -10.8835    246.1448    157.2982   4.5975272017e+01   5.8460613571e-01    0.2429265    0.1733247 -17.43  0.001093487    1.360    0.265
        53 -12.8752      3.2584    158.4750   9.9908052367e+01   4.1088366165e+01    0.8131014    0.2415789 -82.20  0.003624934    2.885    0.653
        54 -12.4710    242.4531    150.3704   4.5112105395e+01   2.3618924606e+00    0.6084751    0.3315321 -28.42  0.002796185    1.806    0.446
        55 -10.3979    233.0542    153.6931   4.7511173785e+01   3.6719284401e+00    0.2000674    0.1741408  23.54 0.0006464741    1.100    0.091
        56 -10.6173    238.1654    158.7174   4.7682499919e+01   1.8770482025e+00    0.2381575    0.1816148 -36.24 0.0009303147    1.346    0.257
        57 -11.2418    249.5747    152.2048   4.4288141150e+01   7.2058345146e-01    0.3535086    0.2320467  28.99  0.001768799    1.586    0.370
        58 -12.1632     44.3020    153.0166   9.0260978201e+01   3.8544620180e+01    0.1853785    0.1424904 -82.76 0.0009332036    1.081    0.075
        59 -11.3550    235.4816    146.5438   4.5493658714e+01   4.3473651365e+00    0.3771867    0.2681805 -36.77  0.001494097    1.389    0.280
        60 -12.0176     41.4953    146.9848   9.0217801174e+01   4.0223554835e+01    0.2004614    0.1045886 -70.90  0.001043594    1.623    0.384
        61 -12.9472      3.6097    149.1521   9.9159005491e+01   4.3071264002e+01    0.7180493    0.3454647 -79.50  0.004218233    1.590    0.371
        62 -10.9138    247.9765    144.5474   4.2880513130e+01   2.2083105506e+00     0.368799    0.1658848 -43.11  0.001511652    2.377    0.579
        63 -10.0999    221.6598    152.3011   4.9313013461e+01   6.1991241008e+00    0.1378412    0.1173259 -84.02 0.0007037118    1.670    0.401
        64  -9.9334    200.4887    145.0005   5.1822255678e+01   1.1978634311e+01    0.2035612    0.1294531 -61.99 0.0008081461    2.389    0.581
        65 -11.5030    243.6879    139.8998   4.2571535455e+01   3.7818920685e+00    0.3464599    0.2302862 -34.89  0.001539602    1.425    0.298
        66 -10.6140    241.5224    134.4418   4.1703739979e+01   5.0960033554e+00    0.4005912    0.1329327 -34.23  0.001396691    2.878    0.653
        67 -11.4114     35.3956    140.7777   9.0963291680e+01   4.2267049103e+01    0.1837082   0.09232317 -62.55 0.0009571168    1.691    0.409
        68 -10.5471    248.2400    135.3988   4.0790247766e+01   3.5974408273e+00    0.2479709    0.1934453 -30.83     0.001323    1.192    0.161
        69 -11.2066    234.4380    132.8833   4.2572110494e+01   6.8110443099e+00    0.4741342    0.1908966 -36.42  0.001806349    2.353    0.575
        70 -11.2203    247.9240    129.8294   3.9577160492e+01   4.5467937152e+00    0.3402131    0.2576738 -41.55  0.001259532    1.324    0.245
        71 -14.0072     16.7048    123.2810   9.3636713842e+01   4.7875053761e+01    0.5801468    0.2744519  82.83  0.002786846    2.469    0.595
        72 -10.5471    219.3847    168.8044   5.3295743483e+01   3.9164820616e+00    0.2424969    0.1737288 -22.39  0.001161455    1.444    0.308
        73 -13.3724      8.9759    118.5029   9.5109525976e+01   4.9493591314e+01    0.4502594    0.1934045  84.36  0.002058655    2.788    0.641
        74  -9.9480    206.2600    130.6346   4.7297862778e+01   1.3338437195e+01    0.1510774    0.1184084 -66.46 0.0004489509    1.639    0.390
        75 -11.2139     24.8412    114.8495   9.0417757907e+01   4.9173336732e+01    0.1726131    0.1274574  80.30  0.001089932    1.350    0.259
        76 -12.3609      4.3691    108.5730   9.5240733543e+01   5.2001794323e+01    0.2865749     0.154763 -52.69  0.001658449    1.688    0.407
        77 -10.0416    248.4883    107.4513   3.4278502465e+01   8.0248098861e+00    0.1415275    0.1295804 -33.06 0.0001358034    1.030    0.030
        78 -11.8548    223.2636     97.2448   3.5860400050e+01   1.5350678075e+01    0.6639602    0.3645431  81.07  0.002095567    4.071    0.754
        79 -11.8807      1.8883     94.5399   9.4275227005e+01   5.5256745341e+01    0.2768818    0.1221788 -77.19  0.001469605    1.858    0.462
        80 -12.6925    192.7201     84.9375   3.8145833006e+01   2.4969682369e+01    0.6448899    0.4751338 -65.86  0.002889898    1.636    0.389
        81 -12.4453    179.0763     84.0095   4.0632712691e+01   2.8586623942e+01    0.4957373     0.282962 -53.63  0.001899276    2.096    0.523
        82 -10.1196      2.1804    247.5963   1.0455050812e+02   2.4076566064e+01    0.1130801   0.08300811  41.02 0.0009380104    1.766    0.434
        83 -11.5076    171.4507     63.7132   3.6236137397e+01   3.4091703327e+01    0.3010534    0.1446423 -39.16  0.001019532    2.083    0.520
        84 -10.3579    157.8431     61.6012   3.8490717471e+01   3.7933545956e+01    0.2188034    0.1486154  68.18  0.000933529    1.651    0.394
        85 -10.9834    163.8049     72.1284   4.0424240025e+01   3.4601804978e+01      0.24577    0.2199831 -73.02  0.001127722    1.220    0.180
        86 -10.3492    150.4780     72.4901   4.3607000060e+01   3.7865139615e+01    0.1546456    0.1529361  53.86 0.0001357654    1.022    0.021
        87 -13.1616    170.0416     43.9560   3.0406665245e+01   3.7523900403e+01    0.6327367    0.2931262 -44.99  0.002384005    2.362    0.577
        88 -11.6637      3.2201     49.1704   8.6190683767e+01   6.4917145572e+01    0.2817102    0.1796345 -81.48  0.001766398    1.799    0.444
        89 -11.2308    157.9405     75.6895   4.2831512738e+01   3.5432674281e+01    0.2282519    0.2081513  59.00 0.0009480926    1.097    0.088
        90 -12.1215    243.7974     51.0500   2.1282902182e+01   1.7750243870e+01      0.42222    0.1656676 -39.61  0.001694601    2.228    0.551
        91 -12.6836    173.5011     39.4785   2.8372027532e+01   3.7243424882e+01     0.297682    0.2467221  17.32  0.001153101    1.407    0.289
        92 -11.3535     24.7310     49.2226   7.7508013004e+01   6.3627200663e+01    0.2701342    0.1641297 -79.43  0.001380057    2.588    0.614
