#   1 NUMBER                 Running object number                                     
#   2 MAG_AUTO               Kron-like elliptical aperture magnitude                    [mag]
#   3 X_IMAGE                Object position along x                                    [pixel]
#   4 Y_IMAGE                Object position along y                                    [pixel]
#   5 X_WORLD                Barycenter position along world x axis                     [deg]
#   6 Y_WORLD                Barycenter position along world y axis                     [deg]
#   7 A_WORLD                Profile RMS along major axis (world units)                 [deg]
#   8 B_WORLD                Profile RMS along minor axis (world units)                 [deg]
#   9 THETA_WORLD            Position angle (CCW/world-x)                               [deg]
#  10 FWHM_WORLD             FWHM assuming a gaussian core                              [deg]
#  11 ELONGATION             A_IMAGE/B_IMAGE                                           
#  12 ELLIPTICITY            1 - B_IMAGE/A_IMAGE                                       
         1 -16.4224    245.5089    121.5964   8.5920739939e+01   9.0659128132e+00     4.207498    0.7138572 -33.10    0.0123139    4.888    0.795
         2 -15.5494    249.4468    102.5321   8.0798597585e+01   1.0683932633e+01     2.987762    0.3402225 -32.99  0.007745889    5.799    0.828
         3 -15.0851      4.0756     26.4427   1.2718287907e+02   6.9097681220e+01     1.059315    0.3523166 -61.52  0.005135547    2.093    0.522
         4 -13.9661      3.9837      5.7200   1.2031945990e+02   7.3339045188e+01    0.5275447    0.3000113 -46.11  0.003357958    1.262    0.208
         5 -13.8560    172.9695    246.5621   1.1991746182e+02   6.1366828609e+00    0.3927031    0.2262759  43.58  0.001854692    1.331    0.249
         6 -12.6018    250.0220    248.6310   1.0830424733e+02  -4.6230736126e+00    0.3091209    0.1542851 -12.45  0.002073569    2.280    0.561
         7 -15.3629    105.3774    148.7153   1.1973933015e+02   3.1291202797e+01     1.288674    0.8124541 -78.42  0.006024391    2.047    0.511
         8 -17.8565     81.2976    152.5208   1.2574180506e+02   3.4011255704e+01     10.29221     3.602946 -72.03   0.03593623    4.557    0.781
         9 -17.5312     42.6825    106.4358   1.2894381550e+02   4.8442170702e+01     14.28882    0.6760542 -66.68    0.0219506   19.768    0.949
        10 -18.1057     52.2483    229.1670   1.3809680869e+02   2.3967111388e+01     3.144776     1.086697  36.90   0.01812086    2.559    0.609
        11 -14.6959    161.8662    240.5643   1.2104270532e+02   8.3678421460e+00    0.7808176    0.4688418 -54.85  0.005316873    2.479    0.597
        12 -15.3882    173.6431    230.0948   1.1787864101e+02   7.8727239593e+00     1.087054    0.8045278  55.76  0.006513125    1.537    0.349
        13 -14.9520    158.2993    217.8225   1.1897254489e+02   1.1670063895e+01    0.8720041    0.5450595  42.81  0.004028241    1.263    0.208
        14 -12.8966    193.1698    245.9997   1.1664548781e+02   3.3541132588e+00    0.3506831    0.2072639  17.03  0.002311922    1.911    0.477
        15 -14.4810    211.0773    229.2926   1.1163371727e+02   2.4434049446e+00    0.8068707    0.5780597 -52.40  0.005424476    2.558    0.609
        16 -17.2058    240.6936    189.9940   1.0065185409e+02   1.9523976647e+00     3.345348     1.305471 -35.40   0.01616787    3.030    0.670
        17 -13.5497    216.7178    184.5751   1.0369266600e+02   6.4539867493e+00    0.6414549     0.346199  18.72  0.003215415    2.140    0.533
        18 -13.0526     27.7910    227.2102   1.4188103690e+02   2.6736293317e+01    0.2999553    0.1550612  51.43  0.001589586    1.396    0.283
        19 -13.2126    140.3617    225.5709   1.2298610176e+02   1.3296811515e+01     0.531664    0.2630847  49.10  0.002989962    1.713    0.416
        20 -12.4624    115.3848    215.8101   1.2630522840e+02   1.8206453068e+01    0.3740301    0.1503312  43.14  0.002024497    1.946    0.486
        21 -14.4745    214.3319    220.6694   1.0988428910e+02   2.8326120856e+00    0.6797649     0.466449  20.84  0.004010476    1.204    0.169
        22 -12.2157    131.4510    211.6184   1.2298078481e+02   1.6527389382e+01    0.2430841    0.1629737  58.26  0.001592358    1.474    0.321
        23 -13.9043    225.9008    204.2129   1.0546375006e+02   2.7767402175e+00    0.7091817    0.3891463 -38.79  0.004111357    2.437    0.590
        24 -14.3720    217.6722    201.3135   1.0635844221e+02   4.3774438074e+00    0.9821918    0.3953638  35.47  0.004901277    2.062    0.515
        25 -14.0427    141.6710    200.9690   1.1981323436e+02   1.6554664876e+01    0.8474135      0.47217  51.52  0.003631553    1.684    0.406
        26 -13.5672    141.0646    194.0346   1.1900728852e+02   1.7694595825e+01    0.5189674    0.3464577  49.41  0.002915349    1.325    0.245
        27 -13.5870    153.7634    198.9057   1.1730032318e+02   1.4964640196e+01    0.8365728    0.3398746  47.26  0.003960502    2.201    0.546
        28 -13.0180    149.2673    191.6500   1.1712287990e+02   1.6753934865e+01    0.3830528    0.3739761   9.32   0.00190862    1.183    0.155
        29 -11.7909      8.2453    202.4440   1.4401827399e+02   3.2458491617e+01    0.2055452   0.06804026  37.82  0.001260697    2.498    0.600
        30 -12.6926    180.4696    191.8793   1.1135270277e+02   1.1599269013e+01    0.3061394    0.2453074 -48.49  0.002013394    1.620    0.383
        31 -13.1998     17.2071    184.9308   1.4169242815e+02   3.4731849710e+01    0.5254704    0.2221182  65.80  0.003200148    2.043    0.511
        32 -12.3876    169.6730    184.4223   1.1216931068e+02   1.4455965194e+01    0.3303675    0.2230095 -58.72  0.001856024    2.142    0.533
        33 -14.3468    141.2569    179.9128   1.1696116150e+02   1.9894384531e+01    0.7404834    0.5121904 -59.66  0.003655481    1.765    0.434
        34 -12.2675     27.1336    175.1314   1.3928194435e+02   3.5641649189e+01    0.3876775    0.1070821 -66.58  0.001909896    3.173    0.685
        35 -12.7029    109.4723    175.2123   1.2270363297e+02   2.5685675019e+01     0.305812    0.2926089 -56.16  0.001877225    1.228    0.186
        36 -12.6627     53.6569    173.4549   1.3392316768e+02   3.3280797329e+01    0.4093383     0.167017 -81.55  0.002003158    2.804    0.643
        37 -15.7847    216.1008    158.1740   9.8830335177e+01   9.8763370394e+00      1.77795    0.8899335 -35.87  0.008264851    2.160    0.537
        38 -15.8800     45.2393    192.0089   1.3698661505e+02   3.0791654184e+01    0.8627408    0.5876055 -87.83  0.004607763    1.336    0.251
        39 -17.3615     94.4367    245.1882   1.3238844867e+02   1.6803930513e+01     1.977585     1.258551  29.79   0.01400552    1.832    0.454
        40 -13.2971     64.8747    164.0127   1.3069539466e+02   3.3809754706e+01    0.3357945    0.2247003 -85.40  0.001804526    1.443    0.307
        41 -11.5174      9.7747    154.5844   1.4148176385e+02   4.1047460943e+01    0.1434468   0.07543541  49.22 0.0009427906    1.694    0.410
        42 -13.9698    250.0124    146.2990   9.0678988774e+01   5.2461654675e+00    0.8518432    0.2130769 -26.58  0.002928677    4.034    0.752
        43 -13.9925     15.7168    138.9581   1.3918309330e+02   4.3738277254e+01    0.3783119    0.2940346  66.53  0.002864249    1.167    0.143
        44 -14.0885     13.2590    131.6901   1.3919718641e+02   4.5434653328e+01    0.5594431    0.3714601 -45.21  0.003724843    1.947    0.486
        45 -13.6283     22.1658    130.5404   1.3701441896e+02   4.4988597287e+01    0.3420352    0.2486845  82.30  0.001879232    1.145    0.127
        46 -12.7068    149.8766    245.2334   1.2348360888e+02   9.5070024664e+00    0.2968746    0.2230819 -16.59  0.002249888    2.005    0.501
        47 -12.6870    153.4287    239.9824   1.2235821013e+02   9.6284331433e+00    0.2966734    0.2469183 -59.28  0.002187253    1.664    0.399
        48 -14.3395     97.5876    133.6297   1.1906028554e+02   3.5544035617e+01    0.6528662    0.3994969  49.75  0.003389545    1.636    0.389
        49 -14.6805     17.1993    108.0324   1.3610321367e+02   5.0236312733e+01    0.5510441    0.5154546  54.33  0.003699241    1.295    0.228
        50 -12.9383    107.6604    108.2503   1.1147830896e+02   3.9245682876e+01    0.3926554    0.3271877 -26.09  0.002171917    1.362    0.266
        51 -17.9183     42.0499    247.5264   1.4060039481e+02   2.2358905601e+01     4.082181    0.1051121  38.04   0.01470811    7.142    0.860
        52 -13.7678     31.3331     97.3621   1.3085338548e+02   5.1518164337e+01    0.3328631    0.2707472  -7.49  0.002218725    1.674    0.403
        53 -14.0397     21.5539     89.2026   1.3260024238e+02   5.4125765377e+01    0.3965707     0.250801  49.69  0.002410299    1.772    0.436
        54 -15.1398     13.7867     79.5040   1.3365906250e+02   5.6835110873e+01    0.9585804     0.544831  12.70  0.005634481    2.413    0.586
        55 -15.2323      6.1437     74.5437   1.3544466505e+02   5.8387829203e+01     1.084077    0.7289194 -49.25  0.006391952    1.446    0.308
        56 -12.5728     14.0965     51.3772   1.2874641228e+02   6.3135585075e+01    0.2506906    0.1513774 -73.04  0.001488125    1.432    0.302
        57 -13.1465      6.0080     41.1284   1.2986267789e+02   6.5835944931e+01    0.2949355    0.2253198 -74.61    0.0018155    1.196    0.164
        58 -12.4156    143.0127    248.0843   1.2487013786e+02   1.0114631312e+01    0.2308807    0.1766353  15.12  0.001487234    1.653    0.395
