#   1 NUMBER                 Running object number                                     
#   2 MAG_AUTO               Kron-like elliptical aperture magnitude                    [mag]
#   3 X_IMAGE                Object position along x                                    [pixel]
#   4 Y_IMAGE                Object position along y                                    [pixel]
#   5 X_WORLD                Barycenter position along world x axis                     [deg]
#   6 Y_WORLD                Barycenter position along world y axis                     [deg]
#   7 A_WORLD                Profile RMS along major axis (world units)                 [deg]
#   8 B_WORLD                Profile RMS along minor axis (world units)                 [deg]
#   9 THETA_WORLD            Position angle (CCW/world-x)                               [deg]
#  10 FWHM_WORLD             FWHM assuming a gaussian core                              [deg]
#  11 ELONGATION             A_IMAGE/B_IMAGE                                           
#  12 ELLIPTICITY            1 - B_IMAGE/A_IMAGE                                       
         1 -15.0605      7.7322    149.6154   1.4636916905e+02   4.3208399769e+01     6.554139     1.956626 -85.90   0.02590098    3.625    0.724
         2 -13.4654    211.2869      8.3059   6.1635499844e+01   3.0464264913e+01     1.045453    0.8646555  52.71  0.005558944    1.312    0.238
         3 -13.5251    195.0697     28.1600   6.8899719182e+01   3.2487034741e+01     1.679461     1.454522  32.34  0.007756644    1.316    0.240
         4 -11.9169      3.0023     20.2578   1.2630027964e+02   7.1131502516e+01    0.4020793     0.182335 -49.27  0.002380449    1.612    0.380
         5 -11.9661      3.2977      4.1749   1.1964621377e+02   7.3875894634e+01    0.5931385    0.3166094 -34.00  0.003876467    1.404    0.288
         6 -11.0787     21.2905    244.2330   1.4940393376e+02   2.3443948017e+01    0.3629001    0.1270986  60.06  0.002093858    2.180    0.541
         7 -11.8761    248.7569    249.1245   1.0972215389e+02  -1.0424835301e+01    0.5991461    0.2727199  38.14    0.0034745    1.810    0.448
         8 -12.0257    238.6363    248.4981   1.1132106850e+02  -8.9250410133e+00    0.5068431    0.1962183  38.39  0.002664752    2.038    0.509
         9 -12.8285    138.9498    250.0000   1.2932872991e+02   6.5482126368e+00     1.410804    0.3234791  36.25  0.004090021    6.059    0.835
        10 -10.5194     97.9637    249.6194   1.3670445817e+02   1.2875400717e+01    0.1854767    0.1643705 -47.72  0.001396916    1.664    0.399
        11 -11.5303     35.4281    244.0201   1.4709402945e+02   2.1939274274e+01    0.3598748    0.2566406  30.14  0.002612639    1.961    0.490
        12 -11.5429     12.4797    240.3646   1.5064049079e+02   2.5000832073e+01    0.4222232    0.1327516  65.67  0.002227259    2.760    0.638
        13 -11.0030     12.0436    249.4880   1.5107857958e+02   2.3517325698e+01    0.2326218    0.1355279  83.39    0.0017989    1.383    0.277
        14 -10.7810      2.8611    248.6640   1.5244792458e+02   2.4550664850e+01    0.2691312    0.1680337 -80.02  0.002179201    1.617    0.381
        15 -10.4549     50.4784    245.2771   1.4465039898e+02   1.9960791022e+01    0.2053286    0.1246132  31.19  0.001303845    2.133    0.531
        16  -9.4382     22.6610    236.9124   1.4883535007e+02   2.4551770783e+01    0.1783953    0.1461492 -49.38  0.001392068    2.091    0.522
        17 -14.5011    103.1063    229.1309   1.3376807098e+02   1.5499217177e+01     6.790406          nan  43.75   0.01414221   10.836    0.908
        18 -12.5572      9.5914    207.0115   1.4959415800e+02   3.1291936787e+01    0.6667275    0.3952846  34.64  0.003391284    1.903    0.474
        19 -11.7136     60.8825    199.8424   1.3921604518e+02   2.7038785982e+01    0.2484392    0.2135965 -66.64 0.0005179373    1.394    0.282
        20 -11.1391     16.9275    198.2144   1.4776209770e+02   3.2302902556e+01    0.2540783     0.150638  58.59 0.0004579585    1.367    0.269
        21 -13.0635     48.9926    216.2281   1.4292763297e+02   2.5332947821e+01    0.9829963    0.8923919 -30.56  0.006234439    1.817    0.450
        22  -9.5983    191.8294    192.7810   1.1059854549e+02   6.0690528768e+00    0.3858894    0.2172087 -65.17  0.001247499    5.500    0.818
        23 -11.9891     67.1996    191.3235   1.3704621536e+02   2.7938593123e+01    0.2557578     0.222188 -77.87 0.0004830437    1.237    0.192
        24 -12.8981     34.3057    234.0501   1.4672968172e+02   2.3787955161e+01    0.2774323    0.2203043 -86.86 0.0008013053    1.346    0.257
        25 -13.9694     39.2515    227.0843   1.4545220797e+02   2.4471309518e+01    0.8441058    0.5098149  58.08  0.002852242    1.255    0.203
        26 -13.2759     64.0890    176.5669   1.3610137627e+02   3.1469136530e+01    0.4565125    0.2719536 -46.88  0.001618148    2.202    0.546
        27 -10.9013     77.4423    178.3332   1.3328639608e+02   2.9245324211e+01    0.2256892    0.2047813  75.81 0.0003377419    1.104    0.095
        28  -9.7144     98.6526    175.4392   1.2801161537e+02   2.6602053191e+01    0.2754487    0.1826717  70.19 0.0003409648    1.669    0.401
        29 -11.9204     85.3330    168.8032   1.3017117395e+02   3.0141480650e+01    0.6763228    0.6088404  18.29  0.004141765    1.411    0.291
        30 -11.5598    173.0507    248.2892   1.2288581635e+02   1.2907164579e+00    0.5022884    0.2117493  52.96  0.002208226    2.926    0.658
        31 -10.1081     97.5033    152.8803   1.2467257075e+02   3.1735541705e+01    0.3582907    0.2912808 -34.42 0.0008232189    1.526    0.345
        32  -9.4040    100.4820    148.6794   1.2316951663e+02   3.2176506513e+01    0.2282011    0.1987706   8.31  0.000374378    1.456    0.313
        33 -12.0957     86.1812    152.1283   1.2740790238e+02   3.3731610070e+01    0.2896754    0.2466222 -48.38 0.0006475137    1.311    0.237
        34  -9.3203    134.1247    146.8653   1.1435921548e+02   2.6268330580e+01    0.5078608    0.1018523 -51.46  0.001195385    6.106    0.836
        35 -12.3186     67.2509    143.6255   1.3092658893e+02   3.8427764437e+01    0.6922069    0.4290433  64.20  0.003458189    1.805    0.446
        36 -10.7575    173.7415    222.7107   1.1916447905e+02   4.7493309661e+00    0.4009782    0.2551579  50.62  0.001952934    1.515    0.340
        37  -9.8448    109.4205    137.7508   1.1873655118e+02   3.3056413619e+01     0.422417    0.2876255  -6.33  0.001471209    2.840    0.648
        38 -10.5090     96.5512    135.0110   1.2160231173e+02   3.5956856215e+01    0.2411726    0.2319358   6.81 0.0004506562    1.191    0.160
        39 -11.0668     56.1767    131.4734   1.3199370269e+02   4.2663824534e+01    0.5523679     0.267496 -75.72    0.0024142    2.272    0.560
        40 -10.8609     33.2695    132.4071   1.3831898547e+02   4.4912188471e+01    0.3798929    0.1463772  48.52  0.001685485    2.831    0.647
        41  -9.1122    106.6463    124.1271   1.1655412585e+02   3.6650662038e+01    0.1910567    0.1791232 -53.07 0.0003432041    1.076    0.070
        42  -9.4186    167.7725    112.8834   9.8199402067e+01   2.5848784219e+01    0.2821082    0.2074359  83.46  0.001187212    1.949    0.487
        43  -9.4833    203.1733    111.7917   9.0494819095e+01   1.7618778938e+01    0.2136886    0.1767663  12.62 0.0004707433    1.341    0.255
        44  -9.1864     38.5057     94.9681   1.3091283168e+02   5.3049955621e+01    0.1752996    0.1596544 -61.79 0.0004079312    1.066    0.062
        45  -8.4095     68.3891     83.4563   1.1823244758e+02   5.2129561652e+01    0.1359362    0.1233306 -53.16 0.0002185636    1.069    0.065
        46  -9.7460    157.7440     76.5950   9.0258181816e+01   3.5149619142e+01    0.2220114    0.1510677  64.31 0.0009188084    1.610    0.379
        47  -9.5287     40.0182     66.1290   1.2378553944e+02   5.9299416047e+01    0.3505927     0.166068  48.47  0.001501045    3.302    0.697
        48  -8.8349    152.5099    213.0202   1.2192159771e+02   1.0022686624e+01    0.1601541    0.1334575 -51.94 0.0003105036    1.453    0.312
        49 -11.1425     13.8292     54.9631   1.3132270865e+02   6.3741151979e+01    0.2567683    0.1613539  30.19 0.0009668283    1.948    0.487
        50  -8.7162     92.6933    215.2730   1.3433527507e+02   1.9569854895e+01    0.1264986   0.07752173  63.59 0.0001974293    1.544    0.352
        51 -10.5379     81.2340    249.3748   1.3964058012e+02   1.5285895473e+01    0.2195081    0.1098974  50.08  0.001327846    1.478    0.324
        52  -9.8737     46.9221    249.4978   1.4550166998e+02   1.9684634126e+01    0.1537704   0.08002567  45.60 0.0003760929    1.522    0.343
        53 -10.6833      2.0000     35.4754   1.3151973350e+02   6.8306723466e+01    0.3313392     0.050607 -62.68  0.001081305    5.210    0.808
        54 -11.8674     30.6762    249.2113   1.4813635308e+02   2.1600143149e+01     0.578238    0.2299027  40.76  0.003514325    2.110    0.526
