#   1 NUMBER                 Running object number                                     
#   2 MAG_AUTO               Kron-like elliptical aperture magnitude                    [mag]
#   3 X_IMAGE                Object position along x                                    [pixel]
#   4 Y_IMAGE                Object position along y                                    [pixel]
#   5 X_WORLD                Barycenter position along world x axis                     [deg]
#   6 Y_WORLD                Barycenter position along world y axis                     [deg]
#   7 A_WORLD                Profile RMS along major axis (world units)                 [deg]
#   8 B_WORLD                Profile RMS along minor axis (world units)                 [deg]
#   9 THETA_WORLD            Position angle (CCW/world-x)                               [deg]
#  10 FWHM_WORLD             FWHM assuming a gaussian core                              [deg]
#  11 ELONGATION             A_IMAGE/B_IMAGE                                           
#  12 ELLIPTICITY            1 - B_IMAGE/A_IMAGE                                       
         1 -15.0796    164.0117     59.3282   8.8748223091e+01   3.6129133049e+01     4.093853     2.099172 -49.25  0.007691408    2.323    0.570
         2 -14.6179    196.4445     48.9130   7.9987315238e+01   2.9509876367e+01     3.727262     2.272555   0.39    0.0155868    2.244    0.554
         3 -14.5327    207.1242     38.8073   7.5582872227e+01   2.8144319947e+01     1.403612    0.9879519 -29.06  0.004593625    1.338    0.252
         4 -14.7352    224.4987     30.1426   7.1182796241e+01   2.4968276151e+01     1.510843    0.7287355 -89.66  0.004060108    3.138    0.681
         5 -14.3564    190.3461     15.9468   7.0741460833e+01   3.4922981824e+01     1.084744    0.5877108 -30.35  0.002698618    1.744    0.427
         6 -18.0414    241.5710     12.5331   6.5055162536e+01   2.2857752332e+01     9.562467     5.526381 -13.82   0.02648956    1.829    0.453
         7 -15.9293    203.5327      2.5953   6.5364873243e+01   3.2821340989e+01     10.88194          nan  63.57   0.01598468   18.542    0.946
         8 -12.6340      2.7000     36.5309   1.3919838574e+02   6.8582736508e+01    0.8761424    0.2238977 -69.51  0.003528918    2.953    0.661
         9 -11.5490    134.2087      6.1317   7.5214449036e+01   5.0823226790e+01    0.5108339    0.2694931 -25.13   0.00130244    1.905    0.475
        10  -9.5237     60.3101      1.3435   9.3258785132e+01   6.8737384240e+01    0.1402574   0.09289636  11.02 0.0005592412    1.699    0.411
        11  -8.9850    100.7191    139.7058   1.2452665153e+02   3.3852075112e+01    0.1247685    0.1060837 -12.67 0.0002583963    1.534    0.348
        12  -9.5268    189.4612    238.4734   1.2077558268e+02   4.5738059255e+00    0.1082982   0.07831359  29.66 1.735696e-05    1.041    0.039
        13 -13.8760      8.5584    219.8553   1.5162124140e+02   2.9475559949e+01     1.211537    0.5735976  68.71  0.008494253    1.668    0.401
        14 -14.5738     29.8164    207.5686   1.4727358638e+02   2.9590885391e+01    0.7939252     0.578287  60.86  0.003843193    1.014    0.013
        15 -10.3999    191.9058    193.0519   1.1396279270e+02   9.4907352423e+00    0.4785131    0.2698616 -61.83  0.001627809    7.382    0.865
        16 -13.8903     44.5345    193.3520   1.4357024729e+02   3.0615156795e+01    0.8208343    0.5819018  78.74  0.005896194    1.270    0.212
        17 -13.9636     66.4096    171.5109   1.3705047175e+02   3.2243965438e+01     1.027825    0.8782554 -22.59   0.00188407    1.698    0.411
        18 -10.3469    139.5373    102.4924   1.0676104668e+02   3.4180856460e+01    0.2579875    0.1350676  35.91 0.0001740663    2.133    0.531
        19 -11.2747    144.6769     97.2374   1.0415184389e+02   3.4080765049e+01    0.3207414    0.2871766 -23.24 0.0005883588    1.151    0.131
        20 -10.5278    132.2030     94.7364   1.0656180062e+02   3.7253698362e+01    0.3197255    0.2416288 -64.68 0.0006742469    1.600    0.375
        21  -9.6280    113.8143     95.1496   1.1156444563e+02   4.0944416538e+01    0.1959798    0.1744921  -0.90 0.0005191562    1.282    0.220
        22 -13.5293     56.6657    183.3466   1.4028463126e+02   3.1127115230e+01    0.5064751    0.4063554  49.70  0.001523543    1.124    0.110
        23 -12.0244    201.9131     89.4005   9.0389999028e+01   2.2524923583e+01    0.6782596    0.3918715 -36.67  0.003106153    1.683    0.406
        24 -11.3552    137.6421     86.5197   1.0292633653e+02   3.7665391566e+01    0.3614538    0.3191433 -58.06 0.0008593343    1.220    0.180
        25 -10.6405    208.3121     76.6986   8.5988053241e+01   2.2910411705e+01    0.7296216    0.2353738 -21.90   0.00206532    4.528    0.779
        26 -12.3597    150.0710     78.2486   9.7550783184e+01   3.6352315237e+01    0.3599732    0.2725352 -32.11 0.0006593773    1.333    0.250
        27 -14.2076     62.2910    177.4086   1.3854014838e+02   3.1598119960e+01      1.42256     1.082525 -10.68  0.002875671    2.238    0.553
        28 -12.5017      2.5689     53.7064   1.4231216178e+02   6.4642200496e+01     1.027677    0.3043485 -78.73   0.00406584    3.138    0.681
        29 -12.5080    153.3563     89.9872   1.0016086775e+02   3.3489474056e+01    0.5790074    0.5046673  22.39  0.003046315    1.190    0.159
        30 -12.8599    184.6560    135.0797   1.0455044123e+02   1.9103127604e+01    0.9339244    0.3194438  51.01  0.003234463    3.330    0.700
        31 -10.2248    205.5697     64.8005   8.3170712890e+01   2.5187282644e+01    0.2722433    0.2376114 -74.15  0.001150438    1.328    0.247
        32 -13.0156    188.6228    132.1339   1.0313804336e+02   1.8782882936e+01    0.7587696     0.427728  62.36  0.002789894    2.820    0.645
        33 -11.9969    134.5649    107.9861   1.0935824418e+02   3.4143993764e+01     1.070688    0.2751131 -44.81   0.00315736    4.006    0.750
        34 -11.4429    134.8952    120.7904   1.1226965821e+02   3.1558849992e+01    0.7380165    0.1808881 -47.88  0.001799694    4.457    0.776
        35 -11.1156    160.6270    128.2849   1.0802706192e+02   2.5025734417e+01    0.3302201    0.3040807 -41.64  0.001613766    1.177    0.150
        36 -10.3675    143.7436     50.3504   9.0057361045e+01   4.2605110125e+01    0.2570796    0.2324625 -69.25  0.000537604    1.224    0.183
        37 -12.1222     67.8463    144.4804   1.3362750024e+02   3.7633765798e+01    0.6170351     0.323159  58.53  0.002370703    2.042    0.510
        38  -9.1882    176.9836     40.0160   8.0244457997e+01   3.5590078677e+01     0.172464    0.1618225 -25.61 0.0009400171    1.055    0.052
        39 -10.2601    195.0056     34.2163   7.5792099527e+01   3.1704636028e+01    0.4500293    0.2111072 -48.17  0.001250133    2.346    0.574
        40  -9.9148    190.0079     36.0298   7.7029395187e+01   3.2754007452e+01    0.2192327    0.2024213 -52.32 0.0005087159    1.083    0.077
        41 -11.4779    167.6660    113.8015   1.0316480505e+02   2.6108659796e+01    0.3638072    0.2750036  63.08  0.001813199    1.569    0.363
        42 -11.9094    203.6630    138.5145   1.0170501587e+02   1.4913822724e+01    0.3926987    0.2472013 -38.05  0.002034524    1.700    0.412
        43 -11.8320      2.1611     65.8924   1.4414909262e+02   6.1823130550e+01    0.8501484   0.09539483 -72.71  0.002602031    5.057    0.802
        44 -11.6142    229.2920    138.9151   9.7400827243e+01   1.0140145787e+01    0.2411449    0.1900645   0.54  0.001481627    1.124    0.111
        45 -12.0429    120.4944    102.5038   1.1161891983e+02   3.8093572661e+01    0.5384762    0.2137678 -43.53  0.001954631    2.610    0.617
        46 -10.0224    230.4413    166.9356   1.0276571193e+02   6.4976702415e+00    0.1517845     0.100234 -48.94 0.0008072287    2.503    0.600
        47 -14.0430    181.7447     61.5639   8.6122104382e+01   3.1389816638e+01     2.022984     1.061484  18.06  0.006142474    4.247    0.765
