#   1 NUMBER                 Running object number                                     
#   2 MAG_AUTO               Kron-like elliptical aperture magnitude                    [mag]
#   3 X_IMAGE                Object position along x                                    [pixel]
#   4 Y_IMAGE                Object position along y                                    [pixel]
#   5 X_WORLD                Barycenter position along world x axis                     [deg]
#   6 Y_WORLD                Barycenter position along world y axis                     [deg]
#   7 A_WORLD                Profile RMS along major axis (world units)                 [deg]
#   8 B_WORLD                Profile RMS along minor axis (world units)                 [deg]
#   9 THETA_WORLD            Position angle (CCW/world-x)                               [deg]
#  10 FWHM_WORLD             FWHM assuming a gaussian core                              [deg]
#  11 ELONGATION             A_IMAGE/B_IMAGE                                           
#  12 ELLIPTICITY            1 - B_IMAGE/A_IMAGE                                       
         1 -11.9032    217.6699     29.1797   6.1965299748e+01   2.7956390619e+01    0.7302551    0.5104119 -75.94  0.003119883    1.305    0.234
         2 -11.7514     66.7208     21.0831   8.9318060663e+01   6.2205662575e+01    0.6528175     0.430665   7.25  0.003076394    1.544    0.352
         3 -11.1458     73.0603     17.1140   8.5703747855e+01   6.1560317936e+01    0.3883972    0.2374908  43.42   0.00171459    1.471    0.320
         4 -11.3693     26.0390      4.5567   9.7914524710e+01   6.9741633198e+01    0.5380151    0.2581603 -17.85  0.003130083    2.088    0.521
         5 -11.2419     18.9472      4.6234   1.0114197281e+02   7.0513795783e+01    0.4286341    0.2923564 -39.58  0.002893438    1.936    0.483
         6 -11.0715      9.3416     19.1808   1.1181890672e+02   6.9518230749e+01    0.6384631    0.2484649  17.45  0.003430764    2.791    0.642
         7 -12.1538     29.7131     25.0886   1.0504814899e+02   6.6782153714e+01    0.8770208    0.3874574 -24.15  0.003078062    2.464    0.594
         8 -10.8371     30.5785     14.5699   1.0035875980e+02   6.8058406036e+01    0.5096653    0.2207105 -22.42  0.002044594    2.488    0.598
         9 -12.0570     19.1355     13.4013   1.0491818049e+02   6.9430766704e+01    0.5211029    0.2946433  24.33  0.003472573    1.699    0.412
        10 -11.6557     13.1010      8.5467   1.0563407760e+02   7.0619122701e+01    0.3517756    0.2678046 -13.10  0.001804834    1.142    0.125
        11 -13.2655      4.2780     10.3696   1.1068131750e+02   7.1128895116e+01    0.7260777    0.3315873 -41.91 0.0009416917    1.985    0.496
        12 -11.7431    136.7547     28.1764   7.3638647190e+01   4.7240832358e+01    0.9465613    0.3412615 -25.52  0.003644426    3.420    0.708
        13 -11.7870    130.2861     19.7848   7.2327396886e+01   4.9618961046e+01     1.036641    0.1681534  52.66  0.003287362    4.018    0.751
        14 -11.0552    117.2557     15.1747   7.3512734458e+01   5.2973239077e+01    0.4679593    0.2673333  77.13   0.00184396    2.360    0.576
        15 -12.7999    132.8181      3.9599   6.7003284839e+01   5.0483130295e+01     1.180884    0.3490078  64.26   0.00467863    2.807    0.644
        16 -12.8416    112.5547     22.3564   7.6944519794e+01   5.3280222770e+01    0.8712006    0.5424921 -37.31  0.003704256    1.842    0.457
        17 -12.3362    112.4547      7.7019   7.2047156405e+01   5.4678962513e+01     1.012606     0.347653  60.33   0.00432042    2.507    0.601
        18 -13.7640    100.3623      6.2614   7.4217706711e+01   5.7342197017e+01    0.6581318    0.4801838 -36.91  0.001918626    1.672    0.402
        19 -12.4747     93.2414      8.3440   7.6683962434e+01   5.8607758613e+01    0.5927718    0.3337836  47.18  0.003361328    1.457    0.314
        20 -11.5476    147.7221     25.6406   7.0832001932e+01   4.4961063295e+01    0.6571807    0.4416487  22.73  0.002428375    1.989    0.497
        21 -11.7014    221.4377     12.3284   5.7983747235e+01   2.9117497330e+01    0.8680356    0.2598611  72.31  0.003508933    3.001    0.667
        22 -10.2879    198.2043     19.6396   6.1997023794e+01   3.3618474260e+01    0.3662035    0.2120713 -37.37  0.001838487    1.844    0.458
        23 -12.0085    231.9233      9.5642   5.6498987650e+01   2.7117623111e+01    0.5704653    0.3463505 -87.89  0.002071919    1.423    0.297
        24  -9.9211    224.7115      8.4308   5.6887398385e+01   2.8824377755e+01    0.1929473    0.1156575  63.05  0.000827435    1.644    0.392
        25 -11.0169    210.6815     13.7414   5.9321545603e+01   3.1391196007e+01    0.3694286    0.2434657 -53.31  0.001383949    1.453    0.312
        26 -11.2363     44.1025      2.2686   8.9470873954e+01   6.7631068305e+01     0.651273    0.2155548  35.57  0.003147477    2.694    0.629
        27 -11.7022     50.4450      9.8743   9.0423484049e+01   6.5959364237e+01    0.3792636    0.2785432  15.11  0.001776509    1.093    0.085
        28 -11.7880     68.2511      4.4351   8.2123594239e+01   6.3603704927e+01    0.7577487    0.2774188  40.91  0.003407901    2.251    0.556
        29 -12.3216     43.7600     15.9013   9.5524035782e+01   6.6246084110e+01    0.8749257    0.5091654  48.86  0.004952316    2.489    0.598
        30 -10.3185     60.4675      3.4715   8.4202729047e+01   6.5001576584e+01    0.2237288    0.1554197  21.93 0.0006227836    1.189    0.159
        31 -11.1730    202.8517     18.4430   6.1195928651e+01   3.2668752994e+01    0.5079394    0.3767873  45.54  0.002236088    1.674    0.402
        32 -10.5797    146.8701     12.3121   6.7129622501e+01   4.6520621338e+01    0.3368064    0.2089996 -56.11 0.0009961323    1.970    0.492
        33 -10.6226    151.1943     14.0488   6.6930890331e+01   4.5343011081e+01    0.3238177    0.2019478 -34.95    0.0010538    1.808    0.447
        34 -10.4038     79.7548     16.8958   8.3579889500e+01   6.0386329826e+01    0.3572051    0.2046322 -44.02  0.001707951    2.455    0.593
        35  -9.9511    247.5335     13.4860   5.5992681696e+01   2.3335979631e+01    0.2068501    0.1429303 -67.66 0.0005668398    1.163    0.140
        36 -10.8241    248.7246     10.5980   5.5357797172e+01   2.3427547231e+01    0.2959167    0.2032029  72.08  0.001733587    1.433    0.302
        37 -10.1481    163.6795      5.5359   6.2799692675e+01   4.3203475751e+01    0.3121275    0.2296787 -56.47  0.001147439    1.479    0.324
        38 -10.2348    167.9889      7.6991   6.2792756553e+01   4.1990673775e+01    0.1830453    0.1577036  75.96 0.0003893866    1.045    0.043
        39 -10.9120    170.2213     14.0647   6.4140180341e+01   4.0842079961e+01    0.3800641    0.1912495 -48.74  0.001398778    2.197    0.545
        40 -11.3613    165.2060     11.6883   6.4208917516e+01   4.2266502030e+01    0.4437851    0.2808589 -72.53  0.001902333    1.831    0.454
        41  -8.6979    169.1609      4.4044   6.1796689909e+01   4.2019017771e+01    0.3078432    0.1957971  83.00  0.001150718    1.440    0.305
        42 -10.1606    166.0296      1.7821   6.1520594080e+01   4.2985737648e+01    0.2558559    0.1351703  65.11 0.0009888805    1.534    0.348
        43 -10.0967    121.3863     18.6663   7.3779574575e+01   5.1727409473e+01    0.3127958     0.225783  -3.60  0.001543279    1.660    0.398
        44 -10.6045    132.5029     12.9657   6.9799510586e+01   4.9773555586e+01     0.593305    0.2999954  81.89  0.002479377    2.937    0.659
        45 -11.1855    200.0650      5.6118   5.8596657249e+01   3.4692875865e+01    0.5997275    0.2784007 -47.01  0.002922206    2.132    0.531
        46  -9.6007    193.1977      6.6077   5.9536695149e+01   3.6181827599e+01    0.2895696     0.140195  57.56 0.0008657023    1.919    0.479
        47 -10.0392    187.2834     14.4222   6.2049033438e+01   3.6762518300e+01    0.3794818    0.1753388  72.01  0.001794812    1.898    0.473
        48 -10.8308    187.7101      9.6987   6.0868922510e+01   3.7152017585e+01    0.4025807    0.2966379 -64.37  0.002031021    1.339    0.253
        49 -10.3250     67.5470     13.0310   8.5835078021e+01   6.2924967972e+01     0.226231     0.163387  38.14  0.000468197    1.244    0.196
        50 -10.3533    141.1565     10.6424   6.7585789581e+01   4.8001130094e+01    0.3157467    0.1849786 -60.34  0.001022836    2.311    0.567
        51 -10.6472    122.8142     10.1568   7.0753610557e+01   5.2204614288e+01    0.4022605    0.1689786  53.20  0.001421551    1.899    0.473
        52 -11.4585     82.5989      5.8192   7.8516944271e+01   6.0886142913e+01    0.5210404    0.2605862 -29.45  0.002108703    2.227    0.551
        53 -10.7989     77.2633      9.3513   8.1389512224e+01   6.1567233560e+01    0.2761938    0.1986287  25.48 0.0006303521    1.196    0.164
        54  -9.8719     77.3788      4.7643   7.9556874273e+01   6.1946584010e+01    0.2009434    0.1337611   8.16 0.0005326506    1.532    0.347
        55 -11.1616    156.3701      4.7787   6.3597313665e+01   4.4983321702e+01    0.4959754    0.3253292  59.93  0.002313243    1.282    0.220
        56 -11.2339    208.6787      3.6698   5.7336109216e+01   3.2921395059e+01    0.4657671    0.2895652 -81.42  0.002303474    1.453    0.312
        57 -10.7670    176.7605      4.2212   6.0820868203e+01   4.0252972568e+01    0.5202264    0.1875916  77.09  0.001326267    2.850    0.649
        58 -12.1589    246.7722      2.6388   5.4023182643e+01   2.4736919140e+01    0.4427879    0.1923642  63.58 0.0009703084    2.266    0.559
        59  -9.8456    145.2303      4.2344   6.5079959117e+01   4.7619859543e+01    0.1709977    0.1358911 -79.86  0.001067707    1.360    0.265
        60 -10.7731    224.0520      2.2297   5.5688511058e+01   2.9636984242e+01    0.3171784    0.1568355  63.00  0.001722213    1.909    0.476
        61 -12.1602     55.4374      2.6863   8.5559753066e+01   6.5882167781e+01    0.3543855     0.288914   4.43 0.0008571857    1.147    0.128
        62 -10.2476    217.3230      1.6366   5.6134726320e+01   3.1186902667e+01    0.2292539    0.1256621  74.24  0.001297464    1.533    0.348
        63 -10.4096    191.7477      1.8004   5.8583744539e+01   3.6987457400e+01    0.2473814    0.1463859  82.31 0.0004171217    1.454    0.312
        64  -9.6854    229.5258      1.3530   5.5072513345e+01   2.8534975229e+01    0.1850279    0.0930725  77.39 0.0005258151    1.685    0.407
        65  -9.6835    183.2232      1.3246   5.9381768288e+01   3.9010750836e+01    0.1675337   0.09622569  81.70 0.0002574384    1.531    0.347
        66 -11.7501    207.5588    112.6118   8.2870098822e+01   1.6773886526e+01     0.559876    0.3096284 -53.66  0.001575217    1.902    0.474
        67  -9.3295     91.7243    250.6498   1.3362656480e+02   1.0322422518e+01    0.1080771   0.09954291 -22.58 0.0002535038    1.637    0.389
        68  -9.6530     38.9918    115.5177   1.2710919358e+02   4.8475482451e+01    0.1681427    0.1314106  27.55 0.0004208684    1.498    0.332
        69 -11.6658    194.5930    112.7638   8.5329598319e+01   1.9697181831e+01    0.3936934    0.3465278 -56.70  0.001813199    1.090    0.083
        70 -10.2345     97.9815    115.0000   1.0935669201e+02   4.0297467320e+01    0.2425857   0.08584826  39.45 0.0008053857    2.963    0.662
        71  -9.0540     59.5463    113.4932   1.2044733605e+02   4.6585517950e+01    0.1387957    0.1220915 -50.19 7.436441e-05    1.014    0.014
        72 -10.5640    132.9324    111.7002   9.8944018202e+01   3.4058119156e+01    0.3165711    0.2752977 -26.05  0.001586967    1.245    0.197
        73  -9.8625    245.2071     93.2053   7.2530101370e+01   1.2146034978e+01    0.2293593    0.1732082 -52.79 0.0004359325    1.152    0.132
        74 -10.7532    233.2439     99.0349   7.5511557611e+01   1.3640163569e+01     0.395163    0.2801865 -76.34  0.001817566    1.626    0.385
        75 -11.5916    245.4566     97.3761   7.3391939353e+01   1.1376501453e+01    0.7267414    0.3967976  82.40  0.002902848    3.088    0.676
        76 -12.1058    246.6894    109.2631   7.5771452317e+01   9.0446634417e+00    0.4772619    0.3924326  55.69  0.002470188    1.375    0.273
        77 -10.6174    245.0239    104.0249   7.4884087289e+01   1.0304419769e+01    0.3954835    0.2456522 -69.91   0.00155655    2.041    0.510
        78 -11.6413    240.8246    100.1705   7.4650577491e+01   1.1843763211e+01    0.4007197    0.3659462  68.27   0.00136432    1.208    0.172
        79 -10.3752     36.8377    109.6830   1.2662559305e+02   5.0034025291e+01    0.3683398    0.1847517  48.97  0.001420068    2.715    0.632
        80 -11.0325    201.3793    107.9806   8.2890877022e+01   1.9070004135e+01    0.3810949     0.177774 -41.33  0.001461464    2.057    0.514
        81 -10.4741     68.4952    105.9997   1.1595542962e+02   4.7091425612e+01    0.3470704    0.1674619 -37.99  0.001409537    2.300    0.565
        82  -9.7359    188.6077    107.6856   8.5250118109e+01   2.2086171823e+01    0.2109282    0.1392974 -50.79 0.0006719616    1.501    0.334
        83  -9.4566     74.2077    107.6350   1.1459286120e+02   4.5891641458e+01    0.1893347    0.1354827  19.56 0.0009433669    1.651    0.394
        84 -10.7350    230.9235    105.0090   7.7199614960e+01   1.3064169710e+01    0.3130036    0.2335675 -51.26 0.0009998366    1.214    0.176
        85 -10.8128    133.9785    103.3652   9.6453069869e+01   3.5607383901e+01    0.5107498    0.1808561 -44.02  0.001660678    2.812    0.644
        86 -11.1952     48.1696    102.7061   1.2158456769e+02   5.0419531200e+01    0.4859837    0.2033117 -35.01  0.001800142    3.280    0.695
        87 -10.9629     49.5032     97.9955   1.2006635354e+02   5.1314525142e+01    0.3052846    0.1753064 -24.92  0.001022544    2.284    0.562
        88  -9.0872    105.7323    102.6533   1.0391755607e+02   4.1602511944e+01    0.1510951    0.1152286 -15.83 0.0006987526    1.614    0.380
        89  -9.5151     80.9912    102.2246   1.1114775937e+02   4.6052675477e+01     0.185234    0.1185439  35.79 0.0008769215    1.666    0.400
        90  -9.6116     75.8038    101.8325   1.1264693847e+02   4.6948118026e+01     0.191779    0.1698647  88.36  0.001073391    1.355    0.262
        91 -10.2888     27.8551    101.5037   1.2780847964e+02   5.2707335061e+01     0.307582    0.2052031  60.47  0.001678663    2.102    0.524
        92 -11.3893      4.0729     99.5221   1.3491680529e+02   5.4843994446e+01    0.3636073    0.2225731 -61.07  0.002249162    1.247    0.198
        93  -9.9488     34.4208     98.9601   1.2517565837e+02   5.2680652917e+01    0.1792321    0.1634098 -40.31 0.0003739536    1.099    0.090
        94 -11.8532    175.4950     97.2968   8.5255511629e+01   2.7206263876e+01    0.5968139    0.4298295 -85.54  0.001828999    1.806    0.446
        95 -10.2161    226.4206     96.7633   7.6034848347e+01   1.5520165942e+01    0.2604899    0.1767117 -35.08  0.001047259    1.521    0.342
        96 -11.2267    158.3487     96.3543   8.8694374814e+01   3.1456344191e+01    0.4746419    0.3647738  69.01  0.001802304    1.416    0.294
        97  -9.5044     46.4526     98.4834   1.2117022956e+02   5.1551743691e+01    0.2262338    0.1327683  20.74  0.001138396    2.033    0.508
        98 -10.3813    188.3688     93.9465   8.1859939056e+01   2.4776972875e+01    0.2864094    0.2220044  52.52 0.0008627312    1.316    0.240
        99 -10.7225    220.8793     92.1648   7.5839717177e+01   1.7565141317e+01    0.3764503    0.2234299 -67.08  0.001319149    2.113    0.527
       100 -10.5667    193.6465     91.7800   8.0337404028e+01   2.3926150128e+01    0.4239915    0.2999592 -41.22  0.002035662    1.402    0.287
       101 -11.2647     35.7659     91.7378   1.2312915777e+02   5.4132407441e+01    0.5444056    0.2445026  25.39  0.002583099    2.567    0.611
       102 -10.8731      3.6669     88.6480   1.3315527275e+02   5.7212808074e+01    0.4829624    0.1837076 -43.04  0.002400697    2.229    0.551
       103 -10.5901      2.4018     84.1741   1.3274253127e+02   5.8226291238e+01     0.252739     0.178086 -86.77  0.001139655    1.702    0.412
       104 -11.7818      5.4563     79.6485   1.3081626805e+02   5.8999685604e+01    0.6929229    0.2672628 -64.83  0.003352636    2.270    0.559
       105 -10.5288    214.1865     89.1608   7.6195489794e+01   1.9611082056e+01    0.2820701    0.1928291 -43.89 0.0006748654    1.386    0.279
       106 -11.5663    200.4276     89.6415   7.8603373338e+01   2.2715734614e+01    0.5775884    0.3314235  67.13   0.00196087    1.948    0.487
       107 -10.2801     87.9540     90.2121   1.0574821924e+02   4.7466151711e+01    0.2670406    0.1959061 -43.53 0.0008371709    1.300    0.231
       108 -10.2579     20.0007     89.7686   1.2796701600e+02   5.5907569877e+01    0.2307183    0.1701876  11.75  0.001013472    1.603    0.376
       109 -10.6277     13.4521     89.0403   1.3000063246e+02   5.6529787288e+01     0.378479    0.1735449 -58.39  0.000923547    1.685    0.406
       110 -10.3957     16.2995     88.6812   1.2897855285e+02   5.6410413877e+01    0.2435297    0.1539684 -82.38 0.0008877116    2.023    0.506
       111  -9.5716    187.0157     89.9753   8.1110858988e+01   2.5834125398e+01    0.2415091    0.1751575 -74.62 0.0008586951    1.624    0.384
       112 -11.0336    154.4830     87.6010   8.7187796614e+01   3.4049460357e+01    0.4516354    0.2548493  64.19  0.001782813    2.108    0.526
       113 -10.8791     98.1537     77.3429   9.8871716765e+01   4.8167769536e+01    0.4078852    0.2524939  53.48  0.001870835    1.897    0.473
       114 -10.5132    100.1003     83.6537   1.0018480281e+02   4.6590507525e+01    0.2991458    0.2443032  41.00 0.0003153645    1.247    0.198
       115 -10.7692    103.2221     80.9813   9.8475939786e+01   4.6508817578e+01    0.3037503    0.2308682 -50.27  0.001198931    1.398    0.285
       116 -10.9698     50.8694     87.6121   1.1704641389e+02   5.3394962303e+01    0.5376857    0.2770034  18.39  0.002456528    2.501    0.600
       117 -10.6360     57.3657     85.2208   1.1422799937e+02   5.3094209472e+01     0.423141    0.2576233   4.18  0.001976944    2.336    0.572
       118 -10.0039     42.7370     86.7282   1.1957477322e+02   5.4495376684e+01    0.3224648    0.1257191 -43.33  0.001380623    2.280    0.561
       119 -11.0520     17.8306     81.5894   1.2694165667e+02   5.7796969450e+01    0.2370524    0.1897458 -24.22 0.0006999651    1.236    0.191
       120 -12.0596     24.3224     83.0448   1.2501920500e+02   5.6994759579e+01    0.6522006    0.4122236 -82.69  0.003381004    2.375    0.579
       121 -11.2909     29.2411     81.7977   1.2301533109e+02   5.6839278802e+01    0.3286587    0.2744961 -30.49 0.0009650594    1.100    0.091
       122 -10.3638     28.7934     77.1922   1.2204168848e+02   5.7825873648e+01    0.2219509    0.1551711 -49.12 0.0006343856    1.195    0.163
       123 -11.0663    248.6913     84.0237   7.0115223270e+01   1.2976755999e+01    0.3017152    0.2175575 -70.25 0.0006812425    1.367    0.269
       124 -10.4519    242.1815     85.1880   7.1211186801e+01   1.4137228454e+01    0.3591009    0.3114296 -40.41  0.001636658    1.228    0.186
       125 -11.2499    238.8434     82.2781   7.1025765908e+01   1.5332940934e+01    0.6291588    0.3597424 -31.67  0.002917276    2.013    0.503
       126 -10.7994    214.7689     71.8749   7.2049161912e+01   2.2424008431e+01    0.4077147    0.3045683  43.82  0.001641517    1.632    0.387
       127 -10.5284    221.9576     84.8911   7.4000337059e+01   1.8594696882e+01    0.4108078    0.2390434 -57.38  0.001867983    1.762    0.432
       128 -11.4073    217.3687     82.3583   7.4106913760e+01   2.0069280917e+01    0.5668173    0.2998872 -42.62  0.001815105    1.772    0.436
       129 -10.5286    219.8107     74.5396   7.1934651267e+01   2.0828440276e+01    0.3627499    0.2470478 -42.09  0.001364336    1.422    0.297
       130  -9.3505    223.3038     74.6901   7.1471040748e+01   2.0011197098e+01     0.231058     0.154086 -64.19 0.0004468534    1.512    0.339
       131 -10.1841    146.6303     86.6788   8.8737086003e+01   3.6063291064e+01    0.2357795    0.1848018  12.01  0.001099234    1.679    0.404
       132  -9.6159    205.1800     85.9319   7.6893606549e+01   2.2263826774e+01    0.2338131    0.1812224 -64.53 0.0007632778    1.279    0.218
       133  -9.3935    177.3653     85.4899   8.1808294078e+01   2.8967093382e+01    0.1491013    0.1388973 -69.81 0.0001007733    1.043    0.041
       134 -10.2691    140.3023     84.3792   8.9596189546e+01   3.7956230993e+01     0.267513    0.1789613 -58.91  0.001172993    1.790    0.441
       135 -10.4735    192.6350     73.5570   7.5953061897e+01   2.7371242223e+01    0.3729565    0.3237219  78.57  0.002054169    1.098    0.090
       136  -9.7184    186.5086     84.4776   7.9806609279e+01   2.6951416810e+01    0.2553866    0.1829893  88.22  0.001016138    1.667    0.400
       137 -11.4008    188.6781     80.6033   7.8425101518e+01   2.7115425062e+01    0.5123544    0.3556356 -46.46  0.002382093    1.416    0.294
       138  -9.7705    229.4156     83.2680   7.2544044345e+01   1.7212256174e+01    0.2022058    0.1166944 -50.54 0.0009451527    1.594    0.372
       139  -9.7217    181.9811     83.4959   8.0401246994e+01   2.8214874193e+01    0.2188779    0.1446541  59.75 0.0004460181    1.498    0.333
       140  -9.6782     75.9450     82.4668   1.0731552170e+02   5.1010638792e+01    0.2077176    0.1670776 -40.43 0.0002798776    1.167    0.143
       141 -10.6922    118.9031     86.1864   9.5604980260e+01   4.2330075339e+01    0.4661806    0.2009423  41.85  0.001383097    2.377    0.579
       142 -10.0570    160.2214     81.2142   8.4173701950e+01   3.3860139159e+01    0.3749447    0.2456366  60.04  0.001697603    1.536    0.349
       143 -11.0280    135.4916     79.9866   8.9509137058e+01   3.9865269438e+01    0.3925188    0.2384628 -27.03  0.001243344    1.995    0.499
       144 -10.7298    138.4992     77.0548   8.7927546429e+01   3.9709174418e+01    0.2568333    0.2020773  62.62 0.0003321014    1.320    0.242
       145 -10.0080     63.0845     79.5874   1.1073162894e+02   5.3479627474e+01    0.3340206    0.2478632 -81.38  0.001684378    2.203    0.546
       146  -9.6890     58.4787     77.0432   1.1156645665e+02   5.4606245061e+01    0.1915939    0.1577709 -33.93 0.0007729161    1.074    0.069
       147 -10.6599    200.6547     77.7436   7.5650085453e+01   2.4749950856e+01    0.6050718    0.1891854  61.43  0.001914242    3.543    0.718
       148 -10.2784    176.8809     77.7792   7.9879806250e+01   3.0452905175e+01    0.3728511    0.2267385 -56.73  0.001612041    1.844    0.458
       149 -11.3497    172.1179     71.4692   7.9115936189e+01   3.2682949342e+01    0.6471472    0.3777117  88.00  0.002381067    2.900    0.655
       150 -10.8220    167.8302     76.8677   8.1410970526e+01   3.2799511389e+01    0.6228898     0.348634  75.63  0.002330901    2.608    0.617
       151 -11.3696     68.2984     76.0788   1.0795376348e+02   5.3428370045e+01    0.4150739    0.2955113 -44.12 0.0009514585    1.326    0.246
       152 -11.8819     59.4406     69.9114   1.0912301361e+02   5.5856677346e+01    0.6268222    0.4116499  30.07  0.003079508    1.600    0.375
       153 -10.7319     51.7573     71.0948   1.1217630789e+02   5.6622325589e+01    0.2692302    0.1990715  19.19 0.0006109076    1.425    0.298
       154  -9.5090     43.4813     78.4672   1.1717513297e+02   5.6124052376e+01    0.1303615    0.1069402 -31.87 0.0001491243    1.052    0.050
       155  -9.5588    247.0109     77.5851   6.8966304013e+01   1.4382920504e+01    0.1885628    0.1258624  63.37   0.00101309    1.599    0.375
       156 -10.2380    237.9633     76.3298   6.9848243312e+01   1.6505648081e+01    0.2712215    0.2040842 -60.97 0.0009020385    1.185    0.156
       157 -10.5725    234.1869     72.8502   6.9581290954e+01   1.7892190642e+01    0.4143173    0.2067843 -48.49  0.001708117    1.807    0.447
       158 -10.3522    144.0726     76.1358   8.6346148938e+01   3.8583748493e+01    0.2617719    0.2140361 -37.10 0.0006651172    1.270    0.213
       159 -10.5074     15.1408     75.6905   1.2655405401e+02   5.9201961877e+01    0.2734985    0.1778622 -54.10 0.0006258372    1.253    0.202
       160  -9.9944     24.5181     74.3906   1.2287344756e+02   5.8756294319e+01    0.2843674    0.1773995 -11.39  0.001128808    1.855    0.461
       161 -10.0751     18.6600     73.3154   1.2472702835e+02   5.9430272293e+01    0.2239236    0.1831694 -73.99  0.001331663    1.465    0.318
       162 -10.4617     21.9654     71.1848   1.2299527728e+02   5.9603314566e+01    0.3118245    0.2107327 -11.21  0.000883947    1.595    0.373
       163 -11.0963    106.8541     86.5311   9.9065027168e+01   4.4720020765e+01    0.5570457     0.438919  -3.56  0.002795601    1.522    0.343
       164 -11.6537     82.1155     74.8566   1.0306186547e+02   5.1491929026e+01    0.2353815    0.2124285 -18.39 0.0002562399    1.024    0.024
       165 -10.7803    125.4406     75.0709   9.0595772319e+01   4.2995357275e+01    0.5061858    0.2243349  52.89  0.001919348    2.336    0.572
       166 -11.8116    223.9621     45.1920   6.4769619864e+01   2.4380053905e+01    0.7988144    0.5717337 -69.93  0.003522095    1.282    0.220
       167 -10.2008    250.0347     73.7656   6.7796403352e+01   1.4371539926e+01    0.2125455    0.1698787 -59.13 0.0004987806    1.057    0.054
       168 -11.5746    250.2729     67.1076   6.6386604162e+01   1.5374087674e+01    0.7482622    0.1846602 -36.19  0.002347346    4.509    0.778
       169 -10.7124    233.4841     46.0310   6.3863304231e+01   2.2129848647e+01    0.5977988    0.2778393 -49.80  0.002018401    1.946    0.486
       170 -12.2329    246.4493     56.3201   6.4587530881e+01   1.7823348791e+01    0.7784134    0.4274701 -75.73  0.001903896    2.149    0.535
       171 -11.5161    234.7357     56.6015   6.5981289250e+01   2.0309116751e+01    0.5387508    0.3561997  60.19  0.002473469    1.593    0.372
       172 -11.0097    238.1203     51.4233   6.4488698859e+01   2.0335666722e+01    0.3305351    0.2723486 -65.32  0.001393353    1.059    0.055
       173 -11.0159      6.4531     71.3300   1.2868854648e+02   6.0635847437e+01    0.2253694    0.2047161  69.92  0.001080549    1.493    0.330
       174 -11.2832    115.9184     69.7430   9.1491766707e+01   4.5981968242e+01    0.3904464    0.3004156 -34.96   0.00185648    1.329    0.247
       175 -10.1762    202.5017     70.4913   7.3581783001e+01   2.5524001962e+01    0.2878111    0.2315076 -73.08 0.0009044078    1.212    0.175
       176 -10.0724    198.3457     70.4558   7.4235204528e+01   2.6518365296e+01    0.2530917     0.222771  63.63 0.0002558468    1.157    0.136
       177 -12.0451    124.4741     68.8839   8.8980407529e+01   4.4286013825e+01    0.6022247    0.4697486 -77.78  0.002961024    1.742    0.426
       178 -10.3702    102.1253     70.2695   9.5521684141e+01   4.8695861359e+01    0.2655225    0.1881685 -66.20  0.001236416    2.097    0.523
       179 -10.2038     46.5875     68.3119   1.1320424870e+02   5.7772233462e+01    0.2781675    0.1938331 -43.33  0.001301152    1.276    0.216
       180 -10.9037     36.1293     56.3445   1.1346021406e+02   6.1128028138e+01    0.3178588    0.2406718 -15.04  0.001735999    1.194    0.162
       181 -10.6411     42.1764     68.5896   1.1488490605e+02   5.8215200468e+01    0.3388036    0.1928956  29.48  0.001837163    1.915    0.478
       182 -12.1802     35.1982     62.7330   1.1575393676e+02   6.0054052202e+01    0.7706013    0.5754764  53.39  0.003572498    2.059    0.514
       183 -10.0023    226.3834     69.1757   6.9800210566e+01   2.0214275707e+01    0.3572927    0.1159797 -40.57  0.001316476    2.795    0.642
       184 -10.0356    178.8581     68.9196   7.7181745071e+01   3.1469774913e+01    0.2691696    0.2036904  61.55 0.0005863546    1.266    0.210
       185  -9.1803    182.6570     68.3390   7.6349735888e+01   3.0643163244e+01    0.2450413    0.1946054 -84.33   0.00126419    1.321    0.243
       186 -10.9676    161.7766     67.8040   8.0152204114e+01   3.5793251480e+01    0.5079781     0.462365  59.37  0.002831914    1.061    0.057
       187 -11.8737    159.9896     50.0376   7.5548595568e+01   3.8947210619e+01    0.7933521    0.4565051 -51.59  0.003602572    1.975    0.494
       188 -10.7726    165.2511     62.4012   7.7976529019e+01   3.5821356572e+01    0.3968714    0.2493974  62.98   0.00131676    1.546    0.353
       189 -12.0511    166.5362     56.1719   7.6025111605e+01   3.6466654023e+01    0.8396721    0.6654513  48.54  0.004508043    1.269    0.212
       190 -10.5718    133.0320     67.7457   8.6505018775e+01   4.2566555808e+01    0.3759613    0.3152647  49.46  0.002022045    1.142    0.124
       191 -10.1768     79.5400     69.4665   1.0221907785e+02   5.2919689113e+01    0.2464958    0.1231873  27.11  0.001024775    2.456    0.593
       192 -11.3582    151.6792     66.6590   8.1931473147e+01   3.8401857976e+01    0.3888004     0.210518  44.60  0.001642578    1.886    0.470
       193 -11.8630    148.1683     64.2634   8.2001634038e+01   3.9623635104e+01     0.680898    0.4837483 -83.28  0.001836969    1.932    0.482
       194 -11.2163    141.0948     67.9239   8.4651974219e+01   4.0684545891e+01    0.5618263    0.2422604  53.15  0.002155968    2.216    0.549
       195 -10.9004    109.2855     67.3877   9.2579462585e+01   4.7765961019e+01    0.3494157    0.2255168  14.98  0.001516149    2.232    0.552
       196 -10.5200     26.6746     64.9999   1.1960922737e+02   6.0421025334e+01     0.434696     0.192731 -27.75  0.001962456    2.740    0.635
       197 -10.7947    149.8015     71.8380   8.3818109296e+01   3.7983156730e+01    0.2279615    0.2053344  31.49 0.0006225271    1.182    0.154
       198 -10.6925    205.2663     65.4500   7.1937294688e+01   2.5683042381e+01    0.3109601    0.2250261  88.48 0.0008673559    1.437    0.304
       199 -10.7684     32.7356     69.9287   1.1871350889e+02   5.8916962024e+01    0.4153773    0.1989918 -35.50  0.002067242    1.970    0.492
       200  -9.7859    189.9657     65.0362   7.4251992899e+01   2.9407060301e+01    0.2197873    0.1749499  29.34  0.001121384    1.653    0.395
       201 -10.5975     54.4827     63.8271   1.0899665066e+02   5.7640892680e+01    0.2913272      0.17793 -57.40  0.001472365    2.082    0.520
       202 -10.6813     12.0342     56.1558   1.2281652249e+02   6.3219687814e+01    0.2563883     0.163721  27.46  0.001351322    1.878    0.468
       203 -11.4101     25.6255     53.0480   1.1653412062e+02   6.2725335498e+01    0.2343539    0.1691206  -5.95 0.0005090889    1.346    0.257
       204 -10.9000     11.0943     63.5035   1.2510831664e+02   6.1890360530e+01    0.3309423    0.2019458 -61.67  0.001223104    1.606    0.378
       205 -12.7479     19.4680     58.5436   1.2056688638e+02   6.2234376812e+01    0.5330588    0.3087046 -24.81   0.00131684    1.672    0.402
       206  -9.5555    185.5065     64.5098   7.4866842484e+01   3.0569220272e+01    0.1431216    0.1341272  77.20 0.0008095948    1.070    0.066
       207  -9.8249    234.5461     63.2612   6.7443078396e+01   1.9334022771e+01     0.167836    0.1266185 -32.66 0.0005284191    1.531    0.347
       208 -11.4566     67.1715     61.9334   1.0393767792e+02   5.6211980462e+01    0.2833679    0.2397597   2.41 0.0008152993    1.107    0.097
       209 -11.1237    111.9356     61.8770   9.0113079933e+01   4.8138796244e+01    0.3035133    0.1835178  29.40  0.001359791    1.936    0.483
       210 -10.3828     97.9403     61.6843   9.4016925559e+01   5.0978774864e+01     0.224901    0.1795959 -18.43 0.0005034763    1.279    0.218
       211 -11.2233    221.1802     56.2839   6.7583572662e+01   2.3397657289e+01    0.5480971    0.3652554 -85.08  0.001857386    1.570    0.363
       212 -10.6127    215.8725     60.1756   6.9174697544e+01   2.4026477121e+01    0.4760751    0.2383576  66.97  0.002128442    1.995    0.499
       213 -10.4599    212.8758     55.6440   6.8532682206e+01   2.5410443596e+01    0.4323628    0.2508462 -84.67  0.001922871    2.160    0.537
       214  -9.6942    207.0818     60.4452   7.0472101931e+01   2.6038421991e+01    0.3033783     0.153216 -52.40  0.001315804    2.007    0.502
       215 -10.9051    200.0170     58.7005   7.1091830462e+01   2.7981962739e+01    0.6379179    0.3561633 -81.00  0.002544671    2.645    0.622
       216 -10.4567    202.1609     53.5863   6.9538310753e+01   2.8239819079e+01    0.6023521    0.1980964 -39.21  0.002238555    2.898    0.655
       217 -10.3019    200.5380     45.4490   6.7809248055e+01   2.9795625607e+01    0.3744009    0.2132363 -39.01  0.001606127    1.795    0.443
       218 -11.4864    204.9881     44.0053   6.6865144054e+01   2.8941936710e+01     0.547783    0.3351592 -85.32  0.002649265    1.827    0.453
       219 -10.7137    207.9985     41.2195   6.5822981070e+01   2.8616435575e+01    0.2614931    0.1997508  67.71 0.0005649559    1.246    0.198
       220 -10.8257    178.2015     60.1317   7.4988423469e+01   3.3028777709e+01    0.4230006    0.3439294 -11.25  0.001284218    1.608    0.378
       221 -12.3730    185.1320     47.9335   7.0680427204e+01   3.3147719804e+01    0.7561982     0.654897   7.77  0.004298637    1.549    0.354
       222 -10.9438    171.4608     49.6002   7.3360162249e+01   3.6230036612e+01    0.4950969    0.1914063 -38.35  0.001659598    2.624    0.619
       223 -11.7697    180.5822     38.6526   6.9001042065e+01   3.5508667282e+01    0.6067534    0.3361181 -72.94  0.002552899    2.535    0.606
       224 -10.0797    186.9762     38.2757   6.7960210508e+01   3.4015189918e+01    0.2511039    0.1847035  60.65  0.001387259    1.281    0.220
       225 -10.6108    174.1145     57.5309   7.5018663861e+01   3.4420437178e+01    0.3704133    0.2132459 -25.14  0.001512628    2.236    0.553
       226 -11.3220    175.5362     52.1087   7.3329749539e+01   3.4879109470e+01    0.4917279    0.3222651 -35.36  0.002122828    1.645    0.392
       227  -9.8699     79.1293     60.9350   9.9610193710e+01   5.4491433509e+01    0.3404442    0.1676573  51.99  0.001410196    2.817    0.645
       228 -10.5513     57.6162     60.0554   1.0667486714e+02   5.7902632108e+01    0.2398977    0.2133235  33.08  0.001555412    1.321    0.243
       229  -9.9722    191.7202     58.6335   7.2353635937e+01   2.9982645997e+01    0.3031829     0.229451  79.87  0.001600744    1.287    0.223
       230  -9.6611    139.0700     58.6255   8.2362372952e+01   4.2645091843e+01    0.2341303    0.1905881 -48.45 0.0007431713    1.323    0.244
       231  -9.8947     85.2400     59.5912   9.7208366288e+01   5.3668093332e+01    0.2695073    0.1708847   4.84  0.001226353    2.242    0.554
       232 -10.7604     91.4836     57.5608   9.4600677145e+01   5.2872237317e+01    0.4076108    0.1227897  41.10  0.001190612    3.311    0.698
       233 -10.2408     87.9231     55.8262   9.5116761426e+01   5.3802834003e+01    0.2783342    0.2198865 -54.82 0.0005490827    1.613    0.380
       234 -11.1158     85.9575     52.1209   9.4477099064e+01   5.4740193664e+01    0.4268604    0.2761943  10.31  0.001600686    1.969    0.492
       235  -9.1617     46.5257     59.4918   1.1053000796e+02   5.9410632944e+01    0.1270305    0.1040558 -20.38  4.81754e-05    1.032    0.031
       236 -10.3699      3.1883     57.5484   1.2665105615e+02   6.3503098787e+01    0.2656883    0.2086834 -81.50  0.001846728    1.745    0.427
       237 -10.2911    134.3851     52.1352   8.1465926060e+01   4.4699447805e+01    0.4324297    0.2110063  35.40  0.001661402    2.670    0.625
       238 -11.5838    150.0252     53.1680   7.8396572580e+01   4.0885956569e+01    0.6374124    0.4592873 -38.63   0.00329669    1.476    0.322
       239 -11.5105    141.1202     51.1869   7.9686759988e+01   4.3275424013e+01    0.4668811    0.3357774  35.17  0.001246376    1.498    0.332
       240 -10.4581    145.4990     48.0215   7.7822798093e+01   4.2694582200e+01    0.3270012    0.2103796  63.04  0.001033685    1.502    0.334
       241 -11.3197    121.3372     54.9309   8.5454695028e+01   4.7215964975e+01    0.5423121    0.4510866 -82.91  0.002945523    1.549    0.355
       242 -10.7441    114.4854     52.5153   8.6438499480e+01   4.9058123406e+01    0.2503376    0.1970531  38.75 0.0007215609    1.192    0.161
       243 -10.3524    116.3108     49.8098   8.5094546291e+01   4.9063265921e+01    0.3254124    0.2022042  50.40  0.001607858    1.508    0.337
       244 -11.2369    100.0569     54.7449   9.1127581683e+01   5.1679591726e+01    0.3965869    0.2013232  37.21  0.001484301    1.998    0.499
       245 -11.0802     60.7872     52.4116   1.0300077352e+02   5.8763110714e+01    0.3422191    0.2040203 -44.42 0.0007966689    1.734    0.423
       246 -10.1725     71.1005     53.1351   9.9663553699e+01   5.7091147620e+01    0.4015507    0.1672582 -41.22  0.001760238    2.375    0.579
       247 -10.8094     76.0916     51.7030   9.7502853831e+01   5.6510346039e+01    0.2539163    0.2317897  47.72  0.001338828    1.345    0.256
       248 -11.8086     42.9156     49.7673   1.0871671200e+02   6.1522238602e+01     0.554003    0.2179712  30.95  0.001774319    2.651    0.623
       249 -10.9896     38.5231     44.1299   1.0849590056e+02   6.2952633098e+01    0.3617107    0.2870186 -64.71  0.002069886    2.029    0.507
       250 -10.6707     54.9182     48.2935   1.0370252003e+02   6.0250143492e+01    0.4364727     0.244988 -39.11  0.002349308    1.677    0.404
       251 -10.4197     58.5721     45.7032   1.0146079128e+02   6.0151015932e+01     0.290152    0.1637907 -38.51  0.001561569    1.707    0.414
       252 -10.0951      7.0959     48.5461   1.2267821922e+02   6.4929320174e+01    0.2137036     0.124772 -42.19 0.0007027035    1.296    0.228
       253  -9.8513     93.7172     48.4386   9.0860561280e+01   5.3859083358e+01    0.2526286    0.1255295  50.18  0.000896344    2.077    0.519
       254 -10.4534    152.9071     44.6424   7.5364250263e+01   4.1397305763e+01    0.3836873    0.2073657 -20.26  0.001464076    2.562    0.610
       255  -9.4514    129.5526     46.4849   8.0829037226e+01   4.6602960941e+01    0.1375431    0.1270927  46.05 5.496653e-05    1.008    0.008
       256 -11.1785     31.8309     43.1428   1.1082726406e+02   6.3829256088e+01     0.323521    0.2779031  -3.68  0.001496241    1.172    0.147
       257  -9.8285     12.6199     34.2439   1.1585266063e+02   6.6980080210e+01    0.1729914    0.1301922  14.09 0.0008385637    1.428    0.300
       258 -10.3689     16.0463     31.8928   1.1353112866e+02   6.7079963824e+01    0.3148903    0.1792711 -53.11  0.001725126    2.111    0.526
       259 -11.9484     20.7893     43.0526   1.1532486272e+02   6.4875733371e+01     0.569735    0.3986655 -62.80  0.002322952    2.062    0.515
       260 -11.5449     14.9276     40.5120   1.1695333555e+02   6.5776036043e+01    0.4892054    0.2450813   7.42  0.002762468    2.284    0.562
       261 -10.7176    142.4714     43.4775   7.7099393327e+01   4.4027281448e+01    0.3600814    0.2696913  42.47  0.001529621    1.310    0.237
       262  -9.7806    100.8709     46.0000   8.7969754008e+01   5.2813788408e+01    0.2503159    0.1257017  51.50 0.0007174928    1.986    0.496
       263 -10.2987     97.7592     43.0419   8.7840044000e+01   5.3843500048e+01      0.35161     0.197043 -30.91  0.001164988    1.868    0.465
       264 -10.3255    100.0095     37.9572   8.5459389009e+01   5.4074685709e+01    0.3065445    0.2251666  20.16  0.001087491    1.403    0.287
       265 -10.3746    249.4821     43.6551   6.1697150072e+01   1.9019083479e+01    0.2926973    0.1689558  74.47  0.001598934    1.693    0.409
       266  -9.4287    250.4437     39.9238   6.0861159183e+01   1.9336767435e+01    0.1775232    0.1059395 -46.35 0.0004296025    1.499    0.333
       267 -10.4155    213.6449     43.1696   6.5562325416e+01   2.7030698176e+01    0.2783768    0.2477595   8.68  0.001516454    1.625    0.385
       268 -10.8114    118.2485     41.9583   8.2068309422e+01   4.9729185994e+01    0.4452778    0.2677608 -40.76  0.002207845    1.846    0.458
       269  -9.7704    106.6154     43.8914   8.5684741542e+01   5.1940138115e+01    0.2516646    0.1843547 -82.13  0.001219438    2.344    0.573
       270  -9.6634     67.1404     43.6574   9.7699470061e+01   5.9182653042e+01    0.2017102    0.1596127 -37.81 0.0008604417    1.385    0.278
       271 -10.7707     87.0760     41.1123   9.0308646333e+01   5.6146172171e+01    0.3640071    0.2739044 -41.19  0.001941427    1.525    0.344
       272  -9.1322    238.4779     42.4932   6.2580388223e+01   2.1533118676e+01    0.1328124    0.1042863 -73.13 7.974715e-05    1.057    0.054
       273 -10.8999    194.4386     38.5688   6.6983060064e+01   3.2185862747e+01    0.6152304    0.3347592 -48.55  0.002970559    1.846    0.458
       274 -11.1617    194.5992     30.8719   6.5097096310e+01   3.3133959868e+01    0.4330159    0.3057809  73.77  0.001694767    1.255    0.203
       275 -10.3562    161.6409     41.1292   7.2762972745e+01   3.9766706482e+01    0.2601069    0.2200171  50.90 0.0006951142    1.166    0.142
       276 -10.0231    161.5335     37.4919   7.1773105705e+01   4.0261795504e+01    0.2344867    0.1769929  71.72 0.0008666868    1.231    0.188
       277  -9.8183    242.6724     40.5314   6.1745475046e+01   2.0899184307e+01     0.165931    0.1058344 -88.55  0.000916664    1.501    0.334
       278  -9.8469    130.1652     40.1474   7.8714407820e+01   4.7309339468e+01    0.1994935    0.1660527  38.38  0.000398682    1.150    0.131
       279  -9.3043    173.1295     38.7892   7.0196681234e+01   3.7294009969e+01    0.2893195      0.18167  74.82 0.0008662945    1.568    0.362
       280  -9.6204    169.9761     37.0022   7.0227973170e+01   3.8286257797e+01    0.1906449    0.1663449  78.52  0.000418277    1.029    0.028
       281 -11.5969    147.1270     35.2678   7.3749596349e+01   4.3980519169e+01    0.7828243    0.3199286  57.23  0.003269558    2.113    0.527
       282 -10.3685    109.8271     37.4563   8.2686552311e+01   5.2118368256e+01    0.3486902    0.1720417 -37.90  0.001262337    2.215    0.549
       283 -10.2825     45.9901     36.7989   1.0293417281e+02   6.3194345830e+01    0.3119465    0.1465546 -32.49  0.001396451    1.988    0.497
       284 -11.3160     54.2818     36.7779   9.9784037202e+01   6.2090056152e+01    0.7368556    0.3776836  41.54   0.00387073    2.136    0.532
       285 -10.1345     51.1816     30.7640   9.8660504308e+01   6.3360881937e+01    0.2664773    0.1651421 -15.47 0.0008285801    1.599    0.375
       286 -10.6529     55.0936     29.8266   9.6839592498e+01   6.2933804353e+01    0.2392125    0.1761332  11.39 0.0006178627    1.203    0.169
       287 -10.5634    202.5132     37.5439   6.5664695005e+01   3.0401375605e+01    0.2771194    0.2472387 -55.22  0.001350918    1.193    0.162
       288 -10.0731    200.3323     35.3202   6.5419546331e+01   3.1208335069e+01    0.2281274    0.1933699  62.37  0.001119354    1.233    0.189
       289 -10.6832    123.7108     36.1235   7.8895139511e+01   4.9270640135e+01    0.4425746    0.3301443 -18.30  0.002473718    1.515    0.340
       290 -10.4889    119.9442     33.4345   7.8894205780e+01   5.0432137020e+01    0.2717761    0.1942753 -44.84  0.001063263    1.633    0.388
       291  -9.2166     25.2891     38.2427   1.1181797495e+02   6.5261902037e+01    0.1116923   0.07069059 -15.20 0.0003096933    1.466    0.318
       292 -10.5755    222.1862     36.4249   6.3051775418e+01   2.5985980950e+01    0.2862894    0.2068147  76.52  0.001028763    1.262    0.207
       293  -9.4971    114.3739     36.7927   8.1326209387e+01   5.1233526915e+01    0.1832586    0.1249269 -11.60 0.0009496429    1.746    0.427
       294  -9.6427    201.1027     25.2775   6.2967541706e+01   3.2279298709e+01    0.2073188    0.1493626 -66.48 0.0005566524    1.323    0.244
       295 -10.3957    204.2386     29.2481   6.3513902042e+01   3.1058597434e+01    0.6716754    0.1644377  59.74   0.00240105    3.377    0.704
       296  -9.8661    142.3199    243.3464   1.2271294765e+02   3.3957830722e+00    0.1282446    0.1017132   3.71 0.0007049252    1.731    0.422
       297 -11.0311    215.9894     35.1446   6.3472408962e+01   2.7572433390e+01    0.2459665    0.1850965  85.92 0.0003934988    1.173    0.147
       298 -11.3173    211.4796     33.0141   6.3517931795e+01   2.8892277256e+01    0.4534422    0.3540275 -38.32  0.001973744    1.431    0.301
       299 -10.2528     16.2471    240.4000   1.4651811525e+02   2.2373398654e+01    0.1539585   0.07986184  53.50 0.0009445938    1.595    0.373
       300  -9.8223    245.0041    238.7100   1.0199202838e+02  -1.2522696535e+01    0.1675973    0.1311619  14.82 0.0003410958    1.105    0.095
       301 -11.4645     75.3036     34.0042   9.1432536809e+01   5.9191496716e+01    0.4373956     0.309075  13.34  0.001956877    1.408    0.290
       302 -11.1105     80.9179     33.1592   8.9337210949e+01   5.8316544623e+01     0.438391    0.2597275  30.63  0.002094205    1.629    0.386
       303 -11.2305     77.3671     29.0297   8.8917454772e+01   5.9459802222e+01    0.4787837    0.3780558 -22.06  0.002591177    1.295    0.228
       304 -12.4873     65.0827     30.9943   9.3723342371e+01   6.1267890289e+01    0.6788766    0.4872071  51.00  0.003627439    1.771    0.435
       305 -11.5949     71.1847     29.9648   9.1268038858e+01   6.0405242946e+01    0.4419414    0.2420351 -23.65  0.001565194    1.891    0.471
       306 -10.6523     88.8716     33.7613   8.7149338543e+01   5.6777669662e+01     0.382953    0.2298024  41.44  0.002057354    1.505    0.335
       307 -10.3729     38.1113     26.8759   1.0226288672e+02   6.5578256844e+01    0.4965658     0.195028  35.48  0.001958871    2.578    0.612
       308 -10.1589     53.0209    237.7720   1.3972492700e+02   1.8462249016e+01    0.1551246   0.08755754  44.64 0.0005181411    1.629    0.386
       309  -9.7261     12.8082    232.4180   1.4660349456e+02   2.4350655528e+01    0.1318255    0.1055639  38.44 0.0009515265    1.647    0.393
       310  -9.6481    110.3941    224.8327   1.2675683598e+02   1.2474736245e+01    0.1849307    0.1232588 -49.42 0.0009525635    1.749    0.428
       311 -10.8897     24.7124     34.1622   1.1060951435e+02   6.5957716826e+01    0.3359996    0.1938334 -54.42  0.001887365    2.390    0.582
       312  -9.8750    126.6490    216.5453   1.2207278778e+02   1.1389424603e+01    0.2305191    0.1646853 -88.62   0.00080096    1.724    0.420
       313 -10.7215     26.5596    212.7935   1.4263869807e+02   2.7006292290e+01    0.2970303    0.2509022 -43.45  0.002013614    1.753    0.430
       314  -9.9968    247.6654    191.6689   9.2779026311e+01  -5.7351174303e+00    0.1378374   0.09374008  -3.91 0.0007052174    1.729    0.422
       315  -9.5948    245.3234    187.3415   9.2336555084e+01  -4.6303213578e+00    0.1393101   0.09562485  -5.20 0.0007050787    1.728    0.421
       316 -11.5656      3.2051     17.4179   1.1403950648e+02   7.0229721452e+01    0.2122953    0.1274575 -28.16 0.0003872157    1.252    0.201
       317  -9.6509     37.4699    179.7640   1.3710726835e+02   3.3310213829e+01    0.2327957    0.1158629  13.97 0.0008841268    4.477    0.777
       318 -12.1328    232.2643     30.3358   6.0690734600e+01   2.4529577213e+01     1.151303    0.4621373  82.64  0.004616009    3.093    0.677
       319  -9.5056    245.8553     33.3514   5.9990997390e+01   2.1192861033e+01    0.2240096    0.1476969  56.31 0.0008136749    1.806    0.446
       320 -10.8188    248.7225     29.3852   5.8948233208e+01   2.1109765403e+01     0.379024    0.1961236  79.99  0.002012291    1.859    0.462
       321 -10.3198    244.8456     25.8506   5.8600800154e+01   2.2382693244e+01     0.320516    0.1616933  74.33  0.001703333    1.843    0.457
       322  -9.4457    164.6508     33.7972   7.0231282546e+01   3.9971693669e+01     0.179011    0.1173232 -46.95 0.0006239581    1.639    0.390
       323 -11.6055    246.1544    177.4155   9.0203087364e+01  -3.0689552837e+00    0.2927127    0.2616229 -55.94  0.001195921    1.327    0.247
       324 -11.5038    247.1179    172.4326   8.9026173018e+01  -2.3657799776e+00    0.3708055    0.1620256 -43.17   0.00158884    2.119    0.528
       325  -9.4725      1.5732    177.7800   1.4476877026e+02   3.7226096408e+01    0.1757429    0.0875515 -89.34 0.0009447156    1.733    0.423
       326  -9.8851     80.2315    176.7567   1.2658025125e+02   2.8344243222e+01    0.2312114   0.09491974 -51.87  0.000885991    2.437    0.590
       327 -11.7515    108.4538     29.6135   8.0383721507e+01   5.3356557408e+01    0.6902014    0.2894026  60.75  0.001348329    2.723    0.633
       328  -9.4254      9.3292    167.3110   1.4214513869e+02   3.8978821366e+01    0.1191499   0.07796178 -50.97 0.0007041967    1.667    0.400
       329 -10.8786    247.1702    165.9014   8.7680922864e+01  -1.2275256966e+00    0.2042626    0.1770091 -48.25 0.0005177931    1.207    0.171
       330 -11.0530     13.9611    165.0050   1.4086251485e+02   3.9119406943e+01    0.2127758    0.1733858  41.15  0.001431632    1.462    0.316
       331 -11.0441    249.5305    161.8058   8.6440673127e+01  -9.1388119068e-01    0.2992911    0.2050332 -48.59  0.001011337    1.454    0.312
       332  -9.7011    177.2914     27.3628   6.6582637822e+01   3.7700165669e+01    0.2720207    0.1865245  50.77  0.001481075    1.478    0.323
       333 -10.7532    179.5384     30.6814   6.7110231964e+01   3.6763901472e+01    0.3978454    0.2051785  67.37  0.001077737    1.738    0.424
       334 -11.1207    182.8410     27.6927   6.5886662780e+01   3.6329583762e+01    0.5928047    0.3122741 -51.78  0.002822916    2.037    0.509
       335 -11.3917    170.6688     30.6794   6.8433078869e+01   3.8900022233e+01    0.5834785    0.2652729  76.70  0.002316637    2.628    0.620
       336 -10.2928    160.2778     24.5975   6.8421677628e+01   4.2095349618e+01    0.5954576    0.2926998  79.22  0.002501118    2.471    0.595
       337 -10.7088    168.6293     24.0245   6.6977592182e+01   4.0161153998e+01    0.5071068    0.2300826  51.89  0.002285753    2.065    0.516
       338  -9.9765      2.5134    161.4694   1.4311684132e+02   4.0864681139e+01    0.2154537    0.1290343 -52.66  0.001283902    1.707    0.414
       339  -9.8731     88.5855     27.7863   8.5069309243e+01   5.7553943489e+01    0.2946719    0.1208765 -23.49  0.001255976    2.897    0.655
       340 -10.6088     89.6916     21.6732   8.2518149967e+01   5.8022938190e+01     0.306769    0.1881136  12.91  0.001613302    1.947    0.486
       341 -11.1488      4.9639     26.8521   1.1670576876e+02   6.8697833156e+01    0.3969839    0.2221792   5.48  0.002615927    1.802    0.445
       342 -11.0562     11.5245     25.6904   1.1329250495e+02   6.8393551223e+01    0.4445122    0.1954916 -19.21  0.001860989    2.726    0.633
       343  -9.8725     15.5295     21.4304   1.0984623327e+02   6.8682407801e+01    0.1947026    0.1272433 -13.09 0.0007668434    1.260    0.206
       344 -10.6686     50.8425     25.0755   9.6556914742e+01   6.4155435304e+01    0.4007457    0.1510289  33.27  0.001400807    2.606    0.616
       345 -11.5750     98.2083     21.9559   8.0327169773e+01   5.6312582432e+01     0.291261    0.2200564  38.02 0.0007951602    1.140    0.122
       346 -10.9228    249.6786    155.6846   8.5150000420e+01   1.4586268957e-01     0.284648    0.2162729 -45.57 0.0008033884    1.231    0.188
       347 -10.4788     77.0374    156.0374   1.2392618739e+02   3.3890014062e+01     0.304537    0.1579596  73.60 0.0009585076    4.129    0.758
       348 -10.1222     33.1978    155.8466   1.3517119030e+02   3.9471350246e+01    0.1741033    0.1321998 -53.29 0.0002950279    1.325    0.245
       349 -11.1464    229.5042    154.0384   8.8266503700e+01   4.1755052999e+00    0.3122236    0.2380955 -48.59 0.0009629342    1.278    0.217
       350 -10.6420    209.7401     18.1616   6.0389162946e+01   3.1106766427e+01     0.287075    0.1632285 -66.28  0.001059339    1.777    0.437
       351 -12.6129     19.1873    148.3660   1.3771398299e+02   4.2571800855e+01    0.6806019    0.3971132 -41.29  0.003655025    2.032    0.508
       352  -9.9132     34.7122    150.5534   1.3406623031e+02   4.0586118776e+01    0.1701588    0.1145427  49.82 0.0009470707    1.623    0.384
       353 -10.2354     40.7900     21.3813   9.8975145218e+01   6.5970325018e+01    0.2382062    0.1366292 -29.18  0.000419425    1.607    0.378
       354 -11.5299    236.2193    135.0139   8.2983905190e+01   6.4370031557e+00    0.3650026    0.2872861   5.21  0.001392468    1.701    0.412
       355 -12.2892    242.0322    147.2515   8.4646472925e+01   3.0592575627e+00    0.5065339    0.3591359 -62.01  0.002499805    1.693    0.409
       356 -12.4038    235.1720    143.9564   8.5100154207e+01   4.9735821698e+00    0.7354301    0.4351248 -60.17  0.003174457    2.212    0.548
       357 -11.1870    247.8841    144.9008   8.3187292695e+01   2.4030885609e+00    0.2834962    0.2635624  19.68  0.001330778    1.205    0.170
       358 -10.6599    244.0699     20.5384   5.7629420854e+01   2.3212444819e+01    0.2911559    0.1791552 -87.82 0.0009112128    1.443    0.307
       359 -10.0197    240.5053     19.5170   5.7735692793e+01   2.4097040824e+01    0.2119253     0.141437 -43.89 0.0008423717    1.498    0.332
       360  -9.4637    228.4173     21.5272   5.9239128954e+01   2.6485966640e+01    0.1236255    0.1024386 -82.75 7.499869e-05    1.066    0.062
       361 -10.5449     55.2462     17.5405   9.1880740565e+01   6.4416712886e+01    0.2178477     0.158079  -8.08 0.0007062419    1.246    0.197
       362 -10.8546    153.1725     28.1954   7.0610204357e+01   4.3383748725e+01    0.3799683    0.2237912 -19.75 0.0008412335    2.180    0.541
       363 -11.8541    245.9942    140.3465   8.2529201480e+01   3.5778888538e+00    0.3830559    0.2877258  48.31  0.001836787    1.507    0.336
       364  -9.9700    184.2600     17.9239   6.3272373072e+01   3.7102014320e+01    0.3811963     0.188794  85.47   0.00151142    2.286    0.563
       365  -9.6432    161.4902     18.9970   6.6703207774e+01   4.2410212626e+01    0.2302686    0.1233829 -34.60 0.0009836579    2.056    0.514
       366  -9.8122    155.6301     16.1931   6.6834180253e+01   4.4086888663e+01    0.2491912     0.158675 -58.43   0.00131314    1.853    0.460
       367 -10.1432    158.9561     15.4746   6.6127870889e+01   4.3372186078e+01    0.2753515    0.1419268  65.83 0.0007075348    1.650    0.394
       368 -11.0356     39.0348    146.9725   1.3242796587e+02   4.0995418393e+01    0.2832811    0.2639704 -40.37  0.001240394    1.256    0.204
       369 -10.4558    148.2655     17.9273   6.8510935333e+01   4.5647484703e+01    0.3846781    0.2013407  29.32  0.001645362    2.933    0.659
       370 -10.3862     38.4885    143.4662   1.3204350315e+02   4.1897650247e+01    0.2556332    0.2017314 -61.90 0.0006095978    1.110    0.099
       371  -9.6034    232.5809     18.0143   5.8135070884e+01   2.5993157833e+01    0.1706415    0.1076895 -44.82 0.0005729228    1.542    0.351
       372 -11.1836      6.8281    143.1062   1.4017148170e+02   4.4782245599e+01    0.3246663    0.1873435  52.60  0.001858317    1.973    0.493
       373  -9.9010    247.2984     16.6807   5.6618000204e+01   2.3002870337e+01     0.199845    0.1177696 -59.37 0.0006719308    1.432    0.302
       374 -11.5665    212.4371    138.3584   8.7935951573e+01   1.0659648350e+01    0.5095149    0.4152496  -6.04  0.002306239    1.521    0.343
       375 -10.0277     54.5218    137.4772   1.2668681075e+02   4.1516088108e+01    0.1383032     0.120685 -69.40 7.334485e-05    1.015    0.015
       376 -10.4627      3.8177    135.1827   1.4000321684e+02   4.6821351176e+01    0.2596121    0.2299333  87.12   0.00155572    1.190    0.159
       377 -11.1795     12.9091    125.1136   1.3626565728e+02   4.8506558322e+01    0.2547788    0.1588252 -77.09 0.0008401306    1.416    0.294
       378 -10.0078      9.0795    134.8359   1.3859958379e+02   4.6535469405e+01    0.2324833    0.1761123   6.77  0.000612727    1.795    0.443
       379 -11.0076     15.2044    132.5749   1.3668420053e+02   4.6603444230e+01     0.298992    0.2316546  -7.35  0.001910595    1.736    0.424
       380 -11.5991     12.0347    129.9867   1.3718194757e+02   4.7443868282e+01    0.3468989     0.290322  -3.41  0.001158895    1.562    0.360
       381 -11.1689    249.4777    132.6216   8.0339836167e+01   4.3217105815e+00    0.2811238    0.2563132 -21.59   0.00163206    1.162    0.140
       382 -11.1730    242.7323    129.4531   8.0720388278e+01   6.1869103135e+00    0.3580778    0.1734748  48.44  0.001511836    2.319    0.569
       383 -10.4485    127.2026     15.3451   7.1541664186e+01   5.0750476314e+01    0.4273944    0.1740384  56.94  0.001306862    1.998    0.500
       384 -11.7662    226.0491    126.6691   8.2857085525e+01   1.0068427623e+01    0.5465725    0.3922993 -24.34  0.001590111    1.620    0.383
       385 -10.0598     92.5180     15.7699   7.9587263496e+01   5.8072301454e+01    0.2090046    0.1475892  47.55 0.0002132365    1.245    0.197
       386 -10.1534     72.5064    129.0129   1.1995107302e+02   4.1146562527e+01    0.2182705    0.1301426 -56.73 0.0004941493    1.520    0.342
       387 -11.1409     24.3434    128.4022   1.3358321530e+02   4.6832940705e+01    0.3526081    0.2374072  35.98  0.002079064    1.743    0.426
       388 -11.0710     56.0557    126.9623   1.2428564813e+02   4.3855565650e+01    0.4461332    0.2439985 -39.25 0.0009917853    2.054    0.513
       389 -10.5990     66.7899    124.1853   1.2059218486e+02   4.3109893106e+01    0.3305995     0.199296 -27.86   0.00142413    2.335    0.572
       390  -9.9998    237.7235     14.0819   5.6904272517e+01   2.5344104984e+01    0.2801055    0.1429769  83.25   0.00149703    1.790    0.441
       391  -9.9619    242.5063     13.0074   5.6301465916e+01   2.4449685640e+01    0.2359596    0.1294675  77.77  0.001348959    1.610    0.379
       392  -9.5348    178.4650     14.5633   6.3177480079e+01   3.8834431062e+01     0.129409    0.1081211  76.12 8.882776e-05    1.036    0.035
       393 -10.3424    246.9622    121.7472   7.8408616231e+01   6.7610823255e+00    0.1936191    0.1734714 -55.89  0.001095407    1.051    0.048
       394 -10.2242     18.7916    120.5109   1.3392327785e+02   4.9124904221e+01    0.3924308    0.1565364 -40.66  0.001684766    2.880    0.653
       395 -10.4526     23.0475    107.8673   1.3052454170e+02   5.1678551743e+01    0.2927176    0.1831338  17.60  0.001670096    1.978    0.494
       396 -11.8814     22.1862     95.8090   1.2848755125e+02   5.4430885806e+01    0.4847078    0.2973187 -22.54  0.002434467    1.925    0.481
       397 -12.0319     18.2261    104.1311   1.3133339044e+02   5.2892166323e+01    0.5472115    0.3272205 -49.11  0.002703827    1.384    0.277
       398 -11.3713     16.2314     98.4633   1.3091769750e+02   5.4294024581e+01    0.3987552    0.2309372 -33.01    0.0014846    1.812    0.448
       399 -11.1553      6.0461    120.0496   1.3745424729e+02   5.0138224588e+01    0.4123729     0.230287 -43.78  0.002358036    1.749    0.428
       400 -10.8740      5.3299    116.1078   1.3709818002e+02   5.1077335951e+01    0.2974591    0.2109113 -54.92 0.0006003469    1.179    0.152
       401 -11.0213      8.4059    109.7611   1.3525589262e+02   5.2311236944e+01    0.4661737    0.1778763 -39.10  0.002071875    2.932    0.659
       402 -11.3970     12.0186    104.9832   1.3339209606e+02   5.3141880607e+01    0.3704309    0.2611982 -66.88  0.001214776    1.187    0.157
       403  -9.9037     28.0952    120.1578   1.3117968198e+02   4.8431442375e+01    0.2493754     0.155285 -76.36  0.000693874    1.577    0.366
       404 -10.3843    217.2151    119.6893   8.2802483387e+01   1.3278631304e+01    0.2686173    0.2101924 -39.86  0.001374747    1.223    0.182
       405 -10.1105     13.1547    117.1621   1.3501989242e+02   5.0314318738e+01    0.1921193    0.1384916 -50.67  0.001216936    1.224    0.183
       406 -12.0084    237.8298    113.4592   7.8006522307e+01   1.0086017474e+01    0.3605824    0.3187111 -84.82 0.0009631662    1.185    0.156
       407 -11.8141    226.2671    113.0103   7.9743910716e+01   1.2590383953e+01    0.6142371    0.3824109  70.69  0.002599804    2.039    0.510
       408 -11.7247    231.4956    111.6620   7.8598544718e+01   1.1730410497e+01    0.4121555    0.2839752  65.12  0.001594541    1.634    0.388
