#   1 NUMBER                 Running object number                                     
#   2 MAG_AUTO               Kron-like elliptical aperture magnitude                    [mag]
#   3 X_IMAGE                Object position along x                                    [pixel]
#   4 Y_IMAGE                Object position along y                                    [pixel]
#   5 X_WORLD                Barycenter position along world x axis                     [deg]
#   6 Y_WORLD                Barycenter position along world y axis                     [deg]
#   7 A_WORLD                Profile RMS along major axis (world units)                 [deg]
#   8 B_WORLD                Profile RMS along minor axis (world units)                 [deg]
#   9 THETA_WORLD            Position angle (CCW/world-x)                               [deg]
#  10 FWHM_WORLD             FWHM assuming a gaussian core                              [deg]
#  11 ELONGATION             A_IMAGE/B_IMAGE                                           
#  12 ELLIPTICITY            1 - B_IMAGE/A_IMAGE                                       
         1 -12.8650    198.2045     32.4122   6.3744333577e+01   3.2164476205e+01    0.8550722    0.8358893  27.53  0.005714052    1.335    0.251
         2 -13.5172    214.3493     15.0996   5.8100526614e+01   3.0553263236e+01      1.02074    0.8453104  42.27   0.00666631    1.664    0.399
         3 -11.6015      2.6510      3.7606   1.0728118282e+02   7.2003702672e+01    0.5562661     0.190185 -35.79  0.003120393    2.407    0.585
         4 -11.7608    142.1639    243.2581   1.2118477621e+02   3.1343289188e+00    0.5024876    0.3823309 -39.66  0.002906659    1.570    0.363
         5 -11.8064    199.4134    246.2420   1.1009715079e+02  -6.8305257887e+00    0.4803561    0.3997486  54.24  0.002375038    1.512    0.339
         6 -10.5936    191.3919    249.3883   1.1217587195e+02  -6.0574088484e+00    0.3947493    0.2188913  18.40  0.001849454    2.285    0.562
         7 -10.2645    184.1404    250.2152   1.1373609719e+02  -5.0311143576e+00    0.2253578     0.162609  31.66  0.001330692    1.199    0.166
         8 -10.7437    169.3857    248.9092   1.1647786629e+02  -2.4151612175e+00    0.3256655    0.2346378 -11.37 0.0008690094    1.835    0.455
         9 -11.2049    132.3363    248.8976   1.2396608517e+02   3.7382393430e+00    0.3711431    0.2417849  61.29  0.001975858    1.666    0.400
        10 -11.4096     99.9870    247.8893   1.3034309576e+02   9.1550846085e+00    0.6029341    0.3419026  46.89  0.003160621    1.497    0.332
        11 -12.4341    122.8149    244.9351   1.2537890066e+02   6.0510134081e+00    0.9082437     0.452373  38.49  0.004330265    1.814    0.449
        12 -11.8841    124.6932    240.4377   1.2439724958e+02   6.6025395547e+00    0.6451226    0.2910949  42.89  0.002705708    1.919    0.479
        13 -11.2860    114.9050    250.2629   1.2764875673e+02   6.3313541674e+00    0.9650773     0.239552  38.98  0.003329432    3.568    0.720
        14 -11.5722    109.1553    246.1942   1.2830782883e+02   8.0315422867e+00    0.5045623    0.3728524  88.44  0.001770963    1.496    0.331
        15  -9.6909     90.9974    250.0389   1.3235377966e+02   1.0123963226e+01    0.2681387    0.2004348  40.76  0.001641316    1.323    0.244
        16 -10.8289     86.8993    248.2199   1.3296080477e+02   1.1099773828e+01    0.3510138     0.300921  26.57 0.0008639807    1.507    0.337
        17  -9.8432     81.7278    246.8636   1.3382874319e+02   1.2140284295e+01    0.3125969    0.1910402 -72.16  0.001757682    1.705    0.414
        18 -10.7818     84.8253    241.4241   1.3264045312e+02   1.2769686615e+01    0.4187971     0.369449 -74.46  0.002765702    1.264    0.209
        19 -11.4902     60.2052    245.7910   1.3785883787e+02   1.5418589292e+01    0.4926254    0.3435915  43.62  0.003079091    1.410    0.291
        20  -9.8307     66.4768    244.0109   1.3649917097e+02   1.4912115033e+01    0.2852616    0.1689756  28.33  0.001063105    2.284    0.562
        21 -12.7006      3.2359    189.5729   1.4428309106e+02   3.4107916825e+01     1.661854     0.257318 -71.93   0.00561956    4.423    0.774
        22 -11.9310     16.1109    218.2553   1.4394062079e+02   2.6539776319e+01    0.8112847    0.4959486  35.50  0.004726717    1.886    0.470
        23 -12.6932     11.7036    207.8701   1.4400889473e+02   2.9248613317e+01     1.198956    0.9464583 -31.81  0.007883577    2.062    0.515
        24 -12.7942      6.4850    226.9418   1.4630118960e+02   2.5671489542e+01     1.378636    0.7786769  56.63  0.008816995    1.513    0.339
        25 -12.2192     43.6421    207.7966   1.3753609407e+02   2.5756500737e+01     1.190543    0.5486476  66.83  0.003661541    2.553    0.608
        26 -13.3954     28.2734    246.9445   1.4377287447e+02   1.9226029165e+01     1.526905    0.8489558  44.39  0.009439018    1.667    0.400
        27 -13.0877      3.9936    244.5753   1.4777211151e+02   2.2343249479e+01    0.9795949    0.4828368  78.02  0.005965997    1.670    0.401
        28 -12.4659     13.9873    238.6704   1.4572293838e+02   2.2486361469e+01    0.6460205    0.3795204  38.16  0.003545605    1.868    0.465
        29 -10.8826     51.7463    219.0442   1.3698609731e+02   2.2209186202e+01    0.2959493    0.2323235  69.14 0.0003120817    1.084    0.078
        30 -12.5845     30.5031    226.8034   1.4187154871e+02   2.3126500193e+01    0.5080188    0.2904117 -69.66 0.0007771629    1.616    0.381
        31 -13.7904     36.7171    218.7540   1.3998798381e+02   2.4142124434e+01     1.084015    0.8961311  74.97  0.007383123    1.095    0.087
        32 -10.1600     73.9354    243.4290   1.3499825221e+02   1.3969402898e+01    0.2661912    0.2418948  54.38  0.001815404    1.268    0.211
        33 -11.7640    176.7043    242.6864   1.1404156476e+02  -2.5763657789e+00     0.491524    0.2537085  50.78   0.00224347    2.215    0.549
        34 -10.9693    158.2879    242.0070   1.1768810556e+02   6.3426873917e-01    0.4079304    0.2422464 -69.93  0.001829914    2.828    0.646
        35 -10.6803     97.1038    238.9081   1.2987692963e+02   1.1390006375e+01    0.3498283    0.2357584  72.79  0.001809778    1.551    0.355
        36 -11.1909     84.7040    230.7632   1.3146694889e+02   1.4996851127e+01     0.616614     0.278031 -71.58  0.002700514    2.533    0.605
        37 -11.4700     98.8207    232.3926   1.2873103532e+02   1.2455176161e+01    0.5471669    0.3039284 -67.90   0.00181972    1.959    0.490
        38 -10.8430    113.2979    231.2001   1.2553504578e+02   1.0343135234e+01    0.3764412    0.2677672 -56.98  0.002074708    1.536    0.349
        39 -11.8063    106.4568    228.7783   1.2666074864e+02   1.1973678019e+01    0.8027573    0.4452968  71.32  0.003411641    2.578    0.612
        40 -11.1855     91.8405    241.4018   1.3123265949e+02   1.1705227881e+01    0.4133855    0.3181708  69.53  0.001611665    1.167    0.143
        41 -10.4288     89.9584    238.0905   1.3123540119e+02   1.2667813617e+01    0.2948345    0.2394098 -77.44  0.001126993    1.257    0.204
        42 -11.0714    166.3030    242.2971   1.1609265131e+02  -7.6988295160e-01    0.4393203    0.1759813  44.78  0.001833861    2.322    0.569
        43 -10.8827    116.6681    238.5185   1.2580298568e+02   8.3105915132e+00    0.4615805    0.2578089 -41.19  0.001663019    2.497    0.600
        44 -13.1211    124.8539    233.9709   1.2347691922e+02   7.8446518892e+00     1.296385     0.517677  50.23  0.005141432    2.523    0.604
        45 -10.6154    142.1063    221.4966   1.1792231736e+02   7.3581325959e+00    0.3284104    0.2744386  19.53 0.0004130511    1.337    0.252
        46 -10.8913    135.6915    241.0315   1.2220447774e+02   4.6422662914e+00    0.3044438    0.2026607  19.55 0.0006206808    1.998    0.500
        47 -11.7518    136.1631    224.5664   1.1968741759e+02   7.7853597501e+00    0.5439403     0.414325  40.45  0.001415593    1.211    0.174
        48 -10.8922    135.0465    231.2075   1.2092539196e+02   6.6508945470e+00    0.3331387    0.2548013 -25.85  0.001560765    1.762    0.432
        49  -9.5381     53.9324    240.8603   1.3860651261e+02   1.7264865797e+01    0.1702039    0.1534143  78.57  0.000623823    1.252    0.201
        50 -10.5952    244.9985    240.5021   1.0054593967e+02  -1.2689074334e+01    0.1784495    0.1055608  30.52  0.001032914    1.590    0.371
        51 -10.9581    105.2094    237.3888   1.2802846824e+02   1.0407109066e+01    0.4087688    0.3044041 -16.84  0.002088865    2.384    0.580
        52  -9.0253     61.4245    239.0456   1.3700325722e+02   1.6629015187e+01    0.1902002    0.1392612  53.99 0.0007618932    1.203    0.169
        53 -10.1374    173.0580    235.9124   1.1370122631e+02  -7.9076427704e-01    0.1906742    0.1697946  53.65  0.001166038    1.216    0.178
        54  -9.3611     55.1148    235.7815   1.3792112454e+02   1.8161089217e+01    0.2740528    0.1711688  65.81 0.0009664361    1.408    0.290
        55  -8.6741     70.7943    235.2216   1.3478185787e+02   1.6111530571e+01    0.1537917    0.1440422 -75.21 0.0005746909    1.321    0.243
        56 -10.5402    165.7561    235.1849   1.1508995762e+02   5.8719905935e-01    0.2283399    0.1713505 -51.37  0.001279301    1.519    0.342
        57 -10.4238    156.6806    232.1090   1.1649408650e+02   2.7219943169e+00    0.2486638    0.2215351 -24.92 0.0005908809    1.263    0.208
        58  -9.2644     93.4227    232.9503   1.2992143116e+02   1.3191965334e+01    0.3166332    0.1252947  51.80  0.001294197    2.467    0.595
        59  -8.4666     78.2532    233.3787   1.3308370659e+02   1.5412663832e+01    0.1177104   0.09760574 -42.83 0.0005223625    1.654    0.396
        60 -10.5209    247.2229    232.5850   9.8759087302e+01  -1.1864039837e+01    0.1700947    0.1015496  21.23 0.0009509551    1.649    0.394
        61  -9.8306    141.2793    231.5872   1.1966103978e+02   5.4983159200e+00    0.2142692    0.1516353  67.08 0.0007381298    1.683    0.406
        62  -9.0302     45.8643    231.1342   1.3929226126e+02   2.0343240763e+01    0.1995109    0.1304548  69.71  0.001194763    1.313    0.238
        63 -10.3584     79.4737    225.8443   1.3198321057e+02   1.6836946418e+01    0.4722166    0.2769365 -75.54   0.00157217    1.762    0.432
        64  -9.1347     77.1823    220.7867   1.3187451770e+02   1.8280726288e+01    0.1825572    0.1528736  63.16 0.0004181439    1.073    0.068
        65  -7.9291     57.4782    231.4575   1.3705125540e+02   1.8756831214e+01    0.1281787     0.100899  73.42 0.0008085765    1.028    0.028
        66 -10.5848    117.2040    224.5633   1.2378155434e+02   1.1062311132e+01    0.3025834    0.2802362  54.69 0.0004496232    1.080    0.074
        67  -9.0726     65.1035    224.4173   1.3480159261e+02   1.9225863738e+01    0.2276708    0.1554269 -48.01   0.00112492    1.914    0.477
        68 -10.7603     98.1688    223.6194   1.2775066477e+02   1.4413915446e+01    0.3544288    0.3053446  20.70   0.00162221    1.474    0.321
        69  -9.8993     94.3421    219.3574   1.2801758369e+02   1.5951861313e+01    0.2818123    0.1870224  62.79 0.0009203401    1.487    0.328
        70  -8.3629     54.7191    223.2638   1.3680147579e+02   2.0891531248e+01    0.1273496    0.0796145  68.97 0.0002042242    1.482    0.325
        71 -10.7024    245.4370    220.8844   9.6972225604e+01  -9.8701207708e+00    0.3400783     0.111068 -41.89  0.001374298    3.065    0.674
        72  -9.7441    110.5598    219.2571   1.2447018094e+02   1.3312697830e+01    0.4249818      0.20614 -76.06  0.001542294    3.427    0.708
        73 -10.1215     70.4281    218.8191   1.3307524039e+02   1.9701710033e+01    0.4902054    0.2914461 -83.37  0.002498104    1.746    0.427
        74  -8.9545     87.8065    223.8396   1.2998951326e+02   1.6002914335e+01    0.1941925    0.1387644  70.08 0.0008998528    1.348    0.258
        75  -9.6279     92.5941    225.9795   1.2924003422e+02   1.4794629634e+01    0.2104224    0.1767994  40.67 0.0006486308    1.263    0.208
        76  -8.4959     62.5735    217.7554   1.3460941528e+02   2.1044466664e+01    0.1160536    0.1023106 -12.04  0.000690859    1.745    0.427
        77  -9.3672     88.1596    212.8274   1.2850877491e+02   1.8378199641e+01    0.2618317    0.1731664 -83.07 0.0008945849    1.614    0.380
        78  -9.9657     63.2626    209.5001   1.3353650643e+02   2.2809674013e+01    0.5868517    0.3710941 -40.06  0.002867946    2.392    0.582
        79 -11.3439     55.0901    207.8317   1.3510873604e+02   2.4294003024e+01     0.699237    0.3950443  87.13  0.002624122    1.900    0.474
        80 -11.6140    135.1827    236.3442   1.2164451320e+02   5.6240695311e+00    0.4081973    0.3479623   1.10  0.001280135    1.490    0.329
        81  -9.0491    101.5110    211.3702   1.2534577987e+02   1.6555075243e+01    0.2985602   0.08938825  49.29 0.0009447155    3.614    0.723
        82  -9.1838    106.8377    209.8338   1.2392880789e+02   1.6008484257e+01    0.2002492    0.1943262 -39.18 0.0006850326    1.232    0.188
        83  -9.8356    156.1090    208.1422   1.1261629729e+02   7.5504626383e+00    0.2127988    0.2049936 -45.03 0.0003246572    1.099    0.090
        84  -9.4305    112.3866    208.3141   1.2244926294e+02   1.5401625269e+01    0.2309404    0.1744096 -76.76 0.0005727832    1.408    0.290
        85  -8.6673    134.3270    208.3220   1.1749924091e+02   1.1512560801e+01    0.1422891    0.1148081  -5.96 0.0005302253    1.688    0.408
        86  -8.8774     74.2370    208.2567   1.3099011286e+02   2.1529281606e+01    0.1860461    0.1350756  75.18 0.0003810034    1.322    0.243
        87  -8.5780     69.9553    208.0731   1.3190927932e+02   2.2192910885e+01    0.1595885    0.1334814  86.69 0.0003437706    1.048    0.046
        88  -9.5224    237.6746    247.6741   1.0309966457e+02  -1.2689514348e+01    0.1264212   0.07938287   0.75 0.0004632992    1.693    0.409
        89  -9.1860    125.6979    206.5371   1.1915375392e+02   1.3456694937e+01    0.2435876    0.1307896 -57.30  0.001052755    1.968    0.492
        90  -8.7327     32.9587    206.9775   1.3967839253e+02   2.7203722570e+01    0.1743861    0.1317339 -54.46 0.0005266943    1.581    0.367
        91  -9.8606     91.4914    204.9113   1.2668320524e+02   1.9649711181e+01    0.3845597    0.1706787  42.17  0.001166307    2.119    0.528
        92  -9.9654    103.5072    202.9376   1.2365280099e+02   1.8129579512e+01     0.395759    0.2395831  41.79  0.001878864    1.590    0.371
        93  -9.8185     84.2177    201.3495   1.2783929605e+02   2.1618479300e+01    0.3229485    0.2471191 -39.71  0.001399524    1.682    0.405
        94  -9.9002    250.3110    200.7095   9.2333717264e+01  -7.3975078272e+00    0.2575418    0.1320381 -22.27  0.001155168    2.331    0.571
        95  -9.2050     43.2960    199.9195   1.3679406919e+02   2.7606492590e+01     0.315982     0.163057 -52.32  0.001533504    2.185    0.542
        96 -11.0044     27.6161    195.2961   1.3969323651e+02   3.0460747049e+01    0.4688288    0.2585964 -88.85 0.0001857881    1.674    0.403
        97 -11.6960     57.7967    194.5307   1.3296372844e+02   2.7029631250e+01    0.4888848    0.3520757 -33.68 0.0009326304    2.064    0.516
        98 -11.4838    103.1355    196.0878   1.2267984615e+02   1.9774614515e+01    0.2699403    0.2602779  70.86 0.0003175043    1.108    0.097
        99  -8.8166     97.7212    196.3008   1.2398003750e+02   2.0632351629e+01    0.2225744    0.1652762  55.15 0.0001693636    1.294    0.227
       100 -13.0661     39.9772    243.7769   1.4144651784e+02   1.8456609314e+01     1.060513    0.8152931  84.01  0.005634451    1.098    0.089
       101 -10.2503    249.8319    194.0648   9.1139337095e+01  -6.2320271560e+00    0.3103672    0.2233856 -26.26  0.001806527    1.231    0.188
       102  -9.3960     20.9634    194.9731   1.4106906824e+02   3.1226511025e+01    0.2281994    0.1431415 -66.33 0.0008098979    1.437    0.304
       103  -8.8444     19.8683    191.0682   1.4094347186e+02   3.2232910835e+01    0.1826847    0.1361525 -84.26  0.001170237    1.073    0.068
       104  -9.6768    113.1957    191.6845   1.1959011239e+02   1.9057368599e+01    0.5380512    0.2420989 -41.96  0.001928243    2.952    0.661
       105  -8.3169    118.7056    193.7046   1.1863203487e+02   1.7605523322e+01    0.1391915    0.1175729 -14.28 0.0002602875    1.561    0.360
       106 -10.8805     15.5286    192.0037   1.4194295660e+02   3.2441513207e+01    0.2307188    0.1685996 -89.29 0.0003452305    1.075    0.070
       107  -9.4231    191.4708    191.5111   1.0183819612e+02   4.2892737005e+00     0.244352    0.2325398 -18.46 0.0006260193    1.038    0.037
       108  -9.1137     38.5899    192.2025   1.3699706735e+02   2.9961699039e+01    0.2659067    0.1135501 -52.58  0.001165666    2.560    0.609
       109  -9.0425     40.8602    188.5313   1.3608577274e+02   3.0562766472e+01    0.2221335     0.153687  76.76  0.001257439    1.363    0.266
       110  -9.2215     31.9095    190.0362   1.3823991624e+02   3.1219117802e+01    0.3588683    0.1331048  41.03  0.001620002    2.603    0.616
       111 -10.2771    250.1920    188.1136   8.9918474914e+01  -5.2901621644e+00    0.3564663    0.1532439 -31.30  0.001500751    2.390    0.582
       112  -9.0437     77.0279    188.5061   1.2769286880e+02   2.5751603154e+01    0.1895775     0.134582  41.75 0.0001298052    1.443    0.307
       113 -10.2544     71.9637    186.8924   1.2866363124e+02   2.6885600588e+01     0.357313    0.2499819 -41.87  0.001210825    1.776    0.437
       114 -11.4215     64.8839    186.5464   1.3029152636e+02   2.7972757237e+01    0.3436243    0.2429679 -58.06 0.0007031934    1.395    0.283
       115  -9.7807     10.2018    187.7580   1.4269103357e+02   3.3908004227e+01    0.2255081    0.1659358 -80.72 0.0007470043    1.095    0.087
       116 -10.0083     83.6785    186.8117   1.2585571875e+02   2.5143994826e+01    0.2332703    0.2019634  68.02 0.0003064147    1.093    0.085
       117  -9.3151     29.8718    183.8479   1.3804306988e+02   3.2891606455e+01    0.2782408    0.1835096 -33.77  0.001464417    2.341    0.573
       118  -9.7834     24.4307    183.9351   1.3926464855e+02   3.3433552881e+01    0.3550963    0.1742314  46.20  0.001827676    2.049    0.512
       119  -9.4483    127.8809    182.8857   1.1452333960e+02   1.8425515352e+01    0.2210593    0.2062881  87.66 0.0004099701    1.055    0.052
       120  -8.8566    107.9380    182.8985   1.1934690640e+02   2.2058750732e+01    0.2351393    0.1706614  79.30 0.0008087937    1.620    0.383
       121  -8.8912     36.4881    182.5195   1.3639816800e+02   3.2487797152e+01    0.2235125    0.0950499 -59.70    0.0010156    2.072    0.517
       122  -8.9784     85.7622    179.9452   1.2427880588e+02   2.6477780069e+01    0.2523617    0.1578742  55.85 0.0006173661    1.676    0.403
       123  -8.6811     27.2686    180.3080   1.3825273074e+02   3.3998239959e+01    0.1209996   0.08521035 -52.88 0.0004157242    1.538    0.350
       124  -8.1980     92.6661    178.2431   1.2229810491e+02   2.5779771953e+01    0.1472825    0.1044159  67.57 0.0001654477    1.547    0.353
       125  -8.6856     12.4585    178.4869   1.4137377879e+02   3.5842315328e+01    0.1236129   0.09684217 -79.81 0.0008080741    1.071    0.066
       126  -8.2353    125.7054    177.2942   1.1399546910e+02   2.0145940708e+01    0.1524495    0.1161448  78.02 0.0001854194    1.559    0.359
       127 -11.0636     65.2454    175.6647   1.2866639720e+02   3.0562832902e+01    0.2950678    0.2496031  57.59 0.0003969535    1.193    0.161
       128 -10.8192     61.4031    172.6263   1.2916907977e+02   3.1829417146e+01    0.3215386    0.2782798 -40.37 0.0009899682    1.373    0.272
       129  -9.6066    103.0201    175.9847   1.1934009704e+02   2.4579767575e+01    0.2175482     0.201743 -89.86  0.001199124    1.008    0.008
       130 -10.6370     75.3277    174.6871   1.2602362853e+02   2.9358959852e+01    0.2885695    0.2438301  76.78 0.0004665366    1.141    0.124
       131 -10.1804     19.0964    173.6022   1.3940418593e+02   3.6380924283e+01     0.433802    0.2210754  81.60  0.001826441    2.163    0.538
       132 -10.8746     14.6726    167.3641   1.3977232011e+02   3.8250307870e+01    0.3160326     0.278761  45.27  0.001337422    1.359    0.264
       133 -11.6524    248.3477    172.5326   8.7141592011e+01  -2.3046345729e+00     0.481814    0.3855224  -0.18  0.002815864    1.359    0.264
       134  -9.9730     12.5712    173.2381   1.4084565490e+02   3.7055297146e+01    0.2944158    0.1630236 -57.52  0.001237697    1.691    0.409
       135  -8.3140    107.6981    173.3040   1.1768960391e+02   2.4407471215e+01    0.1533878    0.1130892  77.27 0.0003437427    1.593    0.372
       136 -11.2275      2.6028    172.3418   1.4297627764e+02   3.8090528964e+01      0.38939    0.2621844  83.58  0.002126004    1.276    0.216
       137  -9.0253     45.9996    172.2814   1.3290129230e+02   3.3857783512e+01    0.1932404    0.1651333 -59.98   0.00031093    1.210    0.174
       138  -9.5089     48.2547    168.7497   1.3187344869e+02   3.4448758314e+01    0.4471762    0.1471776  40.58  0.001748442    3.011    0.668
       139 -10.0712     45.4974    164.5385   1.3197763408e+02   3.5803133839e+01    0.3640915    0.1874478 -48.82  0.001683931    2.036    0.509
       140  -8.7003     43.5083    161.4856   1.3205245679e+02   3.6777792929e+01     0.136071    0.1143652 -82.94 -9.474489e-06    1.040    0.038
       141  -9.3585     27.8819    171.0375   1.3708574445e+02   3.6139307705e+01    0.3554578    0.1598578 -54.31  0.001439036    2.119    0.528
       142 -11.4536     83.2862    166.2420   1.2261732084e+02   3.0225791867e+01    0.5943178    0.5039598  25.78  0.003166943    1.385    0.278
       143 -11.4420      6.4706    166.8451   1.4160368645e+02   3.9056895983e+01     0.295173    0.1956398 -86.96  0.001331962    1.241    0.194
       144 -12.6544    245.4487    158.7791   8.4830958680e+01   6.4467169375e-01     1.491018    0.7857456 -55.97  0.006302799    2.484    0.597
       145 -12.7363    247.7967    100.7657   7.2318057629e+01   1.0667170608e+01     1.040114    0.5398887 -41.52  0.004931296    1.701    0.412
       146 -12.7299    248.7615    132.7749   7.8893978425e+01   4.7764052835e+00     1.420081    0.5266209 -41.22  0.005613291    2.334    0.572
       147  -8.7695     36.7864    162.5998   1.3388995781e+02   3.7248660994e+01    0.1701954    0.1131317  50.29 0.0005679643    1.601    0.375
       148 -13.1777      4.7362    142.9930   1.3951198997e+02   4.4758731232e+01     1.573811    0.6792368 -88.75  0.006894561    2.716    0.632
       149 -10.1347     16.0987    158.2250   1.3843893312e+02   4.0288534129e+01    0.1771097    0.1447978 -65.53 0.0003732527    1.154    0.133
       150 -10.2361     10.9371    150.0441   1.3876947875e+02   4.2646018004e+01    0.1887702     0.149086 -76.04 0.0003224578    1.003    0.003
       151 -10.6509     83.8090    156.1886   1.2067944495e+02   3.2628892079e+01    0.3703268    0.2849098  35.15  0.001142036    1.418    0.295
       152 -11.0044     32.0968    154.3417   1.3397073855e+02   3.9736893361e+01    0.4785805    0.2073091 -58.27   0.00152997    1.918    0.479
       153 -11.1142     26.1953    154.9279   1.3554520901e+02   4.0169342922e+01     0.465662    0.2104768  32.60  0.002200897    2.477    0.596
       154  -8.5950    228.3635    155.2161   8.7046651673e+01   4.4022647461e+00    0.2035388    0.1217897 -48.92 0.0005032769    1.638    0.390
       155  -9.5832     90.0234    153.3331   1.1848260137e+02   3.2334808001e+01    0.2464074    0.1909095 -50.30 0.0005345671    1.262    0.208
       156 -10.1115     96.3701    150.9242   1.1630811224e+02   3.1862867064e+01    0.3868459    0.2598963 -50.24  0.001309114    1.438    0.304
       157 -11.0465     22.8740    148.5590   1.3556785950e+02   4.2002938976e+01    0.3585964    0.2346059 -72.06  0.001403812    1.256    0.204
       158 -11.8943     68.4161    144.4362   1.2266510228e+02   3.7826037563e+01    0.6932206     0.495012  86.43  0.002512206    1.672    0.402
       159  -9.7730     41.4249    147.5565   1.3055429477e+02   4.0412355472e+01    0.2283798    0.1994412 -74.28 0.0005584013    1.030    0.029
       160  -9.8729    235.9845    145.9905   8.3752673857e+01   4.7138039739e+00    0.2168569    0.1925465 -35.00 0.0005385038    1.036    0.035
       161  -8.8305     99.7896    146.1030   1.1439520325e+02   3.2451144396e+01    0.2566807    0.1677584 -31.20  0.001080566    1.996    0.499
       162  -9.6522    133.6042    141.0396   1.0436177068e+02   2.7172714285e+01    0.4897026    0.2650549 -56.32  0.001859046    1.976    0.494
       163 -11.2060     13.0086    137.2097   1.3666245088e+02   4.5513795631e+01    0.2304264    0.1859042  87.93 0.0005473914    1.207    0.171
       164 -10.7108     19.3831    141.6929   1.3556978809e+02   4.3944197607e+01    0.3072182    0.1698527 -83.77  0.001433027    1.811    0.448
       165 -11.1011     16.3314    139.6735   1.3610664657e+02   4.4673171712e+01    0.2886877     0.213021 -41.75  0.001784939    1.464    0.317
       166  -9.9305     32.6848    140.5596   1.3184522651e+02   4.3012074774e+01    0.3046228    0.1683731  76.60  0.001336964    2.606    0.616
       167  -9.4350     37.1251    140.1278   1.3056594400e+02   4.2672195042e+01    0.1861066    0.1439878  88.06  0.001073218    1.323    0.244
       168  -9.0068     64.8889    167.1506   1.2746901111e+02   3.2702166832e+01    0.2051304    0.1684091  82.96  0.001144665    1.184    0.156
       169 -11.3732     59.9272    136.3702   1.2353420542e+02   4.0948080753e+01    0.2940136     0.229957 -62.34 0.0003263124    1.139    0.122
       170 -10.0765     47.1512    136.3466   1.2714962180e+02   4.2506071872e+01     0.289699    0.1487551 -44.08  0.001304284    2.014    0.503
       171 -11.3016     12.4635    154.0419   1.3884991996e+02   4.1581113823e+01    0.3357155    0.1997129 -72.93  0.001553754    1.337    0.252
       172 -12.8170      5.4799    109.3258   1.3481860575e+02   5.2465852917e+01    0.8718641    0.3902149 -40.79  0.004411022    2.191    0.544
       173  -8.6516     52.2268    158.4105   1.2937035168e+02   3.6501400746e+01     0.172707    0.1242837  49.59 0.0006240456    1.479    0.324
       174  -8.9129     60.8967    164.8150   1.2812314632e+02   3.3816632388e+01    0.1940565    0.1780107 -55.51 0.0003533116    1.179    0.152
       175 -10.4602     44.7420    130.3437   1.2677673948e+02   4.4226778778e+01    0.3063178    0.2070033  71.06 0.0008205705    1.908    0.476
       176 -10.0579     59.1687    128.1254   1.2215624646e+02   4.3044714157e+01    0.2060208    0.1745323 -40.47 0.0004176708    1.179    0.152
       177  -9.5465    108.8034    136.2375   1.0978681185e+02   3.3205435807e+01     0.366981    0.2542278 -19.14  0.001512405    2.134    0.531
       178  -9.6469    209.9405    125.6570   8.3864707567e+01   1.3875151209e+01    0.2762497    0.1987383 -49.30 0.0005081911    1.311    0.237
       179 -10.2848     23.9532    127.7214   1.3229707248e+02   4.6875778339e+01     0.178013    0.1547238 -64.42 0.0006020667    1.061    0.058
       180 -11.8534     17.5477    122.1810   1.3326689593e+02   4.8693009907e+01    0.3019641    0.2274419 -43.58  0.001900606    1.295    0.228
       181 -11.7424    247.9264    142.4825   8.1049904233e+01   3.1662793686e+00    0.5815297    0.5268763  -6.19  0.003562758    1.223    0.182
       182 -10.0700    231.8959    116.2176   7.7989092400e+01   1.1085258265e+01    0.2232544    0.1806816 -64.05 0.0007114167    1.224    0.183
       183 -12.2787      9.1676    112.7160   1.3424627003e+02   5.1466603112e+01    0.5033911    0.1651477 -50.58  0.002179921    2.363    0.577
       184  -8.8788     33.3154    114.6748   1.2729377999e+02   4.9101011874e+01    0.1278832   0.09562521  78.37 0.0004877667    1.668    0.400
       185  -8.8160    203.4857    111.5056   8.1757452642e+01   1.8052179748e+01    0.1484793     0.140258 -56.82 5.390676e-05    1.039    0.038
       186 -10.7963    249.5643    150.9936   8.2550014096e+01   1.3342806215e+00     0.513062    0.2666055 -42.34  0.002039942    1.672    0.402
       187  -9.2655     35.1971    107.1837   1.2524500166e+02   5.0647569241e+01    0.1909072    0.1537612 -39.89 0.0005897415    1.152    0.132
       188  -9.7125    167.9425    113.1425   8.9299444910e+01   2.5815233297e+01      0.34841    0.2699093 -82.70  0.001065111    1.591    0.371
       189  -8.1567     58.2904    162.3328   1.2840747373e+02   3.4770412453e+01    0.1390023   0.09927096 -40.66 0.0003524373    1.630    0.387
       190  -8.4603     71.7564    100.0370   1.1189856976e+02   4.7829722927e+01    0.1724557     0.111433 -50.94 0.0002374771    1.442    0.306
       191 -10.5222     17.0530     99.1062   1.2946211041e+02   5.3986267372e+01    0.2072785    0.1591769 -71.50 0.0003341579    1.270    0.213
       192  -9.0232     13.3065     94.3349   1.2977294587e+02   5.5296524670e+01    0.1313446   0.07077971 -40.12  0.000704055    1.670    0.401
       193 -10.0170    249.7064    117.9307   7.5646580045e+01   7.2715706020e+00    0.2870815    0.2373033 -40.77 0.0006867479    1.116    0.104
       194 -10.2154     21.4308     92.9176   1.2679493250e+02   5.5018921529e+01    0.2496966    0.1568387 -51.95  0.001026347    1.270    0.212
       195 -10.0494      2.0000     88.4849   1.3241465705e+02   5.7239414766e+01    0.2684629   0.05364801 -65.00 0.0009370398    3.953    0.747
       196 -11.9058    247.9523    113.0827   7.4883703418e+01   8.4704839708e+00    0.9276261    0.6008413 -15.82  0.004137215    2.594    0.614
       197 -11.3266    149.8810    248.2097   1.2031429965e+02   9.4459062038e-01     0.403957    0.2889307 -68.33   0.00225794    1.810    0.447
       198 -10.7181    136.1178    248.6532   1.2316748877e+02   3.1566918542e+00    0.2621952    0.2194246 -61.69  0.001153806    1.373    0.271
       199 -10.6130     18.1045     26.1045   1.0906558251e+02   6.7673237633e+01    0.2766322    0.1317417  38.49  0.001485361    2.984    0.665
