#   1 NUMBER                 Running object number                                     
#   2 MAG_AUTO               Kron-like elliptical aperture magnitude                    [mag]
#   3 X_IMAGE                Object position along x                                    [pixel]
#   4 Y_IMAGE                Object position along y                                    [pixel]
#   5 X_WORLD                Barycenter position along world x axis                     [deg]
#   6 Y_WORLD                Barycenter position along world y axis                     [deg]
#   7 A_WORLD                Profile RMS along major axis (world units)                 [deg]
#   8 B_WORLD                Profile RMS along minor axis (world units)                 [deg]
#   9 THETA_WORLD            Position angle (CCW/world-x)                               [deg]
#  10 FWHM_WORLD             FWHM assuming a gaussian core                              [deg]
#  11 ELONGATION             A_IMAGE/B_IMAGE                                           
#  12 ELLIPTICITY            1 - B_IMAGE/A_IMAGE                                       
         1 -12.7435    171.6089     49.1204   5.8630696612e+01   3.5999724215e+01     1.351582     1.108648  10.23  0.004832323    1.451    0.311
         2 -12.9746    188.5044     18.1209   4.6678791474e+01   3.5640758378e+01     1.271228     1.116672 -71.08  0.005562942    1.102    0.093
         3 -10.2298    219.4635     11.7701   4.1553527908e+01   2.8591854878e+01    0.2955794    0.1539725 -52.34  0.001399768    1.846    0.458
         4  -9.8071    120.1682      9.2051   5.4969521634e+01   5.3802812825e+01    0.4262697    0.3253546  37.33  0.001569275    1.206    0.171
         5  -8.0405    135.9604     10.3021   5.2238812339e+01   4.9866633698e+01    0.1921723    0.1611469  54.04 0.0003596706    1.078    0.072
         6  -8.6599    168.7973     12.4846   4.7639634593e+01   4.1313584434e+01    0.2115874    0.1769105  35.26 0.0002997559    1.290    0.225
         7  -8.6708    151.1658    237.5076   1.0537233608e+02   5.2113327244e+00    0.2024162    0.1535246  48.35 0.0008022875    1.121    0.108
         8  -8.9155    166.0005    249.1750   1.0415717554e+02   1.1483807708e+00    0.1692621    0.1547063  33.70 0.0003995939    1.174    0.148
         9  -8.8158    127.4696    250.0235   1.1117984154e+02   7.0436604324e+00    0.1675717     0.135096  41.14 0.0003805864    1.163    0.140
        10  -8.3360    124.6812    248.2954   1.1149427888e+02   7.7353323234e+00    0.1788031    0.1335072  56.20 0.0006301255    1.131    0.116
        11 -18.8086     55.7025    221.7127   1.2157309338e+02   2.2174490132e+01     4.678805     3.649511 -83.88   0.01974134    1.268    0.211
        12 -10.9290    148.5262    191.4996   9.9131147259e+01   1.3531458667e+01    0.7071871    0.3094534 -56.71  0.001690701    2.910    0.656
        13  -9.6953    143.8219    185.9456   9.9197486258e+01   1.5465041459e+01    0.3959265    0.2611007 -76.70  0.001402522    2.223    0.550
        14  -9.7301    166.6693    220.9034   1.0011912380e+02   5.2050025702e+00    0.2519664     0.217847  73.03 0.0007884823    1.404    0.288
        15  -9.6774    219.4727    190.5327   8.4784364443e+01   6.4350713435e-01    0.2557908    0.1984951   6.77 0.0005398537    1.235    0.191
        16  -8.7125      5.5912    191.2108   1.2876479331e+02   3.3617940476e+01    0.1279027   0.09952285 -76.34 0.0006617119    1.349    0.259
        17  -9.1080    178.1206    224.6695   9.8498359981e+01   2.6809996336e+00    0.3123844    0.1311179 -49.75  0.001388095    3.161    0.684
        18 -10.0216    165.6318    184.4982   9.4299320099e+01   1.1642884162e+01    0.4020566    0.3154145  85.95  0.001013323    1.772    0.436
        19  -9.8626    219.9990    185.7548   8.3762434078e+01   1.2736820240e+00    0.2187187    0.1796929 -18.16 0.0003770459    1.185    0.156
        20  -9.0724    153.1374    186.1228   9.7232440294e+01   1.3697820428e+01    0.1836705    0.1578044  73.14  0.001034024    1.292    0.226
        21  -7.9173    195.6915    184.8425   8.8236331322e+01   5.8776661696e+00    0.1815889    0.1234142 -47.31 0.0004249117    1.707    0.414
        22 -10.3751    187.4853    182.3958   8.9403131693e+01   7.8474719789e+00    0.3412204    0.2636893  -5.36 0.0004783639    1.493    0.330
        23  -9.1781    246.0273    181.0074   7.8183433161e+01  -2.5289503720e+00    0.1767771    0.1627458 -63.26 0.0004387928    1.648    0.393
        24 -10.1820    150.0887    178.7087   9.6567602093e+01   1.5710511680e+01     0.288808    0.2393027 -76.12 0.0006612733    1.417    0.294
        25 -10.3454    186.4824    174.9586   8.8151021591e+01   9.3509709644e+00    0.3583067    0.3564759 -44.61  0.001080248    1.149    0.129
        26  -8.3801    185.2055    169.2211   8.7255427140e+01   1.0638714276e+01    0.2349589    0.2087581 -40.58 0.0006972199    1.201    0.168
        27  -8.4855    231.3064    176.6661   7.9889695115e+01   6.4144431805e-01    0.1218435    0.1089353 -70.17 0.0003381069    1.668    0.400
        28  -9.6382    220.6949    175.4482   8.1578026119e+01   2.7486554945e+00    0.2627744    0.2126179 -58.37  0.001445341    1.726    0.421
        29 -11.2431    123.6127    171.4367   1.0118864262e+02   2.2143828239e+01    0.4710529    0.4068074  -7.24  0.001648011    1.523    0.343
        30 -10.5157    184.5147    217.5002   9.6164832102e+01   2.6710157802e+00     0.583861    0.2379302 -49.59  0.002468641    3.342    0.701
        31  -9.3838    158.3225    171.6738   9.3455836086e+01   1.5505330583e+01    0.2677809    0.2131136  88.02  0.001352885    1.644    0.392
        32 -11.6670    138.7430    171.3499   9.7737534157e+01   1.9355064995e+01    0.6318339    0.4358166  29.40   0.00305936    1.634    0.388
        33  -9.3049    160.4741    174.4954   9.3530146627e+01   1.4532763312e+01    0.2455021    0.2319177 -31.51 0.0008339235    1.130    0.115
        34 -10.9220    131.9385    170.8727   9.9190286531e+01   2.0733635581e+01    0.3995673    0.3568883  75.46  0.001397135    1.124    0.111
        35  -8.4189    208.2390    165.7779   8.1934454588e+01   6.6961126880e+00    0.1859505    0.1502143   6.20 0.0002806631    1.266    0.210
        36  -8.8020    188.1534    163.6516   8.5493209885e+01   1.1066994078e+01    0.2747345    0.1987783 -65.50  0.001281751    1.968    0.492
        37 -10.9519    182.7446    208.4537   9.5025504607e+01   4.3812751246e+00     0.522647     0.327159 -59.12  0.002587759    2.402    0.584
        38  -8.4578      1.9062    159.0302   1.2746497859e+02   4.0725643151e+01    0.1740491    0.1095933 -54.78  0.001114368    1.800    0.444
        39  -9.6393    152.6629    220.3716   1.0275935468e+02   7.6825251044e+00    0.2123316    0.1597411 -46.01 0.0005108523    1.578    0.366
        40  -9.0748      8.9988    153.0924   1.2546876111e+02   4.1489351493e+01    0.2531384    0.1888631 -65.40  0.001754784    1.335    0.251
        41  -9.9783      5.7149    149.1289   1.2588464921e+02   4.2625691216e+01    0.4417432    0.2674145 -21.11  0.002403128    3.195    0.687
        42 -10.3027      5.2720    145.4400   1.2568384132e+02   4.3483535635e+01     0.302756     0.233279  44.97  0.002054212    1.483    0.326
        43 -10.1319    124.8989    162.4494   9.9279422311e+01   2.3848221478e+01    0.3984047     0.242603  47.09  0.001409195    1.582    0.368
        44  -8.5054    232.0798    218.2661   8.7561399228e+01  -5.2823328377e+00    0.1663195    0.1329349  20.00 0.0003440741    1.067    0.063
        45 -11.3824    143.6060    146.7968   9.1721286095e+01   2.3604635173e+01    0.5897538    0.3767042 -68.83  0.002446653    2.140    0.533
        46 -10.5734    139.9946    144.1556   9.2007593856e+01   2.4912883076e+01    0.3884864    0.2909474  75.75  0.001190517    1.691    0.409
        47  -8.9174     18.0126    147.9969   1.2295732461e+02   4.1898730869e+01    0.1878261    0.1465842 -83.18 0.0009292963    1.045    0.043
        48  -9.3127     13.0512    144.0259   1.2374862912e+02   4.3209482953e+01    0.1857077    0.1438245 -84.38 0.0008355945    1.026    0.025
        49 -10.6525     23.0784    141.2841   1.2106323801e+02   4.2999856004e+01    0.2983303    0.2280258 -89.55  0.001337431    1.077    0.072
        50  -9.2406    176.6878    211.2402   9.6665822616e+01   5.0042011968e+00    0.2323062    0.2003764  23.14 0.0006474154    1.092    0.084
        51 -10.9683      2.4977    129.6773   1.2496598937e+02   4.7233435624e+01    0.5752308    0.1925345 -78.31  0.001845102    2.410    0.585
        52 -10.6329      4.0621    121.5819   1.2378310709e+02   4.8976723167e+01    0.3415522    0.2474557 -43.21  0.002289157    1.609    0.379
        53 -11.0162      4.3288    114.1849   1.2292589021e+02   5.0653068309e+01     0.585551     0.315459 -49.04  0.003388674    1.852    0.460
        54 -10.8245    135.6781    119.8358   8.7398456848e+01   3.1166157705e+01      0.52017    0.2940412 -38.72  0.001735086    1.875    0.467
        55  -9.0011    230.5750    200.4830   8.4642912631e+01  -2.6853483701e+00     0.227007    0.2133125 -72.71 0.0007116698    1.653    0.395
        56 -10.3707     28.0458    127.8999   1.1821897367e+02   4.5680133864e+01    0.3093773     0.175807  38.21  0.001720711    1.960    0.490
        57 -10.3413     19.1981    126.3894   1.2036373677e+02   4.6781845010e+01    0.2556052    0.2033999  73.74  0.001371471    1.241    0.194
        58  -9.8238    107.6031    123.0976   9.5528149851e+01   3.6004930508e+01     0.317276    0.2392995 -43.36  0.001190402    1.343    0.255
        59  -9.8820    153.3220    200.7035   9.9641837471e+01   1.0961543092e+01    0.4796369    0.2546426  25.89  0.001984856    2.647    0.622
        60 -10.3249     27.2009    119.2746   1.1729261615e+02   4.7783499937e+01    0.2472676     0.191311  74.81 0.0008255739    1.315    0.240
        61  -8.6402    113.4872    117.9104   9.2720637800e+01   3.6096743732e+01    0.2266627    0.1452309 -50.80 0.0004703067    1.507    0.336
        62  -8.8169    100.3587    115.7758   9.5812379573e+01   3.9020279428e+01    0.2442495    0.1941426  54.37 0.0005650736    1.343    0.255
        63  -9.4424    168.1751    113.9348   7.8124176837e+01   2.5162591030e+01    0.3892614    0.2973571 -77.29  0.001110361    1.753    0.429
        64  -8.6645    153.4740    114.9892   8.1793526817e+01   2.8309372708e+01    0.2227186    0.2090669  46.11 0.0003786439    1.075    0.070
        65  -9.4661    209.8427    111.3530   6.8985065009e+01   1.6014008946e+01    0.2556255    0.2400035 -23.24 0.0003368139    1.015    0.015
        66 -10.1405    135.6782    129.5274   8.9749005484e+01   2.9021149579e+01    0.4202431     0.220427 -46.18  0.001373666    1.898    0.473
        67 -10.0128    116.3488    110.6912   9.0150608111e+01   3.7183544707e+01    0.3254864     0.242287  29.77 0.0008587294    1.527    0.345
        68 -11.0524    193.3405    195.4066   9.0675696444e+01   4.5732192320e+00    0.7740847    0.5356842 -70.23  0.003617094    2.702    0.630
        69 -10.1773     14.7886    110.5737   1.1959051891e+02   5.0795276223e+01    0.2927655    0.1582211  12.64   0.00157531    2.652    0.623
        70 -11.2254    147.9334    226.2772   1.0449861177e+02   7.5117895962e+00    0.5982465    0.3824933  67.94  0.003138437    2.113    0.527
        71  -9.6356     18.9632    129.9704   1.2084115854e+02   4.5967976601e+01     0.232705    0.1578994 -66.03 0.0004579825    1.238    0.192
        72  -9.8129      2.6807    106.3467   1.2248827642e+02   5.2544633289e+01    0.3907911    0.1146691 -70.37  0.001728058    2.437    0.590
        73 -11.0831     38.7965    103.7788   1.1144187279e+02   5.0377718565e+01    0.4048904    0.2979891 -46.08  0.002403273    1.322    0.243
        74  -9.7818      3.9708    100.1860   1.2136263268e+02   5.3878485963e+01    0.2534636    0.1905868 -33.52 0.0008292362    1.572    0.364
        75  -9.6440    161.5174    196.4767   9.7259940323e+01   1.0231568277e+01    0.4335787    0.2363985 -41.11  0.002043145    2.100    0.524
        76  -9.7046    158.0446    193.4723   9.7468556819e+01   1.1413381361e+01    0.3037634    0.2292202 -80.45  0.000585083    1.847    0.459
        77  -8.9831     20.9854     94.9926   1.1542325127e+02   5.3963174124e+01    0.2358974     0.178462  -2.84 0.0009535812    1.739    0.425
        78  -9.8924     80.9981     92.5488   9.5725796313e+01   4.7643496358e+01     0.593707     0.195888  42.96  0.002039815    3.371    0.703
        79  -8.8275     51.1734     94.0663   1.0559654838e+02   5.1347990343e+01    0.2497691    0.1855402  36.91 0.0007965969    1.548    0.354
        80  -8.3448     98.3360     91.8760   9.0244576384e+01   4.4841067972e+01    0.2062264    0.1743558 -43.70 0.0003227397    1.112    0.101
        81  -9.5167    218.6743    195.0723   8.5793432195e+01   1.0670346025e-01    0.2789564     0.174837  39.74  0.001491165    1.494    0.331
        82 -10.3602    249.7739    193.0394   7.9895653602e+01  -4.7878109991e+00    0.2187371     0.182864  -0.48 0.0003259679    1.071    0.066
        83 -10.9525    162.6023    222.4699   1.0113548682e+02   5.6506671882e+00    0.5619904    0.4245557 -37.65  0.002587622    1.587    0.370
        84 -10.1871    113.7158     70.8630   7.9323146266e+01   4.6202883206e+01    0.2442676    0.2344358  30.05 0.0002357271    1.071    0.067
        85 -11.9834    159.0916     62.6999   6.5355584081e+01   3.7044473087e+01     1.362604    0.7856095  61.52  0.004090193    1.843    0.457
        86 -10.3521    120.2521    243.4756   1.1177794344e+02   9.1715300265e+00    0.3145007    0.2092746  31.64   0.00192351    1.622    0.383
        87 -10.9176    176.6642     40.9827   5.5239509883e+01   3.5859259210e+01    0.4195787    0.3907104 -27.02 0.0008185279    1.127    0.113
        88  -8.9769    209.8714     63.4821   5.6384385262e+01   2.4110988562e+01    0.3068432    0.2139877 -34.45  0.001244872    1.385    0.278
        89  -8.6994    139.9135    243.8944   1.0823783162e+02   6.0406522637e+00      0.20633    0.1535715 -50.06  0.001326764    1.694    0.410
        90 -10.2222    134.5041    241.0878   1.0889992449e+02   7.3286550770e+00    0.4440909    0.2085298 -46.87  0.002298369    2.763    0.638
        91  -8.8357    168.0085    238.5279   1.0238541079e+02   2.3225092769e+00    0.1625929    0.1568735 -14.05 0.0004958542    1.260    0.207
        92 -11.1302    140.6855    181.3808   9.9094188257e+01   1.6948095697e+01    0.6233823    0.3955368 -31.88  0.001905878    2.156    0.536
