#   1 NUMBER                 Running object number                                     
#   2 MAG_AUTO               Kron-like elliptical aperture magnitude                    [mag]
#   3 X_IMAGE                Object position along x                                    [pixel]
#   4 Y_IMAGE                Object position along y                                    [pixel]
#   5 X_WORLD                Barycenter position along world x axis                     [deg]
#   6 Y_WORLD                Barycenter position along world y axis                     [deg]
#   7 A_WORLD                Profile RMS along major axis (world units)                 [deg]
#   8 B_WORLD                Profile RMS along minor axis (world units)                 [deg]
#   9 THETA_WORLD            Position angle (CCW/world-x)                               [deg]
#  10 FWHM_WORLD             FWHM assuming a gaussian core                              [deg]
#  11 ELONGATION             A_IMAGE/B_IMAGE                                           
#  12 ELLIPTICITY            1 - B_IMAGE/A_IMAGE                                       
         1 -14.1931     68.8275    144.4867   9.5717892065e+01   3.7207161671e+01      4.30897     2.393625  76.55  0.003032445    3.710    0.730
         2 -13.4896    206.0047     42.8259   3.7189816442e+01   2.9094346949e+01     1.404648     1.227262  10.03  0.007081813    1.683    0.406
         3 -13.3825    218.6344     31.6623   3.3436715638e+01   2.7843614124e+01    0.9220835    0.7741961  44.29  0.006100543    1.651    0.394
         4 -11.6384    247.6562      9.2143   2.6835086258e+01   2.4729772535e+01    0.4493352    0.3303185  47.96  0.003068455    2.160    0.537
         5 -12.3763    243.5100      5.1408   2.6350004315e+01   2.5951606582e+01     0.639217    0.5211326  75.61  0.004934445    1.429    0.300
         6 -10.4611      2.2504      9.2811   8.4574714783e+01   7.3546923683e+01    0.4245582   0.07344878 -45.11  0.001562725    4.889    0.795
         7 -10.1407     51.2031      3.8720   5.6471784970e+01   6.7640999354e+01    0.2485306    0.1623532  59.25  0.001002775    1.977    0.494
         8 -10.2969    149.3215    229.2260   8.9284903729e+01   4.2461130179e+00    0.2486164    0.1863354  32.75  0.001374144    1.218    0.179
         9 -10.2618    102.3225    249.9124   1.0256801294e+02   7.2528510362e+00    0.2719532    0.2317191  53.55   0.00137492    1.119    0.106
        10 -11.1701    101.4110    243.6311   1.0203719570e+02   8.6114011271e+00    0.4791562    0.2674904 -69.56  0.002078293    2.248    0.555
        11 -13.9517     36.6733    196.2094   1.1196122731e+02   2.7798305714e+01     1.792182    0.9921935  59.35  0.006876502    1.842    0.457
        12 -14.0613     45.7937    186.8519   1.0866592218e+02   2.9101908647e+01     2.906951     1.259592  47.24   0.01211322    2.325    0.570
        13 -16.6546     14.2570    241.9484   1.2029190239e+02   1.9752720731e+01     6.980283     4.850434  26.52   0.04522045    1.709    0.415
        14  -9.2081     99.3571    181.0261   9.3567392867e+01   2.3076891049e+01    0.2403347    0.2110394  13.02 0.0005171291    1.243    0.196
        15 -10.1063     86.3796    173.3914   9.5791570201e+01   2.7062603198e+01    0.4798684    0.3085597  10.84  0.002001879    2.165    0.538
        16 -11.4203     63.1406    172.0816   1.0205259384e+02   3.0739409572e+01    0.4882193    0.3098949 -32.12  0.002145059    2.086    0.521
        17 -11.3129     67.9906    167.2644   9.9943583584e+01   3.1338776227e+01    0.4132464    0.3316506  -3.57 0.0009324632    1.561    0.359
        18  -9.2561    185.9945    172.8408   7.0647297172e+01   9.5121162972e+00    0.2746923    0.2075977 -41.27  0.001395198    1.259    0.206
        19  -9.9256    114.7620    173.5950   8.8087396273e+01   2.2318925320e+01    0.2195709    0.1408843  45.34 0.0006228269    1.605    0.377
        20 -12.5682     77.2900    158.2460   9.5723557350e+01   3.2365906521e+01     1.558529    0.7390246  54.89 0.0008623793    2.994    0.666
        21 -12.7374     64.8876    154.1944   9.8678287293e+01   3.5194026291e+01    0.5454544    0.4472595 -31.44 0.0009811408    1.351    0.260
        22  -9.4724    139.5879    249.2570   9.4378707976e+01   1.9866044106e+00      0.17032    0.1190661 -35.20  0.000952903    1.628    0.386
        23  -8.7454    110.5193    167.0651   8.7966141089e+01   2.4680015614e+01    0.2375001     0.153267 -57.86  0.001018349    1.576    0.365
        24  -9.5059     44.9647    165.7760   1.0625756994e+02   3.4615832897e+01    0.2548054    0.1909195 -87.79 0.0006619142    1.309    0.236
        25 -11.4231     84.7798    152.3530   9.2406693174e+01   3.2755842102e+01    0.6498134    0.4507862 -27.09  0.002076846    1.798    0.444
        26 -10.4218    133.6938    144.4181   7.6811806171e+01   2.5900872878e+01     1.225964    0.2977604 -54.12   0.00259012    6.409    0.844
        27  -8.8631    174.8155    149.5717   6.8014511116e+01   1.6513128419e+01    0.2056631    0.1478173  54.25 0.0008488538    1.634    0.388
        28 -10.2775     32.3849    144.0075   1.0691858413e+02   4.1644491201e+01    0.5108591    0.3245571  14.91  0.002515137    1.911    0.477
        29 -11.6528     86.9474    137.8358   8.8748631879e+01   3.6169442803e+01    0.3320416    0.2860247 -49.38 0.0004172815    1.107    0.097
        30 -10.1001     99.8452    138.5323   8.4991257153e+01   3.3781321233e+01    0.5445997    0.3634795 -20.40   0.00218387    2.082    0.520
        31 -10.7922     47.8543    171.2248   1.0617996930e+02   3.2864894452e+01    0.5318214    0.2204334 -41.36  0.001642912    3.416    0.707
        32  -9.5188    109.7940    129.4152   7.9893292039e+01   3.4217361816e+01    0.3362573    0.2641384  11.80 0.0008860357    1.502    0.334
        33 -10.8526    193.1465    195.0655   7.3612044743e+01   3.8802984509e+00    0.9534768    0.4813007 -62.26  0.002715811    6.025    0.834
        34 -10.0689    135.6294    129.2175   7.2640541589e+01   2.9090779041e+01    0.4769897    0.1477654 -45.51  0.001398778    3.136    0.681
        35 -10.4910    232.8453    170.6110   6.1142067799e+01   2.1583078679e+00    0.3567536    0.2065333  61.14  0.001438515    3.842    0.740
        36  -9.8202     97.0984    124.9307   8.2618640324e+01   3.7683023725e+01     0.336063    0.2589585   1.20  0.001521621    1.604    0.376
        37  -9.7816    105.8616    130.8383   8.1399814013e+01   3.4610101466e+01    0.3687006    0.3381124  83.37  0.001402558    1.224    0.183
        38  -8.4666    115.6938    123.7123   7.6754762381e+01   3.4447225913e+01    0.1596757    0.1252113  -9.09 0.0002418228    1.569    0.363
        39  -8.4736    163.2185    120.9949   6.3812469013e+01   2.5055354818e+01    0.2076495    0.1226716 -43.29            0    1.619    0.382
        40  -9.1015    135.0000    120.0302   7.0475342200e+01   3.1330565596e+01    0.2707719   0.08916351 -45.75 0.0008056876    2.965    0.663
        41  -9.1276    106.8132    118.2495   7.7969453137e+01   3.7492677708e+01    0.2127969    0.2113535 -78.32 0.0003337749    1.064    0.060
        42  -9.8735    231.2546    113.8582   4.9589863222e+01   1.2649927048e+01    0.2562268      0.23498 -40.23 0.0008701758    1.102    0.093
        43 -10.2949    240.5370    169.6575   5.9648968584e+01   1.1737227003e+00    0.1929536    0.1684432  73.95  0.001029812    1.761    0.432
        44  -9.2360    205.5409    110.1715   5.2837050931e+01   1.8279891885e+01    0.2348883    0.2069537  58.90 0.0006652275    1.256    0.204
        45  -9.4246     30.3366    107.9314   1.0152639244e+02   5.1158637560e+01    0.2174653    0.1889893  33.56 0.0005644633    1.323    0.244
        46  -9.2281    134.6105    106.7181   6.7046730937e+01   3.4361745659e+01    0.3120668    0.1484705 -39.72  0.001058917    2.143    0.533
        47 -10.8979    242.4370    102.4582   4.5642563467e+01   1.2590469499e+01    0.3076164    0.1763428 -68.07  0.001411878    2.481    0.597
        48  -9.9659    249.2435     94.0082   4.3067160998e+01   1.2774685172e+01    0.1789283   0.08977154 -41.31 0.0008938361    1.634    0.388
        49  -8.2422     27.6415     94.2628   9.9697176943e+01   5.4761069550e+01     0.128793    0.1023665  59.63 0.0005562566    1.630    0.386
        50  -9.9191     53.0178     91.3065   8.9112834403e+01   5.2737347472e+01    0.2495617    0.2035383 -80.15 0.0008208325    1.580    0.367
        51  -9.2940     17.9213     90.1576   1.0263985760e+02   5.6508826743e+01    0.1886135    0.1743556 -81.17 0.0004964198    1.248    0.199
        52  -8.8654     71.8251     83.0438   7.9656318640e+01   5.1838127616e+01    0.2168216    0.1986099  67.71 0.0008801738    1.379    0.275
        53 -10.6232    119.6286    212.3560   9.3549307499e+01   1.2418292201e+01    0.2969667    0.2166562  46.04  0.000994816    1.349    0.259
        54  -8.3575     87.5039     63.5040   6.7745207479e+01   5.2871713759e+01    0.1427159    0.1337506  12.41 0.0008101346    1.051    0.049
        55  -9.0881     47.4976     62.0368   8.2490321191e+01   5.9763475470e+01     0.193543    0.1652249   1.27 0.0003115526    1.089    0.082
        56 -10.3953     13.4192     60.2299   9.7347034017e+01   6.3567986874e+01    0.2810826    0.1865049 -45.27 0.0006147007    1.228    0.185
        57 -10.6436    115.5818    246.9470   9.9315654546e+01   5.9181276721e+00    0.3788135    0.1498701 -51.12  0.001632877    2.818    0.645
        58 -15.7395      9.5950    208.5157   1.1924279581e+02   2.7542182043e+01     8.792101     1.367864 -76.07   0.02600014    5.605    0.822
        59 -12.6417    196.4009     49.4979   3.9903168040e+01   3.0296863450e+01    0.8465341    0.6070458  41.74 0.0009515681    1.812    0.448
        60  -8.9017    198.0583     23.5122   3.3665839084e+01   3.3242018087e+01    0.1850164     0.147475 -53.72 0.0006223297    1.206    0.171
        61  -9.0826    189.5078     14.9502   3.2564165360e+01   3.6086997564e+01    0.1698146    0.1154248 -38.20 0.0007556711    1.554    0.357
        62  -9.3635    111.1921    203.8334   9.4278868627e+01   1.5688697119e+01     0.195619    0.1692577  -2.85  0.000442333    1.303    0.232
        63  -9.2833    123.2947    200.6557   9.0758483137e+01   1.4438769627e+01    0.2588952    0.1828557 -69.75 0.0008174739    1.724    0.420
        64  -9.9330    103.2183    237.2044   1.0085488346e+02   9.6446667805e+00    0.1891252    0.1442328  57.95 0.0005603909    1.339    0.253
