#   1 NUMBER                 Running object number                                     
#   2 MAG_AUTO               Kron-like elliptical aperture magnitude                    [mag]
#   3 X_IMAGE                Object position along x                                    [pixel]
#   4 Y_IMAGE                Object position along y                                    [pixel]
#   5 X_WORLD                Barycenter position along world x axis                     [deg]
#   6 Y_WORLD                Barycenter position along world y axis                     [deg]
#   7 A_WORLD                Profile RMS along major axis (world units)                 [deg]
#   8 B_WORLD                Profile RMS along minor axis (world units)                 [deg]
#   9 THETA_WORLD            Position angle (CCW/world-x)                               [deg]
#  10 FWHM_WORLD             FWHM assuming a gaussian core                              [deg]
#  11 ELONGATION             A_IMAGE/B_IMAGE                                           
#  12 ELLIPTICITY            1 - B_IMAGE/A_IMAGE                                       
         1 -11.6108      9.1061     24.9224   1.1453977163e+02   6.8426133975e+01    0.7407849    0.2117072 -44.78   0.00360955    2.745    0.636
         2 -11.5641      3.8449     20.0103   1.1515369781e+02   6.9539354706e+01    0.3995411    0.2182619 -37.14  0.002706451    1.419    0.295
         3 -11.3920     19.6491     17.4168   1.0688816539e+02   6.8607859300e+01    0.3280522    0.2883217  -3.38  0.001780598    1.395    0.283
         4 -10.7176     23.8404     22.2602   1.0697380309e+02   6.7535384048e+01     0.384068    0.1275093 -36.86  0.001878613    2.605    0.616
         5 -11.3403    129.3130     23.6579   7.4210680825e+01   4.9306726629e+01    0.3425704    0.2232977 -44.83   0.00183505    1.807    0.446
         6 -11.3617     85.0180     21.1284   8.4205134347e+01   5.8802753842e+01    0.4369432    0.2313287   4.25  0.001921519    2.990    0.666
         7 -11.1809     76.4854     16.4601   8.4974227719e+01   6.0852552690e+01    0.4193126     0.232384  25.81  0.002244251    1.839    0.456
         8 -12.5127     75.7217      7.1956   8.1590335842e+01   6.1885536773e+01    0.5637575    0.4366277 -51.86   0.00222541    1.993    0.498
         9 -10.9213    131.9727     13.5425   7.0544978268e+01   4.9722718664e+01    0.3750127    0.2059099  16.05  0.001666325    2.943    0.660
        10 -10.9420    164.2739     14.6410   6.5522459996e+01   4.2083497172e+01    0.2560461    0.1975156  85.86 0.0006427037    1.226    0.184
        11 -12.1693     25.8253     13.7985   1.0265674727e+02   6.8452918158e+01    0.2118852    0.1499406  -0.07 0.0003463055    1.130    0.115
        12 -10.8412     23.2255      9.0689   1.0177534539e+02   6.9312198999e+01    0.3285633     0.168202 -36.34  0.001817181    1.924    0.480
        13 -11.8270     26.7367      3.6459   9.7818803683e+01   6.9543672390e+01    0.2609138    0.1666232  21.69 0.0007666979    1.356    0.263
        14 -12.4072     31.1909      2.2192   9.5264075507e+01   6.9163035460e+01     0.308996    0.1671219  35.21  0.001290301    1.773    0.436
        15  -9.8134     70.4853     14.4135   8.6042371394e+01   6.2110689869e+01     0.216652     0.110166 -25.31 0.0007484109    2.032    0.508
        16 -10.6128     99.6727     13.1299   7.7362507001e+01   5.6746204068e+01    0.2418176    0.2290249  -3.01  0.001597205    1.206    0.171
        17 -11.8151     81.2018      6.1082   7.9600150938e+01   6.0978272047e+01    0.2186142    0.1923273  16.22 0.0003006262    1.134    0.118
        18 -10.2978     30.4536     13.1824   1.0040066541e+02   6.8014065947e+01    0.2021157    0.0896501 -29.13  0.001125116    2.061    0.515
        19 -12.2328     61.8956     11.5950   8.7721758417e+01   6.3826439581e+01    0.2866282    0.2373345  61.28 0.0007108918    1.804    0.446
        20  -9.9631      4.0722     10.6299   1.1138159209e+02   7.0853121420e+01    0.2305474    0.1307664 -56.59  0.001261391    3.513    0.715
        21  -9.4737    122.2251      8.9407   7.0971871286e+01   5.2324013584e+01    0.1449613    0.1039575 -22.52 0.0007390417    1.614    0.380
        22 -10.1742    114.7021     12.5868   7.3711149820e+01   5.3641448301e+01    0.3159297    0.1809434  75.37  0.001195661    2.286    0.563
        23 -11.7578      9.1265      8.0019   1.0783971150e+02   7.0795176009e+01    0.2400491    0.1472919 -14.44  0.001717733    1.297    0.229
        24 -11.0235     17.2646      5.2039   1.0277614968e+02   7.0387954064e+01    0.3515086    0.2023737   4.53  0.002339924    1.606    0.377
        25 -10.9628     13.4868      1.4388   1.0284602824e+02   7.1198645806e+01    0.4011955    0.1370864  27.48  0.002147069    2.831    0.647
        26  -9.2534    226.1658      8.5946   5.7077719918e+01   2.8362505193e+01    0.1532346   0.09731092  68.67 0.0003275621    1.457    0.314
        27  -9.1916     37.4921      8.4769   9.5447234317e+01   6.7700627837e+01    0.1138667   0.08394417   4.38 0.0001298871    1.046    0.044
        28  -9.2937    183.4377      7.0589   6.1085258887e+01   3.8309637570e+01    0.1616151    0.1050216  19.34  0.000807328    2.632    0.620
        29 -10.2527    115.6360      3.9769   7.0670840022e+01   5.4181616110e+01    0.2778532     0.186704  19.62  0.000675643    1.687    0.407
        30 -10.5912    139.1007      1.7111   6.5753854372e+01   4.9133296689e+01    0.1814895    0.1318252  62.22 0.0005027311    1.133    0.118
        31 -10.4701    153.4350    233.7704   1.1932047760e+02   3.1048968123e+00    0.2446385    0.1948863  -6.07  0.001357271    1.671    0.402
        32 -10.9870    247.1313    249.7615   1.0382512331e+02  -1.4403047793e+01    0.3847369    0.2146757  12.19  0.002103275    1.971    0.493
        33 -11.0621    250.5064    243.9571   1.0224089104e+02  -1.4102816369e+01    0.6310704    0.1563465 -39.07    0.0024406    4.162    0.760
        34 -12.3783    226.3698    246.2834   1.0700579397e+02  -1.0986623535e+01    0.6314663     0.434663   4.79  0.003809231    1.464    0.317
        35 -12.1206    232.7663    245.9805   1.0577690802e+02  -1.1883514221e+01     0.488184    0.2701841 -24.52   0.00266882    1.928    0.481
        36 -11.6131     27.7272    246.9572   1.4507576085e+02   1.9634692495e+01    0.4565552    0.1673709 -76.86  0.002313102    2.506    0.601
        37 -11.4993     14.2614    244.6151   1.4718745010e+02   2.1609187632e+01    0.5041583    0.1823635 -72.98  0.002693863    2.387    0.581
        38 -12.2366      7.0705    243.3554   1.4829658497e+02   2.2617268482e+01    0.6278951    0.3545742 -86.51  0.004219927    1.412    0.292
        39  -9.6517    249.4737    227.4178   9.9517336277e+01  -1.1685121505e+01    0.1231185   0.09975028   0.75 0.0001572861    1.020    0.020
        40  -9.4399    140.1215    227.3395   1.2111018749e+02   6.6729616450e+00    0.2066143    0.1090803  49.18 0.0009382414    1.763    0.433
        41 -10.1664    129.8210    226.9563   1.2321500658e+02   8.5619566295e+00    0.3491046    0.1571937  54.58  0.001395645    2.481    0.597
        42 -10.2163     88.1259    227.1208   1.3190671306e+02   1.5460992613e+01    0.1867499    0.1792427  68.97   0.00120957    1.264    0.209
        43 -10.3977     66.4768    226.6834   1.3622194557e+02   1.8771551346e+01    0.2856207    0.1357933  41.83  0.000841524    1.960    0.490
        44 -10.5286      5.5100    226.5159   1.4756776463e+02   2.6132339187e+01    0.3120102   0.07326012  57.72  0.001188933    4.383    0.772
        45 -10.4878    115.8320    225.8142   1.2599124602e+02   1.1208176091e+01    0.1970118    0.1462916  72.10 0.0006524501    1.387    0.279
        46 -10.1701    180.7050    224.4341   1.1220295467e+02  -3.5795792466e-02    0.2221969    0.1230187 -44.45 0.0006036442    1.978    0.494
        47  -9.8636     81.1577    224.4863   1.3302357183e+02   1.7086617433e+01    0.2632198     0.155552 -89.30  0.001310449    1.912    0.477
        48 -10.7765    141.2266    221.4870   1.1998029674e+02   7.6273356422e+00    0.3200967    0.2393302  18.13  0.001467383    1.698    0.411
        49 -10.9014    123.1701    221.5048   1.2382929856e+02   1.0826895483e+01    0.3385715    0.2395764  54.69  0.001268876    1.303    0.232
        50 -10.5370     13.1297    221.9554   1.4593040194e+02   2.6302262356e+01    0.1778829    0.1395306  70.67 0.0004962946    1.159    0.137
        51 -10.0059    174.1531    219.8562   1.1277026442e+02   1.9696631608e+00    0.1925472    0.1564875  13.92 0.0006275738    1.333    0.250
        52 -10.4874     21.9984    220.3116   1.4419749260e+02   2.5706418714e+01    0.1596303    0.1208906  69.30 0.0004240877    1.124    0.110
        53  -9.6970    250.4794    219.1002   9.7826807715e+01  -1.0619517823e+01    0.1785561    0.1094447 -31.22 0.0005991237    1.513    0.339
        54 -10.0009    191.5602    217.2558   1.0873206968e+02  -6.8761699929e-01    0.2410447    0.1340747 -47.67 0.0009280205    2.003    0.501
        55 -11.0065      9.9686    217.0715   1.4616589465e+02   2.7646362597e+01    0.2764017     0.165723  64.46 0.0007536886    1.398    0.284
        56 -10.7203    234.6747    216.3785   1.0018328786e+02  -7.8099138685e+00    0.1807806    0.1635631  83.02 0.0008446315    1.721    0.419
        57  -9.6222    201.4749    215.7431   1.0645959218e+02  -2.1724898193e+00    0.1784674    0.1244175 -24.41 0.0009257479    1.572    0.364
        58 -10.1538     31.1092    215.8404   1.4212385801e+02   2.5642239762e+01    0.1968757    0.1323813  73.62  0.001235719    1.232    0.188
        59  -9.7971    194.5427    215.4796   1.0780693214e+02  -9.0252830444e-01    0.1365996    0.1238982  17.00 -5.831056e-06    1.008    0.008
        60  -9.5273    137.1689    215.6305   1.1992985703e+02   9.5428948224e+00    0.2014111    0.1255902  32.45  0.000940647    1.708    0.415
        61  -9.1599     51.5041    222.5370   1.3876393621e+02   2.1694434821e+01    0.1249902    0.1008719  78.74 0.0001853994    1.037    0.035
        62  -9.8474    170.1779    213.1861   1.1244492695e+02   3.9539561837e+00    0.1910826    0.1642842  68.21 0.0008709125    1.326    0.246
        63  -9.4806    142.8535    213.3858   1.1833785360e+02   8.9663247400e+00    0.1969502    0.1273543  31.83 0.0006340598    1.642    0.391
        64 -11.0250     20.6697    211.7777   1.4378959231e+02   2.7673419554e+01    0.3137059      0.15848  74.52 0.0009577593    1.874    0.466
        65  -9.3587    212.9790    212.0408   1.0350201156e+02  -3.5298758027e+00     0.159358    0.1429405   5.04 0.0004114774    1.009    0.009
        66 -10.3082    208.9562    212.0860   1.0430033485e+02  -2.8432627676e+00    0.2051067    0.1835665   8.79 0.0004813481    1.010    0.009
        67 -12.2132      4.2206    207.9023   1.4658877870e+02   3.0146023374e+01    0.5020141    0.2821762 -80.37  0.003149397    1.398    0.285
        68  -9.7534    184.4036    208.7937   1.0867051352e+02   2.1576876316e+00    0.1897618    0.1303961 -30.81 0.0005912489    1.624    0.384
        69  -9.4545    218.4962    206.9591   1.0147308315e+02  -3.6079577648e+00    0.1936457    0.1091844 -17.54 0.0008086434    2.533    0.605
        70  -9.6121    223.5720    201.7556   9.9501471387e+01  -3.5852621550e+00     0.175892    0.1247317 -48.48 0.0004813902    1.602    0.376
        71 -10.0536    175.0197    202.4837   1.0948291490e+02   5.1289850147e+00    0.2188414    0.1345167  42.20  0.000525175    1.541    0.351
        72  -9.1769    238.3672    201.3029   9.6652572762e+01  -5.9751693752e+00    0.1387656   0.09384983   1.68 0.0003540472    1.741    0.426
        73  -9.4862     34.6701    200.9803   1.4008005246e+02   2.8509384599e+01    0.1713383    0.1306397 -87.88 0.0003744707    1.067    0.063
        74 -10.0453     19.5024    200.9829   1.4313959196e+02   3.0155851202e+01    0.1683736   0.07352689 -55.19 0.0007782443    2.557    0.609
        75 -10.0013    227.0350    196.9482   9.7909476781e+01  -3.3506396711e+00    0.2093684    0.1829224  -3.32 0.0006749869    1.051    0.049
        76  -9.6354    202.8778    196.1199   1.0246845920e+02   1.1111221378e+00    0.1967715    0.1613412   0.51  0.000779942    1.301    0.231
        77 -10.5280    215.6535    194.6222   9.9636673188e+01  -9.4294540643e-01    0.2475301    0.1614407 -28.01 0.0006309273    1.595    0.373
        78 -10.0384    192.5950    194.5484   1.0426600224e+02   3.3357057349e+00    0.2450879    0.1917835  46.44   0.00128573    1.300    0.231
        79  -9.6389    232.2363    191.0312   9.5770229119e+01  -3.2184642298e+00    0.1779272    0.1058632 -37.12 0.0004257748    1.588    0.370
        80  -9.5184    246.3211    190.3392   9.3085065627e+01  -5.4493315981e+00    0.1382842   0.09433034  -4.74 0.0007050289    1.716    0.417
        81  -9.1707    205.5212    190.4417   1.0081364595e+02   1.6817073155e+00    0.1412534    0.1313152   2.60   0.00012709    1.014    0.014
        82  -9.2786      1.6754    187.7301   1.4561209473e+02   3.4762424108e+01    0.1055649   0.07726974 -56.49 0.0002673698    1.573    0.364
        83 -10.3368    167.8697    184.0956   1.0750462030e+02   1.0283010145e+01    0.4521925    0.2454284  63.89  0.001554438    3.186    0.686
        84  -9.5332     61.7795    185.0039   1.3236375289e+02   2.8814172231e+01    0.1851527    0.0995159 -67.55 0.0008777769    1.692    0.409
        85 -11.6524     16.0967    182.7083   1.4222954505e+02   3.4598709750e+01    0.4052991    0.2110197  87.28  0.002029805    1.808    0.447
        86  -9.5566      8.0227    184.2060   1.4404511842e+02   3.4998279451e+01    0.1345753   0.09228185  36.95 0.0005071217    1.724    0.420
        87 -10.2189      1.9396    180.2037   1.4496355447e+02   3.6415024535e+01    0.1785119    0.1252441  78.53 0.0005429795    1.206    0.171
        88 -10.9786    244.5684    178.1581   9.0962733825e+01  -3.0897457241e+00    0.2774584    0.1532311 -26.72  0.001276187    1.935    0.483
        89  -9.5519     36.0668    178.5043   1.3742999329e+02   3.3524677283e+01    0.1632895    0.1230626  42.59 0.0004947936    1.469    0.319
        90 -10.3437    200.2833    176.5792   9.9048326995e+01   5.3588921841e+00    0.2501777    0.1752796 -20.49 0.0008923632    1.704    0.413
        91  -9.5255     70.1784    177.6242   1.2937079734e+02   2.9399905124e+01    0.1682081    0.1346237  26.12 0.0005398812    1.559    0.359
        92 -11.1121    224.3117    178.2888   9.4678564166e+01   4.6031577127e-01    0.2755436    0.2543755 -13.24 0.0004634433    1.010    0.010
        93  -9.5591      8.3024    173.3261   1.4303070262e+02   3.7436649391e+01    0.1173537   0.07629593 -53.98 0.0007031634    1.641    0.391
        94  -9.7534     74.7206    171.2751   1.2731018674e+02   3.0269453191e+01    0.1794138    0.1593045 -42.24 0.0007773096    1.326    0.246
        95  -9.3169     59.5251    171.5167   1.3104843089e+02   3.2340857311e+01    0.1387286    0.1171606 -89.05 0.0008095306    1.044    0.042
        96 -11.1789     12.8803    170.4259   1.4175689923e+02   3.7705856935e+01     0.338812    0.1421268 -86.49  0.001524071    2.441    0.590
        97 -10.0884      4.5291    168.5337   1.4340986298e+02   3.8839745945e+01    0.2624481   0.09249958 -73.68  0.001036743    2.203    0.546
        98  -9.6213    209.8729    166.1894   9.4927067021e+01   5.5095075982e+00     0.200945    0.1693787  -2.03 0.0004903005    1.311    0.237
        99  -9.5920     67.1854    165.1678   1.2821892124e+02   3.2836229004e+01    0.1990786     0.150723  77.03 0.0006859907    1.356    0.263
       100 -10.6585     51.3989    164.6314   1.3204966171e+02   3.5041204795e+01    0.3057955    0.1799896 -36.18  0.001388136    2.504    0.601
       101 -10.5008     44.8796    163.3108   1.3346352127e+02   3.6139180039e+01    0.3288793    0.1589802 -76.17  0.001466892    2.049    0.512
       102 -10.1963    246.4902    162.4929   8.7424957833e+01  -6.7260987922e-01    0.1367478    0.1212947 -31.45 -7.520562e-05    1.030    0.029
       103  -9.3912    200.2539    162.6505   9.6091526811e+01   8.1491384665e+00    0.1975478     0.138238  36.27 0.0005350856    1.509    0.337
       104 -11.4023     36.8458    158.9626   1.3484739228e+02   3.8078067286e+01     0.411779    0.2817277 -72.60  0.002360488    1.227    0.185
       105  -9.9327    196.6837    169.3132   9.8256739059e+01   7.5285255452e+00    0.1471166    0.1196451 -87.13 0.0007035068    1.643    0.391
       106  -9.7426    238.5102    158.5084   8.7967356551e+01   1.4806150619e+00    0.2582504    0.1228738 -30.64  0.001027236    2.342    0.573
       107  -9.1583      8.3262    158.2793   1.4156570008e+02   4.0887556573e+01    0.1160297   0.07805249 -50.12 0.0005881708    1.594    0.372
       108 -11.1218     22.6499    155.6973   1.3789488440e+02   4.0263776956e+01    0.4166087    0.3122056 -65.49  0.002633365    1.162    0.139
       109 -10.0678     26.4947    149.4447   1.3616327362e+02   4.1385006283e+01    0.2628879    0.1051786 -68.52  0.000645735    2.050    0.512
       110 -10.5897    247.4940    158.4936   8.6426085005e+01  -1.3859516238e-01    0.1369684    0.1213475 -35.49 2.519992e-05    1.047    0.044
       111  -9.4162    216.9511    155.0000   9.1139439369e+01   6.2858585302e+00    0.2357558   0.08397776  46.51 0.0008072286    2.976    0.664
       112  -9.8008    197.0097    153.5267   9.4747847714e+01   1.0680883416e+01    0.2314972    0.1497315  46.16 0.0008274878    1.594    0.373
       113  -9.3717    151.6787    153.3282   1.0475205717e+02   2.0420193669e+01    0.1622288    0.1241034  87.17 0.0004658168    1.689    0.408
       114 -10.4731     11.7280    153.4157   1.4025094166e+02   4.1740667115e+01    0.2528645    0.1256419  22.16  0.001317515    2.695    0.629
       115  -9.9116    205.5025    152.0497   9.2708916801e+01   9.2045770044e+00    0.2354096    0.1424309 -40.96 0.0006225007    1.588    0.370
       116 -10.3480    178.1127    151.4224   9.8280802645e+01   1.5161450234e+01    0.3013934    0.2655275  81.10  0.001413399    1.271    0.213
       117  -9.6951     16.4768    147.4201   1.3840414125e+02   4.2749133566e+01    0.1240916   0.09928948 -74.59 0.0001334864    1.022    0.022
       118  -9.3198    233.5292    146.5278   8.6280248656e+01   4.6371028193e+00    0.1424233    0.1294267 -35.77 6.589324e-05    1.006    0.006
       119 -10.3968    206.9901    146.0726   9.1081239161e+01   1.0094027535e+01    0.2283346    0.2192578 -28.58 0.0006927354    1.032    0.031
       120 -11.0634      8.4884    144.6716   1.4004864482e+02   4.4020742668e+01     0.213218      0.19981 -71.31  0.001162672    1.235    0.190
       121  -9.7166     22.7072    144.3269   1.3644850655e+02   4.2940645296e+01    0.1276136   0.08448004  78.08 0.0002556886    1.622    0.384
       122 -10.3670      2.8982    144.0916   1.4134762181e+02   4.4558488019e+01    0.1952456    0.1110127 -50.65  0.001130848    1.712    0.416
       123  -9.6731     49.9134    141.5511   1.2888632185e+02   4.0807714653e+01    0.1783203    0.1156746 -13.04 0.0008073734    2.610    0.617
       124 -12.1880      9.1396    136.7890   1.3894720111e+02   4.5795485353e+01    0.2739066    0.2136592 -57.69 0.0002721183    1.195    0.163
       125 -11.3870      3.2404    137.0931   1.4047717869e+02   4.6139523143e+01    0.4766299    0.1509243 -55.74  0.001729162    2.451    0.592
       126 -10.3949    236.6968    138.9682   8.4100748338e+01   5.4319574418e+00    0.2195864     0.204003  53.20 0.0005098106    1.195    0.164
       127  -9.2204     81.5516    139.5789   1.1988735505e+02   3.6964288694e+01    0.1442198    0.1331524 -69.06 8.078921e-05    1.007    0.007
       128 -10.8728     54.5613    136.0365   1.2666394354e+02   4.1580047205e+01    0.5824042    0.3004879  68.30  0.002105861    3.703    0.730
       129 -10.7564     21.6848    135.8395   1.3556082293e+02   4.5026777810e+01    0.2690413    0.2100063  71.41  0.001701273    1.380    0.275
       130  -9.8466    137.8711    135.3892   1.0400150057e+02   2.7464238345e+01    0.2293163    0.1494478  32.67 0.0009503672    1.770    0.435
       131  -9.5888     40.4903    135.5337   1.3045181450e+02   4.3307265225e+01    0.1331944    0.1127319 -68.98 8.819553e-05    1.008    0.008
       132 -11.6333     36.6583    130.4810   1.3067806913e+02   4.4904926590e+01    0.3726152     0.336404 -85.20  0.002428526    1.123    0.109
       133 -10.2162     73.9997    129.3687   1.1990403628e+02   4.0569921299e+01    0.2487486    0.1834856 -47.17 0.0008165714    1.288    0.223
       134  -9.7221    249.3065    129.6808   8.0065472970e+01   4.7056428046e+00    0.1391328    0.1009155 -66.94  0.000703076    1.635    0.388
       135  -9.5056    243.0428    128.4862   8.0792181489e+01   6.1259864232e+00    0.1859343    0.1406564  52.73 0.0004463626    1.485    0.327
       136 -11.2123      1.9716    125.8113   1.3944142923e+02   4.8795744677e+01    0.3889475    0.1548664 -63.35 0.0006703268    1.819    0.450
       137 -10.0614    219.8643    124.5133   8.3794477815e+01   1.1606244254e+01    0.2278342    0.1870156 -42.70  0.001040286    1.137    0.121
       138 -10.2807    226.2383    124.3763   8.2657138303e+01   1.0286751678e+01    0.1945558    0.1389462  66.14 0.0007834793    1.640    0.390
       139 -11.6684     17.6757    117.1501   1.3388177219e+02   4.9687195758e+01    0.4592968    0.2802112 -45.50  0.002290954    1.522    0.343
       140  -9.4861    123.6898    131.2957   1.0666150973e+02   3.1353825875e+01    0.1565046    0.1224405  84.78 0.0002880575    1.593    0.372
       141 -10.1393     19.5037    121.9319   1.3411049300e+02   4.8445900546e+01    0.2068805     0.157924 -29.07 0.0005952577    1.519    0.342
       142 -11.1050     10.6265    122.3039   1.3663633384e+02   4.9022257679e+01    0.2713741    0.2260067 -55.44  0.001366136    1.141    0.124
       143 -10.7348     86.0748    116.5914   1.1356397831e+02   4.1714289980e+01    0.2615435    0.1941763 -47.30  0.001318815    1.261    0.207
       144  -9.5108    179.4809    116.5333   8.9696189099e+01   2.2247340308e+01    0.1548191    0.1498336 -71.30 6.636303e-05    1.006    0.006
       145  -9.1231    125.6441    115.2474   1.0217477132e+02   3.4606925449e+01    0.1543379     0.120757  77.02 0.0006942021    1.596    0.374
       146  -9.7023     72.6359    115.5653   1.1728665583e+02   4.4028781185e+01    0.2625014    0.1377599  15.46 0.0009544872    3.376    0.704
       147 -10.6383     35.0000    112.9865   1.2806494994e+02   4.9157820613e+01    0.5222021    0.1474756 -60.94   0.00195045    2.883    0.653
       148 -11.1476     36.8496    110.1156   1.2695287854e+02   4.9637010863e+01    0.5131009    0.2691471  59.58  0.002153296    3.303    0.697
       149  -9.9336    248.5490    112.4786   7.6508062123e+01   7.9287981986e+00    0.1384259    0.1209882 -48.98  8.73475e-05    1.028    0.027
       150  -8.8619    212.6868    112.3134   8.2246317767e+01   1.5507648097e+01    0.1531021    0.1120262 -74.03 0.0003978465    1.637    0.389
       151  -9.5306    107.7298    112.0462   1.0622880251e+02   3.8908884956e+01    0.2092548    0.1815338 -48.57  0.000327845    1.115    0.103
       152 -10.4631     43.9230    109.9124   1.2474986365e+02   4.8959117064e+01    0.3477053    0.1989739 -36.62  0.001709294    1.870    0.465
       153 -12.0235     16.0804    108.8953   1.3300143944e+02   5.1680142628e+01    0.4273902    0.3366522   8.88 0.0008334751    1.582    0.368
       154 -11.4726     23.6028    107.2791   1.3045311233e+02   5.1466115124e+01    0.3588425    0.2787867  83.92  0.001567648    1.515    0.340
       155 -10.8657     10.3174    103.0280   1.3374828024e+02   5.3387217148e+01    0.3131904    0.1806876  52.06  0.001672322    2.370    0.578
       156 -12.0064     20.2000     98.1595   1.2980611685e+02   5.3765928365e+01    0.6678655    0.2426849 -64.26  0.002928894    2.391    0.582
       157 -10.3671     55.7051    109.7508   1.2110030389e+02   4.7642929877e+01    0.3084542    0.1919605 -14.30  0.001391056    2.454    0.592
       158  -9.4398    167.2533    109.0206   9.0440992549e+01   2.6633487727e+01    0.2028672    0.1328773 -42.51 0.0005142996    1.518    0.341
       159  -9.3551      1.2594    109.6864   1.3746227694e+02   5.2462842181e+01    0.1111892   0.07903894  85.31 0.0002054192    1.534    0.348
       160 -10.3524     63.5424    107.5414   1.1818939087e+02   4.7142287781e+01    0.2342104    0.1835054  78.52 0.0009685277    1.682    0.405
       161 -10.9543      3.5134    100.3897   1.3537779438e+02   5.4384326175e+01    0.2968976    0.2217271 -88.47  0.001107523    1.448    0.309
       162 -10.7205      5.6966    107.5777   1.3586026988e+02   5.2669253035e+01    0.3127796     0.155773 -49.83  0.001739818    1.645    0.392
       163 -10.2971      3.0351    105.1604   1.3627155377e+02   5.3363283079e+01    0.2037808     0.134189 -61.77 0.0004256417    1.156    0.135
       164  -9.2113    133.2886    107.3848   9.8126186483e+01   3.4692098189e+01    0.1601602    0.1234125  -7.59 0.0007012659    1.749    0.428
       165 -10.9392    243.5636    104.2955   7.5472229931e+01   1.0378388690e+01    0.1904419    0.1254134 -33.07 0.0009398899    1.575    0.365
       166 -10.0701    223.4571    104.0089   7.8497782616e+01   1.4685083828e+01    0.2094812    0.1933029  89.91 0.0004843781    1.096    0.088
       167 -11.2197     69.9034    102.3910   1.1498303934e+02   4.7420701047e+01    0.3437571    0.2523848  20.11 0.0008495016    1.562    0.360
       168 -10.8374    247.8949    102.1927   7.4399156041e+01   9.8693927366e+00    0.2168961    0.1721172 -67.37 0.0007192438    1.238    0.192
       169 -10.6957     35.6556    101.3008   1.2553771805e+02   5.1744192929e+01     0.222814     0.199715  23.92  0.001171174    1.307    0.235
       170 -10.4814     27.6719    101.0407   1.2800784476e+02   5.2525363753e+01    0.2315746    0.1440317 -36.19 0.0009204924    1.599    0.375
       171  -9.6993    119.7772    101.4116   1.0008569366e+02   3.8831331233e+01    0.2150291    0.1435558  32.14 0.0009426171    1.678    0.404
       172  -9.1664     84.6838    100.3046   1.0990425395e+02   4.5610883055e+01    0.1397645    0.1141354  84.38 0.0004631031    1.624    0.384
       173 -10.7589     63.0891     98.4882   1.1615489127e+02   4.9227236361e+01    0.3587379    0.2332588  20.48  0.001809071    1.817    0.450
       174  -9.7233     50.4361     99.2615   1.2037547473e+02   5.0635679141e+01    0.1775333    0.1191392 -64.03 0.0003729209    1.505    0.336
       175  -9.2498    141.0335     97.0338   9.3381226745e+01   3.5126086529e+01    0.1784292    0.1760703 -58.78 0.0009590642    1.016    0.015
       176 -10.5284      1.8679     93.2693   1.3470678807e+02   5.6020074133e+01    0.3889463   0.07632338 -57.24  0.001593748    2.875    0.652
       177  -9.4971    227.4521     93.4687   7.5467104517e+01   1.5707604602e+01    0.1432711    0.1276035 -63.26 0.0001958044    1.003    0.003
       178  -9.2097     66.5811     93.4944   1.1377066173e+02   4.9835202399e+01    0.1376043    0.1217399 -37.25 0.0001719001    1.014    0.014
       179 -11.6533     11.2499     91.2617   1.3135516901e+02   5.5894869930e+01    0.3271781    0.2190398  -4.86  0.002039914    1.830    0.454
       180 -10.6392     97.4658     89.4851   1.0309230140e+02   4.5676846259e+01    0.2130612    0.1390463  27.77 0.0008551768    1.734    0.423
       181 -12.0981     48.2004     85.6900   1.1779401885e+02   5.3820814532e+01    0.4050932    0.3750387  35.43  0.002653662    1.277    0.217
       182 -10.6571     26.2952     90.8656   1.2635099442e+02   5.4870587655e+01    0.2486421    0.1787032 -27.23  0.001526197    1.417    0.295
       183 -10.6486    112.7585     85.8238   9.7633032135e+01   4.3450925020e+01    0.3184238    0.2803355 -77.77  0.001488429    1.356    0.263
       184 -10.7479     67.2128     85.5635   1.1143914455e+02   5.1416327920e+01    0.2698219    0.1777789 -46.34  0.001402579    1.389    0.280
       185  -9.9053      3.7228     85.9088   1.3280289691e+02   5.7485521355e+01    0.1921732    0.1760543  11.44  0.001464079    1.365    0.268
       186 -10.9944    117.9030     83.3070   9.5483253943e+01   4.2878584448e+01    0.3637947    0.2566486 -32.30  0.001742243    1.483    0.326
       187 -11.7390     19.0995     80.8960   1.2659503277e+02   5.7546248762e+01    0.2998954    0.2496719  78.26 0.0009848515    1.622    0.384
       188 -11.2978     23.5131     79.7888   1.2481410787e+02   5.7436585529e+01     0.323978    0.1527742 -55.71 0.0009618552    1.731    0.422
       189 -11.3003     39.3946     81.0252   1.1960569909e+02   5.5740789934e+01    0.2230127    0.1960213 -29.73 0.0003256585    1.067    0.063
       190  -9.4716     29.9918     81.9763   1.2308709796e+02   5.6437768375e+01     0.151314    0.1206943 -44.28 0.0004002393    1.029    0.029
       191 -10.6264     75.4166     79.6987   1.0710173039e+02   5.1382769056e+01    0.2594952    0.1584583 -37.74 0.0009325393    1.556    0.357
       192 -11.2391     71.3191     79.2393   1.0830249052e+02   5.2097629521e+01    0.2742437    0.2288752   4.52 0.0004555979    1.232    0.188
       193 -10.4932      2.0836     72.6860   1.3075249077e+02   6.0302650952e+01    0.2381459    0.1468563 -47.95 0.0007290198    1.220    0.180
       194 -11.4179      3.0778     77.7647   1.3144678366e+02   5.9215898194e+01    0.3098656    0.2097679 -45.75 0.0006782148    1.157    0.135
       195 -11.3123      7.8883     73.8485   1.2895265154e+02   5.9741223014e+01    0.3475981    0.2230537 -31.22  0.002234113    1.441    0.306
       196 -10.9206    150.0455     77.5921   8.5830454520e+01   3.6743663957e+01    0.2655258    0.2175113 -40.02 0.0003206565    1.257    0.205
       197 -10.4489     87.8296     76.2739   1.0214140857e+02   5.0003648724e+01     0.245756    0.1853861 -52.56  0.001293085    1.460    0.315
       198 -11.8043     58.8112     75.5782   1.1142958399e+02   5.4577385449e+01    0.5386602     0.371383  57.14  0.002761326    2.214    0.548
       199 -10.4394     65.2915     73.6855   1.0867422102e+02   5.4060370344e+01    0.2321161    0.2026503 -51.82 0.0004025098    1.268    0.211
       200 -11.3216     62.1926     71.8042   1.0916546389e+02   5.4854584573e+01    0.3520427    0.2054017 -34.03  0.001771323    1.648    0.393
       201 -10.0206     35.0787     77.1002   1.2010540508e+02   5.6971428370e+01    0.1801268    0.1578335 -42.25   0.00039974    1.103    0.093
       202 -10.2496     12.2051     77.1282   1.2815349444e+02   5.8803277522e+01    0.1813067    0.1259747 -85.37  0.001076838    1.946    0.486
       203  -9.5592     13.7823     82.9322   1.2885478265e+02   5.7496242012e+01    0.2393072    0.1425878 -57.90  0.001423753    1.353    0.261
       204  -9.1236     81.3289     79.2338   1.0506965635e+02   5.0530735747e+01    0.1347484    0.1019315   0.49 0.0002834972    1.525    0.344
       205 -10.5701     44.9516     75.0523   1.1608709140e+02   5.6361738287e+01    0.1947997    0.1702408  -0.13  0.000324611    1.177    0.151
       206 -10.9322     40.2043     72.7023   1.1712114080e+02   5.7339157709e+01    0.2937621    0.2523352 -80.38 0.0009822964    1.577    0.366
       207 -11.1215    152.4295     72.2776   8.3799360149e+01   3.7109639671e+01    0.2755065    0.2648926  12.34 0.0004788967    1.125    0.111
       208 -10.7530    102.6721     73.0620   9.6693949162e+01   4.7867366277e+01    0.2592817    0.1985502  32.65 0.0004938657    1.306    0.234
       209 -10.6647     16.9225     72.5488   1.2543741713e+02   5.9410941690e+01    0.2141089    0.1500712 -61.41 0.0007327818    1.373    0.272
       210 -10.8090     16.3898     67.5311   1.2441071404e+02   6.0446208374e+01     0.247415    0.2028314 -63.89  0.001038928    1.348    0.258
       211 -10.6747     21.1872     65.9461   1.2223318876e+02   6.0397315089e+01    0.2376923    0.1623945  22.23  0.001486928    1.676    0.403
       212 -10.3052    245.0341     72.5269   6.8441719628e+01   1.5448616330e+01    0.1885485    0.1271076  68.04 0.0005873259    1.546    0.353
       213 -10.7073    175.6543     71.2729   7.8795533621e+01   3.1694490377e+01    0.3635337    0.2294165  62.32  0.001555591    1.562    0.360
       214 -10.9402     77.9353     71.9554   1.0396525850e+02   5.2474527192e+01    0.2656083    0.1923826  43.12 0.0003283589    1.513    0.339
       215 -11.6076     49.5863     70.8034   1.1325397374e+02   5.6663695628e+01    0.3196698    0.2230522  44.41  0.001549299    1.821    0.451
       216 -10.2555     50.7085     67.6628   1.1193351602e+02   5.7129910491e+01    0.2325782    0.1562417 -32.30 0.0007884525    1.340    0.254
       217 -11.0756     27.3803     70.3232   1.2110180682e+02   5.9030793792e+01    0.3170992     0.201126 -50.15  0.001197641    1.327    0.247
       218 -10.6955     31.0357     66.4538   1.1872468130e+02   5.9460285871e+01    0.3050591    0.1811793 -53.04  0.001374966    1.537    0.350
       219 -11.0411    140.5456     70.5683   8.6000915565e+01   4.0185388247e+01     0.367451    0.2329711 -54.54  0.001632215    1.866    0.464
       220 -11.7364     95.0238     68.3581   9.7495238236e+01   5.0165018423e+01    0.5801822    0.3277401 -31.77  0.001615549    1.864    0.464
       221 -10.6355    160.8011     69.4203   8.1221263247e+01   3.5593684591e+01    0.2634299    0.2342422  52.21 0.0007396123    1.105    0.095
       222 -10.7508     68.7450     67.5047   1.0562726133e+02   5.4723024005e+01    0.2997074     0.224446 -34.55  0.001077759    1.230    0.187
       223 -10.6399     37.3547     67.4110   1.1667488851e+02   5.8664426688e+01    0.3857366    0.2154677 -31.71  0.001170995    1.710    0.415
       224 -10.6845     41.3700     63.9698   1.1420954135e+02   5.8897636861e+01    0.1957214    0.1808431  53.10 0.0009150372    1.482    0.325
       225  -8.9800    230.3139     68.7173   6.9496779830e+01   1.9249883137e+01    0.1414391   0.09433711 -72.23 0.0002927371    1.575    0.365
       226 -12.0519      4.3682     65.4079   1.2833135235e+02   6.1626004700e+01     0.464486    0.3308669  73.76  0.002863351    2.343    0.573
       227 -10.2479    146.8411     65.9820   8.3231831104e+01   3.9486142194e+01    0.2132278    0.2014724  83.36 0.0004282708    1.076    0.071
       228 -10.1766    129.9916     64.1252   8.6616920004e+01   4.3667324524e+01    0.2359459    0.2005272 -34.60  0.001282158    1.227    0.185
       229 -11.9791     83.4195     61.4943   9.8892195263e+01   5.3435437702e+01    0.8225197    0.4006089  29.72  0.003423484    2.400    0.583
       230 -10.0628    173.9922     63.9599   7.7159952381e+01   3.3294971702e+01    0.2189723    0.2013959  70.11 0.0004617322    1.040    0.039
       231  -9.2629     45.3304     64.6349   1.1296210954e+02   5.8332897690e+01    0.1170345    0.1004662  87.23 6.868265e-05    1.812    0.448
       232 -11.4967     56.2924     62.1145   1.0824736832e+02   5.7450353315e+01    0.2896588    0.2063032 -15.82 0.0002900183    1.412    0.292
       233 -10.5240     51.6861     62.6511   1.1006060791e+02   5.7942300915e+01    0.2693655    0.1734419 -19.83   0.00100451    1.637    0.389
       234 -11.5903      9.9530     61.8573   1.2539426171e+02   6.1982337398e+01     0.458993    0.2801217  54.07  0.002494508    3.020    0.669
       235 -11.2998      4.8310     52.9055   1.2507278331e+02   6.3979445888e+01    0.3855312    0.2045253 -26.84  0.002329299    1.757    0.431
       236 -10.0784    202.3551     62.2153   7.1953275562e+01   2.6729505468e+01    0.2133934    0.1780776  60.87 0.0003902286    1.220    0.180
       237  -9.2839    189.1676     64.3482   7.4590190142e+01   2.9554138838e+01    0.1917446    0.1284665  73.79 0.0001193715    1.538    0.350
       238 -12.2298     38.4503     51.4729   1.1143263975e+02   6.1465263341e+01     0.571586    0.3648418 -27.18   0.00253456    1.397    0.284
       239 -11.6025     26.3388     61.6031   1.1912643747e+02   6.0805255143e+01    0.3772052    0.1945793  12.30  0.002005496    2.310    0.567
       240 -10.7649     33.4179     59.8659   1.1595208438e+02   6.0479181825e+01    0.2988825    0.1957264 -18.90  0.001031511    1.516    0.340
       241  -9.7291    160.5390     60.9893   7.8929155150e+01   3.7022204626e+01    0.2091814    0.1441449 -35.95 0.0007791215    1.542    0.352
       242 -10.8771     64.0722     59.8192   1.0478251442e+02   5.6785694526e+01     0.360918    0.1761912  33.08  0.001714236    2.117    0.528
       243 -10.9365     69.4727     58.2365   1.0241166694e+02   5.6257290999e+01    0.4023747    0.3166666 -54.91   0.00233427    1.604    0.376
       244  -9.7429     18.2961     59.6305   1.2163880536e+02   6.1827779735e+01    0.1567395    0.1365861  78.29 0.0007554582    1.740    0.425
       245 -10.9895    123.1995     56.6912   8.6017170845e+01   4.6358316944e+01    0.2777587    0.2211243 -68.83 0.0009256506    1.627    0.385
       246 -10.9577     44.9499     57.7228   1.1097856962e+02   5.9640901907e+01    0.3060069    0.2116853  31.89  0.000635809    1.599    0.375
       247 -11.1263     44.8007     51.8401   1.0913817734e+02   6.0686518324e+01    0.2716204    0.1832446 -28.55 0.0003458622    1.298    0.230
       248  -9.3673    137.2531     57.6698   8.2946641769e+01   4.3042488278e+01     0.138445    0.1095955 -70.16 0.0001725561    1.555    0.357
       249 -10.2336    113.8424     57.5107   8.8694898760e+01   4.8243255555e+01    0.3949808    0.1213678  45.89  0.001348237    3.058    0.673
       250 -10.1483    117.5494     54.9358   8.6903029518e+01   4.7854698441e+01    0.2154761    0.1819312  21.92  0.000348483    1.200    0.166
       251 -10.9415    101.9651     55.6818   9.1383331035e+01   5.0955500082e+01    0.5330163    0.1925879  50.96  0.001948522    2.971    0.663
       252 -10.1822     75.4321     56.0337   9.9683139632e+01   5.5688753465e+01     0.204893    0.1820003  48.42 0.0005578328    1.376    0.273
       253 -12.2396    128.0692     51.2965   8.3146853642e+01   4.6088229964e+01    0.4236955    0.3519225 -12.21 0.0006870116    1.336    0.252
       254 -11.2359     13.7043     51.3355   1.2111676665e+02   6.3694951464e+01    0.3204429    0.2756035   1.50  0.002192309    1.292    0.226
       255 -10.4125     86.9187     52.3282   9.4751251312e+01   5.4320643222e+01    0.2231571    0.1553768  43.09   0.00116468    1.442    0.307
       256 -10.5662     71.5754     51.1298   9.9312462750e+01   5.7104523080e+01    0.3688337    0.1940314  33.64 0.0005316032    1.899    0.473
       257 -10.3714     76.7676     50.4083   9.7338037731e+01   5.6376003706e+01    0.2180253    0.1612226   8.55 0.0006310744    1.394    0.282
       258 -11.0343     51.4152     48.6315   1.0558971372e+02   6.0408305645e+01     0.287303    0.2428291 -66.40 0.0009533729    1.825    0.452
       259 -10.7472    114.3263     49.1470   8.5882251598e+01   4.9404813900e+01    0.3433082    0.2801588 -49.45  0.001931723    1.421    0.296
       260 -10.7039    107.7567     48.9519   8.7560783462e+01   5.0806790295e+01     0.245262    0.1777509  36.28 0.0003243293    1.306    0.234
       261 -10.9571    101.1440     48.8049   8.9343015621e+01   5.2164246026e+01    0.2419569    0.2259591  56.94  0.001489428    1.227    0.185
       262  -9.2560    208.6210     48.5343   6.7787509698e+01   2.7304175977e+01    0.1349421    0.1186795 -78.62 0.0001014891    1.031    0.031
       263 -10.2766    196.9216     48.1073   6.9321484599e+01   3.0141771733e+01    0.2014727     0.177302 -85.56  0.000286826    1.015    0.015
       264 -10.7023    152.5262     46.4742   7.6400725529e+01   4.1090549636e+01    0.6043879    0.3137049 -69.54  0.001887701    4.707    0.788
       265 -10.5408    142.7226     45.9893   7.8249228118e+01   4.3476480260e+01     0.288457     0.233242 -52.52 0.0006950033    1.371    0.271
       266  -9.7915     96.1976     46.8529   9.0103970843e+01   5.3417224446e+01    0.1833706    0.1776253  12.76 0.0004540583    1.149    0.130
       267 -10.3605     62.4120     47.1945   1.0111340203e+02   5.9124534059e+01    0.3109256    0.1677498  25.38  0.001319608    1.986    0.497
       268 -11.1678     11.1909     43.7939   1.1991404334e+02   6.5206981789e+01     0.293788    0.1957608 -18.99  0.001239185    1.329    0.248
       269 -10.8584     80.7363     42.1282   9.3166206182e+01   5.6939623001e+01    0.2758617    0.2536153 -19.61  0.001152929    1.197    0.165
       270 -10.3469     85.0438     38.9307   9.0685099781e+01   5.6619300928e+01    0.2294837    0.1668197  26.81 0.0004785953    1.284    0.221
       271 -11.4587     82.0556     36.0777   9.0587437452e+01   5.7540238358e+01    0.4695516    0.2287502  31.88  0.002176218    2.165    0.538
       272 -11.6363      6.9849     41.5540   1.2098897551e+02   6.5875124717e+01    0.5001532    0.1179301 -46.60 0.0008038447    2.809    0.644
       273  -9.0502    233.3183     45.2880   6.4023777758e+01   2.2123934146e+01    0.1178785    0.1009637  42.25 0.0003668376    1.594    0.373
       274 -11.1234    122.5301     44.4498   8.2319849859e+01   4.8289649167e+01    0.3505102    0.2958953 -50.01  0.001705299    1.358    0.264
       275 -10.0549     91.7308     45.0198   9.0792007771e+01   5.4532700966e+01    0.1805872    0.1559518 -11.33 0.0003062852    1.129    0.114
       276  -9.8552     85.7294     45.0556   9.2627332117e+01   5.5632259966e+01    0.1775091    0.1550108  -1.89 0.0002730547    1.061    0.058
       277 -10.4220    163.1479     42.5037   7.3294520302e+01   3.9081252547e+01    0.2152464    0.1942122 -41.16 0.0002460713    1.210    0.174
       278  -9.8927     64.1587     41.6430   9.8530778169e+01   5.9712718395e+01    0.2489605    0.1340506 -36.19  0.001299384    1.804    0.446
       279 -10.3181    110.9878     42.0555   8.4426526302e+01   5.1102690118e+01    0.1970039    0.1808635  37.90 0.0003230911    1.057    0.054
       280  -9.1353     59.9873     41.9663   1.0012414307e+02   6.0282029529e+01    0.1476889     0.123364   3.03 0.0003613835    1.040    0.039
       281 -10.5290     52.0081     41.4849   1.0286581262e+02   6.1463849047e+01    0.1906224    0.1382242 -29.58 0.0005223257    1.258    0.205
       282 -10.0771     24.0236     41.4811   1.1387473292e+02   6.4579547240e+01    0.2651317    0.2093887  23.15  0.001884478    1.471    0.320
       283  -9.7087     28.7112     40.7209   1.1170147664e+02   6.4266496498e+01    0.1621437    0.1237825  -2.12 0.0004973177    1.190    0.159
       284 -10.3779     20.2914     37.6213   1.1412572241e+02   6.5539566142e+01    0.2188888     0.151219 -11.19 0.0008972609    1.287    0.223
       285 -11.6919     24.7299     35.4754   1.1152207077e+02   6.5485646062e+01    0.2999212    0.2250057  28.94 0.0008569084    1.602    0.376
       286 -10.6333     96.3364     40.5736   8.7914125923e+01   5.4272495166e+01    0.3770619    0.2306125  61.33  0.001512554    2.134    0.531
       287 -10.1634     97.0035     37.0177   8.6493250449e+01   5.4614443103e+01     0.187861    0.1781626  36.46 0.0004561982    1.165    0.142
       288 -10.0402     90.1029     40.2811   8.9631241069e+01   5.5502821477e+01    0.2264073    0.1680339 -59.78 0.0008803222    2.055    0.513
       289 -10.0539    235.8735     39.9753   6.2621754387e+01   2.2304499467e+01    0.2727058    0.1443477 -57.45  0.001364731    1.771    0.435
       290 -10.1070    226.5998     40.1579   6.3676802646e+01   2.4341322855e+01    0.2145826    0.1553626 -88.53  0.000528677    1.259    0.206
       291 -10.9047    135.5607     38.6715   7.7555391912e+01   4.6113526466e+01    0.3733589    0.1868258 -28.21  0.001661321    2.273    0.560
       292 -10.4658    130.6994     33.7685   7.7082189659e+01   4.7836792366e+01    0.4758768    0.2465293  74.80  0.001867442    2.968    0.663
       293  -9.8602     44.1196     39.2530   1.0505780388e+02   6.2811267111e+01    0.2206658    0.1214449 -45.41 0.0009266678    1.949    0.487
       294 -10.8435     69.6464     36.9878   9.4949164298e+01   5.9523664350e+01    0.4366129    0.2494077  -6.08  0.002067459    2.420    0.587
       295 -11.1357      2.4994     34.6541   1.2077948900e+02   6.7321624686e+01     0.466665    0.2131608 -43.07  0.002841054    1.621    0.383
       296 -11.1388     11.0126     33.5020   1.1669621186e+02   6.6942977667e+01    0.3924373    0.1711993  22.68  0.002247347    2.437    0.590
       297  -9.9412    180.6852    249.6891   1.1628516671e+02  -4.2777177363e+00    0.1274119   0.09188922   9.48 0.0007031465    1.634    0.388
       298  -9.9698    137.0199    247.7233   1.2463663901e+02   3.4038536214e+00    0.1836959     0.148547  45.42 0.0004482077    1.060    0.057
       299  -9.4389    169.6286     35.8426   7.0375466587e+01   3.8384741720e+01     0.180649    0.1191423 -48.28 0.0004077537    1.614    0.380
       300 -10.1677    106.0427     34.8080   8.3282278244e+01   5.3074513863e+01    0.3227092    0.1780473 -43.69  0.001546592    2.195    0.544
       301 -10.3350     56.8995     35.3955   9.8835512607e+01   6.1686768445e+01    0.1975178    0.1518319 -32.36 0.0006763026    1.342    0.255
       302  -9.7108     56.1458     31.1903   9.7526198943e+01   6.2378193760e+01    0.1902166    0.1322389 -31.38 0.0006188402    1.420    0.296
       303 -10.4565    110.9999     34.8839   8.2036911396e+01   5.2029337927e+01    0.1988458    0.1837021  -4.12 0.0003240826    1.132    0.117
       304  -9.6999    150.8215     34.3766   7.3237917016e+01   4.3078217823e+01     0.194093    0.1104117  52.09 0.0003576588    1.580    0.367
       305  -9.9017     31.8152     34.0664   1.0807905966e+02   6.5000244988e+01      0.21568    0.1325618  27.79 0.0007140993    1.695    0.410
       306  -9.2151    118.6235     32.8139   7.9497105110e+01   5.0644128463e+01    0.1702965    0.1203497 -42.18 0.0005471141    1.625    0.385
       307 -10.1435     96.1290     32.8236   8.5272336594e+01   5.5318360990e+01     0.259212    0.1568909  32.70 0.0008619183    1.609    0.379
       308 -10.5220     19.0722     32.0947   1.1272373832e+02   6.6523498900e+01    0.2049682    0.1741136   2.65  0.001569327    1.283    0.221
       309  -9.9719    178.9472     31.9364   6.7900201284e+01   3.6625185117e+01    0.2035622    0.1741179  86.05  0.001219724    1.055    0.052
       310  -9.6713     89.9185     31.7456   8.6659024955e+01   5.6649416323e+01    0.1733649    0.1471304  33.06 0.0003813085    1.087    0.080
       311  -9.8748     73.9343     31.2151   9.1389934880e+01   5.9585368042e+01    0.1716715     0.140322  14.92 0.0003933439    1.049    0.047
       312  -9.4728    140.3314     29.2135   7.3711996957e+01   4.6159505843e+01    0.1756722    0.1196172 -39.91 0.0005541355    1.633    0.387
       313  -9.7652    100.9703     28.5279   8.2453065214e+01   5.4868503161e+01    0.1797457    0.1624424   7.11 0.0001463945    1.106    0.096
       314 -10.4518    124.9717     27.9228   7.6478986295e+01   4.9812597543e+01    0.1935824    0.1660762  43.16  0.001184947    1.046    0.044
       315 -11.3815     70.7292     26.3012   9.0586193238e+01   6.0736863410e+01    0.4181895    0.2365564  34.41  0.001593689    1.608    0.378
       316 -10.4014     50.7191     27.0417   9.7938546363e+01   6.3697821720e+01    0.2447721    0.1325777 -21.20  0.001194482    1.871    0.465
       317 -10.1342    154.7541     27.0732   7.0448120359e+01   4.3009172942e+01    0.1773032    0.1626677  55.51            0    1.090    0.082
       318  -9.8273     15.4626     13.5061   1.0718373879e+02   6.9520798284e+01    0.1694679   0.09143264  26.87  0.001030096    1.890    0.471
       319 -10.0220     24.6977     27.0230   1.0844345493e+02   6.6771336254e+01    0.1739617    0.1347181   0.18 0.0004337376    1.143    0.125
       320 -10.1031     72.6020    250.1429   1.3735273089e+02   1.3147609552e+01    0.1772426    0.1682133  21.93  0.001248995    1.574    0.365
       321 -10.1879    147.7641    245.2282   1.2215141608e+02   2.0242601047e+00    0.1900557    0.1017199 -39.45 0.0008895202    2.471    0.595
       322 -10.7106     27.3825     19.7072   1.0442266284e+02   6.7520484234e+01    0.2054926    0.1686415   0.21 0.0007172015    1.192    0.161
       323  -9.5898    146.1526     26.1193   7.1696658190e+01   4.5150276900e+01    0.1743291    0.1466438 -77.64 0.0004230973    1.315    0.239
       324  -9.6716    115.4391    244.6977   1.2853263475e+02   7.5604846577e+00    0.1549087    0.1232975 -51.71 0.0005704998    1.518    0.341
       325  -9.6860     16.7017     25.8591   1.1148704387e+02   6.7676626021e+01    0.2188996   0.07007919 -39.09  0.001066025    2.534    0.605
       326 -10.8282    101.6373     36.9519   8.5188793078e+01   5.3701257986e+01    0.2316956    0.1745783  43.82 0.0003693459    1.217    0.178
       327 -11.2335     61.5361     23.8233   9.2747189758e+01   6.2518405944e+01    0.2815213    0.2278387  53.81  0.001825903    1.728    0.421
       328 -11.2058     65.3360     20.9210   9.0300660748e+01   6.2259346262e+01    0.2685951    0.1975271  25.61 0.0008562052    1.169    0.145
       329  -9.5621    220.9701     24.4970   6.0905094230e+01   2.7659106903e+01    0.1889571    0.1103557  72.54 0.0005029162    1.536    0.349
       330  -8.8329    119.3576     24.7234   7.6686575451e+01   5.1410339324e+01    0.1260401   0.09958325 -86.54 0.0007008038    1.656    0.396
       331 -10.5192     54.0164     23.2189   9.5205244897e+01   6.3720771977e+01    0.2077029    0.1672922  23.16 0.0007160624    1.194    0.163
       332  -9.7389     94.3306     22.5313   8.2106532540e+01   5.6866451275e+01    0.2041748    0.1371412  10.13 0.0008164417    1.670    0.401
       333 -10.1361     72.2007    243.7996   1.3682504030e+02   1.4445382753e+01    0.2336336    0.1677278  45.35  0.001000409    1.351    0.260
       334  -9.9684     35.5051     22.5312   1.0214368950e+02   6.6236496830e+01    0.1961851    0.1453772   4.32  0.001008419    1.127    0.113
       335  -9.6125     35.7121     19.6635   1.0089988525e+02   6.6587220204e+01    0.1632671    0.1129697  -7.37 0.0004091422    1.220    0.180
       336  -9.6961    124.2214     22.0226   7.4754201025e+01   5.0623524951e+01    0.1737446    0.1579101  44.14 0.0004227836    1.048    0.046
       337  -9.5371    136.9931     20.0403   7.1585034733e+01   4.7934105724e+01    0.1586886    0.1329924  57.86 0.0003094615    1.034    0.033
       338 -10.6648    103.7839     19.2860   7.8512503452e+01   5.5301445717e+01    0.2823946    0.1501038  33.98  0.001396484    1.911    0.477
       339  -9.6988     45.0809     20.0509   9.7309684380e+01   6.5355481799e+01    0.1496073    0.1464786 -32.89  0.001121474    1.658    0.397
       340 -11.9866     74.1962    238.3706   1.3590718394e+02   1.5242496454e+01    0.5732143    0.3739746  62.22  0.003377739    1.316    0.240
       341  -9.9624    109.6247    242.8821   1.2946384940e+02   8.8576523313e+00    0.2688798    0.1379212  55.43   0.00100571    1.856    0.461
       342 -10.5052    217.3015     16.4190   5.9544352683e+01   2.9457418051e+01    0.3375682    0.1320102  59.60  0.001536127    2.393    0.582
       343 -10.4061    133.6862     16.9664   7.1273382562e+01   4.9002334168e+01    0.2384261    0.1689838  67.86 0.0003279211    1.322    0.243
       344 -11.7494     35.1188    241.5770   1.4341619852e+02   1.9816297212e+01    0.6180189    0.2282298  43.59  0.003158221    2.318    0.569
       345 -10.1943    108.1429     17.0408   7.6689164897e+01   5.4617262348e+01    0.1837594    0.1655961  49.69 0.0005059676    1.116    0.104
       346 -10.6533      9.5724     16.0329   1.1094406792e+02   6.9683480661e+01      0.20111    0.1347384  -3.98 0.0008057127    1.254    0.202
       347  -9.0893     34.8102     15.5731   9.9581212470e+01   6.7209201708e+01    0.2904276    0.1364266   0.07  0.001165089    4.257    0.765
       348 -10.2624     31.5021    237.4265   1.4375018452e+02   2.1082867936e+01    0.2833316    0.1717603  87.41  0.001135728    1.381    0.276
       349  -9.6548     49.9992     15.0314   9.3370446347e+01   6.5270141782e+01    0.1443992    0.1125771   9.62  0.001010796    1.021    0.020
       350 -10.7839     29.0500    233.0059   1.4386160777e+02   2.2269417935e+01    0.3062924    0.1563615  57.51  0.001132887    1.650    0.394
       351 -10.3265     88.5234    241.4803   1.3345538571e+02   1.2474212355e+01    0.2137262    0.1060851 -52.38  0.001032576    2.458    0.593
       352 -10.8800    156.2203    240.7485   1.1980236775e+02   1.3631583755e+00     0.235677    0.1772896 -87.09  0.001284649    1.865    0.464
       353  -9.4171     50.2901    240.3448   1.4058964375e+02   1.8152164707e+01    0.1049484   0.09004718 -54.43 0.0005044601    1.656    0.396
       354 -10.0435    195.7710    238.5189   1.1155039888e+02  -5.0030195950e+00    0.2305168    0.1673117  26.77  0.001074954    1.247    0.198
       355  -9.7463    139.8324     13.8196   6.9201954593e+01   4.7897537531e+01    0.1643533    0.1398221 -81.10 0.0002479631    1.299    0.230
       356 -11.1830    176.9679    235.6149   1.1481634402e+02  -1.3339945440e+00    0.4750309    0.2921291  -4.81  0.001977014    3.163    0.684
       357  -9.2828    243.4642    237.4887   1.0237649363e+02  -1.2248147222e+01     0.121913   0.09924355   3.56 7.254739e-05    1.009    0.009
       358 -12.1478     16.4226    238.3685   1.4643825295e+02   2.2605383594e+01    0.7751915    0.2659795  41.24  0.004032658    2.595    0.615
       359  -9.6166    127.8509    249.6402   1.2669993624e+02   4.5946910037e+00    0.1635964    0.1564602  61.12  0.001103958    1.170    0.145
       360  -9.2001    175.6880     12.3082   6.3343450919e+01   3.9612922443e+01    0.1317136   0.08728004 -73.83   0.00053184    1.623    0.384
       361 -10.1648    159.8908    235.8893   1.1832306648e+02   1.5891242493e+00    0.2028513    0.1720183  20.99 0.0005742591    1.228    0.186
       362  -9.5067    108.1561     10.4110   7.4418454210e+01   5.5235874940e+01    0.1692746    0.1100513  68.18 0.0006741833    1.659    0.397
       363 -11.1432     73.8377    232.8529   1.3540950378e+02   1.6422541519e+01    0.2502444    0.1818747  60.75 0.0008552268    1.158    0.136
       364 -10.5568      1.4212    244.9946   1.4929785687e+02   2.2877904984e+01    0.1554373   0.08048969 -83.99 0.0004604724    1.548    0.354
       365 -10.2670    167.0211    233.9433   1.1656533875e+02   6.8801945412e-01    0.2058667    0.1846338  31.59 0.0008030894    1.039    0.037
       366  -9.8570     86.1329    233.4341   1.3303717114e+02   1.4461066366e+01    0.2427552    0.1363964  86.11  0.001148775    2.239    0.553
       367  -9.6587    127.6560    233.6516   1.2461514410e+02   7.6215273449e+00    0.1304912    0.1058121  -0.17 0.0007043506    1.803    0.445
       368  -9.9758     79.5842    231.3814   1.3411523326e+02   1.5876968328e+01    0.2312532    0.1410325  42.60 0.0006953976    1.550    0.355
       369 -10.2785    190.5357    226.8553   1.1062372150e+02  -2.1842346927e+00    0.3108023    0.1317459 -43.85   0.00113419    2.572    0.611
       370 -12.4904     21.0006    248.9547   1.4633523176e+02   2.0021054488e+01    0.8424906    0.2300656  42.45  0.004077793    2.925    0.658
       371  -9.4882     58.4818    230.4413   1.3815998937e+02   1.9090809986e+01     0.125214    0.0997277  74.20  0.000142551    1.016    0.016
