#   1 NUMBER                 Running object number                                     
#   2 MAG_AUTO               Kron-like elliptical aperture magnitude                    [mag]
#   3 X_IMAGE                Object position along x                                    [pixel]
#   4 Y_IMAGE                Object position along y                                    [pixel]
#   5 X_WORLD                Barycenter position along world x axis                     [deg]
#   6 Y_WORLD                Barycenter position along world y axis                     [deg]
#   7 A_WORLD                Profile RMS along major axis (world units)                 [deg]
#   8 B_WORLD                Profile RMS along minor axis (world units)                 [deg]
#   9 THETA_WORLD            Position angle (CCW/world-x)                               [deg]
#  10 FWHM_WORLD             FWHM assuming a gaussian core                              [deg]
#  11 ELONGATION             A_IMAGE/B_IMAGE                                           
#  12 ELLIPTICITY            1 - B_IMAGE/A_IMAGE                                       
         1 -12.3521     81.3169     37.5579   8.2330408132e+01   5.9712846648e+01    0.7676253    0.5770894 -60.26  0.002722008    1.569    0.362
         2 -11.9364     20.8854     18.6252   1.0483260466e+02   7.2487594050e+01    0.5619184    0.4247236 -89.17  0.001010613    1.715    0.417
         3 -12.0256    129.5736     23.2418   6.1716761082e+01   5.0441857529e+01    0.7907026    0.3923947 -29.07  0.002050377    2.002    0.500
         4  -9.9682     82.5073     15.8539   7.1482983871e+01   6.3171610227e+01    0.4150552    0.2530953   3.18  0.001262378    2.472    0.595
         5 -11.4277     84.8332     20.2837   7.2934126469e+01   6.1980577633e+01    0.5865276    0.3947997  19.98  0.002688577    1.849    0.459
         6 -11.7041     60.5908     23.0002   8.4326881382e+01   6.6363572371e+01    0.5474722    0.3377461 -63.07  0.002347417    2.559    0.609
         7 -11.7149      4.6647     18.6558   1.1586336091e+02   7.3518967142e+01    0.4589761    0.3138252  27.89  0.002502493    1.755    0.430
         8 -10.1514     34.8200     16.2562   9.4788400555e+01   7.1534179567e+01    0.4642343    0.2109374 -39.07    0.0020867    2.101    0.524
         9 -10.9361     64.9234     14.2128   7.7646155114e+01   6.7092446531e+01    0.5715822    0.2794439  25.44  0.002005548    3.582    0.721
        10 -11.8031     74.1117      7.1085   6.9740478260e+01   6.6258669324e+01    0.4773971    0.2265342 -32.13 0.0003166453    2.026    0.506
        11 -12.1549     81.0027      6.6385   6.6959283313e+01   6.4784149169e+01     0.596144    0.3672414  29.19  0.002747964    1.813    0.448
        12 -11.4322     75.7626     15.5852   7.3872135816e+01   6.4677325855e+01    0.5253901    0.3688041 -14.08  0.001772639    1.544    0.352
        13 -11.4447     70.5100     14.4496   7.5370800396e+01   6.5945008578e+01    0.4016515    0.2375192 -24.44  0.001240771    1.761    0.432
        14 -10.2284    167.6104     14.1656   5.1616031885e+01   4.1059347119e+01    0.3964766    0.1664426  38.87  0.001312929    3.163    0.684
        15  -9.7443     50.8433     11.2314   8.2775341388e+01   7.0136013574e+01    0.3451603     0.195749 -12.20  0.001305604    2.892    0.654
        16 -10.3886    158.0952     13.1864   5.2590755124e+01   4.3795773225e+01    0.3199637    0.1629957 -48.83  0.001252158    2.137    0.532
        17 -10.3140    100.1799     12.9320   6.4320944058e+01   5.9399808476e+01     0.332058    0.2286981  -4.25  0.001095518    1.658    0.397
        18 -10.3209     54.9891     13.4423   8.1919362943e+01   6.9048345112e+01    0.2382277    0.1795287 -48.18 0.0002933971    1.436    0.303
        19 -10.5051     26.4246     13.9460   9.9013523344e+01   7.2958024661e+01      0.21987    0.1550949 -28.44 0.0003537425    1.373    0.272
        20 -10.4476     30.8692     12.9624   9.5577899115e+01   7.2667357874e+01    0.2288174    0.1722908 -38.57 0.0004283705    1.142    0.125
        21  -9.7475    138.7592     12.4817   5.5430011033e+01   4.9233227090e+01    0.3571036    0.1903768 -66.16  0.001284504    2.740    0.635
        22 -11.2285    117.7916     10.5411   5.8750831307e+01   5.5144616276e+01    0.7683379    0.2348735 -37.67  0.002478017    3.216    0.689
        23 -10.3072    115.7447      3.3477   5.5820005209e+01   5.6454241295e+01     0.277156    0.2042488  11.21 0.0007475099    1.495    0.331
        24  -9.8682      5.3556     11.8161   1.1318490904e+02   7.5021989596e+01    0.1796564    0.1202171 -56.09  0.001112138    1.183    0.155
        25  -9.8591    185.5697     10.9634   4.8355449290e+01   3.6486177095e+01    0.2079951    0.1863885  89.00 0.0003077295    1.096    0.088
        26 -12.6787     12.9081      3.3824   1.0355442605e+02   7.6356444491e+01    0.7817274    0.5196401  -8.87  0.003843716    1.670    0.401
        27 -12.1185     24.2271      6.3616   9.6500180339e+01   7.4714679364e+01    0.6371991    0.3838129 -23.69  0.002982945    1.829    0.453
        28 -13.0645     32.1012      2.0591   8.8274760134e+01   7.4565769589e+01    0.3141775    0.2279367  21.85 0.0006109252    1.463    0.317
        29 -10.4401     59.4650     10.1659   7.7817790778e+01   6.8780486418e+01    0.2411908    0.1965734  45.54 0.0006798134    1.334    0.250
        30  -9.3444    107.7580      9.9100   6.0813705986e+01   5.7848315263e+01     0.190331    0.1251435 -18.97 0.0007076453    1.576    0.365
        31 -10.6154    178.0481      8.9999   4.8532999503e+01   3.8715916682e+01    0.2394938    0.1619302  38.77 0.0006211855    1.652    0.395
        32 -10.0924    128.1210      8.8873   5.5871405710e+01   5.2539870470e+01    0.2357361    0.1962064 -66.43 0.0006151036    1.320    0.243
        33 -10.3938     91.9044      6.9881   6.3645871117e+01   6.2170103450e+01    0.4347153    0.2970925  10.65  0.001725173    1.694    0.410
        34 -10.3899    146.7007      6.6869   5.1779504716e+01   4.7626928229e+01    0.4073365    0.1864989 -38.05     0.001585    2.162    0.537
        35 -10.4719    228.6935      5.6825   4.3039643171e+01   2.6024509904e+01    0.2496718    0.1948238 -58.53 0.0005337831    1.198    0.165
        36  -9.6954     59.8413      5.5732   7.4835723762e+01   6.9410382156e+01    0.2642021    0.1245978  44.59  0.001159959    2.139    0.533
        37  -9.9241    176.8209      4.1705   4.7023545479e+01   3.9505510863e+01     0.201351    0.1623834  41.24 0.0003458416    1.330    0.248
        38  -9.8452    167.8646      2.1663   4.7304356328e+01   4.2151440364e+01     0.224103    0.1831807 -56.92 0.0004271021    1.220    0.180
        39  -8.8977    139.3047      1.6881   5.0867942861e+01   5.0156617850e+01    0.1552215     0.106418 -58.52 0.0003854584    1.615    0.381
        40  -8.9117     73.2918    221.2719   1.1896760557e+02   2.2572499825e+01   0.09231701   0.07807118  22.61 0.0002047402    1.514    0.340
        41 -10.0459    247.0549    249.9778   9.2048760205e+01  -3.6567494897e+00    0.2221245    0.1086297  10.43  0.001486161    1.998    0.500
        42 -10.4522    250.4185    245.4088   9.0965804837e+01  -3.7111173158e+00    0.2789147    0.1045175 -25.34  0.001753018    2.966    0.663
        43 -12.2112    226.1056    246.1414   9.4674697227e+01  -8.3624953586e-01    0.4317064    0.2583265  11.36  0.003234836    1.463    0.316
        44 -12.1035    232.7424    247.0442   9.3784775520e+01  -1.7258689924e+00    0.3716391    0.2262961  12.39  0.002877532    1.338    0.252
        45 -10.4791      5.9464    235.4390   1.3181994476e+02   2.7329486721e+01    0.2637226    0.1300471  49.79  0.001272041    1.293    0.226
        46 -12.4637     20.2103    248.4863   1.2972744890e+02   2.4098450825e+01    0.6513494    0.1431094  37.82  0.003657891    2.563    0.610
        47 -13.1678      7.0990    244.4287   1.3180103736e+02   2.5876923207e+01    0.9583036    0.5906875  20.61  0.006627489    2.274    0.560
        48 -10.0391    174.2679    219.4645   9.9794873297e+01   8.8606227114e+00    0.2301567   0.08540273  35.54  0.001144226    2.106    0.525
        49  -9.4660    250.4837    219.4456   8.7326750042e+01  -1.6686558424e+00    0.1070004   0.07184344  15.89 0.0002216628    1.028    0.028
        50 -10.3225     66.7840    226.7836   1.2056176113e+02   2.2485083766e+01    0.2788793    0.1308518  50.36  0.001150192    1.568    0.362
        51 -10.7759      9.5711    216.9480   1.3077254035e+02   2.9961592986e+01    0.2749368    0.1118465  51.00  0.001164619    1.604    0.377
        52  -9.5727     37.9753    217.4798   1.2549626105e+02   2.7164771862e+01     0.153917   0.07985239  38.11 0.0005421781    1.531    0.347
        53 -11.4687    236.3604    214.6201   8.8748320711e+01   5.9125762366e-01    0.4150816    0.1996299  24.96  0.001938138    1.725    0.420
        54  -9.5389    136.7731    216.2133   1.0629993838e+02   1.4770490521e+01    0.1873435   0.07471407  31.43 0.0008692059    2.448    0.592
        55 -10.5961     31.0224    215.9101   1.2674608941e+02   2.8130675495e+01    0.2529578    0.1236683  33.16  0.001615738    1.820    0.451
        56  -9.4023    201.5504    215.5393   9.4524995726e+01   5.3444623807e+00    0.1151955   0.08208005  22.23 0.0003550923    1.079    0.073
        57  -9.7549    194.5472    215.4845   9.5711928307e+01   6.3626752668e+00    0.1144725   0.08457547  25.72 -8.941856e-07    1.004    0.004
        58  -9.5652    170.3116    213.3129   9.9703325361e+01   1.0193548170e+01    0.1151578   0.07570183  15.79 0.0006128114    1.632    0.387
        59 -11.2466     21.1809    212.2595   1.2847311273e+02   2.9696031396e+01    0.3203092    0.1057252  51.74  0.001847889    2.015    0.504
        60 -10.1567    208.9604    212.0795   9.2782494187e+01   4.6475547534e+00    0.1719629    0.1254658  22.31 0.0004537974    1.013    0.013
        61  -9.0160     76.3489    212.2974   1.1772032379e+02   2.3641718276e+01   0.09968019    0.0831314  11.70 0.0007035008    1.682    0.406
        62  -9.6731      2.2903    212.3328   1.3200170465e+02   3.1352709403e+01    0.1403165    0.1108778  62.10 0.0005162422    1.199    0.166
        63 -12.0333      4.6816    207.4608   1.3145103836e+02   3.1980983011e+01    0.4539618    0.2084025  73.51  0.003004687    1.772    0.436
        64 -11.5283     18.7303    202.9346   1.2862213544e+02   3.1534773791e+01    0.2885106    0.2333952 -87.77 0.0008640015    1.392    0.282
        65  -9.4591    223.5840    201.8029   8.8816252954e+01   3.6120800386e+00    0.1303799     0.101577 -31.18 0.0006266813    1.688    0.408
        66 -10.2559    175.2867    202.6780   9.7333144061e+01   1.0782616488e+01    0.1929844    0.1492043  41.74 0.0005364017    1.238    0.192
        67  -9.6127     34.3566    201.0765   1.2543713927e+02   3.0352583688e+01    0.1440278     0.107765  67.66 0.0006175104    1.113    0.102
        68  -9.2928    227.1402    196.8667   8.7456930219e+01   3.6063934985e+00    0.1636983     0.104101  15.50 0.0008044555    1.350    0.259
        69 -10.3781     10.8037    208.4737   1.3032156694e+02   3.1282640736e+01    0.1726437    0.1407312 -50.82 0.0008654717    1.932    0.482
        70 -10.1960    215.5262    194.7005   8.9020661970e+01   5.5575500070e+00     0.183694    0.1050807 -21.83 0.0006444501    1.901    0.474
        71  -9.6432    232.3158    191.2978   8.5717384551e+01   3.4270491795e+00    0.1189706   0.06972446  14.03 0.0002477781    1.609    0.378
        72  -9.3858    211.3274    188.9834   8.8801987332e+01   6.8443691865e+00    0.1813919   0.08508918  -9.86 0.0007040806    4.236    0.764
        73  -8.9829     90.6725    189.6573   1.1274408385e+02   2.5630392714e+01    0.1106875    0.0926602  -2.59 0.0007051103    1.741    0.426
        74  -9.3472      1.5899    188.2085   1.3159837835e+02   3.5660111649e+01     0.128477   0.08283062 -81.96 0.0005983477    1.573    0.364
        75  -9.9142    218.0000    186.9453   8.7334166136e+01   6.0452936133e+00    0.1715554   0.06341736 -31.95 0.0008038467    2.952    0.661
        76  -9.4882     61.6442    184.8356   1.1863626565e+02   3.0301572807e+01    0.1599166   0.09656483  85.54 0.0009462732    1.748    0.428
        77  -9.3471    246.3392    184.3067   8.2350889739e+01   2.1028278624e+00    0.1209746   0.06827338  13.48 0.0002712402    1.680    0.405
        78  -9.5885    166.5453    183.5030   9.6125919992e+01   1.4799096105e+01    0.1263289    0.1031453  30.44  0.000155702    1.009    0.008
        79 -11.3707     16.0973    182.7579   1.2841673399e+02   3.5467800405e+01    0.3710916     0.165006  71.76  0.002155709    1.933    0.483
        80  -9.8680      1.8988    180.1739   1.3133199629e+02   3.7138334140e+01    0.1695662    0.1007637  59.51 0.0005594068    1.222    0.181
        81 -10.1346    244.2735    178.3496   8.1633028270e+01   3.0035289752e+00    0.2047935    0.1170184 -10.29 0.0009786729    1.716    0.417
        82 -10.8433    224.3082    178.3816   8.4818507105e+01   6.0322896706e+00    0.2274908    0.1774585  26.66 0.0005052697    1.153    0.132
        83  -9.7300     70.1756    177.7341   1.1610656760e+02   3.0590836878e+01     0.146724    0.1325009  28.81 0.0005117673    1.341    0.255
        84  -9.1473     36.4432    178.4611   1.2377294023e+02   3.4354387211e+01    0.1144995   0.08857674  62.18 0.0002109029    1.016    0.015
        85 -10.0773    200.1832    176.7810   8.8693190696e+01   1.0112248455e+01    0.1755911    0.1234705  13.93 0.0005172836    1.359    0.264
        86  -9.8868     46.4723    177.2033   1.2144055683e+02   3.3529832105e+01    0.2205843    0.1404797  39.64  0.001393601    1.383    0.277
        87 -11.3452     18.0819    172.8687   1.2757435427e+02   3.7209997805e+01     0.396752    0.1302433  59.61  0.001932898    2.531    0.605
        88  -9.5435     75.0732    170.9375   1.1430327404e+02   3.1273444440e+01    0.1759944    0.1496862 -18.16   0.00111621    1.735    0.424
        89  -9.6420      4.6893    168.4908   1.3039055336e+02   3.9187293227e+01    0.1869448   0.08270022 -86.85  0.001074967    2.005    0.501
        90  -9.1267    210.3132    166.2971   8.5024338513e+01   9.7498180979e+00    0.1290912   0.08296194  13.95 0.0004344348    1.602    0.376
        91  -9.7421     67.0401    165.0123   1.1559474562e+02   3.3512072332e+01     0.205378    0.1194804  61.17 0.0007907377    1.625    0.385
        92 -10.6998     51.4541    164.2449   1.1926869240e+02   3.5568342090e+01    0.3286283    0.2180012 -55.92  0.001976992    1.821    0.451
        93 -11.2724     44.3569    162.5036   1.2083467282e+02   3.6724026624e+01    0.2934565    0.1863469 -86.21  0.001277359    1.510    0.338
        94 -10.5062     48.1170    160.1353   1.1972777709e+02   3.6799639537e+01    0.3058738    0.1884491  33.33  0.001414679    1.600    0.375
        95 -11.9790     36.8684    158.7741   1.2236995693e+02   3.8293614056e+01    0.4770682    0.1828005 -73.77 0.0006471671    2.489    0.598
        96  -9.3544    200.4637    162.5606   8.6084824813e+01   1.1926330218e+01    0.1275308     0.107672  21.41 0.0002402378    1.045    0.043
        97  -9.9190    238.1742    158.8408   7.9006866393e+01   6.0414109052e+00    0.1787765     0.119365  10.47  0.001078542    1.374    0.272
        98 -11.4131     22.6017    156.5301   1.2569984216e+02   4.0134686107e+01    0.4349249    0.2886195  44.61  0.002865253    1.326    0.246
        99 -10.2214    247.4701    158.4911   7.7513391770e+01   4.6100113406e+00    0.1189227   0.09551474   5.74 0.0001029717    1.063    0.059
       100  -8.8888    147.6667    156.3331   9.5496305053e+01   2.2396748212e+01     0.135087    0.1024051  70.78 0.0007052238    1.731    0.422
       101  -8.9524    235.6994    154.6744   7.8593925688e+01   6.9189593949e+00    0.1286491   0.07988168  10.55 0.0003401742    1.636    0.389
       102 -10.3442     12.2493    153.2526   1.2804490271e+02   4.1701287571e+01    0.2559245    0.1513496  18.49  0.001204208    2.135    0.532
       103 -10.3260    178.1797    151.4722   8.8206859654e+01   1.7553331024e+01    0.2443039    0.2200947  51.02  0.001058862    1.254    0.203
       104  -9.0598      5.2598    149.9631   1.2960517929e+02   4.2929002120e+01    0.1322709   0.07958023  86.48 0.0002516161    1.388    0.279
       105 -10.3354     26.9664    147.5535   1.2405340912e+02   4.1650145233e+01    0.1917774    0.1409955 -77.40 0.0007646047    1.329    0.248
       106 -11.0876     17.5874    146.6639   1.2638517745e+02   4.2665968643e+01    0.2797492    0.1933631  12.15  0.001331791    1.973    0.493
       107  -9.9091    207.0936    146.1844   8.1698984326e+01   1.2957704549e+01    0.2036072    0.1574568  17.99 0.0007648763    1.171    0.146
       108  -9.4889     41.4785    146.4758   1.2022312679e+02   4.0445088858e+01    0.1261084   0.09923715  67.47 4.527878e-05    1.055    0.052
       109  -9.6464    220.3196    144.2860   7.9026664478e+01   1.0818394853e+01    0.1330889   0.08675492  14.45 0.0002126277    1.593    0.372
       110 -11.9137     12.0855    145.3358   1.2770732901e+02   4.3396106402e+01    0.3955624    0.2336469  57.75 0.0008656149    1.382    0.277
       111 -10.1868     25.0145    142.2654   1.2419656928e+02   4.2980333696e+01    0.1654235    0.1131668  66.72 0.0002483591    1.218    0.179
       112 -10.8970     19.6851    140.1423   1.2545585154e+02   4.3909581713e+01    0.3239762     0.127656  87.85  0.001511211    2.461    0.594
       113 -10.5322     16.2497    139.7710   1.2633556952e+02   4.4274057211e+01    0.2629286    0.1361842  10.04   0.00132233    2.984    0.665
       114  -9.9222     49.6475    141.6851   1.1760731763e+02   4.0598475895e+01    0.2182698    0.1726174 -39.17 0.0008098441    1.707    0.414
       115  -9.7037    240.1139    140.8410   7.5149392666e+01   7.7946040194e+00    0.1749563    0.1228148  15.75 0.0005510445    1.305    0.234
       116  -9.0892    143.6936    137.3209   9.2793580882e+01   2.6550469355e+01    0.1388742    0.1096346  77.22 0.0006064806    1.638    0.390
       117 -11.1005      9.2410    136.7129   1.2801128190e+02   4.5484544164e+01    0.1917656    0.1747294  77.98 0.0002575942    1.213    0.176
       118 -10.3986     21.3613    135.9183   1.2473235153e+02   4.4703032432e+01    0.2359578    0.1621583  57.81  0.001050017    1.243    0.195
       119  -9.3970    138.0025    135.5012   9.3755255859e+01   2.7988835020e+01    0.2002655    0.1189831  21.84 0.0008096726    2.463    0.594
       120 -10.2022     56.0233    137.9545   1.1547389643e+02   4.0677648961e+01    0.3449472    0.1934836  83.85  0.001698017    1.987    0.497
       121 -10.0866    106.9829    133.2635   1.0103369149e+02   3.4145665894e+01    0.2280391    0.2092182 -65.40 0.0007688279    1.159    0.137
       122 -10.9974      2.7631    136.4205   1.2969371204e+02   4.6003411497e+01    0.3091377    0.1185094 -77.86  0.001351351    2.245    0.555
       123 -11.7141     37.5741    130.4426   1.1979689392e+02   4.4434193609e+01    0.4158234     0.258177 -75.56   0.00153969    1.486    0.327
       124 -11.1595     33.1321    125.8994   1.2062778486e+02   4.5914294853e+01    0.2751017    0.1796662  51.57 0.0003581986    1.393    0.282
       125 -10.4385     74.0531    129.4795   1.0933609293e+02   4.0208343267e+01     0.250594    0.2155796 -74.12 0.0007212195    1.164    0.141
       126 -11.2808     11.2596    122.8170   1.2668424347e+02   4.8445784710e+01    0.4887766    0.2202111  57.13  0.002465635    1.974    0.493
       127 -11.9854     17.0276    115.8433   1.2450819581e+02   4.9627590577e+01     0.420943     0.241856 -66.16  0.001672253    1.631    0.387
       128 -11.5775     23.2268    107.2393   1.2182934508e+02   5.1166938778e+01     0.366724    0.2302713  47.00   0.00211808    1.535    0.348
       129  -9.8998      6.3657    126.0881   1.2824874631e+02   4.8045407247e+01    0.1647854    0.1212234  81.17 0.0005164621    1.089    0.081
       130 -11.1352      2.3684    123.6131   1.2924118375e+02   4.8860521611e+01    0.4845722    0.1503151 -73.34  0.002211974    2.688    0.628
       131  -9.9207    226.0047    124.2267   7.3824587554e+01   1.2369480117e+01    0.1692611    0.1032694  44.92 0.0008739891    1.645    0.392
       132  -9.6683    219.5708    124.5202   7.4935673931e+01   1.3551710700e+01    0.1337398    0.1158902   3.73 0.0001594748    1.010    0.010
       133 -12.5962     15.5467    109.2509   1.2444100270e+02   5.1279218619e+01     0.586438    0.4017284  60.29 0.0009974187    1.327    0.247
       134  -9.7062     32.8849    118.9040   1.2000810460e+02   4.7563114786e+01    0.1804022    0.1545887 -67.38 0.0005056235    1.236    0.191
       135  -9.9107    249.8184    118.6144   6.9028240903e+01   8.7248894954e+00    0.1550879    0.1217516  57.33 0.0008823997    1.669    0.401
       136  -9.6732    220.4463    116.9980   7.3095836661e+01   1.4392023097e+01    0.1979683    0.1225414 -28.52 0.0004520234    1.538    0.350
       137 -10.2839     51.1194    116.1284   1.1412802130e+02   4.6287406836e+01    0.3082811    0.1665625 -69.43 0.0007603837    1.729    0.422
       138  -9.5242    166.3663    115.7667   8.2964069235e+01   2.5817731348e+01    0.1931161    0.1370048 -26.48 0.0002933685    1.536    0.349
       139  -9.3359    214.2051    115.5796   7.3799618984e+01   1.5822860045e+01    0.1863021    0.1175825  35.06 0.0005409561    1.572    0.364
       140 -10.2440     35.0690    114.3288   1.1885001630e+02   4.8430637467e+01    0.2676184    0.1612242 -82.77  0.001024438    1.514    0.339
       141 -12.1075     35.3893    108.2809   1.1804289289e+02   4.9837905843e+01    0.5478091    0.2569942  67.10  0.001422563    2.507    0.601
       142 -10.9999    249.0304    111.8742   6.7654635241e+01   9.6565517353e+00    0.2268688    0.1629695 -19.03 0.0006586189    1.212    0.175
       143  -9.3859     71.9621    115.6986   1.0771926605e+02   4.3667950448e+01    0.2058041    0.1170155   7.68 0.0007037141    4.195    0.762
       144  -8.9406    223.3458    111.7255   7.1414993438e+01   1.4527648484e+01    0.1241783    0.1071254 -67.30 0.0007000823    1.625    0.385
       145 -10.8340     55.2548    109.2423   1.1182383105e+02   4.7423946241e+01    0.3922728    0.3028286 -20.57  0.002137321    1.831    0.454
       146  -9.8205     91.3897    107.9738   1.0040176958e+02   4.2394969728e+01     0.196894    0.1738582 -66.57 0.0005556558    1.129    0.114
       147  -9.1989    103.8443    107.3974   9.6634154369e+01   4.0306935951e+01    0.1980046    0.1375145  30.08 0.0006942153    1.620    0.383
       148 -10.2458     62.8285    106.4198   1.0894235269e+02   4.7122282795e+01    0.2176955     0.175151 -51.41 0.0005651512    1.327    0.246
       149 -11.1355      6.3606    105.7861   1.2706965063e+02   5.2701526318e+01    0.3588155    0.1907578 -72.42  0.001893626    1.620    0.383
       150 -10.7551      2.4422    105.6988   1.2829181007e+02   5.2950586929e+01    0.2229967    0.1714426 -69.88 0.0005830445    1.274    0.215
       151 -12.6168      2.8709    100.4603   1.2784099274e+02   5.4149741902e+01    0.2583727    0.2149586  76.25 0.0004145672    1.072    0.067
       152 -11.0902      1.3912     95.7825   1.2803212144e+02   5.5327297518e+01    0.3479105    0.1481576 -79.68 0.0008119951    1.904    0.475
       153 -10.3753    243.4904    104.5245   6.6760194081e+01   1.1556741696e+01    0.1319871    0.1108326  -2.76 8.600672e-05    1.034    0.033
       154  -9.9101    223.3148    104.0192   6.9604990314e+01   1.5563024929e+01    0.1937613    0.1587137 -19.40 0.0004510659    1.127    0.113
       155 -10.8838    247.6664    102.1373   6.5642932830e+01   1.1063796584e+01    0.1995666    0.1844836  57.66   0.00080744    1.370    0.270
       156 -10.5785     36.2256    101.7308   1.1693609245e+02   5.1330610781e+01     0.360141    0.1894822  40.19  0.001817795    1.870    0.465
       157  -9.7778    119.7804    101.4142   9.0740273514e+01   3.8492466160e+01    0.2141616    0.1391675  32.86 0.0008605784    1.711    0.415
       158 -10.5896     91.5063    100.9089   9.8812643738e+01   4.3985565187e+01    0.2183253    0.1399866 -56.22  0.001021001    1.555    0.357
       159  -9.3555    145.3312    100.3231   8.3896689186e+01   3.3243519392e+01    0.1557968     0.118524  10.35 0.0007050009    1.701    0.412
       160  -9.6915     72.6775    100.6702   1.0468877479e+02   4.7092730690e+01    0.1403512    0.1082872 -28.13 0.0007049407    1.696    0.410
       161 -11.5006     62.3859     98.3126   1.0760390503e+02   4.9119376779e+01      0.27581    0.2628792 -64.63 0.0002822343    1.124    0.110
       162 -10.5442     66.6355     97.4801   1.0602501240e+02   4.8730247608e+01     0.414977    0.1834981 -47.77  0.001660612    2.468    0.595
       163 -11.4084     20.4012     97.2376   1.2174379147e+02   5.3781378376e+01    0.4311248    0.1891845  88.66  0.001521279    2.303    0.566
       164  -9.3507     50.5625     99.4585   1.1177773037e+02   5.0338939568e+01    0.1331723    0.1195881 -82.58 2.953817e-05    1.039    0.038
       165 -10.0825     57.4501     95.7136   1.0877711678e+02   5.0395788904e+01    0.3298337    0.1447605 -58.08  0.001405486    2.082    0.520
       166  -9.4416    249.5281     95.5004   6.3867727335e+01   1.1506542504e+01    0.1304137    0.1103176  -9.90 -4.809698e-05    1.002    0.002
       167 -10.1245     31.4665     93.2381   1.1742049207e+02   5.3836151499e+01    0.3663427    0.1638362 -82.85  0.001599466    2.269    0.559
       168 -11.0779     25.5690     91.4988   1.1928049287e+02   5.4765050230e+01    0.2757386     0.246776  -3.64  0.001040784    1.409    0.290
       169 -10.6849    104.0047     92.0134   9.2845761735e+01   4.3678000112e+01    0.2415105    0.2087381 -50.18            0    1.167    0.143
       170 -12.4878     44.6719     75.2858   1.0937882442e+02   5.6899342755e+01     0.321412    0.2565641  80.19 0.0003847473    1.297    0.229
       171 -11.3875     37.7870     70.2926   1.1109959588e+02   5.8849097906e+01    0.5994916    0.3913654  78.21  0.001421628    1.793    0.442
       172 -11.4612     29.9726     66.8677   1.1367848179e+02   6.0419770284e+01    0.6009609    0.2868031 -42.50  0.002659941    2.342    0.573
       173 -10.7947     48.0411     90.9541   1.1117896455e+02   5.2696014847e+01    0.4238979    0.2501182 -61.33  0.001757545    1.540    0.351
       174 -10.3698     47.7890     84.5651   1.1007571705e+02   5.4282027626e+01    0.4689285    0.2341802  60.63 0.0009780333    2.681    0.627
       175 -11.3178     40.5024     81.1857   1.1216824491e+02   5.5907572455e+01    0.5676454    0.2776723  54.11  0.001744983    2.410    0.585
       176 -11.2786     10.4306     90.8686   1.2456878807e+02   5.5990856651e+01    0.3320881     0.221289  33.45  0.001180846    1.628    0.386
       177 -10.8734    158.0114     90.2051   7.8221708449e+01   3.2233759610e+01    0.2796313    0.2229222 -35.06   0.00138605    1.274    0.215
       178 -10.5617     96.0378     90.4849   9.4883936555e+01   4.5536210557e+01    0.4200732    0.2599295  10.37  0.001470954    3.502    0.714
       179 -10.8052     22.9157     87.0235   1.1967047189e+02   5.6064328984e+01    0.2646362    0.1753647 -74.85 0.0003841141    1.290    0.225
       180 -12.6713     17.6790     66.3889   1.1884168265e+02   6.1478007308e+01    0.7225279    0.4503325 -50.00  0.001173835    1.550    0.355
       181 -12.4017     21.3487     77.7889   1.1902651188e+02   5.8436336754e+01     0.526734    0.3480318 -80.58 0.0009373961    1.313    0.238
       182 -10.5621      4.1845     85.9341   1.2636707886e+02   5.7521829147e+01    0.3040604    0.2099932  82.87  0.001885599    1.227    0.185
       183 -12.0613      5.4717     76.7394   1.2508708209e+02   5.9665016403e+01    0.8047466     0.397503 -64.69  0.004290711    1.701    0.412
       184 -10.0745     14.9704     83.4959   1.2218450676e+02   5.7485707312e+01    0.4017441    0.1867738 -61.80  0.001287509    1.854    0.461
       185 -12.8788     13.3735     77.6239   1.2211823647e+02   5.9012754994e+01    0.3999638    0.2522784 -57.02 0.0009959697    1.482    0.325
       186 -10.3820    112.3981     85.7729   8.8669023384e+01   4.3339559118e+01    0.2952191    0.2349382  80.60 0.0009430823    1.528    0.346
       187 -11.0696     66.6722     85.1772   1.0336050174e+02   5.1666641623e+01    0.3876808    0.2682762 -18.76  0.001410687    2.225    0.551
       188 -10.2724    167.1928     84.2111   7.4551934872e+01   3.1114141935e+01    0.3988969     0.254088  80.08  0.001528116    2.605    0.616
       189  -9.8481     87.9176     83.3619   9.5617377005e+01   4.8635544367e+01    0.2354476    0.1908582 -69.50 0.0003761285    1.274    0.215
       190  -9.0692    173.3641     83.2942   7.3028652566e+01   2.9793762393e+01     0.160161    0.1137612  21.67  0.000702986    1.711    0.416
       191 -10.3667    117.9750     82.8619   8.6230947504e+01   4.2768126210e+01    0.2757949    0.2208658 -41.37  0.001046856    1.271    0.213
       192 -10.0177     29.8995     81.7421   1.1630952465e+02   5.6783229653e+01     0.227927     0.159567  51.49  0.001295985    1.482    0.325
       193  -8.8945    146.6388     81.3153   7.8300915250e+01   3.6533859354e+01     0.160035    0.1229785 -82.37 0.0007042239    1.758    0.431
       194  -9.3494     70.5233     79.0755   1.0049771772e+02   5.2538489496e+01    0.2158242    0.1338063 -58.08 0.0005108488    1.529    0.346
       195 -10.0907    150.7365     77.5700   7.6225326683e+01   3.6236886826e+01     0.276458    0.2075476 -36.21  0.001303926    1.344    0.256
       196 -10.7274     91.7307     77.2102   9.2640395369e+01   4.9326089352e+01    0.3666869    0.2930163  79.63  0.001825606    1.494    0.331
       197 -11.9504     58.1488     74.4890   1.0394616266e+02   5.5425958685e+01    0.5104212    0.3272738  70.46 0.0005137635    2.079    0.519
       198 -11.6092     62.5681     71.8266   1.0156801644e+02   5.5443123076e+01    0.3925209    0.3424801 -51.18  0.001204607    1.111    0.100
       199  -9.4098    122.1679     76.3659   8.3109004717e+01   4.3173003542e+01    0.2191858    0.1434949  58.57 0.0009391775    1.670    0.401
       200  -9.6979     75.5004     75.5443   9.7769614804e+01   5.2572633524e+01    0.2402764    0.1898054  53.19 0.0008684393    1.331    0.249
       201 -11.0496     76.9587     71.1017   9.5984374056e+01   5.3355859999e+01    0.5173349    0.3324472  73.89  0.001482381    2.446    0.591
       202  -9.4049     73.3118     72.7119   9.7776257890e+01   5.3588242196e+01    0.2329539    0.1434385 -58.66 0.0004924652    1.580    0.367
       203  -9.7361     33.3429     75.8342   1.1397490055e+02   5.7922302254e+01    0.1847789    0.1457818 -65.48  0.000725124    1.128    0.113
       204 -10.8450    138.8498     74.9997   7.8291223671e+01   3.9564583360e+01    0.2569992    0.2224044  59.83            0    1.180    0.153
       205 -11.0411    109.2437     74.2624   8.6206050632e+01   4.6442256954e+01    0.3646236    0.2464113 -83.60  0.001437201    2.458    0.593
       206  -9.7587    145.5358     73.9462   7.6338803788e+01   3.8151357891e+01     0.241783    0.1525371 -36.56  0.001033682    1.600    0.375
       207 -10.6268    102.4724     73.0173   8.7908557229e+01   4.8125736316e+01    0.3081157    0.2241295  46.81 0.0009413807    1.388    0.280
       208 -12.1035     94.3910     68.4002   8.9075620338e+01   5.0753013437e+01    0.4296911    0.2776347 -41.53   0.00091004    1.561    0.359
       209 -10.0244    128.9381     71.8658   7.9860609942e+01   4.2505758416e+01    0.2223965    0.2157717  89.91 0.0002969744    1.062    0.058
       210 -10.3155     84.0019     72.3267   9.3836127387e+01   5.1847504836e+01    0.1954695    0.1839183  49.23 0.0002903426    1.095    0.087
       211  -9.8135    160.9305     69.8262   7.1614032375e+01   3.5080343822e+01    0.2293936    0.2002209  18.85 0.0003434961    1.228    0.186
       212  -9.6243     68.6664     70.2469   9.8812285996e+01   5.4900865120e+01    0.1895125    0.1674072  78.49 0.0002333211    1.207    0.171
       213 -10.0095     68.9253     66.9598   9.7768388719e+01   5.5625134708e+01    0.2608211    0.1796193 -51.00 0.0004221714    1.367    0.268
       214 -11.3728     50.5780     67.9151   1.0530261338e+02   5.7988179210e+01    0.4481193    0.2613713 -36.14  0.001694155    2.104    0.525
       215 -11.2793     51.1386     63.8195   1.0400863283e+02   5.8898336557e+01    0.4993492    0.2435535 -40.86  0.002078168    2.365    0.577
       216  -9.6036    145.5508     68.9511   7.4769972347e+01   3.9047925346e+01    0.2199984    0.1395259  -6.63 0.0008082141    2.531    0.605
       217  -9.9061    123.1131     68.5469   8.0371876159e+01   4.4508771952e+01    0.2694034    0.1980453 -48.50 0.0007045731    1.396    0.284
       218 -10.5839    102.9240     68.0328   8.6184217811e+01   4.9089054649e+01    0.2338994    0.2280457   7.89 0.0008232403    1.068    0.064
       219 -10.4664      6.6547     67.7216   1.2367478375e+02   6.1785837384e+01    0.2027123    0.1592617 -42.04 0.0005749441    1.397    0.284
       220 -12.0974      3.8884     64.6931   1.2450036880e+02   6.2646091754e+01     0.323876    0.2496909  66.13  0.000490254    1.301    0.232
       221  -9.6315    113.6502     67.3424   8.2679150633e+01   4.6904045313e+01    0.1616147     0.122353 -84.28  0.000704349    1.802    0.445
       222  -9.4357    128.6818     66.6985   7.8258493264e+01   4.3555405704e+01    0.1575272    0.1224093  14.27 0.0002373841    1.622    0.383
       223 -10.7231     77.5142     63.6988   9.3522687646e+01   5.4941750960e+01    0.4343308    0.3199195 -56.52  0.001213866    1.327    0.246
       224  -9.5084    120.2922     64.9925   7.9984152654e+01   4.5855927244e+01     0.214568    0.1997477 -35.84 0.0002432594    1.079    0.073
       225  -9.7938     99.8368     64.8105   8.6113134859e+01   5.0411530715e+01    0.2340788    0.2058013  -9.73 0.0007414091    1.293    0.227
       226 -10.2161    215.6826     64.1467   6.0530988729e+01   2.2555037942e+01     0.216145    0.1938267 -88.61 0.0005334958    1.281    0.219
       227  -9.5207     41.7222     64.5225   1.0815951861e+02   5.9839185231e+01    0.1675416    0.1230873  47.73  0.000653356    1.487    0.327
       228 -10.2222     82.3674     49.9979   8.6945953598e+01   5.7019598509e+01    0.4015617    0.1924933  52.73  0.001528131    2.520    0.603
       229 -11.0894     84.9035     61.8085   9.0205431639e+01   5.4019285189e+01    0.4701388    0.3416948  38.18  0.002310567    1.446    0.308
       230 -10.5042     86.8237     56.9461   8.7848595221e+01   5.4697359720e+01    0.3558144    0.2564307 -39.13  0.001072603    1.382    0.276
       231 -11.2488     87.1297     52.4703   8.6121550346e+01   5.5574988413e+01    0.3398202    0.2620515 -60.65   0.00074263    1.422    0.297
       232 -11.6979     62.5446     60.3708   9.8308399201e+01   5.8131685989e+01    0.8167725    0.3979848  23.07  0.003109277    3.035    0.670
       233 -10.9420     58.6815     59.3158   9.9575598899e+01   5.8942000681e+01    0.3738509    0.2095127  44.79  0.001711956    1.959    0.490
       234 -10.4916     11.1131     62.6922   1.2113410011e+02   6.2775026587e+01    0.1958915     0.145697 -89.88 0.0003754576    1.204    0.169
       235 -10.6851    201.3292     61.7337   6.1933790760e+01   2.6279974047e+01    0.2549953     0.228037   0.31 0.0002816773    1.137    0.120
       236  -9.0055    140.7401     61.9819   7.3645031897e+01   4.1476685127e+01    0.1928433    0.1349822 -34.25 0.0001957894    1.441    0.306
       237  -9.2410    134.7711     61.4020   7.4917254898e+01   4.3059334868e+01    0.1601965     0.115547 -60.49 0.0006889816    1.660    0.397
       238 -10.8079     45.5266     49.9840   1.0248265860e+02   6.2857557323e+01    0.4234189    0.2119505 -47.04  0.001623151    1.850    0.459
       239 -11.4304     29.6014     60.8348   1.1260802228e+02   6.1922187904e+01    0.6801762    0.2797572  11.50  0.002628675    3.795    0.736
       240 -12.8239     37.6753     51.1060   1.0649724227e+02   6.3485836447e+01    0.8163475    0.6302628 -38.87  0.003283263    1.303    0.232
       241 -11.4556      5.2393     51.8829   1.2228791349e+02   6.5676887082e+01    0.3535515    0.2472019 -49.17 0.0008073194    1.368    0.269
       242 -10.5968      4.4109     46.8892   1.2195483371e+02   6.6910634101e+01     0.339744    0.1472806 -48.74  0.001683493    2.078    0.519
       243 -10.3098      6.9934     41.2827   1.1967525438e+02   6.8139121414e+01      0.30112    0.1288586 -65.44 0.0008488349    1.792    0.442
       244 -10.2054     47.8439     58.3697   1.0392012151e+02   6.0604832054e+01    0.2423532    0.1744783 -72.00  0.001284115    1.391    0.281
       245 -10.8935      5.5248     57.9719   1.2298321971e+02   6.4196493606e+01    0.3946697    0.2048663 -81.49  0.002089247    1.629    0.386
       246  -9.8876    146.9993     56.9819   7.0507018276e+01   4.0755108595e+01    0.2415916    0.1835787 -66.13   0.00109227    1.593    0.372
       247 -10.2329    129.5515     55.9863   7.4378257597e+01   4.5317791191e+01    0.2773016    0.1890438 -42.59 0.0005064932    1.479    0.324
       248 -10.7521    123.0447     56.5820   7.6318478300e+01   4.6797248312e+01    0.2870811    0.2343148 -72.32  0.000808343    1.462    0.316
       249 -12.5499    128.4001     50.4799   7.2697930950e+01   4.6571569546e+01    0.5020721    0.3704192   5.33 0.0003610881    1.792    0.442
       250 -11.4011     75.1973     55.9186   9.1819543504e+01   5.7075232996e+01    0.2469705    0.2191074 -33.57 0.0002344844    1.132    0.117
       251 -10.1446     43.9039     57.0504   1.0529052499e+02   6.1387254820e+01    0.2032465    0.1801428 -59.90 0.0003361607    1.010    0.010
       252 -11.0815    101.0676     55.8319   8.2593573502e+01   5.1991229854e+01    0.6109957    0.2108045  51.59  0.001934042    3.225    0.690
       253 -10.8916     12.6877     51.6989   1.1867458450e+02   6.5351398834e+01    0.2960026     0.205564  88.97  0.001683968    1.388    0.280
       254  -9.6547    143.3418     53.0339   6.9982914793e+01   4.2348342493e+01    0.2214585    0.2001043 -32.24 0.0005760031    1.111    0.100
       255 -10.8850    117.5736     53.5969   7.6766770780e+01   4.8658529878e+01    0.3480749    0.3194639 -66.49  0.001816923    1.165    0.141
       256 -11.1543     70.0001     50.4096   9.1930761896e+01   5.9178174259e+01     0.443725    0.3413156  80.14  0.001861428    1.775    0.437
       257 -11.1530    103.7356     47.9080   7.8770668049e+01   5.2938764484e+01    0.6219141    0.2372634 -38.34  0.002137021    2.610    0.617
       258  -9.6491    220.7283     48.9442   5.5709970738e+01   2.3295373601e+01    0.1946512    0.1665886 -27.57 0.0003066329    1.075    0.070
       259 -11.3284    153.0505     47.7062   6.6020460989e+01   4.0672233914e+01    0.6412598    0.2885724  52.80  0.002024296    2.134    0.531
       260  -8.6613     94.2863     49.3462   8.2431947832e+01   5.4736031249e+01      0.15234    0.1180744  -3.35 0.0007020822    1.651    0.394
       261 -10.0015     61.7951     54.0361   9.6593015600e+01   5.9694797518e+01    0.2179666    0.1895227 -85.33 0.0007684496    1.280    0.219
       262  -8.7358    120.2863     47.2978   7.3665079808e+01   4.9135169158e+01    0.2505762    0.1488944 -23.88 0.0005352845    1.967    0.492
       263 -10.2759    122.1607     42.6434   7.1371916303e+01   4.9465727952e+01    0.3960953    0.2648062 -55.00  0.001709467    1.759    0.431
       264 -11.0400     79.4166     47.1068   8.6960725183e+01   5.8182763944e+01    0.3886544    0.1821016  35.24  0.001482282    2.518    0.603
       265 -10.4741     60.5533     46.1798   9.4378529958e+01   6.1639660157e+01    0.4087354    0.2758629  52.86  0.001884336    1.774    0.436
       266 -11.0478     11.3294     44.4069   1.1799472526e+02   6.7178692875e+01    0.4336238    0.2028025 -54.93  0.001440892    1.753    0.430
       267 -10.0320    142.6527     45.6681   6.7525349165e+01   4.3716408045e+01    0.2980039    0.2314634 -53.72  0.000783795    1.394    0.283
       268 -11.5945     88.8391     39.6232   8.0429459505e+01   5.7767690975e+01    0.5747566    0.3513562 -21.35  0.002004106    2.134    0.531
       269  -9.3308    233.4332     45.5354   5.3350884461e+01   2.0780856329e+01     0.135471    0.1220651 -21.82 0.0001120155    1.040    0.039
       270  -9.7795     51.1903     44.8520   9.8137622844e+01   6.3300352368e+01    0.1958828    0.1631538 -48.45 0.0003755332    1.087    0.080
       271 -11.0022     52.1147     41.0402   9.6310618648e+01   6.4020137712e+01    0.2914395    0.2535251  86.92 0.0004676936    1.378    0.274
       272  -9.5016    175.3368     44.0958   6.0674828480e+01   3.5309860517e+01    0.2296735    0.1251887 -38.68 0.0009351526    1.779    0.438
       273 -10.4169     41.1868     41.3579   1.0175290205e+02   6.5362625484e+01    0.4351557    0.2346412  53.85  0.001891904    2.684    0.627
       274 -10.1368     44.2027     38.9506   9.9386665400e+01   6.5539343109e+01     0.682891    0.4147114  84.87   0.00256767    3.620    0.724
       275  -9.5863    110.7551     41.8095   7.4222812118e+01   5.2406138363e+01    0.2074623    0.1773297 -72.21  0.000454269    1.364    0.267
       276 -11.3698     97.4484     40.9687   7.8029453694e+01   5.5642965633e+01    0.3847772    0.2819687  50.57 0.0006246421    1.395    0.283
       277 -10.8330     96.9082     36.9929   7.6538147384e+01   5.6480957308e+01    0.3599196    0.2794102 -61.87 0.0004111496    1.545    0.353
       278 -11.2933     98.0071     31.7976   7.3914522949e+01   5.7125075164e+01    0.3287149    0.2645774  29.53 0.0003459362    1.310    0.237
       279 -10.9284    101.0911     28.7712   7.1585997002e+01   5.6895193108e+01    0.2636235     0.248679 -89.33 0.0004097518    1.179    0.152
       280 -10.0370     80.1430     26.1583   7.7577696611e+01   6.2028714346e+01    0.5533274    0.2432386 -54.06   0.00172608    4.064    0.754
       281 -10.5543    181.0140    248.4892   1.0212369986e+02   4.7496022259e+00    0.2079051    0.1027419 -22.76  0.001210668    3.331    0.700
       282  -9.9428     78.6183     31.1851   8.0540005881e+01   6.1449518116e+01    0.2783372    0.1944013 -19.69  0.001320237    1.636    0.389
       283 -10.8201     68.3052     39.1338   8.8257169599e+01   6.1855789260e+01    0.7149549    0.3799251 -17.80  0.002032804    5.436    0.816
       284 -11.8276     27.8291     37.8872   1.0757235625e+02   6.7545952042e+01    0.3989003    0.2587381 -65.34  0.001326347    1.390    0.281
       285 -12.2848     20.7605     37.7652   1.1139189324e+02   6.8154244552e+01    0.4776607    0.3091901  77.31  0.001352527    2.002    0.500
       286 -12.5140     24.1162     35.1967   1.0878195927e+02   6.8489546138e+01    0.4540861    0.2706514  -3.68 0.0003279916    2.251    0.556
       287  -9.4424    220.4333     41.5160   5.3687820670e+01   2.4250039366e+01    0.1398018    0.1277722 -31.66  6.96139e-05    1.009    0.008
       288 -10.8415    183.9172     40.6991   5.8220925550e+01   3.3509198723e+01    0.3411378    0.2028449 -34.80  0.001494201    1.600    0.375
       289  -9.0381     71.9982     41.0246   8.7490671237e+01   6.0809505216e+01    0.1726931    0.1533369 -39.43  0.000373751    1.064    0.060
       290  -9.8038    226.2100     40.1777   5.2682584226e+01   2.3047012946e+01    0.1918697    0.1466809 -49.02 0.0005598605    1.280    0.219
       291  -9.1643    215.5285     40.5502   5.3980330034e+01   2.5538253095e+01    0.1401076    0.1313542 -31.31 0.0001838776    1.012    0.012
       292  -9.4464    199.4212     37.8297   5.5163035293e+01   2.9863168960e+01    0.1915929    0.1382685  -7.41 0.0001357996    1.537    0.349
       293  -9.6873     61.9418     37.7652   9.0471444635e+01   6.3220811084e+01     0.184504    0.1741212 -30.10 0.0002927231    1.026    0.025
       294 -10.4744    166.4449     36.7718   5.9720899411e+01   3.8671836138e+01    0.2745167    0.1900599  81.33 0.0005442132    1.642    0.391
       295 -10.8752    101.9578     36.7173   7.4793004261e+01   5.5369943456e+01    0.2948677    0.2455465  15.92 0.0007414129    1.331    0.249
       296 -10.5785    104.7063     34.2858   7.2905263156e+01   5.5134583533e+01    0.3250089    0.2692285  88.92 0.0003647992    1.488    0.328
       297 -11.3017     10.5395     34.6782   1.1633861023e+02   6.9529772063e+01    0.4333276    0.2714104   1.75  0.001967235    1.957    0.489
       298  -9.9777      2.8352     37.0007   1.2115649955e+02   6.9326927629e+01    0.2263103    0.1500067 -28.05  0.001371729    1.665    0.400
       299 -11.0102      5.9161     31.2616   1.1825004574e+02   7.0554785205e+01     0.585411    0.1594522 -46.02  0.002359807    3.099    0.677
       300 -10.7209     10.1325     25.1903   1.1412719227e+02   7.1758649240e+01    0.2785979     0.181588 -32.38 0.0006534175    1.550    0.355
       301  -9.7004    147.1381     35.8644   6.2979184378e+01   4.3995436884e+01    0.2392075    0.2073196  28.62 0.0004391335    1.220    0.180
       302 -10.0817    150.8428     34.6172   6.1786817899e+01   4.3173141593e+01    0.2663553    0.2275055  33.59 0.0006096287    1.226    0.185
       303  -9.0562    127.4734     36.4331   6.7576578154e+01   4.9109654286e+01    0.1529916    0.1483925  34.12 0.0001242258    1.019    0.019
       304 -11.0446     59.2267     34.3153   9.0251533483e+01   6.4377257189e+01    0.4458883    0.2641717   3.84  0.001528563    3.564    0.719
       305  -9.7219     33.9705     34.1699   1.0299119566e+02   6.7796205561e+01    0.1874188    0.1693904 -88.62   0.00075381    1.256    0.204
       306 -10.3459    129.7684     32.7964   6.5577637572e+01   4.9059094358e+01     0.229221    0.2080125   8.44 0.0008033299    1.157    0.135
       307 -11.0001    177.3134     29.9574   5.5698205256e+01   3.6618145195e+01    0.5004371    0.2097622 -32.40  0.001877197    2.200    0.546
       308  -9.3406    145.0100     32.0417   6.1975550131e+01   4.5102649768e+01    0.1814089    0.1765181  58.72 0.0003790857    1.014    0.014
       309  -9.1167    125.6606     32.7459   6.6540129237e+01   5.0139535923e+01    0.1583425    0.1128061  31.43 0.0002453269    1.575    0.365
       310  -9.9272     56.1605     31.0900   9.0284682524e+01   6.5527259519e+01    0.2901015    0.1681746 -37.05  0.001359035    1.695    0.410
       311 -10.7954     42.5588     31.8429   9.7480399754e+01   6.7310678748e+01    0.2085939    0.1900606  26.92 0.0004425219    1.218    0.179
       312 -10.8910     17.9299     31.3321   1.1115862180e+02   6.9856815041e+01    0.4367775    0.2478836  38.36  0.002333481    2.069    0.517
       313  -9.8161     21.4005     28.3202   1.0813777649e+02   7.0287187266e+01    0.2493438    0.1360267 -67.88 0.0009612523    1.731    0.422
       314 -10.3760     24.8961     26.9817   1.0556367537e+02   7.0294267218e+01    0.2282361    0.1991018 -73.01 0.0004665564    1.209    0.173
       315 -11.9592     74.4704    238.2197   1.1985929152e+02   1.9861439718e+01    0.3932114    0.2826745  71.81  0.003124783    1.399    0.285
       316  -9.7475     15.1748     14.1844   1.0690394577e+02   7.3904613001e+01    0.1575088     0.134382 -79.22 0.0003919227    1.326    0.246
       317  -9.6962     73.5478     31.4946   8.2717362844e+01   6.2392680922e+01    0.2288288    0.1338069  32.71 0.0005446378    1.968    0.492
       318 -10.1711     49.6971     31.3263   9.3573415117e+01   6.6453844749e+01    0.2598261    0.1845106  46.56 0.0009909348    1.643    0.391
       319 -10.7287     50.7907     27.9453   9.1516725158e+01   6.6992576668e+01    0.2560571    0.2055911 -24.42 0.0003144509    1.240    0.193
       320 -10.0722    139.9258     29.1827   6.1911017227e+01   4.6865131162e+01    0.4466236    0.2101305 -10.32  0.001408138    3.420    0.708
       321 -10.0674    153.7018     28.9750   5.9176166672e+01   4.3152751463e+01    0.2158245    0.1944651 -31.98 0.0003848558    1.117    0.105
       322 -11.3093    214.0809     26.8593   5.0222842403e+01   2.7448463379e+01    0.4246454    0.2345682 -54.81  0.001112547    1.950    0.487
       323  -9.5741    120.2083     27.9918   6.5915651446e+01   5.2252644579e+01     0.196551    0.1889064 -17.39            0    1.047    0.045
       324 -11.0486     69.8651     25.9795   8.1650955384e+01   6.4118181881e+01    0.4228857     0.319542  51.89  0.002187365    1.480    0.325
       325 -10.3316    247.9643     27.0965   4.7216060514e+01   1.9568983712e+01    0.1949274    0.1663248 -38.39 0.0003221686    1.026    0.025
       326  -9.4329    115.5309    244.5337   1.1297152726e+02   1.3880800987e+01    0.1073333   0.07562442  40.71 0.0002496653    1.029    0.028
       327 -10.0408    134.8017     22.8179   6.0429665591e+01   4.9089824100e+01    0.3251194    0.2548375  73.27 0.0009151551    1.319    0.242
       328  -9.7890    145.9395     26.1111   5.9530681361e+01   4.5639740739e+01    0.2238591    0.1967574 -65.94            0    1.205    0.170
       329 -10.1254    109.5281    242.8884   1.1390107425e+02   1.4870324198e+01    0.2246115    0.1243902  55.70  0.001019106    1.721    0.419
       330 -10.6485     87.0049     24.4994   7.4245478742e+01   6.0826695378e+01    0.5315906    0.3409818  86.79  0.001988552    3.226    0.690
       331  -9.5147     63.1358    243.8674   1.2220269270e+02   2.0351303484e+01    0.1238018    0.1008157  40.15 0.0004596345    1.316    0.240
       332 -11.0908     37.3442    242.6988   1.2664731479e+02   2.3280069012e+01     0.224368    0.1183992  41.15  0.001647111    1.357    0.263
       333 -10.9644     65.2224     21.2227   8.1291660839e+01   6.5846944093e+01    0.3201043     0.267673 -31.09 0.0007466578    1.121    0.108
       334  -9.3416     16.4961     26.5430   1.1054498904e+02   7.1056523681e+01    0.1265476    0.1044624 -52.57 4.169255e-05    1.016    0.016
       335 -10.5878    237.1270     25.3441   4.7652480812e+01   2.2148331322e+01    0.1796487     0.162383 -61.17 0.0005208705    1.110    0.099
       336  -9.3775    112.0189     24.9861   6.6735804922e+01   5.4783301247e+01    0.1823801    0.1700678 -18.44 0.0004417691    1.075    0.069
       337  -9.8134    173.3228     24.4409   5.4409789535e+01   3.8354684264e+01    0.2770232    0.1358167  61.86 0.0008507014    1.948    0.487
       338  -9.9398     93.5897     23.7624   7.1646474289e+01   5.9448809545e+01    0.2813052    0.1433522 -27.51  0.001127817    2.058    0.514
       339 -10.2857     54.3527     23.8286   8.7764384305e+01   6.7256938207e+01    0.2480555    0.1951751  23.67 0.0006923671    1.364    0.267
       340  -9.0598     97.4777     23.4942   7.0272512856e+01   5.8576928658e+01    0.1504375    0.1383335  14.61 0.0008091361    1.075    0.069
       341 -10.0433    120.1972     21.4550   6.3100960807e+01   5.3164113058e+01    0.2850494    0.1944767  -1.25 0.0006800063    1.787    0.440
       342  -9.2104     36.2748     22.6018   9.6980795147e+01   7.0055574995e+01    0.1646369    0.1234794   8.98 0.0009338215    1.520    0.342
       343  -9.5455     28.7844     21.4276   1.0096454766e+02   7.1140335427e+01    0.3413982    0.1396897 -34.37  0.001316883    3.150    0.683
       344 -10.7999    197.2014     24.9108   5.1486411273e+01   3.1940643201e+01    0.2500499    0.2235015 -17.14 0.0005075582    1.139    0.122
       345 -10.2816     45.5213     20.5762   9.0763311461e+01   6.9241737220e+01    0.2780291      0.16795  43.35  0.001143943    1.909    0.476
       346 -11.1542     35.6774    239.6801   1.2682385162e+02   2.3898035443e+01    0.2867182    0.1859157 -42.92  0.001951667    3.149    0.682
       347 -10.8058     10.1736     15.5077   1.1098014830e+02   7.3944839374e+01    0.2263452     0.163233 -36.59 0.0005794463    1.272    0.214
       348 -10.0991    161.9260     20.0916   5.4558536505e+01   4.1977464688e+01    0.2261278    0.1921335 -61.66 0.0002819968    1.214    0.176
       349 -10.4944    226.6951     19.0653   4.6846463352e+01   2.5210823401e+01    0.2332415    0.1904082  70.52 0.0005766485    1.311    0.237
       350 -10.9692    156.3733    241.2211   1.0549246854e+02   8.8369098908e+00    0.1846108    0.1377717 -62.14  0.001384716    2.148    0.534
       351 -10.1663    217.5530     16.4990   4.6920263959e+01   2.7677603891e+01    0.3190213    0.1142475  64.52  0.001232485    2.708    0.631
       352  -9.6493    108.7433     17.5813   6.4228527742e+01   5.6640381415e+01    0.1924829    0.1453855  72.91 0.0002508837    1.466    0.318
       353  -9.8661     72.5988    250.1089   1.2089285094e+02   1.8397804084e+01    0.1559457    0.1197235  24.04  0.001252735    1.621    0.383
       354  -9.9142     88.9726    241.0027   1.1743384668e+02   1.7715243851e+01    0.1431935    0.1171452  13.26  0.001028602    1.698    0.411
       355  -9.7213     46.9787    241.4843   1.2492320790e+02   2.2462124176e+01    0.1453801   0.07223888  38.75 0.0003239303    1.487    0.327
       356  -9.1992     50.3264    240.3094   1.2428232185e+02   2.2279094490e+01   0.08450072   0.07356819  19.63 0.0005986522    1.657    0.397
       357 -10.4007    195.6075    238.4337   9.8540327987e+01   3.8082131552e+00    0.2266917    0.1367386  22.14  0.001585616    1.369    0.270
       358  -9.5943    241.9736     16.7456   4.5023277215e+01   2.1918877307e+01    0.1502579    0.1116808  77.88  0.000258285    1.474    0.321
       359 -10.3849     31.6852    237.3638   1.2743656844e+02   2.4646431060e+01    0.2001758    0.1138105  53.63 0.0006583359    1.189    0.159
       360  -9.6490     49.9535     15.5001   8.5685745688e+01   6.9527279942e+01    0.2522999     0.130366  34.73  0.001158606    2.113    0.527
       361 -10.3410     29.3404    233.0129   1.2769684641e+02   2.5544909054e+01    0.2622508     0.112361  51.99  0.001456958    1.560    0.359
       362 -11.9430     28.7717    248.3980   1.2829927592e+02   2.3296508851e+01    0.5892921    0.1885227  60.43  0.003546983    2.434    0.589
       363  -9.9115    174.6380    237.7011   1.0196254007e+02   6.7332184724e+00    0.1110495    0.0659077  19.05 0.0007034506    1.717    0.418
       364  -9.9836    177.7969    234.8754   1.0109118058e+02   6.6055080922e+00    0.2187115    0.1159897  27.65  0.001027328    1.568    0.362
       365 -10.2192    159.9202    235.8674   1.0429409318e+02   8.9688663064e+00    0.1701569    0.1161651  25.47 0.0006693786    1.263    0.208
       366 -10.3641    147.6130    245.2190   1.0741883403e+02   9.5577639214e+00    0.1213586    0.0963937 -18.75 0.0009563603    1.732    0.423
       367  -9.3913    231.3268    235.3176   9.2461031738e+01  -5.8213209399e-01    0.1086985   0.05792685  15.71 0.0007045668    1.677    0.404
       368 -11.1847    153.4449    234.0836   1.0523604062e+02   1.0078470728e+01    0.2144476     0.170681  -6.23  0.001040327    1.595    0.373
       369  -9.9367    166.9927    233.7111   1.0281624866e+02   8.2351549338e+00    0.1581092    0.1098436  33.60 0.0007732312    1.034    0.033
       370 -10.0276     85.9535    232.9594   1.1741299704e+02   1.9238665782e+01     0.174709   0.09246372  56.24 0.0006017192    1.649    0.393
       371  -9.8356     79.9375    231.4946   1.1842098139e+02   2.0194824503e+01    0.1637379   0.07714709  39.90 0.0004379514    1.527    0.345
       372 -11.4294      5.5599    225.9270   1.3169513332e+02   2.8849865154e+01    0.4102522    0.1921063  78.78  0.002903252    1.862    0.463
       373  -9.3934    249.3080    227.2990   8.8641527657e+01  -2.1698788602e+00    0.1064042   0.05653454  14.61 0.0004506875    1.595    0.373
       374  -8.9810    140.3054    227.3127   1.0686657751e+02   1.2767676769e+01    0.1065902   0.07491808  16.96 0.0006078287    1.618    0.382
       375  -9.8863    129.7552    226.7229   1.0874721970e+02   1.4325325237e+01    0.2441811   0.09377391  50.02  0.001180537    2.600    0.615
       376  -9.8340     24.0246    232.4335   1.2861660470e+02   2.6149171718e+01    0.1437973    0.1007302  65.89 0.0006406127    1.171    0.146
       377 -10.8685    120.0639    226.4915   1.1052622935e+02   1.5698395964e+01    0.1709636   0.08311977  38.92 0.0004243245    1.510    0.338
       378  -9.7492     25.7221    225.5945   1.2808901772e+02   2.7065653484e+01    0.1769169    0.1359189 -16.31  0.001274165    2.647    0.622
       379 -10.1479    190.5001    227.2720   9.7984230395e+01   5.6564359168e+00    0.2657449    0.1071659 -37.10  0.001471347    3.174    0.685
       380  -9.8881    180.7827    224.9576   9.9354404963e+01   7.2846581052e+00    0.1196714   0.08917592 -28.45 0.0008703294    1.685    0.406
       381  -9.3592    156.3064    224.3493   1.0362046857e+02   1.0867481866e+01    0.1108021   0.07490596  14.00  0.000704259    1.704    0.413
       382 -10.6402    122.8767    221.6043   1.0951340775e+02   1.5995880388e+01    0.3239893    0.1948393  55.86  0.002035405    1.678    0.404
       383  -9.9722     13.2395    221.8001   1.3023116497e+02   2.8840189078e+01    0.1175807    0.1001325  67.17 0.0005852189    1.321    0.243
       384  -9.6936    141.8479    220.8627   1.0587214792e+02   1.3400548662e+01    0.1749836    0.1265357  29.45 0.0008180318    1.202    0.168
