#   1 NUMBER                 Running object number                                     
#   2 MAG_AUTO               Kron-like elliptical aperture magnitude                    [mag]
#   3 X_IMAGE                Object position along x                                    [pixel]
#   4 Y_IMAGE                Object position along y                                    [pixel]
#   5 X_WORLD                Barycenter position along world x axis                     [deg]
#   6 Y_WORLD                Barycenter position along world y axis                     [deg]
#   7 A_WORLD                Profile RMS along major axis (world units)                 [deg]
#   8 B_WORLD                Profile RMS along minor axis (world units)                 [deg]
#   9 THETA_WORLD            Position angle (CCW/world-x)                               [deg]
#  10 FWHM_WORLD             FWHM assuming a gaussian core                              [deg]
#  11 ELONGATION             A_IMAGE/B_IMAGE                                           
#  12 ELLIPTICITY            1 - B_IMAGE/A_IMAGE                                       
         1 -12.8717     38.1065     49.6064   6.6142687949e+01   6.2617006471e+01    0.9271522    0.6134678 -43.59  0.004855196    1.282    0.220
         2 -11.7649      3.7908     16.4269   7.0174064688e+01   7.1403327998e+01    0.3453245    0.3045903 -85.33  0.001511498    1.940    0.485
         3 -11.0844     11.1181     14.7864   6.5620732861e+01   7.1162824729e+01     0.407782    0.1858056 -18.30  0.001785432    2.585    0.613
         4 -12.3615    238.0959     17.6185   9.7789736653e+00   2.4138984582e+01    0.3110571    0.2354242 -52.63  0.000358407    1.177    0.150
         5 -11.5293    233.4837     14.4762   9.4753634996e+00   2.5547498538e+01    0.2807748     0.237151 -35.32  0.001439953    1.336    0.251
         6 -11.8850    234.5896     10.2190   8.4305144485e+00   2.5780873206e+01    0.3199196    0.2152023  71.76  0.001356089    1.431    0.301
         7  -9.8162     81.9995      7.0450   3.2045161127e+01   6.2171016567e+01    0.1807259    0.1232791  26.11 0.0004138954    1.334    0.250
         8 -10.8111     72.5811     10.9355   3.6790347464e+01   6.3558646625e+01    0.5954483    0.3102823   2.25  0.002654986    2.733    0.634
         9 -11.3720     77.6813      9.8594   3.4633408442e+01   6.2723006686e+01    0.3887365    0.2479274  24.59  0.001042434    1.494    0.331
        10 -12.0384     28.5944     19.6629   5.8950383640e+01   6.8811812183e+01    0.2457472    0.2027953 -16.40 0.0001760984    1.133    0.117
        11 -11.3938     31.6765     13.8678   5.4848557135e+01   6.9334097383e+01    0.3811033    0.3044364  11.02  0.001735686    1.227    0.185
        12 -10.9102    164.9637     13.2829   1.6859960862e+01   4.2356583335e+01    0.5177054    0.2085301 -31.99  0.002172526    2.540    0.606
        13 -11.1508    169.3261     15.2072   1.6805362894e+01   4.1060905644e+01    0.3130722    0.2803642 -34.23 0.0009159584    1.235    0.190
        14 -10.6651    142.3008     17.1578   2.1778942091e+01   4.7610168028e+01    0.5088972    0.1979805  50.76  0.001466283    2.255    0.556
        15 -12.6226    132.8662     18.9129   2.4186334929e+01   4.9725444779e+01    0.3904411    0.2582705  53.38 0.0004471641    1.341    0.254
        16 -10.8109    130.4030     13.6369   2.2830998477e+01   5.0860833268e+01      0.27864    0.2413087  -6.70 0.0007552402    1.265    0.210
        17 -10.8916     51.1322     15.5935   4.6995188531e+01   6.6549148997e+01    0.4014621     0.266259  15.15  0.002419535    1.435    0.303
        18 -11.2214     60.7503     13.9993   4.2437952663e+01   6.5256075147e+01    0.3453111    0.3033862   9.29    0.0021984    1.159    0.137
        19  -9.7001     99.2534     12.5977   2.9547275613e+01   5.8074293530e+01    0.2998659    0.1631316 -35.57  0.001480282    2.054    0.513
        20 -11.0971    159.8442      8.7994   1.6246782618e+01   4.4081016458e+01    0.3355617    0.2826622  39.43 0.0006223614    1.260    0.206
        21 -11.8325    154.5571      7.7357   1.6699227245e+01   4.5499819170e+01    0.6693218     0.343894 -47.06  0.003047896    2.221    0.550
        22 -11.2924    176.6750     10.8119   1.4541978724e+01   3.9667154686e+01    0.4538428    0.2801698  56.80  0.001359779    1.502    0.334
        23  -9.7358    118.2098     12.0205   2.4776665280e+01   5.3895835357e+01    0.2261367     0.133584  26.16  0.001079496    1.944    0.486
        24 -11.0925     19.3736     16.4903   6.2097241533e+01   7.0204268313e+01    0.2942589    0.2391035 -16.17  0.002187039    1.131    0.116
        25 -11.5285    145.7348      7.5636   1.8022932232e+01   4.7701754432e+01    0.4972335     0.305149 -18.46  0.002541909    1.893    0.472
        26  -9.7699    138.0383     10.9716   2.0471377322e+01   4.9271905637e+01    0.2120305    0.1540071 -67.48 0.0006219763    1.691    0.409
        27  -9.9693     26.7295     10.8592   5.5826364187e+01   7.0311909967e+01    0.1975071    0.1330051   2.21 0.0009694193    1.343    0.255
        28 -11.2882     36.7033      7.8790   4.9591329458e+01   6.9530975134e+01    0.3183834    0.2204212  35.86 0.0007963798    1.635    0.388
        29 -11.1780      9.0986      8.2246   6.3796363475e+01   7.2339880239e+01    0.2583574     0.198956   7.71  0.001111954    1.345    0.256
        30 -11.2055     22.4008      2.2973   5.3752428921e+01   7.1938539671e+01     0.487682    0.2695934 -13.83  0.001888364    1.733    0.423
        31 -11.5317     27.1769      2.5531   5.1457151693e+01   7.1370506616e+01     0.257624    0.2007492  -0.49  0.001460566    1.093    0.085
        32  -8.9700    202.6895      8.6720   1.0989157906e+01   3.3449585332e+01    0.1290072   0.09450927  42.58 0.0007040956    1.663    0.399
        33  -9.7620     65.0211      8.5255   3.8307060471e+01   6.5164560631e+01    0.1745678    0.1079573  41.01 0.0003315795    1.497    0.332
        34 -11.2344    213.0416      5.0970   9.1132273294e+00   3.1332984762e+01    0.5749823    0.2372857 -59.47  0.002402314    2.700    0.630
        35  -9.6867     91.4836      7.0272   2.9319371999e+01   6.0255412170e+01    0.1638155   0.09307918  18.52  0.000344094    2.026    0.506
        36 -10.0025     34.0053      1.2562   4.7466122039e+01   7.0688633656e+01    0.4130526    0.1075204  40.70  0.001691946    4.059    0.754
        37 -10.3758    222.9466      5.4100   8.3165444444e+00   2.8973265668e+01     0.206086    0.1758666 -40.16  0.001335757    1.293    0.227
        38 -10.9368    172.2739      5.2951   1.3530662022e+01   4.1304718392e+01    0.2804293    0.2006986  81.21 0.0004170669    1.276    0.217
        39 -10.6424    164.6402      4.7182   1.4352134812e+01   4.3263453700e+01    0.2566724    0.2020462 -63.60 0.0004593122    1.336    0.252
        40 -10.1531    168.1082      1.8992   1.3076434539e+01   4.2652756464e+01    0.1961213    0.1683873  82.65 0.0002802137    1.041    0.039
        41  -9.5516    101.1383      5.8531   2.6331961133e+01   5.8308377469e+01    0.1751863    0.1699037 -57.87 0.0009457984    1.274    0.215
        42 -10.7399    126.0828      2.9056   1.9855311198e+01   5.2866760832e+01    0.3788737     0.213154  23.01  0.001590565    2.203    0.546
        43  -9.2977     60.5696      5.5419   3.8509034644e+01   6.6243601600e+01    0.1215211   0.09859999  11.20 0.0002004741    1.021    0.020
        44 -11.9684     11.3389      2.4525   5.9780109802e+01   7.2996932740e+01    0.3925228    0.2280055  25.06  0.001984294    1.827    0.453
        45 -11.6248    243.3161      3.1437   6.2264795041e+00   2.4619158853e+01    0.3519953    0.1822085  75.10  0.001225766    1.794    0.443
        46 -11.2799    236.7956      2.1906   6.4987311380e+00   2.6161683732e+01    0.3147607    0.1862995 -78.32  0.001761243    1.551    0.355
        47 -11.0139    228.3555      4.5252   7.6673432177e+00   2.7820339984e+01     0.276788    0.1326885  67.87  0.001387537    1.928    0.481
        48  -9.9660    229.8314      1.3875   6.8503501224e+00   2.7814067592e+01     0.188861    0.1513916  70.21 0.0004236218    1.299    0.230
        49 -10.9580    178.9805      3.7370   1.2278123832e+01   3.9779840178e+01    0.2144999    0.1933777 -43.87  0.000198405    1.222    0.182
        50 -10.7643     73.9275      2.0851   3.2291375982e+01   6.4192878681e+01    0.2643924    0.2356661 -88.01  0.001418522    1.702    0.412
        51  -9.3835    202.0422      3.4650   9.7476061292e+00   3.4137310418e+01    0.2000686   0.07665875  52.52 0.0004327362    2.799    0.643
        52  -9.1228    114.2741      3.3137   2.2346835031e+01   5.5588226635e+01     0.134171   0.08500125  32.61 0.0002096349    1.559    0.359
        53  -9.1626     97.7175      3.6718   2.6287386326e+01   5.9239599553e+01    0.1344376   0.08259673  28.19 0.0006813714    1.604    0.377
        54  -9.3401     90.9448      2.0125   2.7331014589e+01   6.0815156876e+01    0.1448539    0.1221737   7.39 0.0009300074    1.158    0.136
        55  -9.3022    156.9333      1.0000   1.4277156877e+01   4.5508163613e+01    0.2298944   0.06657785  68.94 0.0008100772    2.996    0.666
        56 -10.8405      1.6887    205.6767   9.9451782170e+01   3.0813681335e+01    0.2064581     0.131884 -68.92 0.0009210896    1.591    0.371
        57 -11.2814    247.4828    249.9570   5.7575777956e+01  -1.2214975462e+01    0.2950872    0.1663589  27.84  0.001689602    1.446    0.308
        58 -12.3676    226.6396    245.7669   6.0529653562e+01  -8.8322291990e+00    0.5575481    0.4462227   6.24  0.003969343    1.099    0.090
        59  -9.9402    109.8460    250.1438   8.2869524594e+01   8.7337785651e+00    0.1874842    0.1345729  59.86 0.0007622679    1.205    0.170
        60 -11.0712     90.0502    249.2834   8.6437076288e+01   1.1807772889e+01    0.2643504     0.225755  49.90  0.001042159    1.227    0.185
        61  -9.6423     72.1212    250.2274   8.9752928948e+01   1.4147343134e+01    0.1572022    0.1373663  59.06 0.0007735877    1.267    0.210
        62 -12.3048     21.0200    248.2579   9.8336299270e+01   2.0723627235e+01    0.6105136    0.1598413  48.74  0.003149957    2.570    0.611
        63 -11.6743     14.4009    245.1902   9.9256953479e+01   2.1975698240e+01    0.2688235     0.135079  84.59  0.001123066    1.649    0.393
        64  -9.5936     12.1581    250.6691   9.9866992815e+01   2.1227968458e+01    0.1229948   0.08446952  40.75 0.0004821985    1.651    0.394
        65  -9.6190     41.2257    198.2275   9.1294091600e+01   2.8358112205e+01    0.1950001   0.08406477 -85.96 0.0008837009    2.463    0.594
        66  -9.5150     56.8381    197.1418   8.7938175954e+01   2.6690250589e+01    0.1916523    0.1388216 -34.65  0.001053319    2.259    0.557
        67  -9.2564     64.4908    196.4850   8.6238389965e+01   2.5829781525e+01    0.1308911    0.1053324  75.03 5.611291e-05    1.042    0.040
        68 -11.9899     15.6231    192.1122   9.5984436855e+01   3.2371948991e+01    0.3501341    0.3112697 -76.51  0.001856528    1.361    0.265
        69 -10.8869    187.0958    191.5607   5.8721918154e+01   5.8514592103e+00    0.4338273    0.1497559 -34.70  0.001398172    3.995    0.750
        70 -10.1832    244.7813    188.2017   4.7073278761e+01  -3.7585485925e+00    0.1806435    0.1330432   2.23 0.0004510488    1.310    0.237
        71  -9.5339    163.6486    188.6901   6.3130701407e+01   1.0815027519e+01    0.1463882    0.1102638   6.04 0.0007044403    1.719    0.418
        72  -9.8611     61.8632    184.4025   8.5461465205e+01   2.8868834218e+01    0.2327561    0.1565056 -83.67  0.001298563    1.382    0.277
        73 -12.7663     18.3085    181.4116   9.4649492553e+01   3.4448850602e+01    0.5795283    0.3509929  25.47  0.002826353    2.190    0.543
        74  -9.8696      1.7628    180.1806   9.7959183575e+01   3.6165042127e+01    0.1473175    0.1128139 -70.13 0.0007921201    1.351    0.260
        75  -9.2883    167.2332    183.0045   6.1291105959e+01   1.1237047060e+01    0.1848685    0.1214057 -45.26 0.0008754956    1.618    0.382
        76  -9.6500    118.6110    177.1837   7.1259138435e+01   2.1638074635e+01     0.198061    0.1319821 -46.26 0.0007951971    1.650    0.394
        77  -9.8218    172.4862    175.4554   5.8679448600e+01   1.1693944143e+01    0.1450295    0.1377569  36.42 0.0001374946    1.034    0.033
        78 -11.0752     17.9409    172.3892   9.4001227131e+01   3.6495324165e+01    0.3288299    0.1644905  59.32  0.001783208    1.923    0.480
        79  -9.5420     25.3093    169.3702   9.2107812750e+01   3.6487792695e+01    0.1220698   0.08066101 -51.31 8.987138e-05    1.766    0.434
        80  -9.3558    177.2820    168.6801   5.6263534596e+01   1.2075131776e+01    0.1424285    0.1185156 -89.95 0.0002288472    1.586    0.369
        81 -11.0593      5.3718    167.8972   9.6365266643e+01   3.8574944987e+01     0.192566    0.1366907  62.09 0.0009329998    1.313    0.238
        82 -10.7217     36.7300    165.9685   8.9153923719e+01   3.6113627443e+01    0.2688519    0.1860786  89.52 0.0005055612    1.254    0.202
        83 -10.1067     33.4326    166.4166   8.9967213658e+01   3.6355227427e+01     0.186737    0.1722799  72.34 4.912387e-05    1.222    0.182
        84  -9.7802     18.6793    167.0254   9.3379997415e+01   3.7642271119e+01    0.1667109     0.126161 -86.66 0.0003995694    1.045    0.043
        85  -8.9759     93.3185    166.7437   7.5592397731e+01   2.8348229804e+01    0.1433246    0.1007823  69.04 0.0002287835    1.538    0.350
        86 -10.0270     67.5857    165.7334   8.1745447602e+01   3.2426329707e+01    0.1896433    0.1188247 -79.95 0.0005635901    1.584    0.369
        87 -11.1941     51.3021    161.8515   8.5197516331e+01   3.5434005547e+01    0.5606731    0.3080589 -76.07  0.001463545    1.687    0.407
        88 -10.3385    186.7933    165.5998   5.3589172761e+01   1.0758560220e+01    0.2145301    0.1372251  52.36 0.0009604419    1.705    0.413
        89 -10.0246      9.4528    162.8574   9.5083310094e+01   3.9378851089e+01    0.2029135    0.1580629 -20.94  0.001333787    2.005    0.501
        90  -8.9595    132.3018    161.6619   6.5137322448e+01   2.2560494354e+01    0.1542982    0.1161293  81.79 0.0004230728    1.667    0.400
        91 -10.1868     36.0910    160.9330   8.8754797936e+01   3.7356984702e+01    0.2495149    0.1893313  -3.67  0.000984616    2.096    0.523
        92  -9.2611    116.2402    159.2220   6.8594318490e+01   2.6147405497e+01    0.2455182    0.1055828  49.14 0.0008885956    2.449    0.592
        93 -11.0501     20.7233    156.7231   9.1956652929e+01   3.9826296459e+01    0.3250497    0.2500302 -82.50  0.001756177    1.046    0.044
        94  -9.8538    247.3130    157.6520   4.0404779549e+01   5.7360557638e-01    0.1301847    0.1046338 -61.62 0.0004436495    1.718    0.418
        95  -9.9952      7.0549    157.0385   9.5145226375e+01   4.0888243510e+01    0.1925586    0.1089138  69.83 0.0006553463    1.675    0.403
        96  -9.0521    147.3223    155.6577   6.0312793861e+01   2.0906406221e+01    0.1579635    0.1205319  84.35 0.0007050465    1.727    0.421
        97  -9.6039    216.4862    154.5076   4.5230095324e+01   6.8743972001e+00    0.1443214    0.1327067  -9.15 -6.95616e-05    1.007    0.007
        98 -10.7279     10.7198    153.1176   9.3964130628e+01   4.1498371983e+01       0.2601    0.1759964  47.09 0.0008628914    1.569    0.363
        99  -9.3722    158.7130    153.2825   5.7135406575e+01   1.9069104541e+01    0.2490896    0.1278474  32.08 0.0009022734    2.412    0.585
       100  -9.5113     41.0061    153.0879   8.6633722577e+01   3.8688658439e+01     0.167284     0.114642 -74.17 0.0009491317    1.240    0.194
       101  -9.5826    176.9376    149.9972   5.2301908073e+01   1.5910127018e+01    0.2343296    0.1896261  87.83 0.0006620837    1.639    0.390
       102  -9.5841    144.0083    147.7844   5.9407717604e+01   2.3327825076e+01    0.2128909    0.2037405  54.50 0.0007818325    1.031    0.030
       103 -10.1100     14.1011    147.9060   9.2673327339e+01   4.2433310951e+01    0.1847677    0.1317518  80.70 0.0003856955    1.242    0.195
       104 -10.5960      7.8922    145.5871   9.3949557117e+01   4.3447853612e+01    0.2668364    0.1658287  55.12  0.001635116    1.653    0.395
       105 -10.3692    216.7382    145.1817   4.3105509951e+01   8.5100661398e+00    0.2700415    0.1818645  17.46 0.0008019527    1.942    0.485
       106 -10.2886    187.7503    144.0561   4.8622587406e+01   1.4798125770e+01    0.2552844    0.2134506  42.49 0.0004970764    1.204    0.170
       107  -9.4123    138.3072    142.6642   5.9667416552e+01   2.5652184751e+01    0.1589378    0.1222363  86.97 0.0003671261    1.674    0.403
       108 -10.3626     13.9373    139.4904   9.1860953389e+01   4.4407474059e+01    0.3505624    0.1400515 -78.67  0.001505221    2.173    0.540
       109 -10.3854     24.9577    142.6633   8.9422259034e+01   4.2745411695e+01    0.1642542     0.141603 -87.94 0.0003479261    1.086    0.080
       110 -10.2327    236.7193    137.9855   3.7915213389e+01   5.8143704373e+00    0.1988512    0.1711826 -25.31  0.000399676    1.051    0.049
       111 -10.1643    144.2299    137.0095   5.6914882361e+01   2.5688057637e+01    0.2184315     0.203851 -45.32 0.0004691686    1.077    0.071
       112  -9.8229     43.9589    136.9516   8.3686875718e+01   4.2244339078e+01    0.2137319    0.1414361  77.85 0.0008266525    1.655    0.396
       113 -10.3812      2.8616    135.2097   9.4211762170e+01   4.6191657487e+01    0.3082539    0.1191934 -69.06  0.001542256    1.919    0.479
       114  -9.3478      9.4782    136.4481   9.2670649188e+01   4.5449878563e+01    0.1217424   0.09481903 -79.82 3.712757e-05    1.014    0.014
       115 -10.6751    241.3137    134.2896   3.6320832805e+01   5.5582495409e+00    0.2476716    0.2196399 -43.00 0.0004733695    1.144    0.126
       116  -9.7301     88.4839    135.4810   7.1207561692e+01   3.6611374816e+01     0.146695    0.1348555 -79.85 9.275369e-06    1.025    0.025
       117 -10.0304     20.8504    134.7264   8.9550871500e+01   4.4975882701e+01    0.2437634    0.1307058  81.85  0.001075958    2.065    0.516
       118 -11.1249     54.1824    132.2156   8.0139044692e+01   4.2229125364e+01    0.3941113    0.2117671  27.58   0.00151004    2.239    0.553
       119 -12.0636     36.5605    130.9012   8.4821941938e+01   4.4468634671e+01     0.558751    0.2541503 -50.47 0.0006322074    2.118    0.528
       120 -11.3343     73.6424    128.9941   7.4072691899e+01   4.0452437252e+01    0.3271268    0.2878166  61.93  0.001573047    1.191    0.161
       121 -10.7307      4.2736    130.0024   9.3342649105e+01   4.7302435570e+01     0.212178    0.1701011  82.88 0.0007501029    1.165    0.142
       122 -11.0576     56.9539    126.2750   7.8331105889e+01   4.3337624945e+01    0.3258059    0.1782761 -50.00 0.0005089342    1.727    0.421
       123 -10.6667      7.4063    118.2479   9.1216222954e+01   4.9829990486e+01    0.1830707    0.1703818 -79.62  0.000854042    1.205    0.170
       124 -11.2655     15.2762    125.3269   8.9907378403e+01   4.7630685517e+01    0.3706484    0.1815957  27.16  0.001963147    2.443    0.591
       125 -11.1962     10.6235    122.7354   9.0862961642e+01   4.8570325236e+01     0.362686    0.1993829 -79.39  0.001466501    1.522    0.343
       126 -10.2660    243.6912    122.0867   3.3191049572e+01   7.1660527186e+00    0.2054629    0.1635531 -33.08 0.0007125462    1.122    0.109
       127 -10.5039     19.7945    121.5811   8.8183264439e+01   4.8171513576e+01    0.2363132     0.140906 -70.50 0.0009223173    1.343    0.255
       128  -9.3324      4.5813    122.5200   9.2473175925e+01   4.9016430837e+01    0.1216266   0.09169214 -72.58 0.0001387298    1.047    0.045
       129 -12.5693     52.6380    116.1062   7.7726493519e+01   4.6315682645e+01    0.3673083    0.2713127 -88.11 0.0004741605    1.474    0.322
       130 -11.1699     24.5878    119.3442   8.6517019746e+01   4.8317771688e+01    0.3514207    0.2017413 -71.26  0.001908065    1.438    0.305
       131 -10.4821      1.4008    118.5472   9.2898692629e+01   5.0126990744e+01    0.2200164   0.08919588 -72.64  0.000165464    1.863    0.463
       132 -10.8744     72.3493    115.0768   7.1593173920e+01   4.4004803085e+01    0.4260089    0.2676315 -47.11  0.002051523    1.510    0.338
       133 -10.2391     42.2249    116.7863   8.0960830194e+01   4.7295829308e+01    0.2870994    0.1871383  87.16  0.001465256    1.797    0.444
       134 -11.1417    181.8668    114.6525   4.2715866617e+01   2.2010177871e+01    0.4856739    0.3458627  29.94  0.001349174    1.666    0.400
       135 -10.5859    105.5425    114.8485   6.1807980590e+01   3.8573775878e+01    0.3232548    0.2735887 -55.94 0.0009111979    1.141    0.124
       136 -10.1653     86.0102    116.0632   6.7752491208e+01   4.1687510485e+01    0.2180285    0.2005252 -58.67  0.001216916    1.010    0.010
       137  -9.5407     32.0015    116.7641   8.3978440672e+01   4.8291134667e+01    0.1471249    0.1106313  26.81 0.0008756599    1.605    0.377
       138 -12.8009     25.3027    105.9351   8.4244787895e+01   5.1431345988e+01     1.358774    0.5743607   9.27  0.005517598    4.097    0.756
       139 -11.9851     23.3922     99.5125   8.3760409868e+01   5.3084961195e+01    0.5388811    0.3568063  78.17  0.002986233    1.864    0.464
       140 -11.4355     15.3443    111.7179   8.8114801963e+01   5.0823103527e+01     0.458748    0.2256991  62.64  0.001786699    2.831    0.647
       141 -10.6574    249.6961    112.2013   3.0037332838e+01   7.6407533241e+00    0.2419603    0.1928616 -51.84 0.0006777766    1.247    0.198
       142 -11.0869     93.1196    111.8923   6.4674708305e+01   4.1491677493e+01    0.5056995    0.3224711  54.33  0.002259244    1.843    0.458
       143  -9.8079     77.9302    111.4698   6.9108406786e+01   4.4045479369e+01    0.2198748    0.1767864 -55.13 0.0002878122    1.138    0.121
       144 -12.1874     37.9444    109.1724   8.0910261307e+01   4.9544757733e+01    0.6762316     0.380563  44.40  0.003449268    2.066    0.516
       145 -11.1685     55.0039    109.5837   7.5721675863e+01   4.7601684814e+01    0.3642991    0.1882594 -55.03  0.001698469    1.654    0.395
       146 -10.6089     53.5257    105.0288   7.5237669700e+01   4.8861175923e+01    0.3949343    0.1960737  48.85  0.001710201    2.557    0.609
       147 -10.8712      2.7689    105.6341   9.0994322576e+01   5.3023111434e+01    0.3468214     0.147925 -66.22  0.001807632    1.715    0.417
       148 -10.3085    111.5975    105.9558   5.7809875272e+01   3.9458748352e+01    0.3122206    0.2023594  41.22  0.000939166    1.601    0.375
       149  -9.8318     62.3451    105.5770   7.2579268111e+01   4.7638897697e+01    0.2460686    0.1450592 -41.83 0.0008835117    1.706    0.414
       150 -10.3080    119.3421    103.1297   5.4876508515e+01   3.8532511256e+01    0.3712603    0.1851192 -37.16  0.001372084    2.221    0.550
       151 -11.9887     41.2936     96.7010   7.7427383067e+01   5.2154349988e+01    0.3130372    0.1951599 -55.13 0.0004266864    1.335    0.251
       152 -10.7341     37.1750    101.9086   7.9802816194e+01   5.1337522103e+01    0.4079725    0.2281136 -82.80  0.001882924    2.244    0.554
       153 -10.4341     32.9048     97.0964   8.0252492554e+01   5.2857628365e+01    0.4420206     0.256893  84.98  0.001512324    2.600    0.615
       154 -12.1284     61.9676     98.1745   7.1003122922e+01   4.9427009632e+01     0.572604    0.5316667 -52.81  0.003122625    1.047    0.045
       155 -10.1470     47.9234    100.4304   7.6053827727e+01   5.0583931569e+01    0.2282945    0.1678501 -74.29 0.0005165124    1.377    0.274
       156 -10.3653     75.7152     98.6070   6.6701075678e+01   4.7397795008e+01    0.3665626     0.198425 -39.04  0.001296901    1.951    0.488
       157  -9.8500    144.5027     99.1610   4.7144582692e+01   3.3886805903e+01    0.2391123      0.15412 -42.94  0.001013961    1.536    0.349
       158 -10.0072      9.8124     99.1499   8.7975085209e+01   5.4105319731e+01    0.1712456    0.1335445 -82.61 0.0003460759    1.195    0.163
       159  -9.3425    117.0695     98.0208   5.4100012631e+01   4.0123186458e+01    0.1813253    0.1756641 -36.61 0.0005787396    1.005    0.005
       160  -9.1779    107.3227     98.6884   5.7074844884e+01   4.1922668826e+01    0.1524861    0.1213465  88.14  0.000607674    1.654    0.395
       161  -9.4868     94.7902     97.9765   6.0608371398e+01   4.4410997244e+01    0.1932031    0.1139915 -48.68 0.0008359185    1.599    0.375
       162  -9.3090    240.6765     96.3424   2.7717869067e+01   1.2117411623e+01    0.1487391    0.1011873 -63.72 9.437895e-05    1.730    0.422
       163 -11.1652     15.8825    115.1717   8.8433117746e+01   4.9974758727e+01    0.2774771    0.1960521 -79.44 0.0003646486    1.205    0.170
       164 -11.4747    157.7057     89.8891   4.1356729701e+01   3.2656135174e+01    0.7593281    0.4636452  66.25  0.003008997    2.057    0.514
       165 -10.6065    156.6213     83.7901   3.9848942716e+01   3.4090914423e+01    0.5165227    0.4008154 -32.71  0.002457607    1.326    0.246
       166  -9.7235     53.0164     93.4973   7.2839847120e+01   5.1620360156e+01    0.2674179     0.135734  29.43   0.00123403    2.246    0.555
       167 -10.2291     56.5033     90.5788   7.0974206156e+01   5.1870886696e+01     0.269585    0.1432432 -52.87 0.0007170961    1.622    0.384
       168  -9.5686    231.6792     91.3182   2.7859467715e+01   1.4893001847e+01      0.14923    0.1043982 -65.79 0.0004370541    1.665    0.399
       169  -9.9053     73.8138     90.9340   6.5324837727e+01   4.9433901297e+01    0.2761788    0.1472052 -44.91  0.001220549    1.728    0.421
       170 -11.3994     10.4973     90.6845   8.6434743503e+01   5.6000627737e+01    0.2163284    0.1989936 -24.75 0.0003011929    1.282    0.220
       171 -10.0373     97.5029     89.4559   5.7405953080e+01   4.5808867494e+01    0.1475541    0.1405126 -34.49  2.41429e-05    1.011    0.011
       172 -10.1708     84.4091     88.5059   6.1233586136e+01   4.8307547689e+01    0.2791272    0.1443944  37.29  0.001168024    2.069    0.517
       173 -11.3027     66.6039     84.6545   6.6029140980e+01   5.1879015667e+01    0.5580117    0.3970855 -24.08   0.00287313    1.580    0.367
       174 -10.9397     21.5151     86.4732   8.1992566694e+01   5.6225084802e+01    0.2159981    0.1577661 -67.15 0.0006321362    1.189    0.159
       175 -10.8858     21.7196     81.8838   8.1006322303e+01   5.7245626908e+01    0.2970617    0.1476984 -55.93  0.001560951    1.551    0.355
       176  -9.7585     38.9397     86.2584   7.5944514201e+01   5.4790446581e+01    0.1732841    0.1500469 -39.17 0.0003882546    1.102    0.093
       177 -10.1089      9.2593     86.0236   8.6065766303e+01   5.7128354206e+01    0.2338229    0.1488108  46.39 0.0009647958    1.994    0.499
       178 -10.5873      6.8705     81.9309   8.6172938321e+01   5.8179518391e+01    0.3343117     0.180611 -48.16  0.001937345    1.526    0.345
       179  -9.1858    184.5490     85.4150   3.4413132990e+01   2.6967804638e+01    0.1523083       0.1462 -74.90 7.342037e-05    1.028    0.027
       180 -10.7746    107.3673     84.6589   5.3025427650e+01   4.4942641821e+01    0.2572116    0.2489763  35.43 0.0003017116    1.074    0.069
       181  -9.8231     34.2993     84.8928   7.7247921000e+01   5.5536544094e+01     0.187281    0.1605627 -70.45 0.0009904745    1.180    0.153
       182 -11.2982     30.5768     81.6422   7.7830812076e+01   5.6596933918e+01    0.3453844      0.23958 -45.61  0.001041724    1.227    0.185
       183  -9.9177     27.7928     78.3732   7.8091614299e+01   5.7559285651e+01    0.1996195    0.1189033  18.48  0.001097029    2.018    0.505
       184 -10.7025    167.4932     83.0177   3.7222330833e+01   3.1588308177e+01    0.4653873    0.2621851  64.85  0.001800113    2.120    0.528
       185  -9.5404    116.8449     83.8082   5.0025334095e+01   4.3177997189e+01     0.204895    0.1835522 -86.87 0.0006570965    1.310    0.237
       186 -11.0672     76.5047     82.3489   6.2058762644e+01   5.0923475697e+01    0.3155728    0.2543316  58.45  0.001688924    1.537    0.349
       187 -10.7921     43.1145     82.5004   7.3601619056e+01   5.5217808371e+01    0.2992183    0.2187025 -82.83  0.001526995    1.719    0.418
       188  -9.4570     86.5063     82.5627   5.8847078537e+01   4.9246153023e+01     0.144995    0.1331823 -24.94 8.400783e-05    1.037    0.036
       189  -9.8505     84.0334     79.6701   5.8788152767e+01   5.0279906981e+01    0.1901005    0.1790907  -4.32 0.0003814104    1.068    0.064
       190 -10.9707     99.6182     77.1024   5.3050989778e+01   4.8011227411e+01     0.376397    0.3459264   3.83  0.002092721    1.096    0.088
       191 -11.3005     88.1636     77.4021   5.6757653879e+01   5.0047573282e+01    0.2588215    0.2341713 -46.82 0.0001356059    1.117    0.105
       192 -11.5438     21.0331     75.9511   8.0000230113e+01   5.8615669211e+01    0.4675793    0.2101429 -42.07  0.001927545    1.994    0.498
       193  -9.4859      3.0028     77.9472   8.6820123021e+01   5.9263064039e+01    0.1522562   0.09695856 -64.11 0.0003957948    1.207    0.172
       194 -10.5269     12.7142     74.9717   8.2812687883e+01   5.9385183699e+01    0.4372841    0.1760288 -72.64  0.001922984    2.655    0.623
       195 -12.3274    167.7394     73.2728   3.4360635159e+01   3.3285357184e+01    0.3577084    0.2667254 -40.75 0.0004324481    1.339    0.253
       196 -11.8971     54.0647     72.0143   6.6885514785e+01   5.6270175432e+01    0.5238609    0.3677901  64.90            0    2.295    0.564
       197 -12.3411     50.3278     68.4539   6.7225584477e+01   5.7471850518e+01     0.721418    0.5932478  62.11 0.0006075081    1.670    0.401
       198 -11.2976     44.5915     74.8064   7.1112669590e+01   5.6760276733e+01    0.2208515    0.2072514   6.04   0.00034863    1.200    0.166
       199  -9.6529      1.5016     73.5363   8.6575198385e+01   6.0302601430e+01    0.2181076   0.09450982 -50.57 0.0006932003    1.732    0.423
       200 -10.9488      7.3357     73.2352   8.4418654260e+01   6.0074817411e+01    0.3151865    0.2262574 -35.94  0.001376299    1.334    0.250
       201  -9.9585      6.4933     68.0517   8.3702480967e+01   6.1244305487e+01    0.2476371    0.1209299 -68.47   0.00131986    1.784    0.439
       202  -9.0694     68.2642     72.3012   6.1896062384e+01   5.4301866153e+01    0.1375422   0.09781701 -22.45 0.0006923301    1.519    0.341
       203 -13.8291     16.9189     67.1923   7.9571558964e+01   6.0807946279e+01    0.4677406    0.3984638 -32.73 0.0009160918    1.157    0.136
       204  -9.4069    115.2838     71.6526   4.6677793966e+01   4.5910416799e+01    0.1488907    0.1193886 -74.18 0.0006350941    1.648    0.393
       205 -11.0344     36.9142     69.6446   7.2583926766e+01   5.8655355500e+01    0.6077889    0.3737134 -84.32  0.001714353    2.917    0.657
       206 -10.1401     83.2673    248.1036   8.7568335602e+01   1.2981397794e+01    0.2439183    0.1079001  58.10  0.001230937    2.120    0.528
       207 -10.5880     38.5352     37.3079   6.1603558594e+01   6.4831749860e+01    0.5034735    0.1722151 -37.21  0.001522859    2.734    0.634
       208 -10.3017     27.8555     53.7763   7.1690441984e+01   6.2770972299e+01    0.2973188    0.1849733 -28.70 0.0005867862    1.522    0.343
       209 -10.4262     26.8918     49.3636   7.0753139462e+01   6.3728711765e+01    0.2294306    0.1913253 -27.79  0.001059842    1.074    0.069
       210 -11.5512     44.9227     45.1993   6.1811099352e+01   6.2687278058e+01    0.6402388    0.2901904 -54.71  0.002696317    2.676    0.626
       211 -11.9113     45.3858     38.4896   5.9137085586e+01   6.3827134505e+01    0.3180073    0.2507749  51.18  0.001066856    1.883    0.469
       212 -10.7889     31.9903     63.6941   7.2862472859e+01   6.0373961456e+01    0.3842161    0.2218034   5.56  0.001102838    2.208    0.547
       213 -11.0576     28.9326     60.9907   7.3320510044e+01   6.1206028760e+01    0.3810315    0.1799672  23.45   0.00134746    2.432    0.589
       214 -10.5767    186.9439     68.9447   2.9423326361e+01   2.9241797522e+01    0.2159237    0.2082494  87.05            0    1.025    0.024
       215  -9.4897    130.6102     69.5067   4.1827717590e+01   4.2910769382e+01    0.1486996    0.1444844 -13.78 -0.000165693    1.025    0.024
       216 -11.8039    122.7515     67.3680   4.3220454468e+01   4.5078890412e+01    0.3272598    0.2597515 -43.17 0.0002671785    1.287    0.223
       217  -9.2886     61.9842     68.1757   6.2866220838e+01   5.6044000544e+01    0.1704019     0.101367  31.68 0.0006273064    1.830    0.453
       218  -8.9981     31.6152     68.2663   7.4227229404e+01   5.9439530953e+01    0.1161457   0.09455817  67.19 0.0006985706    1.696    0.410
       219 -10.7694    147.2170     65.1806   3.6401315546e+01   3.9742977796e+01    0.3636154    0.2440611 -54.10  0.001348009    1.709    0.415
       220 -10.6962    140.2719     66.0434   3.8310102971e+01   4.1265707605e+01    0.2538722    0.2102768  51.80  0.001281343    1.190    0.159
       221  -9.9864     17.3232     42.9336   7.2892550307e+01   6.5732722583e+01    0.2728462    0.1476825   0.89  0.001053055    2.231    0.552
       222 -11.5616      2.6486     62.5869   8.4041250128e+01   6.2603752747e+01    0.5118761    0.2361857 -64.72  0.002590043    1.727    0.421
       223 -11.3695     11.6401     58.5736   7.9599684017e+01   6.2965445563e+01    0.5361185    0.2377405 -51.16  0.001625388    1.655    0.396
       224 -10.1607     13.0663     52.9600   7.7597660763e+01   6.4033926129e+01    0.2052783    0.1380343 -33.89 0.0004711893    1.289    0.224
       225 -12.7580     12.4054     47.4330   7.6373370636e+01   6.5186115304e+01    0.3492585    0.2890854 -74.66 0.0007036308    1.486    0.327
       226 -12.2780      4.0483     50.7045   8.0792561727e+01   6.5001487407e+01    0.8212473    0.5604992 -77.81  0.005235245    1.714    0.416
       227 -10.7596      6.9534     42.2774   7.7306229018e+01   6.6524784010e+01    0.4159124    0.1528899 -52.81  0.002140479    1.945    0.486
       228 -12.1415    155.7620     63.7553   3.4054265768e+01   3.7888925577e+01    0.4010654    0.3822449   9.43 0.0004259038    1.111    0.100
       229 -10.2690     81.2410     64.8823   5.5049879315e+01   5.3755140931e+01     0.272594    0.2108145 -31.05 0.0007375653    1.215    0.177
       230 -10.6211     83.6704     61.0624   5.2944224402e+01   5.4068393369e+01    0.3900098    0.2745481 -30.49  0.002010977    1.374    0.272
       231 -10.4057    106.0825     63.9759   4.6832866505e+01   4.9268611828e+01    0.2188347    0.2023087  -5.71  0.001220866    1.041    0.039
       232  -9.9448    202.1594     62.2518   2.5052029543e+01   2.6559016800e+01    0.2039236    0.2012788 -20.82 0.0008601752    1.132    0.116
       233  -9.7990    161.9120     61.8420   3.2175689525e+01   3.6677283137e+01    0.2172847     0.200198  29.09 0.0003082062    1.154    0.134
       234 -10.4246    114.6809     60.3243   4.3113031342e+01   4.8109451272e+01    0.3036886    0.2100363  28.06 0.0009628675    1.613    0.380
       235 -10.0632     90.5416     60.9448   5.0635006001e+01   5.2856770325e+01    0.3395132    0.1875055  41.45  0.001272359    1.855    0.461
       236 -11.3504     46.5996     60.3012   6.6181554571e+01   5.9582630678e+01    0.3385084    0.2265812 -28.23 0.0007714422    1.439    0.305
       237 -10.6470    120.2712     60.3667   4.1583389703e+01   4.6874056417e+01    0.4276754    0.3262388  52.15   0.00170673    1.333    0.250
       238  -9.4283    131.1478     64.8012   4.0179662686e+01   4.3628659242e+01    0.2020676    0.1715489  15.18 0.0003597752    1.289    0.224
       239  -9.3827    138.2950     60.2605   3.6940114452e+01   4.2726188482e+01    0.1869915    0.1535251  -9.04 0.0001597407    1.375    0.273
       240 -10.8155    134.8936     58.1740   3.7087202164e+01   4.3881694431e+01    0.3511553    0.2362104  67.48 0.0003873392    1.753    0.430
       241  -9.9121     98.2806     59.9628   4.7840649994e+01   5.1562531081e+01    0.2289845    0.1937758  50.12 0.0006642677    1.294    0.227
       242 -11.3482     57.6224     58.8908   6.1514775094e+01   5.8498510311e+01    0.3959806     0.263941 -18.29  0.001196618    1.662    0.398
       243  -9.8899    127.2394     58.6312   3.9160426608e+01   4.5592199048e+01    0.2617083    0.1786927  41.68 0.0007682602    1.451    0.311
       244 -11.4092     80.5323     56.3248   5.2367884646e+01   5.5488659627e+01    0.4201018    0.2626432 -14.79  0.001384074    2.079    0.519
       245  -9.5277    111.9918     56.5302   4.2577993446e+01   4.9343763534e+01    0.2150995    0.1403705  47.28 0.0003917821    1.519    0.342
       246 -10.7107     75.0457     55.5994   5.4019965013e+01   5.6539811817e+01    0.4383819    0.1744242 -38.91  0.001748545    2.402    0.584
       247 -11.8429     78.0324     47.8270   5.0161617988e+01   5.7417747712e+01    0.5861935    0.3850642  -3.41  0.001525397    1.942    0.485
       248 -12.6471    104.9682     52.5029   4.3204351680e+01   5.1505739840e+01    0.3055192    0.2813054  -3.44 0.0003648605    1.034    0.033
       249 -11.2317    128.7206     49.7041   3.5784235268e+01   4.6690131594e+01    0.5141386    0.3110009 -10.54  0.001736138    2.380    0.580
       250 -11.6235     52.0038     46.9106   5.9560819172e+01   6.1500215917e+01    0.7786121    0.3283017 -40.39  0.003527118    2.106    0.525
       251 -11.2139    133.1071     50.3582   3.4933239977e+01   4.5555741221e+01    0.4403805    0.3314002 -79.19  0.001708083    1.837    0.456
       252 -10.1910     88.9375     50.4655   4.7452895450e+01   5.5014439092e+01    0.2067401    0.1335282  42.05 0.0007660879    1.566    0.361
       253 -10.0696    104.1912     46.3206   4.1211730650e+01   5.2667296352e+01    0.2320074    0.1842629 -16.88 0.0006476552    1.278    0.218
       254 -10.0513    151.9470     53.6406   3.1733975117e+01   4.0467769192e+01    0.3280067    0.2060646  37.62 0.0009019076    1.779    0.438
       255  -9.1099     62.6385     47.2435   5.5548281071e+01   5.9972191287e+01    0.1168158    0.1046592  65.62 0.0006933526    1.601    0.375
       256  -9.9418    142.8374     45.6389   3.1130877120e+01   4.3917531164e+01    0.2504371    0.1839395  66.04 0.0005975773    1.403    0.287
       257 -11.1819    112.3801     45.4114   3.8556029533e+01   5.1054416605e+01      0.26154    0.2302947  19.20  0.000329046    1.098    0.090
       258 -10.9752     96.4040     42.5192   4.2141718069e+01   5.4852740240e+01    0.4194165    0.2710443   4.09   0.00166078    2.087    0.521
       259  -9.9494     91.7552     45.5799   4.4742211120e+01   5.5286600362e+01    0.2091222    0.1949233  88.17 0.0006068758    1.407    0.289
       260  -9.9660    152.2301     44.7371   2.8857728493e+01   4.1726525143e+01    0.3434013    0.1813634  72.05 0.0009999247    2.378    0.580
       261 -11.1015     23.8858     41.8897   6.9654769114e+01   6.5420303708e+01     0.380468    0.2259245 -50.68  0.001114703    1.469    0.319
       262 -13.1996     27.1950     37.3083   6.6603928419e+01   6.5978443510e+01    0.3724214    0.3398856  41.37  0.001389759    1.545    0.353
       263  -8.7750    171.2556     44.6950   2.5248639751e+01   3.6940343508e+01    0.1445707    0.1070916 -65.71 0.0001506224    1.512    0.339
       264  -9.4360    164.6293     44.7116   2.6447635849e+01   3.8615050628e+01    0.1545317    0.1067845  33.61  0.000702184    1.713    0.416
       265 -11.2191     72.3059     42.9431   5.0350183304e+01   5.9201569257e+01    0.4418747    0.2643875  34.14 0.0009993582    1.688    0.408
       266 -10.7729     67.4646     41.5003   5.1567369548e+01   6.0221730363e+01    0.2797697    0.1691073 -35.89  0.001292672    1.548    0.354
       267 -10.9620    123.0641     42.3372   3.4650789526e+01   4.9106934131e+01    0.4752105    0.2222506  57.39  0.001904394    2.193    0.544
       268 -11.3193     89.2861     41.4398   4.3972110326e+01   5.6413954909e+01     0.262249    0.2259968  19.78 0.0006337733    1.083    0.077
       269 -10.1900     79.9947     41.5454   4.7105038599e+01   5.8111576972e+01    0.2806343    0.2064458  35.54   0.00156024    1.345    0.256
       270  -9.9333     73.4588     31.4684   4.5378568029e+01   6.0792161420e+01    0.2125774    0.1665346  45.50 0.0008311507    1.443    0.307
       271 -11.1870     83.0666     36.1355   4.3951029404e+01   5.8388238352e+01    0.6068727    0.3333993  24.94  0.002679586    2.210    0.547
       272 -11.7086     75.6554     35.1873   4.6112249183e+01   5.9860476437e+01     0.442568     0.314946   6.88  0.001860415    1.493    0.330
       273  -9.7729    130.5385     41.0922   3.2398601692e+01   4.7535538194e+01    0.2161681     0.143091 -26.92  0.001030665    1.605    0.377
       274  -9.9486     60.5646     40.8406   5.3927671644e+01   6.1383086561e+01    0.3002917     0.162619  19.00 0.0008844448    2.341    0.573
       275  -9.5510    235.9811     40.0150   1.5082880500e+01   2.1775321287e+01    0.1843719    0.1580079  33.16  0.000414853    1.558    0.358
       276 -10.5975    224.9629     38.9182   1.6041379072e+01   2.4465338147e+01    0.4304678     0.228448 -83.68  0.001817095    2.476    0.596
       277  -9.6469    167.9166     39.5744   2.4303225511e+01   3.8495273075e+01    0.2306831    0.1628036 -40.26  0.000230548    1.458    0.314
       278  -9.7862    148.4342     38.9862   2.7781848375e+01   4.3472662504e+01     0.289758    0.1644063 -50.01  0.001049461    2.074    0.518
       279  -9.7394    115.4676     39.0102   3.5415100825e+01   5.1310814576e+01    0.2025823     0.137776 -29.87 -1.281439e-05    1.517    0.341
       280 -12.2602     57.4452     34.5373   5.2657888907e+01   6.2872697933e+01    0.4644593    0.3388456  -1.79  0.002751067    1.347    0.257
       281  -9.3823    159.7888     38.3617   2.5390151043e+01   4.0713445808e+01     0.199166    0.1233063  53.02 0.0002248418    1.515    0.340
       282 -11.0331    248.2402     36.2472   1.2987771835e+01   1.9555794452e+01    0.2245152    0.1765173 -63.02 0.0002957104    1.081    0.075
       283 -10.0763    202.2010     37.0148   1.8361601366e+01   3.0209718242e+01    0.1890607    0.1731044 -62.14 0.0003681376    1.074    0.069
       284 -10.8765     66.2153     36.5067   5.0070553639e+01   6.1227748534e+01    0.3304051    0.1887007  37.04  0.001701053    1.771    0.435
       285  -9.9763      1.5991     37.0442   7.8236261528e+01   6.7817196860e+01    0.1661478    0.1080288 -46.53  0.001012107    1.137    0.121
       286 -10.5222    192.7507     34.4884   1.8968027492e+01   3.2892321319e+01    0.3442303    0.2404949 -70.18  0.001185792    1.529    0.346
       287 -10.9889    129.1629     35.9323   3.0933009779e+01   4.8570088105e+01    0.2554827    0.2141491  30.29 0.0002664389    1.185    0.156
       288  -9.7883    129.4057     32.1709   2.9562981281e+01   4.9003063370e+01    0.2136686    0.1912013 -64.69 0.0002986856    1.287    0.223
       289 -10.2830     97.1078     36.1365   3.9502022900e+01   5.5655823884e+01     0.200967    0.1855109  11.50 0.0005237166    1.048    0.046
       290 -10.2808    178.0264     34.7856   2.1221909067e+01   3.6565826918e+01    0.3346483    0.2078784 -85.20  0.001475868    2.017    0.504
       291 -10.7494    178.3407     30.8488   2.0038488106e+01   3.6986612429e+01     0.484446    0.2585665  -8.48  0.001831904    3.254    0.693
       292  -9.6190    135.0060     34.9611   2.9276703392e+01   4.7300201922e+01    0.2204621    0.1697876 -74.18 0.0007316279    1.662    0.398
       293 -11.2284    111.2863     34.6913   3.4937933438e+01   5.2839311317e+01    0.2762716    0.2229495  49.13 0.0008134475    1.198    0.165
       294  -9.0556     92.7032     35.3013   4.0522180376e+01   5.6661745191e+01    0.1246804     0.109729 -71.72 0.0003996113    1.577    0.366
       295 -11.8444      7.9425     31.2881   7.3466000163e+01   6.8544569543e+01     0.355259    0.2534335 -66.76  0.001211548    1.741    0.426
       296  -9.6911     11.9742     29.2518   7.0824120891e+01   6.8649312190e+01    0.1550851    0.1006405 -27.82 0.0002680215    1.264    0.209
       297  -9.8828    140.9050     33.9544   2.7672235142e+01   4.5995877462e+01    0.2063903    0.1957647  65.27 0.0003863965    1.053    0.050
       298 -11.2614    122.4725     33.4584   3.1643962766e+01   5.0466597940e+01    0.3343333     0.244077  50.36 0.0007439927    1.273    0.214
       299 -10.2513     32.4653     33.0051   6.2637690269e+01   6.6228362427e+01    0.3386539    0.2068341  38.26  0.001955427    2.093    0.522
       300 -10.7609     22.3095     24.3787   6.3964596605e+01   6.8667749601e+01    0.2469147    0.1701829 -11.67  0.001633428    1.308    0.235
       301  -9.5308     13.8286     34.4036   7.1722264994e+01   6.7586099421e+01    0.1626179    0.1248847 -24.90 0.0006461354    1.105    0.095
       302 -11.8498     18.5932     30.7073   6.8180783702e+01   6.7896918516e+01    0.3260181    0.2357214 -11.08 0.0005969271    1.285    0.222
       303  -9.5036     16.4649     26.4886   6.7629073113e+01   6.8803148048e+01    0.1458295    0.1428511  17.65  0.001130186    1.507    0.337
       304 -10.9009    221.5603     31.5267   1.4633321100e+01   2.6239608201e+01    0.2670128    0.1929461 -47.10 5.544052e-05    1.289    0.224
       305 -10.8337    207.8672     31.2459   1.6146633938e+01   2.9568059599e+01      0.24037    0.1789018  15.25  0.001014404    2.016    0.504
       306 -11.1273    100.4904     29.1431   3.5802153769e+01   5.5905043370e+01    0.5995943    0.3185887  31.67  0.001184867    2.094    0.522
       307 -10.3900    166.8706     30.9324   2.1877141178e+01   3.9881784814e+01    0.2125189    0.1978763  86.36  0.000495239    1.037    0.036
       308 -11.9015    145.2989     29.1508   2.5190681812e+01   4.5514970346e+01    0.4355651    0.3099366   3.47 0.0009537085    1.796    0.443
       309 -10.1903     49.7871     28.7454   5.3381610223e+01   6.4859327668e+01     0.394977    0.1995731 -24.19  0.001753171    2.117    0.528
       310  -9.8532      1.4314     31.0452   7.6516510109e+01   6.8955469943e+01    0.1611275   0.08399639 -52.12 0.0003610845    1.473    0.321
       311 -10.7988    234.6157     27.9756   1.2440415539e+01   2.3660399146e+01    0.3157801    0.1526964 -30.54   0.00146429    2.168    0.539
       312 -12.1690    156.7162     28.1891   2.2765650313e+01   4.2780705246e+01    0.2856275     0.238485  77.67 0.0003038892    1.174    0.148
       313 -10.2921     79.5668     28.2791   4.1947674372e+01   6.0153471132e+01    0.2864285    0.2116892 -10.63  0.001008058    1.322    0.244
       314 -10.1786     82.0393     22.2317   3.8602932704e+01   6.0481355582e+01    0.4061881    0.2580557  30.21  0.001205909    1.505    0.335
       315 -10.4393     87.1274     20.1535   3.6123789441e+01   5.9747757275e+01    0.2297284    0.1913944  25.61   0.00141311    1.054    0.052
       316 -10.1437     61.9749     28.4884   4.8384758723e+01   6.3117448225e+01    0.2167198    0.2003236  74.33  0.001188289    1.679    0.404
       317 -10.9746    247.0127     27.7154   1.1222796379e+01   2.0927126110e+01    0.2504586    0.1300088 -50.41 0.0006944633    1.672    0.402
       318 -10.9645    239.0329     26.4953   1.1681851771e+01   2.2847941976e+01    0.3229406    0.2275139 -21.51  0.001795495    1.780    0.438
       319 -11.2615    198.0902     27.8771   1.6482163332e+01   3.2396985651e+01    0.3642805    0.1870761  65.36   0.00160771    1.802    0.445
       320 -11.5753    112.6353     26.1787   3.1403569980e+01   5.3629374384e+01    0.4541846    0.2624783 -16.10  0.002122563    2.007    0.502
       321 -12.0997    216.3638     25.3027   1.3682996223e+01   2.8256615774e+01    0.3664093     0.240079  62.47   0.00169818    1.508    0.337
       322 -10.7887    135.0362     27.0687   2.6563211572e+01   4.8279697487e+01    0.2690874    0.1775593  54.04 0.0005726849    1.372    0.271
       323  -9.5840    118.9857     27.5120   3.0330762106e+01   5.2023337797e+01    0.2149434    0.1268514  54.19  0.001023422    1.565    0.361
       324  -9.8221    123.1807     26.1967   2.8862666976e+01   5.1208014768e+01    0.1803347    0.1598877 -63.15 0.0004283497    1.334    0.250
       325 -11.7302      6.4056    245.1140   1.0053128742e+02   2.2800865589e+01     0.356074    0.1815514  76.25  0.001443083    1.499    0.333
       326 -12.7246     75.3405    238.7496   8.8201553206e+01   1.5782727943e+01    0.5484836    0.4927765  83.39  0.003489556    1.260    0.206
       327  -9.4280     15.4336     13.4618   6.2782009111e+01   7.1021268056e+01    0.1135018   0.08424942 -21.13 0.0001520552    1.009    0.009
       328 -11.2422      2.3474     24.9507   7.4066070299e+01   7.0015249656e+01    0.3565291    0.2029843 -32.65  0.001655202    1.381    0.276
       329 -10.5229     10.0133     24.4730   7.0052226934e+01   6.9626237444e+01    0.3503663    0.1807467  -1.83  0.001270705    2.237    0.553
       330 -10.8215    225.7080     22.9318   1.2144044390e+01   2.6338134832e+01     0.374519    0.2116606 -67.11   0.00132325    1.829    0.453
       331 -10.8019    160.0208     24.7509   2.1126514621e+01   4.2354703723e+01     0.220328    0.2140005  18.04  0.000399736    1.134    0.118
       332 -11.3214    161.3065     20.7151   1.9672256861e+01   4.2487849830e+01    0.4093456    0.2315794  30.88  0.001590871    2.419    0.587
       333  -9.6042     71.7415     25.3226   4.3418201651e+01   6.1952552141e+01    0.2677127    0.1300332  26.70  0.001162311    2.494    0.599
       334 -10.8812    193.6149     22.3735   1.5579845103e+01   3.4169695923e+01    0.4042356    0.1653285 -38.74  0.001695351    2.340    0.573
       335  -9.8558     54.1621     22.9138   4.9067155385e+01   6.5106344552e+01    0.2088194    0.2002068  52.89  0.001008595    1.561    0.360
       336 -10.9891     62.8514     23.1801   4.5767127613e+01   6.3731040027e+01    0.2693358    0.1901077   1.62 0.0009960909    1.389    0.280
       337 -11.3599     58.8330     21.3341   4.6505083505e+01   6.4618877206e+01    0.3141958    0.2500972  41.98  0.001776156    1.487    0.327
       338 -10.2846     34.5416     22.0850   5.7215349682e+01   6.7788863656e+01    0.2572052    0.1929077 -21.06  0.001235975    1.078    0.073
       339 -10.8326    235.0158     21.9758   1.1032972386e+01   2.4311966911e+01    0.2014332    0.1656929 -70.28 0.0003298989    1.023    0.023
       340  -9.3428    155.6779    250.3174   7.4282777523e+01   1.5263586309e+00    0.1210328   0.08416601  61.32 0.0007042961    1.666    0.400
       341  -9.5586    124.9805    245.7503   7.9543154924e+01   7.1335549798e+00    0.1629601   0.08695842  41.63 0.0004403371    1.532    0.347
       342  -9.7203    102.4771    243.9561   8.3611997239e+01   1.0909901189e+01    0.1639869     0.115936 -70.50  0.001035974    1.602    0.376
       343 -10.2245    128.2348     24.1265   2.6988664909e+01   5.0257418468e+01    0.2404877    0.2097812 -71.97  0.001052502    1.352    0.261
       344  -9.3556     94.0035     22.2495   3.4928927926e+01   5.8112606770e+01    0.1733197    0.1048888  48.89 0.0003716412    1.551    0.355
       345  -9.6938     99.5680     20.4154   3.2613133726e+01   5.7164470094e+01     0.224271    0.1471187 -52.70  0.001099116    2.188    0.543
       346  -9.6217     74.4159     21.1717   4.0698629786e+01   6.2023670909e+01     0.221774    0.1522284 -28.10 0.0007066174    1.451    0.311
       347  -9.4384     45.0278    244.4725   9.4090737469e+01   1.8664036767e+01    0.1562108    0.0896529  45.74 0.0004765461    1.495    0.331
       348  -9.2979    110.2980    243.2782   8.2060055785e+01   9.8391436726e+00    0.1076775   0.09178193  19.44 0.0001949988    1.536    0.349
       349 -10.7101     72.6811     16.2950   3.9160384354e+01   6.2932517561e+01    0.2574961    0.2413153  41.66  0.001106287    1.340    0.254
       350 -10.1705     76.4982     15.5292   3.7532224452e+01   6.2324421128e+01    0.2320628     0.199781  16.97  8.71463e-05    1.051    0.048
       351 -10.3580     88.6538    241.1474   8.5934061981e+01   1.3454473514e+01    0.1501905     0.104888 -59.95 0.0009432882    1.705    0.413
       352  -9.6630     24.3697     20.2032   6.1225351364e+01   6.9152854296e+01     0.193702    0.1350833  19.95 0.0005401636    1.499    0.333
       353 -10.4468     60.5462    240.8478   9.1087033309e+01   1.7381887710e+01    0.1948595    0.1064368  48.71 0.0006880568    1.473    0.321
       354 -10.7373     72.9987    244.9710   8.9165613092e+01   1.4966561268e+01    0.2465676    0.2066116  43.51  0.001375351    1.362    0.266
       355  -9.5197    115.6875    240.3107   8.0700911180e+01   9.5207550561e+00    0.1273355   0.08095019  64.44 0.0004092889    1.629    0.386
       356 -10.4985    167.3128     19.3218   1.8320236649e+01   4.1127176169e+01    0.2496189    0.2176619  68.34 0.0006836702    1.043    0.041
       357 -10.1654    195.3569    238.4676   6.5106181406e+01  -3.1038747855e+00    0.2138948    0.1817829  -2.35 0.0009210809    1.208    0.172
       358 -10.8425     35.1502    238.1005   9.5393360014e+01   2.1011980206e+01    0.2001981    0.1233437  85.19  0.001159613    1.375    0.272
       359 -10.1941    137.1684     15.1335   2.2046684742e+01   4.9075105156e+01    0.2212758    0.1687623 -39.34  0.000375901    1.451    0.311
       360 -10.9441     18.1652    236.7222   9.8214430457e+01   2.3139579710e+01    0.3956972     0.131881  55.22  0.002111364    2.296    0.564
       361 -11.1510     28.2996    245.0697   9.6970254198e+01   2.0501489549e+01    0.2632691    0.1693343 -87.96  0.001892952    1.367    0.268
       362 -10.7812     42.1993     19.2990   5.2520500517e+01   6.7274402103e+01    0.4750187    0.1925013  38.16  0.002293466    2.641    0.621
       363  -9.7191    186.0000     19.0074   1.5631767930e+01   3.6456953646e+01    0.2146512   0.07788177 -27.62 0.0008093631    2.991    0.666
       364 -10.7386    107.9525     17.3647   2.9210659088e+01   5.5680070071e+01    0.2378063    0.1886493 -10.96 0.0005624242    1.320    0.242
       365  -9.4176    103.3294     16.9794   3.0238454881e+01   5.6737246766e+01    0.1699169    0.1543594   8.18 0.0002581887    1.096    0.088
       366 -11.0492    183.3192    234.1452   6.6731505793e+01  -5.2218793270e-01    0.3467953    0.2253509  38.24  0.001415035    1.296    0.229
       367 -10.1290    193.5041     16.2455   1.3959018573e+01   3.4893051501e+01    0.2479976    0.1631659  76.66 0.0007832839    1.395    0.283
       368 -11.5520    184.9609    228.2853   6.5504327835e+01   9.7902352132e-02        0.508    0.3054176 -13.76  0.002393017    2.654    0.623
       369 -10.7360     38.6162    233.2070   9.4467851740e+01   2.1535600618e+01    0.2392529    0.1314235 -66.25  0.001164952    1.926    0.481
       370 -10.6258     39.5256    229.4884   9.4052049945e+01   2.2144870633e+01      0.30441    0.1385668  56.12  0.001621587    1.792    0.442
       371  -9.5987    127.4984    231.7493   7.7364409495e+01   9.1422743610e+00    0.1810914    0.1226611 -47.42  0.001030576    1.809    0.447
       372 -11.3746     87.2420    233.0023   8.5407598129e+01   1.5163492246e+01    0.2907356    0.1994858  66.15  0.001196669    1.294    0.227
       373  -9.0605     59.3026    229.3179   9.0392602703e+01   1.9730745879e+01   0.09994278   0.09242207 -46.39 0.0003626707    1.623    0.384
       374  -9.5750    169.5181    228.5509   6.8568632629e+01   2.6545303056e+00    0.1298489    0.1094827  38.15 0.0002188344    1.043    0.041
       375  -9.8017    151.6108    228.2515   7.2082216961e+01   5.7373027541e+00    0.1575615    0.1233871 -35.99 0.0005579178    1.550    0.355
       376 -10.7994    160.3110    235.2889   7.1364321792e+01   3.1128462633e+00    0.2397432    0.1356798  31.94  0.000722967    1.673    0.402
       377 -10.1119      3.8193    225.8843   1.0008709013e+02   2.6625219297e+01     0.153294    0.1190411  89.26 0.0008696629    1.256    0.204
       378  -9.1593    206.3231     10.7529   1.1140284210e+01   3.2347898422e+01    0.1341081   0.08630987 -72.40 0.0002285962    1.532    0.347
       379  -9.3307    120.3342    225.6708   7.8030010666e+01   1.1414078172e+01    0.1360245   0.08779889  66.55 0.0007051989    1.723    0.420
       380  -9.2492    112.6379    222.3051   7.9169137784e+01   1.3294044778e+01    0.1385594   0.08600616  64.86 0.0007038359    1.734    0.423
       381 -10.2827     13.4403    221.4532   9.8206060652e+01   2.6550370200e+01    0.1980133    0.1075386  51.83 0.0009536142    1.522    0.343
       382  -9.5233     42.4738    220.5131   9.2859677839e+01   2.3567053697e+01    0.1196708   0.08911855  72.18 0.0002562408    1.028    0.027
       383  -9.8290     21.5268    219.9996   9.6683655838e+01   2.6010807220e+01    0.1626246   0.08968496 -83.45 0.0005137698    1.544    0.352
       384  -9.6576    211.7314    219.0158   5.8835578962e+01  -2.9421290631e+00    0.1759605    0.1514273  -2.39 0.0009734446    1.116    0.104
       385  -9.4100    176.3372    218.7075   6.5671193855e+01   3.0977554118e+00    0.1286311   0.09886366  63.55 0.0004115711    1.644    0.392
       386 -11.1313      8.5400    216.3934   9.8795238045e+01   2.8028219699e+01    0.2894064     0.136525  59.76  0.001763644    1.699    0.411
       387 -12.3410      5.6301    208.7503   9.8903327122e+01   2.9834164216e+01     0.525683    0.1735874 -78.27  0.002511034    2.491    0.599
       388 -11.4694     30.6964    233.7626   9.5899989449e+01   2.2337588227e+01    0.3636015    0.2070956  65.66  0.002371257    1.376    0.273
       389  -9.7977    136.1478    215.8754   7.3456825313e+01   1.0592252812e+01    0.1787787    0.1548312  16.57 0.0006280288    1.346    0.257
       390  -9.5762     38.0261    217.0000   9.3435619967e+01   2.4796982595e+01    0.1723897   0.05895366  36.16 0.0006303252    2.867    0.651
       391 -10.8050     29.3148    215.5692   9.4969520889e+01   2.6066588321e+01    0.2226845    0.1733928  72.97   0.00111586    1.072    0.067
       392 -10.1665     23.9135    216.1314   9.6007095086e+01   2.6533733501e+01    0.1774497    0.1128008  71.47 0.0003922062    1.230    0.187
       393  -9.4930     66.7108    215.3143   8.7703424584e+01   2.1541777220e+01    0.1292719    0.0771336  68.89 0.0002949563    1.588    0.370
       394 -11.7183     11.8912    209.8457   9.7826426413e+01   2.9022232597e+01    0.4542174    0.1816019  87.12  0.002327474    2.327    0.570
       395  -9.5128    169.6977    212.6616   6.6025702357e+01   5.2883397748e+00    0.1346016    0.1008114   4.39  0.000703782    1.669    0.401
       396 -10.2431    110.1355    211.8943   7.8358514619e+01   1.5733588138e+01     0.205332    0.1614018  68.32  0.000869725    1.208    0.172
       397 -10.4392    236.9861    209.0551   5.2411049733e+01  -5.5494361859e+00    0.2030918    0.1318442   2.26 0.0006373946    1.654    0.396
       398 -10.3090    120.9535    219.4911   7.7104332642e+01   1.2473081247e+01    0.1939393    0.1149538  40.54 0.0005742031    1.501    0.334
       399  -9.3038     72.6775    209.6562   8.5921334670e+01   2.1890180474e+01    0.1151742   0.09889804 -33.71 0.0007050296    1.731    0.422
       400 -10.9141     28.1642    205.4303   9.4473012170e+01   2.8280199518e+01    0.2065533     0.154061  83.05 0.0002940019    1.054    0.052
       401 -11.0539     19.9978    200.7745   9.5725345141e+01   3.0103505838e+01    0.4891968    0.1141792 -67.75  0.002053727    3.394    0.705
       402 -10.8015    175.3087    202.2358   6.3099497133e+01   6.1166593601e+00    0.2501471    0.2154365  36.35 0.0004518296    1.057    0.054
       403 -10.0161     67.4637    203.0026   8.6304837274e+01   2.4017478507e+01    0.1973142    0.1518512  53.90 0.0005003822    1.187    0.158
       404  -9.0628     53.2449    202.3526   8.9198876847e+01   2.6019825916e+01    0.1125613    0.0878884 -55.07 0.0003660103    1.586    0.369
       405  -9.5038    196.5250    201.4906   5.8662144508e+01   2.4108488597e+00    0.1369204    0.1195469  16.40 8.366185e-05    1.032    0.031
