#   1 NUMBER                 Running object number                                     
#   2 MAG_AUTO               Kron-like elliptical aperture magnitude                    [mag]
#   3 X_IMAGE                Object position along x                                    [pixel]
#   4 Y_IMAGE                Object position along y                                    [pixel]
#   5 X_WORLD                Barycenter position along world x axis                     [deg]
#   6 Y_WORLD                Barycenter position along world y axis                     [deg]
#   7 A_WORLD                Profile RMS along major axis (world units)                 [deg]
#   8 B_WORLD                Profile RMS along minor axis (world units)                 [deg]
#   9 THETA_WORLD            Position angle (CCW/world-x)                               [deg]
#  10 FWHM_WORLD             FWHM assuming a gaussian core                              [deg]
#  11 ELONGATION             A_IMAGE/B_IMAGE                                           
#  12 ELLIPTICITY            1 - B_IMAGE/A_IMAGE                                       
         1 -14.6773     68.4428    144.3601   1.0190162870e+02   3.7827594190e+01     4.819315     2.557727  72.18  0.003030438    3.377    0.704
         2 -14.3757    216.1471     26.5376   3.8169117925e+01   2.8575179231e+01      1.24054    0.9592369  32.86  0.007164598    1.858    0.462
         3 -14.4867    203.3187     39.0837   4.2622628807e+01   2.9971180190e+01     1.999256      1.50666  29.35  0.007920481    1.882    0.469
         4 -12.9877    241.5618      3.5076   3.1095353710e+01   2.5629559897e+01    0.7557061    0.3635418  79.31  0.004152649    1.943    0.485
         5 -11.1383    109.2750    201.7103   1.0081317826e+02   1.7817204397e+01    0.4927646    0.2971396 -40.76  0.001623395    2.110    0.526
         6 -10.3624    117.4169    250.1811   1.0534852759e+02   7.1135767734e+00    0.2668975    0.1847505  68.32   0.00158233    1.645    0.392
         7  -9.7181     86.9775    249.1757   1.1118061978e+02   1.1726780177e+01    0.1921913    0.1604952  89.42  0.000822903    1.247    0.198
         8 -14.5103     20.4603    221.6797   1.2189155536e+02   2.5439687624e+01    0.9843574    0.8163193  20.86  0.005729184    1.742    0.426
         9 -16.2047      9.5434    207.6999   1.2316219942e+02   2.9475579353e+01     5.046929     1.394668 -70.41   0.01638463    2.956    0.662
        10 -11.0550    207.6158    194.6261   7.8448439595e+01   2.0400450738e+00    0.3528594    0.1609915 -36.49  0.001540608    2.172    0.540
        11  -9.0250    120.0090    193.9919   9.7154837094e+01   1.7686108991e+01    0.1622525    0.1546435  79.13 0.0009485969    1.048    0.045
        12  -9.0054     82.2933    194.6537   1.0605352974e+02   2.3625043356e+01    0.1446472   0.09499571  72.05 0.0007030073    1.666    0.400
        13  -9.8748     65.2139    192.2287   1.0973062067e+02   2.6613529674e+01    0.2744151    0.1696114 -84.48  0.001387477    1.658    0.397
        14  -8.9826     72.4547    188.4646   1.0755851074e+02   2.6484336189e+01     0.138397    0.1183665  76.75 5.275552e-05    1.043    0.042
        15  -8.7556     77.2761    185.6446   1.0602994030e+02   2.6450403830e+01    0.1451083   0.09649241  74.83 0.0004415232    1.650    0.394
        16  -9.5208     79.8445    183.2319   1.0507297230e+02   2.6639750911e+01    0.2164395    0.1704722  69.53 0.0007189946    1.226    0.185
        17  -9.8813     99.3648    180.8414   9.9945772196e+01   2.4142537105e+01    0.2517878    0.2045325  34.16 0.0007744718    1.302    0.232
        18  -8.6662     90.3013    181.2481   1.0222834623e+02   2.5506741265e+01    0.1277869    0.1119109 -14.78 0.0002028678    1.494    0.331
        19  -9.9042    143.4964    179.0116   8.9047725338e+01   1.6709554007e+01    0.2165525    0.1447954 -48.13 0.0004481481    1.537    0.349
        20 -10.0378    187.8584    173.4264   7.8160154725e+01   9.4144092521e+00    0.4458877    0.2174881 -59.54  0.001432138    4.047    0.753
        21 -12.9916     86.4935    154.3897   9.8725906283e+01   3.2610584863e+01     1.970523     1.054521 -57.39  0.002600871    1.765    0.433
        22 -12.2048     79.2152    161.1149   1.0183876562e+02   3.2079638817e+01    0.4927702     0.359524  74.88 0.0004405743    1.506    0.336
        23 -13.7317     67.2564    156.6498   1.0429719836e+02   3.4920005917e+01    0.6673141    0.5941263   2.58  0.001768806    1.425    0.298
        24 -10.0680    140.4064    249.2637   1.0072020835e+02   3.7760649036e+00    0.1516387    0.1200701 -73.93 0.0009532801    1.644    0.392
        25 -10.5242    136.6174    166.6869   8.8261717962e+01   2.0734142423e+01    0.4281905    0.2575076  73.80  0.001476171    3.289    0.696
        26 -11.4387     32.7835    155.9059   1.1336868383e+02   3.9243912909e+01     0.434305    0.2810586 -80.92  0.001795695    1.358    0.264
        27 -12.1318     69.8909    170.4603   1.0571408315e+02   3.1147327704e+01    0.3854456    0.2685021 -43.93  0.001494694    1.683    0.406
        28 -11.1475    133.6943    144.0693   8.4146834774e+01   2.6483906020e+01     1.208528    0.3279704 -55.11  0.002813493    5.628    0.822
        29 -10.4467    174.3072    148.7053   7.5660152755e+01   1.7064164737e+01    0.3587486    0.2824127 -69.79  0.001348948    1.582    0.368
        30  -9.3647    149.4623    176.9137   8.7265242912e+01   1.6034248773e+01     0.213877    0.1454198 -49.86 0.0004736375    1.516    0.340
        31 -10.7381     29.8038    144.2944   1.1272356526e+02   4.2408553818e+01    0.3361237    0.2546502  24.87  0.001980223    1.606    0.377
        32 -11.0055    100.8920    139.7958   9.1886870876e+01   3.3777367073e+01    0.5769776    0.3797843 -22.40  0.002323401    2.374    0.579
        33 -12.3685     87.9876    139.6534   9.5467612633e+01   3.6021667533e+01    0.3050656    0.2599623 -50.33  0.000376276    1.155    0.134
        34 -11.1726     79.8930    139.9122   9.7818332834e+01   3.7248746530e+01    0.3382768     0.249266  73.73 0.0008509004    1.597    0.374
        35 -14.2849     39.1917    201.0403   1.1650868139e+02   2.7855282330e+01     1.304323    0.6897565 -83.95  0.002502817    1.786    0.440
        36  -9.0765     29.7107    136.5743   1.1171894114e+02   4.4334568540e+01     0.166478    0.1169778  48.34 0.0006671779    1.546    0.353
        37 -10.3375    105.9120    130.8940   8.8499319906e+01   3.5026878531e+01    0.4028253    0.2977036 -58.56  0.001901946    1.334    0.250
        38 -10.3355    110.5053    130.1846   8.7056125024e+01   3.4331648113e+01     0.341719    0.2707319   4.07  0.001070635    1.666    0.400
        39 -10.8286    135.7444    127.6534   7.9723338492e+01   2.9827979722e+01    0.5641594    0.1733971 -51.08  0.001590003    3.591    0.721
        40 -14.4733     57.5028    240.3363   1.1609367459e+02   1.7360768943e+01    0.9535076    0.7253612  83.76  0.003949192    1.198    0.165
        41 -15.0787     49.2324    191.1748   1.1330870648e+02   2.8918164665e+01     3.205249     1.628693  83.71   0.01439362    2.330    0.571
        42  -9.9415    160.7009    128.0865   7.3789908479e+01   2.4334851989e+01    0.2649579    0.1983651 -60.54  0.001204919    1.483    0.326
        43 -11.0891     97.6547    126.3423   8.9783933579e+01   3.7635453778e+01    0.3242419    0.2706859 -10.15  0.001435782    1.476    0.323
        44 -10.4194    146.1886    171.7173   8.6997983901e+01   1.7781116499e+01    0.2618488    0.2054959 -63.76  0.001296561    1.417    0.294
        45 -10.0682    116.9362    124.0815   8.3807655968e+01   3.4523611505e+01     0.255946    0.1951283 -10.23  0.001128502    1.795    0.443
        46 -11.2242     25.8736    120.6220   1.1052523678e+02   4.8635899118e+01    0.4272754    0.1820419  52.62  0.001719779    3.207    0.688
        47  -9.6447    135.0000    119.9706   7.7967795646e+01   3.1721577982e+01    0.2648282   0.08831527 -45.76 0.0007998461    2.925    0.658
        48  -9.9807    107.0723    119.0381   8.5305428739e+01   3.7640289818e+01    0.2188342    0.2137193 -42.82  0.000355229    1.032    0.031
        49  -9.5661     85.0314    118.9846   9.1787147765e+01   4.1600546864e+01    0.2360751    0.1790942  79.82 0.0005797995    1.686    0.407
        50  -9.0216    168.6639    113.3504   6.8258067791e+01   2.5637815168e+01    0.1645658    0.1225616 -77.51 0.0007046292    1.786    0.440
        51 -10.1684     40.0152    113.3111   1.0478862353e+02   4.9092577335e+01    0.1795456    0.1722636 -87.39   0.00046156    1.132    0.116
        52 -10.1452    205.2947    110.1594   6.0273951872e+01   1.8039057905e+01     0.327861    0.2385985  40.10  0.001117836    1.556    0.358
        53 -10.6815     33.2734    109.3530   1.0624731473e+02   5.0734938852e+01    0.3748057    0.1721663 -73.34  0.001570886    2.294    0.564
        54  -9.7965    134.6265    105.8064   7.4280229018e+01   3.4921928529e+01    0.2315617    0.1439976 -52.75 0.0009510294    1.685    0.407
        55 -11.1413     41.8941    103.4092   1.0217431677e+02   5.1310200051e+01    0.4612224    0.1803201  44.60  0.001766956    3.267    0.694
        56 -12.7820    246.8098     92.8391   4.9948758382e+01   1.2396775903e+01    0.7168067    0.2147164 -38.99  0.002660921    2.724    0.633
        57 -16.1922     36.8403    249.1823   1.2056687048e+02   1.8184468230e+01     10.57199     3.394637  25.99   0.02385748   15.004    0.933
        58 -10.8082    230.3376    166.8459   6.8678354071e+01   2.9030060552e+00    0.3057995     0.150114 -46.11  0.001337297    2.156    0.536
        59 -10.3173     52.6954     90.8316   9.5450740962e+01   5.3038970953e+01    0.2303589    0.1513883 -41.85 0.0003609284    1.401    0.286
        60 -12.1942     65.3438    175.3546   1.0754801206e+02   3.0589707009e+01    0.4416574    0.2922595 -38.95   0.00179246    2.011    0.503
        61  -9.1949     73.5437     83.8136   8.6156662417e+01   5.1647038893e+01    0.1914379     0.133759 -60.87  0.000464548    1.599    0.375
        62  -9.0413    151.0359     82.9405   6.3759968673e+01   3.5751082689e+01    0.1804925     0.177128 -79.18 0.0003800655    1.009    0.009
        63  -9.3957    159.4901     82.0799   6.1661278325e+01   3.3886189452e+01    0.2298139    0.1491102 -37.87 0.0005282611    1.529    0.346
        64 -11.9429    243.5923     78.5254   4.7153977541e+01   1.5302388097e+01    0.3855147    0.1777292 -45.00  0.001450902    1.838    0.456
        65  -8.9796    109.5190     79.5202   7.3360910156e+01   4.5833460202e+01    0.1488479    0.1449227 -18.91 0.0008099876    1.015    0.015
        66 -10.3799     50.9794     63.6820   8.8152032744e+01   5.9165242663e+01    0.3343601    0.2129972  50.00   0.00153253    2.180    0.541
        67 -10.7993     13.4315     59.8483   1.0271726451e+02   6.3698514791e+01    0.2475313    0.1887116 -56.97 0.0004385241    1.195    0.163
        68 -11.5669    193.1456    195.3593   8.1432950501e+01   4.3905599348e+00     1.016429    0.5198011 -61.85  0.003153441    5.389    0.814
        69 -12.7829    194.5362     45.3269   4.5347058556e+01   3.1223193911e+01    0.7766463    0.5200427  49.90  0.001190029    1.648    0.393
        70 -16.7568      7.6380    244.4094   1.2544134412e+02   2.2230627929e+01     9.092715     3.862576 -78.42   0.05370768    2.111    0.526
        71  -9.4286     78.5572     57.5015   7.5699887400e+01   5.6052741014e+01    0.2194643    0.1325313  51.95  0.001005792    2.018    0.505
        72 -10.7415    138.1860     44.0532   5.4458088004e+01   4.5236133849e+01     0.383354    0.2638238 -81.07 0.0004937262    1.993    0.498
        73  -9.7216    141.5265     38.9904   5.2125450028e+01   4.5104394195e+01     0.201528    0.1829502  66.57 0.0004184357    1.047    0.045
        74 -10.8076    188.0286     31.0357   4.2411698573e+01   3.4653675790e+01    0.2140459    0.1869178 -80.34 0.0005925514    1.029    0.029
        75  -9.6116    189.5002     14.9586   3.8016229370e+01   3.6129780658e+01    0.1814727    0.1239334 -34.93 0.0005665257    1.529    0.346
