#   1 NUMBER                 Running object number                                     
#   2 MAG_AUTO               Kron-like elliptical aperture magnitude                    [mag]
#   3 X_IMAGE                Object position along x                                    [pixel]
#   4 Y_IMAGE                Object position along y                                    [pixel]
#   5 X_WORLD                Barycenter position along world x axis                     [deg]
#   6 Y_WORLD                Barycenter position along world y axis                     [deg]
#   7 A_WORLD                Profile RMS along major axis (world units)                 [deg]
#   8 B_WORLD                Profile RMS along minor axis (world units)                 [deg]
#   9 THETA_WORLD            Position angle (CCW/world-x)                               [deg]
#  10 FWHM_WORLD             FWHM assuming a gaussian core                              [deg]
#  11 ELONGATION             A_IMAGE/B_IMAGE                                           
#  12 ELLIPTICITY            1 - B_IMAGE/A_IMAGE                                       
         1 -15.4210     43.4093    200.4485   1.2777940114e+02   3.0146513714e+01     10.41202     3.840048  71.94   0.04984697    3.428    0.708
         2 -13.1563    197.4893     33.2210   6.0472212754e+01   3.1584527758e+01     1.248043     1.104453  36.38  0.005950209    1.149    0.130
         3 -13.8992    212.1759     16.8483   5.3572271981e+01   2.9582582644e+01     1.936537     1.213552  23.97  0.008656224    2.014    0.504
         4 -11.4633      2.1156     13.2912   1.1352625577e+02   7.1756237414e+01    0.5727364    0.1276337 -62.01  0.002297942    3.540    0.718
         5  -8.8115     16.6538     25.3136   1.1038709306e+02   6.8497110210e+01    0.1064632   0.08496279  84.06 0.0007047013    1.715    0.417
         6 -10.9463    176.4876    249.8997   1.1010726389e+02   5.0705333299e+00    0.2910359    0.1025517  41.40   0.00159208    2.038    0.509
         7 -11.5439    139.1239    248.8494   1.1582169088e+02   1.0581950706e+01    0.2575436    0.2109877  76.88  0.002170048    1.422    0.297
         8 -12.7106    106.1156    243.9093   1.2057304503e+02   1.5761742762e+01    0.5992867    0.2283021  38.77  0.003339791    2.345    0.574
         9 -10.9178     95.0297    242.2481   1.2218646854e+02   1.7445657106e+01    0.2197863    0.1278521 -77.59  0.001091197    2.090    0.521
        10 -11.8113     93.0904    249.5927   1.2302363657e+02   1.6704812785e+01    0.4081328    0.2285712  58.02  0.003027432    1.369    0.270
        11 -10.8281    101.1158    249.1471   1.2175824367e+02   1.5729499088e+01    0.2371496    0.1711455  45.87  0.001523204    1.227    0.185
        12  -8.9616     62.9482    250.5194   1.2762802282e+02   2.0233698200e+01    0.1407192   0.06667528  46.72 0.0003452379    1.521    0.342
        13 -11.2757     30.9380    248.4352   1.3219534002e+02   2.3982721215e+01    0.3650019    0.2794617  43.58  0.003386967    1.586    0.369
        14 -11.5410     39.0556    247.0502   1.3096591859e+02   2.3343731482e+01    0.4973028    0.3040566  84.76  0.004257168    1.465    0.318
        15  -9.6044      8.1987    250.4044   1.3544578559e+02   2.5887924897e+01     0.152738   0.07136375  59.47 0.0009120902    1.363    0.267
        16 -11.0664      2.1517    248.1368   1.3620885352e+02   2.6748958225e+01    0.3089931    0.1606329  82.29  0.001009575    1.526    0.345
        17 -10.4708      1.5879    240.3320   1.3607507094e+02   2.7915662844e+01    0.3301749   0.08101587 -84.41   0.00187811    3.814    0.738
        18 -11.0713     12.1204    232.6888   1.3433097433e+02   2.8097469420e+01    0.2059243    0.1443276  83.68  0.001903744    1.281    0.219
        19  -9.6004    197.6598    246.3240   1.0642557333e+02   2.3266341776e+00   0.09964685   0.07067671  57.52 0.0004934691    1.726    0.421
        20 -10.6476     55.4079    240.3227   1.2819828139e+02   2.2530136524e+01    0.2044406    0.1215734  67.49  0.000468817    1.299    0.230
        21 -11.3597     43.2535    231.4277   1.2958831069e+02   2.5183413418e+01    0.4822415    0.1199581  56.13  0.002450168    3.166    0.684
        22  -8.9797     24.7649    237.4188   1.3265061743e+02   2.6189091686e+01    0.1124984   0.07334848  42.44 0.0009205427    1.573    0.364
        23 -10.7806     19.9946    234.9452   1.3325650617e+02   2.7019415705e+01     0.219974    0.1327839  35.53  0.001749041    1.963    0.490
        24 -13.9378      9.9348    206.9434   1.3371229105e+02   3.2347034656e+01      1.52629    0.6115578  83.68  0.009823781    2.164    0.538
        25 -10.0140    162.4901    248.4880   1.1213212927e+02   7.2641522592e+00     0.106255   0.07581384  43.25 0.0001531332    1.004    0.004
        26  -9.4600    164.6685    226.3311   1.0929496771e+02   9.5292308403e+00    0.1098558   0.07476563  63.30 0.0007052029    1.722    0.419
        27 -10.8186    226.7609    202.2732   9.5630100374e+01   2.3086402684e+00     0.377141    0.2552558 -55.59   0.00106643    2.960    0.662
        28  -9.4606    192.0012    193.0000   9.9986108067e+01   9.2566615565e+00    0.2746761    0.1546313 -62.10  0.001143397    4.453    0.775
        29 -11.5902     59.9830    192.4337   1.2424351500e+02   2.9655459252e+01    0.3081063    0.2270328 -49.65  0.001763572    1.991    0.498
        30  -8.4363    181.5541    192.4633   1.0174337486e+02   1.1137207453e+01    0.1225411    0.1006635  38.13 9.254318e-05    1.011    0.011
        31 -11.6555     65.9292    185.3463   1.2253466269e+02   3.0195501884e+01    0.2225949     0.194057 -72.98 0.0005699934    1.375    0.272
        32 -10.8847     76.1653    173.5902   1.1939045444e+02   3.1046919012e+01    0.2148703    0.1796879  70.50 0.0004021646    1.050    0.048
        33 -13.1970     62.9536    170.8834   1.2176203516e+02   3.3233087612e+01    0.4065638    0.2433901 -49.73  0.001773615    2.252    0.556
        34  -9.3337    231.3380    168.6888   8.8997934720e+01   5.3172830015e+00    0.1117343       0.1018  82.02 0.0005639352    1.688    0.408
        35 -11.9604     83.1639    164.2496   1.1689868338e+02   3.1870288071e+01    0.8991144    0.4689852  64.05  0.004615508    2.118    0.528
        36 -11.7168      6.8583    224.6499   1.3483552901e+02   2.9797582018e+01    0.3529125    0.1795374  61.20  0.001904229    1.329    0.248
        37 -12.5354     32.1961    224.9945   1.3098483095e+02   2.7326059935e+01    0.2277414    0.1849443  80.45 0.0007372854    1.313    0.238
        38 -12.9377     65.5320    141.3893   1.1790038459e+02   3.8766781803e+01     1.798817    0.8227841  84.10  0.006105538    4.276    0.766
        39  -9.1414    100.1203    145.5311   1.1063851248e+02   3.3041594549e+01    0.2212051    0.1730606 -34.94 0.0008344985    1.712    0.416
        40 -11.9663     85.4801    148.5063   1.1435117777e+02   3.4636402997e+01    0.2447184    0.2164803 -61.08 0.0005709338    1.269    0.212
        41  -9.4047    109.0801    135.5556   1.0693396173e+02   3.3591178939e+01    0.2921081    0.2108045 -17.65  0.001326515    2.391    0.582
        42 -10.4391     96.1834    132.4727   1.0940945210e+02   3.6305622497e+01     0.229924    0.2008812 -44.65 0.0005035604    1.326    0.246
        43  -9.0732    106.3410    122.8370   1.0521665401e+02   3.6646847890e+01    0.1732571    0.1580743 -62.13 0.0003582456    1.109    0.098
        44 -10.0086    167.8166    112.8938   8.8909291277e+01   2.6480893080e+01    0.3608124    0.2766087 -77.89  0.001182852    1.827    0.453
        45  -9.3773    203.6799    111.4441   8.1486694376e+01   1.8765610249e+01    0.2421542    0.1730251   0.80 0.0007721283    1.664    0.399
        46  -9.8738     97.0852    149.6851   1.1194792673e+02   3.2686137380e+01    0.2418693    0.2173992  60.76 0.0007590881    1.101    0.092
        47 -13.8396     38.8454    216.5780   1.2949997916e+02   2.7964376660e+01    0.7489962    0.5324346  67.33  0.004027888    1.023    0.022
        48 -11.5334    243.3815     93.9265   7.0580648073e+01   1.2498382452e+01    0.3325894    0.2395606 -17.16   0.00125569    1.310    0.237
        49 -10.9110    150.4176    228.9987   1.1196750264e+02   1.1380978600e+01     0.248781      0.12522  49.03  0.001501977    1.570    0.363
        50  -9.1617    158.5508     78.4725   8.1725943176e+01   3.4701151367e+01    0.1512984    0.1449444   8.09 -1.687418e-05    1.037    0.035
        51 -10.0398     13.0038     61.4968   1.2059595758e+02   6.1143822019e+01    0.1964521    0.1211379 -68.05  0.000875115    1.252    0.201
        52 -11.9165    126.0050    246.1410   1.1763196411e+02   1.2757484880e+01    0.3020061    0.2058626  59.95  0.002325898    1.280    0.219
        53 -10.5922     20.5235    244.7416   1.3354167348e+02   2.5536262344e+01     0.338717   0.09611427  67.56  0.001859133    3.341    0.701
        54 -12.2968     12.9552    239.9826   1.3445707451e+02   2.6940854364e+01    0.5404485    0.2272072  76.02  0.003177156    1.940    0.485
