#   1 NUMBER                 Running object number                                     
#   2 MAG_AUTO               Kron-like elliptical aperture magnitude                    [mag]
#   3 X_IMAGE                Object position along x                                    [pixel]
#   4 Y_IMAGE                Object position along y                                    [pixel]
#   5 X_WORLD                Barycenter position along world x axis                     [deg]
#   6 Y_WORLD                Barycenter position along world y axis                     [deg]
#   7 A_WORLD                Profile RMS along major axis (world units)                 [deg]
#   8 B_WORLD                Profile RMS along minor axis (world units)                 [deg]
#   9 THETA_WORLD            Position angle (CCW/world-x)                               [deg]
#  10 FWHM_WORLD             FWHM assuming a gaussian core                              [deg]
#  11 ELONGATION             A_IMAGE/B_IMAGE                                           
#  12 ELLIPTICITY            1 - B_IMAGE/A_IMAGE                                       
         1 -11.3194    116.4180     33.6775   5.9678638596e+01   5.1573651755e+01    0.8358784    0.4213386  26.43 0.0005621216    3.061    0.673
         2 -10.6057     84.4896     33.7868   6.8722994564e+01   5.8321512282e+01    0.7393544    0.6090591 -82.28  0.004035769    1.949    0.487
         3 -10.4093     51.0573      9.9566   6.9970910976e+01   6.7268732626e+01    0.6426845    0.4272605  49.73  0.003063291    1.887    0.470
         4 -10.0151     36.7142     19.7346   8.0922933169e+01   6.8022374679e+01    0.4604753    0.2591119  -9.79  0.001407284    2.079    0.519
         5  -9.7609     45.4306     15.6668   7.5119632984e+01   6.7408689878e+01    0.4501857    0.2848012  37.48  0.002679536    1.655    0.396
         6  -9.2873     39.4154     10.6923   7.5287183483e+01   6.8907283947e+01     0.344536    0.1937232  50.66  0.001643068    2.870    0.652
         7 -12.5900     61.8321     44.1640   8.0885002557e+01   6.0618244620e+01    0.6070454    0.2791349 -39.04 0.0004799325    1.997    0.499
         8 -11.3794    145.3828     29.1254   5.1865844696e+01   4.5230230759e+01      1.07464    0.6379917  47.38  0.003695635    1.626    0.385
         9 -12.4010    107.5823     29.1415   6.0190645435e+01   5.4140890654e+01    0.5015365    0.3780999 -26.95  0.002757934    1.362    0.266
        10 -11.2206    221.6230     29.2600   4.1312594241e+01   2.6574424549e+01    0.4381519    0.2740745 -39.58  0.002338836    1.481    0.325
        11  99.0000     16.4500     17.3372   8.9720438274e+01   7.0599965765e+01     2.254044    0.8558332  42.76  0.008210802    6.500    0.846
        12  -9.5689     23.5663      1.4001   7.7962988275e+01   7.2115582002e+01    0.1583079    0.1248574  22.03 7.138832e-05    1.387    0.279
        13 -10.2268     17.4550      1.9222   8.1470303364e+01   7.2741693824e+01    0.3464393    0.1609056  20.48  0.001906716    2.286    0.563
        14 -11.1382     18.3959     22.5979   9.1047853993e+01   6.9566754083e+01    0.4558855    0.2528546 -48.00  0.002657337    1.745    0.427
        15 -10.8343     24.8972      6.7165   8.0151760430e+01   7.1277183843e+01    0.2441248    0.1577374 -32.93 0.0004612387    1.458    0.314
        16 -10.5237     13.7421     11.0027   8.8179384050e+01   7.1830201794e+01    0.2219287    0.1622575 -26.20 0.0003607552    1.109    0.099
        17 -12.3024     19.1780      7.0916   8.3305727765e+01   7.1861248197e+01    0.4859777    0.3070157   4.03  0.001544351    1.493    0.330
        18 -11.6570    165.5466     18.2240   4.5111745746e+01   4.1452646637e+01    0.4136911    0.3167514  59.06 0.0009376886    1.223    0.182
        19  -9.3555      5.8260      9.0680   9.1629315720e+01   7.2798627440e+01    0.4715274    0.2313366  20.35  0.002302477    2.146    0.534
        20 -11.6999      5.4278     16.2272   9.5102708544e+01   7.1679459570e+01    0.4081225    0.3342642 -41.56  0.001864444    1.343    0.255
        21 -12.5686    116.9414     22.3136   5.5313818980e+01   5.2829779637e+01    0.3135223     0.304484  65.42 0.0004506876    1.128    0.114
        22  -9.9187     60.4035     17.5892   7.0022021903e+01   6.4823738848e+01    0.5163143    0.2550241  32.26  0.002548199    2.022    0.505
        23 -11.2687     67.8906     15.3581   6.6270077066e+01   6.3794946544e+01    0.3589319    0.2554763 -14.39 0.0003636637    1.326    0.246
        24  -9.9931     69.5409     11.6081   6.3960039761e+01   6.3916487963e+01    0.2392056    0.1622945  54.03 0.0005704848    1.681    0.405
        25 -10.4611    182.8159     17.7741   4.2688263481e+01   3.7219093084e+01    0.5699413    0.3344427  21.99  0.001649487    2.879    0.653
        26 -10.7593     26.8022     21.4059   8.6366548486e+01   6.8926475621e+01     0.545533    0.2703111 -14.72   0.00255611    2.724    0.633
        27  -9.6754     32.3660     12.2355   7.9319767743e+01   6.9632424149e+01    0.2231651    0.1787103 -32.84 0.0006089999    1.427    0.299
        28  -9.5898    127.3943     18.6398   5.1726576811e+01   5.0772085303e+01    0.4184079    0.2220347 -53.38  0.001763295    2.655    0.623
        29 -10.4462    217.7519     18.8532   3.9175757069e+01   2.8712827906e+01    0.4548625    0.2862315  81.99  0.002459812    1.535    0.348
        30  -9.7230    199.1713     18.4715   4.0977703522e+01   3.3151648218e+01    0.3429736    0.1974902 -32.37  0.001159628    1.758    0.431
        31  -9.7283    230.1148     15.2211   3.7212104417e+01   2.6313638970e+01    0.2799827    0.1661094 -34.97 0.0009047725    1.628    0.386
        32 -10.0763    115.6272     15.0934   5.2880139144e+01   5.3897050363e+01    0.5131359    0.2180545  58.67  0.001746464    2.121    0.528
        33  -9.7899    209.7183     14.2366   3.8816982357e+01   3.1106484337e+01    0.2495559    0.1951348  55.99 0.0006232134    1.402    0.287
        34  -9.9169    173.2519     13.9983   4.2818088247e+01   3.9980341369e+01    0.3510716    0.2115211 -32.90   0.00119542    1.719    0.418
        35 -10.4094    176.1325     10.8597   4.1557004901e+01   3.9584988568e+01     0.441244    0.2899086  33.91  0.002254634    1.911    0.477
        36 -11.0517    133.1687     12.7988   4.8555809868e+01   4.9971852458e+01    0.2328857    0.2191519  41.92 0.0003044157    1.053    0.050
        37 -10.3916     88.8474     13.4505   5.8847345042e+01   5.9944473993e+01    0.2855124    0.2236948  37.03   0.00172423    1.132    0.116
        38 -10.2290     89.5952      1.7007   5.3560009155e+01   6.0872883408e+01    0.4303042    0.1281388  49.44  0.001757313    2.603    0.616
        39  -9.6810     92.5983      7.2699   5.5190414913e+01   5.9756643802e+01    0.3859175    0.1629316 -17.14  0.001667757    2.646    0.622
        40 -10.2085     86.7489      6.1072   5.6234720773e+01   6.1088958676e+01    0.3689898     0.284902  47.58  0.001828319    1.204    0.169
        41 -10.7119    146.6212     12.0113   4.6009467200e+01   4.6767802080e+01     0.478787    0.3663366  87.06 0.0008810316    1.364    0.267
        42  -9.2172    142.2372      8.2191   4.5455350155e+01   4.8194072011e+01    0.2019328    0.1605576  39.03 0.0006539089    1.263    0.208
        43  -9.9640    138.8740      6.6480   4.5467762872e+01   4.9152651638e+01    0.2807939     0.191232 -15.92            0    1.665    0.399
        44  -8.6655     75.4606     12.5684   6.2462577323e+01   6.2702750782e+01    0.2522292    0.1702019 -42.40  0.001393613    1.886    0.470
        45  -9.4943     73.7966      8.1517   6.0959419174e+01   6.3476890024e+01    0.2372085    0.1766217  37.30 0.0007368734    1.197    0.164
        46  -9.0040     97.9780      9.5207   5.4775751799e+01   5.8393493975e+01    0.5044878    0.1667896 -21.82  0.001958542    3.260    0.693
        47 -10.0691    165.1188      7.9459   4.2087971064e+01   4.2585296611e+01    0.3375598    0.2056933 -43.39  0.001406652    1.710    0.415
        48 -10.9154    160.4972      2.9588   4.1185299360e+01   4.4173550711e+01    0.4604114    0.2781647  61.95  0.001032869    1.454    0.312
        49  -8.8457    109.3343      1.3334   4.8904666003e+01   5.6564797975e+01    0.3470744    0.1522235  40.08 0.0008855829    2.182    0.542
        50 -11.0602    108.1846      7.1852   5.1448193618e+01   5.6340474167e+01    0.5331393    0.4184013  43.44  0.002383862    1.116    0.104
        51  -9.9557    111.3139      6.6518   5.0565940186e+01   5.5675321944e+01    0.3126278    0.2030796 -27.19  0.001205482    1.663    0.399
        52  -8.7931     79.6280      9.6292   5.9839429441e+01   6.2195962621e+01    0.1944268    0.1237265  21.09 0.0006723006    1.570    0.363
        53  -9.4258    212.2476      8.8677   3.7265347901e+01   3.1089153625e+01    0.2876714    0.1805783  76.07  0.001589667    1.476    0.322
        54  -9.7851    202.7479      8.6830   3.8099316643e+01   3.3344477025e+01    0.2280815    0.1839957 -70.92 0.0001412215    1.115    0.103
        55  -9.5105    128.2661      8.2061   4.7824267672e+01   5.1572472654e+01    0.2223203    0.1881435  74.53 0.0002048599    1.187    0.157
        56  -9.6070    120.0035      7.8394   4.9248673362e+01   5.3559940309e+01    0.2434541     0.185507 -25.71 0.0007523893    1.430    0.301
        57 -10.7858    193.7573      3.7716   3.7710805997e+01   3.5980719663e+01    0.6037166    0.2639188  68.37  0.002797656    2.019    0.505
        58  -9.7237    198.3390      2.3003   3.6899492685e+01   3.5025990527e+01    0.3090795     0.154747  52.20  0.001486112    2.153    0.535
        59  -8.7213     29.4649      7.8337   7.8468170352e+01   7.0581465921e+01    0.2034028   0.09536219 -28.99  0.001096737    1.888    0.470
        60 -10.3341     30.9187      3.3275   7.5368894244e+01   7.0962754805e+01    0.2300592    0.1508099 -30.45 0.0004770979    1.498    0.333
        61 -10.4715    247.9858      4.9299   3.3619750725e+01   2.3579086204e+01    0.3239879    0.2514499  27.36 0.0009178956    2.073    0.518
        62  -9.4656     62.3920      6.1827   6.3826527305e+01   6.5777450337e+01    0.2596813     0.221039 -56.48  0.001584645    1.832    0.454
        63 -10.2255    208.4734      4.2340   3.6471504517e+01   3.2444834463e+01    0.4135414    0.2775499 -57.78  0.002390543    1.375    0.273
        64  -8.4639    171.3207      6.2788   4.0825893832e+01   4.1210947694e+01    0.1331567   0.09044453  44.67 0.0002356963    1.581    0.368
        65  -9.4530     38.7105      3.2277   7.1710487354e+01   6.9906049505e+01     0.414277    0.3175099  22.24   0.00241395    1.215    0.177
        66 -11.0520    179.9004      2.1842   3.8698840306e+01   3.9483688729e+01    0.3783095    0.2374655 -86.31 0.0006344524    1.595    0.373
        67  -8.7700    174.4715      5.2327   4.0154672831e+01   4.0533182723e+01    0.1751737     0.113313 -44.29 0.0003030386    1.579    0.367
        68 -10.0045    238.1828      3.3230   3.3944917655e+01   2.5838652109e+01    0.2630779    0.1785201 -79.09  0.001175916    1.297    0.229
        69  -9.1183    224.2005      3.3915   3.4983841049e+01   2.8918207665e+01    0.1990573    0.1633496 -28.73  0.001287049    1.408    0.290
        70 -10.3441    218.9231      2.4959   3.5189039675e+01   3.0204972609e+01    0.2915558    0.2095952  78.75  0.001077403    1.283    0.221
        71  -9.5849    146.6019      2.3374   4.2868221308e+01   4.7635267395e+01     0.474376    0.1893719  54.85  0.001838995    2.120    0.528
        72  -9.1507    119.3143      2.2982   4.7321845615e+01   5.4185576649e+01    0.1974995    0.1535167   6.63 0.0005272591    1.401    0.286
        73 -10.4822    115.8581      1.9938   4.7863105782e+01   5.5014409236e+01     0.275543    0.1877378  60.94 0.0004031699    1.315    0.240
        74  -9.7411     81.0769      1.8307   5.5884561498e+01   6.2623456539e+01    0.3549535    0.1775548  61.65  0.001720967    2.195    0.544
        75 -10.5127     74.0057      1.9190   5.7977877311e+01   6.4018734255e+01      0.28038    0.2012451  40.52 0.0008132231    1.217    0.178
        76  -9.3564     68.7571      1.9984   5.9647997679e+01   6.5015168630e+01    0.3100148    0.1620527  40.22  0.001349072    1.653    0.395
        77 -10.5647     49.7118      2.1632   6.6524249710e+01   6.8338257608e+01    0.2580563    0.1572393  32.61 0.0003117024    1.455    0.313
        78  -9.1165      4.0400      2.2668   8.9264672709e+01   7.3960141752e+01    0.2275388    0.1284391 -22.69  0.001482918    1.433    0.302
        79  -9.1208    186.0352      1.3426   3.7834869445e+01   3.8069934903e+01    0.1895791    0.1090162  77.94 0.0003427872    1.580    0.367
        80  -9.1666    127.6206      1.4063   4.5517473803e+01   5.2295616632e+01    0.3683779   0.09235596  61.74  0.001327482    3.030    0.670
        81  -9.1279     36.3553    103.7215   1.0728112917e+02   5.0950306855e+01    0.2353664    0.1587605  37.87  0.001032778    1.725    0.420
        82  -9.4395    201.4773    249.6118   9.2944804097e+01  -5.2244414236e+00    0.2163107    0.1488945  32.61 0.0007162054    1.211    0.174
        83  -9.7203    115.9107    249.0298   1.0881084861e+02   7.8474948730e+00    0.2184041    0.1854458  81.70 0.0008579429    1.268    0.211
        84 -10.2098    137.2916    107.3527   7.8106723741e+01   3.3590092254e+01    0.2825629    0.2613901 -80.21 0.0004268332    1.171    0.146
        85  -8.6935    153.8717    107.1449   7.3999693696e+01   2.9928240191e+01    0.2098992    0.1843291   3.41            0    1.291    0.225
        86  -9.1914     52.7298    106.9364   1.0271115792e+02   4.8409999770e+01    0.2148795    0.1694126 -41.96 0.0005055018    1.234    0.190
        87  -9.0443     92.2228    106.4095   9.0350575991e+01   4.2748210491e+01    0.2685184    0.1493007  34.04  0.001121402    2.010    0.502
        88  -9.8006      3.3153    103.1310   1.1759759132e+02   5.3599888451e+01     0.407406    0.1509466 -75.30  0.001819872    2.309    0.567
        89  -9.1410      6.1973     94.1583   1.1538068035e+02   5.5532954779e+01     0.286737    0.1773798 -70.27  0.001696125    1.287    0.223
        90  -9.4951      7.0941     89.3584   1.1431051771e+02   5.6594809923e+01    0.2215493    0.1793138 -75.12 0.0006697261    1.142    0.124
        91  -9.8588      8.7134     98.7446   1.1527916181e+02   5.4310894251e+01    0.3094898      0.20103  78.59 0.0009422874    1.784    0.439
        92  -9.5773      3.8578     97.9865   1.1670678635e+02   5.4773262292e+01    0.2183148    0.1972446 -80.55  0.001574435    1.183    0.155
        93  -9.9816     74.5212    104.4889   9.5278048512e+01   4.6065749943e+01    0.3072144    0.1313346 -53.99  0.001193115    2.107    0.525
        94 -10.1178    110.4497     99.4496   8.3139062794e+01   4.0946461002e+01    0.3554325    0.2985115   9.71 0.0003286076    1.384    0.278
        95 -10.8230    103.9715     90.6419   8.2487661950e+01   4.4148850186e+01    0.8093599    0.5203984  82.92  0.001094611    3.624    0.724
        96 -11.1213    102.2616    101.7322   8.6136940231e+01   4.2013169601e+01    0.9979678    0.6270425  -1.87  0.001908311    3.360    0.702
        97  -9.6006    100.8068     98.3769   8.5639336711e+01   4.3043585922e+01    0.2232224     0.207493 -71.13 0.0001334484    1.148    0.129
        98  -8.7633     47.9957    103.1272   1.0341138770e+02   4.9874694808e+01    0.2696361    0.1654787 -39.04    0.0013336    1.683    0.406
        99  -9.9809     50.8630     99.1086   1.0159411093e+02   5.0504552324e+01     0.376037    0.1839243 -56.56 0.0002631903    1.730    0.422
       100  -8.5612    174.8076    102.8220   6.8173191732e+01   2.5968629954e+01    0.2027131    0.1758029 -68.25  0.000230702    1.262    0.208
       101 -10.0893     67.4084    103.1170   9.7184642404e+01   4.7423464196e+01    0.3243166     0.173051  27.34  0.001407334    2.254    0.556
       102  -8.7368     29.5501    102.4459   1.0922667774e+02   5.1883367860e+01    0.2397287   0.08674055 -55.15 0.0008196345    2.122    0.529
       103  -9.7679     57.2604     99.7015   9.9638069764e+01   4.9586083687e+01    0.2351723    0.1642866 -64.07 0.0004881246    1.360    0.265
       104  -9.3423     16.7063     98.5061   1.1267536124e+02   5.3837885609e+01    0.4000843    0.1435898 -50.57  0.001781731    2.257    0.557
       105 -10.0645    124.5495     98.3751   7.8929350651e+01   3.8281877657e+01     0.466628    0.2753433  33.69  0.001717551    1.979    0.495
       106  -8.6682     67.2700     98.0060   9.5973475078e+01   4.8649241809e+01    0.1982115    0.1688662 -53.83 0.0004042312    1.063    0.059
       107  -8.7086     33.7446     97.9354   1.0698985308e+02   5.2579317360e+01    0.1823363    0.1444006 -60.54            0    1.052    0.050
       108  -9.3767    129.9233     96.9025   7.7081188518e+01   3.7438495905e+01    0.2288382    0.2207442 -28.89 0.0004013374    1.015    0.015
       109  -9.7594     12.2767     94.0387   1.1336944279e+02   5.5188493393e+01    0.3464518    0.1475304 -73.60   0.00158845    2.155    0.536
       110 -10.1622    135.6647     96.1383   7.5377047878e+01   3.6333480120e+01    0.2548174    0.1982583 -61.24 0.0007002595    1.442    0.306
       111  -9.6264     23.4551     95.4855   1.0992500069e+02   5.4044478450e+01    0.2126161     0.174185 -62.36  0.000194944    1.026    0.025
       112  -9.1534    179.0743     94.3158   6.4990458099e+01   2.6599331914e+01    0.2572848    0.2074935 -23.99 0.0005300608    1.313    0.239
       113 -10.1098     81.5023     95.4638   9.0748503281e+01   4.7080950060e+01    0.4544346    0.2057548  36.20  0.001797319    2.417    0.586
       114  -8.3446     79.6884     92.3111   9.0462538985e+01   4.8091818604e+01    0.2431521     0.169421 -73.75 0.0005612156    1.916    0.478
       115  -9.7298     51.9408     93.9692   1.0003922660e+02   5.1589777566e+01    0.2326047    0.1710935 -55.87 0.0002960476    1.182    0.154
       116  -9.1932     52.4902     90.5185   9.9011757515e+01   5.2328031593e+01    0.1939935     0.160162  88.32 0.0006245915    1.480    0.324
       117  -9.0461     32.6006     92.9240   1.0634451159e+02   5.3868476248e+01    0.3636048    0.2082791 -42.27   0.00187393    1.643    0.391
       118 -11.0080     28.7750     86.6487   1.0632660565e+02   5.5671151785e+01    0.7820002    0.2936643 -46.04  0.003369031    2.304    0.566
       119  -8.8411     21.1477     87.5314   1.0917164373e+02   5.6082896852e+01     0.172045    0.1557194  24.20 0.0002351839    1.354    0.261
       120  -9.5615      1.9428     92.8608   1.1656608465e+02   5.6068608522e+01    0.2038603    0.1415244 -69.81 0.0007160153    1.128    0.113
       121 -10.3520     45.9973     93.9917   1.0204456432e+02   5.2266617185e+01    0.4639162    0.2571615 -28.20  0.002055668    2.401    0.583
       122  -9.4235    117.0383     91.4258   7.8968544512e+01   4.1349872439e+01     0.261623    0.2053514 -29.05 0.0006323137    1.316    0.240
       123 -10.6912    118.2768     84.4756   7.6533708828e+01   4.2536616406e+01    0.3828946    0.3644757  56.51  0.002068942    1.122    0.108
       124 -10.7596    124.5191     88.5149   7.6054952360e+01   4.0367062073e+01    0.5213165    0.3390964 -60.93  0.001657285    1.953    0.488
       125 -10.4817    129.5699     85.5163   7.3813687598e+01   3.9866977049e+01    0.4027659    0.3205706   9.81   0.00107553    1.535    0.349
       126 -10.3948     87.6200     87.9959   8.6709507478e+01   4.7732496236e+01    0.5688794    0.2453407 -47.13   0.00178925    2.144    0.534
       127  -9.5845    189.3410     87.1553   6.1065355172e+01   2.5479672424e+01    0.2488434    0.2386786  88.85 0.0003826326    1.074    0.069
       128  -9.6202     94.5525     86.9626   8.4240801952e+01   4.6722302916e+01    0.3576169    0.2640976  49.38  0.001493312    1.512    0.339
       129 -10.6179     70.0232     86.4832   9.2005799874e+01   5.0897714569e+01    0.5281609    0.3285124  14.18  0.002366269    2.222    0.550
       130 -10.6073     73.1498     81.4317   8.9500501866e+01   5.1543733286e+01    0.6032276    0.3238589 -41.47  0.002682448    1.731    0.422
       131  -9.3095     57.0102     82.2970   9.5298314306e+01   5.3639452928e+01     0.249825    0.2182025 -71.13 0.0005062477    1.277    0.217
       132 -10.6811     49.1871     83.4645   9.8361971802e+01   5.4337446108e+01    0.5478039    0.2755614 -43.05  0.002525852    1.800    0.444
       133  -9.6535     53.4865     81.4775   9.6313467056e+01   5.4268604864e+01     0.409761    0.1440125 -43.41  0.001527886    2.668    0.625
       134  -9.9337     43.4007     88.0945   1.0154752293e+02   5.3924042539e+01    0.2820105    0.1918551  28.85 0.0006683455    1.700    0.412
       135 -10.0553     16.4742     86.5443   1.1060065221e+02   5.6649874945e+01    0.4168341    0.2045777 -53.15  0.001880548    1.579    0.367
       136  -8.4018    143.3439     87.3187   7.0887459335e+01   3.6377932655e+01    0.1619986    0.1235475   9.55 0.0003338793    1.722    0.419
       137  -9.6670     54.4917     86.5451   9.7313089611e+01   5.2997384426e+01    0.2466662    0.1994606 -47.74 0.0006078384    1.069    0.065
       138  -8.8280     11.2266     85.7707   1.1227519163e+02   5.7174027003e+01    0.1762103    0.1111024 -49.22 0.0004703476    1.319    0.242
       139  -8.1008      2.4335     86.5216   1.1541636889e+02   5.7503629449e+01    0.1247312   0.09126946 -58.85 0.0003160666    1.067    0.063
       140 -10.3886    155.2316     84.7595   6.7353071412e+01   3.4081399796e+01    0.3072509    0.2818365   3.06 0.0002191782    1.181    0.153
       141 -10.6152    152.3070     80.6505   6.6798266689e+01   3.5550837297e+01    0.2824718    0.2204172 -50.35  0.001349455    1.313    0.238
       142  -9.1011     79.1378     84.8958   8.8531329392e+01   4.9837282055e+01     0.290491     0.199205 -62.20  0.001378727    1.660    0.398
       143  -8.5041     81.6484     82.3090   8.6943411777e+01   4.9988720666e+01    0.2076851    0.1458797 -59.79 0.0009933236    1.580    0.367
       144  -9.2886     42.5311     80.4862   9.9964221945e+01   5.5755760611e+01    0.3209786      0.22053 -36.05  0.001768919    1.376    0.273
       145  -9.7258     35.5731     82.6163   1.0299597778e+02   5.5979067029e+01    0.2868527    0.2121182 -53.13  0.000605886    1.119    0.106
       146  -8.7528     38.4574     79.5082   1.0118939490e+02   5.6399958869e+01    0.1328808    0.1118294 -49.63 0.0002897117    1.032    0.031
       147  -9.1763    133.0854     81.6698   7.1734133270e+01   3.9838329913e+01    0.2184884    0.1997392  35.43  0.001133946    1.116    0.104
       148  -9.6413     20.6193     81.7796   1.0817617727e+02   5.7446585772e+01     0.245305    0.2094327  70.81  0.001134451    1.442    0.306
       149 -11.5370     17.1331     74.1815   1.0780302233e+02   5.9416856074e+01    0.3726616    0.2441879 -53.96 0.0004819927    1.189    0.159
       150 -10.1041    129.5162     78.9897   7.1822874291e+01   4.1165728723e+01    0.4195209      0.14875 -39.54  0.001371126    2.762    0.638
       151  -9.7168    110.5113     77.0109   7.6392206598e+01   4.5670940951e+01    0.2931181    0.2562347  24.34 0.0008751529    1.186    0.157
       152  -9.9508    107.4503     77.4931   7.7433794657e+01   4.6203114536e+01    0.5081517    0.2847787 -24.17  0.001934454    2.433    0.589
       153  -9.6185      1.7151     79.7558   1.1452908787e+02   5.9081193162e+01    0.3055886     0.137326 -67.27  0.001113089    1.717    0.418
       154  -9.4163      1.8733     74.2121   1.1347352963e+02   6.0319558918e+01     0.288698    0.1164928 -57.08 0.0006345888    1.742    0.426
       155  -9.0392    175.2865     75.2904   6.0413389983e+01   3.0957609906e+01    0.2317948    0.1852014 -22.22 0.0003956757    1.358    0.263
       156 -11.2803    170.3392     73.1393   6.0756866737e+01   3.2537406782e+01    0.5141816    0.4361368  74.86  0.002630643    1.256    0.204
       157  -9.5473    140.3119     79.3383   6.9219559312e+01   3.8625398232e+01    0.2545189    0.1963653  32.64  0.001200723    1.413    0.292
       158  -9.4140     93.4634     67.4899   7.8400735850e+01   5.0922624386e+01    0.3040252    0.1994217 -51.16  0.001417403    1.664    0.399
       159  -8.9832     88.6834     67.6692   7.9986046405e+01   5.1778009637e+01    0.2950866    0.1983661 -27.44  0.001409602    1.540    0.351
       160 -11.2194     89.8547     72.8125   8.1311118792e+01   5.0543209091e+01    0.6162779    0.5036385 -70.07  0.001653282    1.571    0.363
       161  -9.0365     94.6743     71.3145   7.9295583616e+01   4.9945951912e+01    0.2611624    0.2226967  68.55 0.0008506655    1.485    0.326
       162 -10.7266    157.9967     76.6434   6.4341534508e+01   3.4920789066e+01    0.3276015    0.3065913  -5.84 0.0005348803    1.131    0.115
       163 -10.6391     63.7510     75.7696   9.1049588851e+01   5.4162616767e+01    0.4883747    0.3995706  49.40  0.002638092    1.485    0.326
       164  -9.8972     69.0432     73.8412   8.8605784209e+01   5.3800793958e+01    0.2940438    0.1781761 -41.71  0.001416503    1.489    0.328
       165 -10.9253     46.9522     68.2428   9.4923270505e+01   5.7947856480e+01    0.9953499    0.4451551 -30.80  0.003231683    2.992    0.666
       166 -11.9803     52.9315     75.1406   9.4735726498e+01   5.5739259182e+01     0.276865    0.2431408  -6.42 0.0002493468    1.193    0.162
       167 -10.4366     53.0261     70.2802   9.3265187105e+01   5.6775155035e+01     0.344911    0.1753687 -50.86 0.0008890085    1.740    0.425
       168 -12.2512    199.7491     71.7631   5.5116070773e+01   2.5636316714e+01    0.3470873    0.2739165 -31.29 0.0003845537    1.271    0.213
       169 -10.0816    179.9452     74.5186   5.9311502684e+01   2.9955813713e+01    0.4417375    0.3089359 -14.43   0.00135279    1.823    0.452
       170  -9.3907    126.0478     75.8168   7.1731986441e+01   4.2553343118e+01    0.2540066    0.2178407 -16.18 0.0003166122    1.224    0.183
       171  -9.8124     82.8476     74.8236   8.4234812740e+01   5.1371418037e+01     0.447994    0.2986965   0.93  0.001197761    2.194    0.544
       172  -8.7289     28.6390     75.5025   1.0380835306e+02   5.8220595671e+01     0.227243    0.1163427 -42.67 0.0006227763    1.703    0.413
       173  -9.9271    152.1299     72.2821   6.4310355314e+01   3.7116818225e+01    0.3010028    0.2130849 -43.39 0.0002549948    1.407    0.289
       174  -9.9338    138.4238     72.0514   6.7414444552e+01   4.0419484050e+01    0.3887836    0.2094261  51.52 0.0005125183    1.873    0.466
       175 -11.4270     79.7678     69.8491   8.3652299304e+01   5.2912924354e+01    0.2655767    0.2406581 -20.13  0.000318327    1.019    0.018
       176 -10.0388     75.2870     66.1546   8.3953936229e+01   5.4398222529e+01    0.2409959    0.2328568  38.92 0.0002671591    1.210    0.173
       177  -9.1263    101.1353     69.8880   7.6836854442e+01   4.8969767878e+01    0.2188122    0.2005072 -53.70 0.0004919284    1.192    0.161
       178  -9.0566     63.9761     69.4672   8.9022001431e+01   5.5464915975e+01    0.2110905    0.1729358 -36.34 0.0004656659    1.077    0.072
       179  -9.4048    157.3889     68.7317   6.2089915205e+01   3.6460862066e+01    0.2686764    0.2051544  57.12 0.0005357667    1.323    0.244
       180  -9.6926    120.1146     66.8389   7.0401074581e+01   4.5544494885e+01    0.3835315    0.2861144 -37.16  0.001879296    1.320    0.242
       181  -9.0703    121.2580     63.3439   6.8930694968e+01   4.5914166895e+01    0.2286729    0.2005858   4.20 0.0002121843    1.196    0.164
       182  -9.1842     10.0803     69.1335   1.0936046575e+02   6.0997282177e+01    0.1909941     0.143794 -50.34 0.0009014668    1.042    0.041
       183 -10.3281     14.7965     64.8612   1.0652988665e+02   6.1630768878e+01    0.5759768    0.3134675  48.61  0.002907735    2.817    0.645
       184 -10.5636      2.1181     67.7028   1.1211464322e+02   6.1749174614e+01    0.4723395    0.1991926 -51.99  0.001467401    1.708    0.415
       185 -10.8846      1.7691     61.9260   1.1103587455e+02   6.3023681075e+01    0.2733646     0.165487 -51.37 0.0005807207    1.232    0.189
       186 -11.3289      6.0331     59.0582   1.0865944924e+02   6.3416358861e+01    0.4870659    0.3516794  58.73 0.0009555826    2.012    0.503
       187  -9.7415    106.1378     67.0124   7.4385503498e+01   4.8503370340e+01    0.3513947    0.3177045  49.27  0.001114837    1.190    0.160
       188 -10.4438     39.7938     58.1969   9.4602949796e+01   6.0847946133e+01    0.5362995    0.3755113  33.55  0.003118268    1.672    0.402
       189  -9.7197     25.9358     67.6242   1.0284606194e+02   6.0188981378e+01    0.3659937    0.1882315   9.41  0.001383995    2.570    0.611
       190 -10.5344     23.2517     62.9526   1.0266588970e+02   6.1416896680e+01    0.5698116    0.2689022 -29.26  0.001850871    2.455    0.593
       191 -10.3498     29.8041     53.0769   9.7068720022e+01   6.2898870025e+01    0.4840172    0.2501032  29.39  0.001812031    2.208    0.547
       192  -9.9402     22.0127     57.1590   1.0155992261e+02   6.2739666774e+01    0.3860577    0.1568418 -60.32  0.001378452    2.315    0.568
       193 -10.0993     24.8457     53.1713   9.9188771295e+01   6.3326020997e+01    0.4664235    0.1761736 -47.34  0.002171143    2.030    0.507
       194 -10.9214     32.1731     64.6246   9.9579499928e+01   6.0280187045e+01    0.3615785    0.2585623  18.30  0.001246121    1.602    0.376
       195 -10.4699     31.6209     59.0457   9.8167887564e+01   6.1506381777e+01     0.354971    0.2379178 -63.24  0.001996048    1.612    0.380
       196 -10.2416    135.3158     64.9743   6.5906375499e+01   4.2404638599e+01    0.4169127    0.3372813  37.57  0.001212527    1.263    0.208
       197 -10.4775    143.5694     66.4542   6.4431668484e+01   4.0193376970e+01    0.3191681    0.2760761  39.45 0.0006550306    1.173    0.147
       198  -8.9809    140.0146     64.2414   6.4551286065e+01   4.1421166132e+01    0.2679862    0.1803239  50.22 0.0006214014    1.474    0.322
       199 -10.2036    203.9235     63.0394   5.2144564970e+01   2.6030697588e+01    0.3523696    0.3390498  73.28  0.001458465    1.103    0.093
       200 -10.0286     82.9876     62.9478   8.0245890349e+01   5.3713835065e+01    0.4028004    0.2547694 -51.87 0.0009520027    1.766    0.434
       201  -9.1288    100.1937     63.9490   7.5114791261e+01   5.0280331752e+01     0.236028    0.2020054  37.32 0.0002874997    1.194    0.162
       202  -8.4119     59.6386     64.2973   8.8932563313e+01   5.7142910933e+01    0.1279791     0.109031  81.62 0.0007033406    1.712    0.416
       203 -10.5210     70.5303     60.3697   8.3647579188e+01   5.6298495758e+01    0.4047851    0.3332218   6.37  0.001087746    1.247    0.198
       204  -9.4803    194.2561     61.0976   5.3108100326e+01   2.8658744201e+01    0.3504504    0.2474077 -36.93 0.0006829965    1.370    0.270
       205  -8.9407    170.9984     57.9807   5.6175204158e+01   3.4867085959e+01    0.2329407     0.200858 -66.73 0.0005787055    1.204    0.170
       206  -9.4624    160.3011     60.9964   5.9132358446e+01   3.7035176050e+01    0.3139995    0.2545013 -32.55 0.0009209914    1.248    0.199
       207  -9.4578    163.8427     59.6355   5.8019710506e+01   3.6379025713e+01    0.4371939    0.2489369  77.84  0.001662849    2.536    0.606
       208 -10.2636    167.1841     56.8267   5.6536078129e+01   3.5992533569e+01    0.2999552    0.2589715  47.34 0.0003376132    1.183    0.155
       209  -9.8577    163.2451     54.6754   5.6627259540e+01   3.7301306912e+01    0.3844108    0.2339341 -37.57  0.001622866    1.628    0.386
       210  -8.5903     77.2947     61.6600   8.1728236161e+01   5.4943180703e+01    0.1336129    0.1127095 -75.85 0.0002736373    1.655    0.396
       211  -8.7564    145.0720     58.1953   6.1458302324e+01   4.1212244553e+01    0.2289235    0.2018137 -70.92 0.0008367553    1.257    0.205
       212  -9.9106    152.1098     59.6514   6.0401192566e+01   3.9264174525e+01    0.3723211    0.2727051  41.65  0.001144416    1.417    0.294
       213 -10.0061    145.4010     53.2962   5.9805952026e+01   4.1906470359e+01    0.4110766    0.1686177 -32.82  0.001507979    2.474    0.596
       214 -10.3984    151.2570     54.5987   5.8985281395e+01   4.0273600577e+01    0.6025186    0.3676459  58.77  0.002694591    1.633    0.388
       215 -10.5072    153.7125     49.1621   5.6762829645e+01   4.0491322562e+01    0.4641988    0.2914479  69.91  0.001794337    1.767    0.434
       216  -9.5922     16.0327     59.9264   1.0478407292e+02   6.2605417266e+01    0.1970264     0.161431 -66.64 0.0007577288    1.287    0.223
       217  -9.0149     14.1159     54.5507   1.0413634870e+02   6.3868033890e+01     0.334754      0.13295 -58.85   0.00107308    2.079    0.519
       218  -9.5396    180.8335     58.3158   5.4534168329e+01   3.2379872315e+01    0.3252488    0.2131402 -28.62 0.0009374992    1.604    0.377
       219  -9.5419    132.8800     58.4498   6.4355086176e+01   4.4080694142e+01    0.2955431    0.2186019  22.33  0.001394894    1.600    0.375
       220  -9.3995    128.9962     57.9831   6.5147826420e+01   4.5064633276e+01    0.2329446    0.2114566 -77.41  0.001249357    1.265    0.209
       221  -9.8308    136.9036     55.9159   6.2563850467e+01   4.3541089137e+01    0.4120232    0.2645129 -16.99 0.0007937136    1.908    0.476
       222  -9.6365     60.5564     57.8740   8.6422100106e+01   5.8289737364e+01    0.2516052    0.2433228 -79.23  0.001066771    1.337    0.252
       223 -11.9334    225.8653     55.2900   4.7189212635e+01   2.2087062872e+01    0.2795166     0.225118 -48.97 0.0003001876    1.110    0.099
       224  -8.9036    104.8590     57.1486   7.1355698028e+01   5.0543824669e+01    0.2123353    0.1992563 -54.36 0.0006304935    1.207    0.171
       225  -8.7185     98.8856     56.7830   7.3002151739e+01   5.1832025995e+01    0.1858417    0.1715572 -66.10 0.0006092783    1.308    0.235
       226  -8.5683     55.3165     57.2735   8.8198459807e+01   5.9137661925e+01    0.1877284    0.1548388  85.16 0.0002931149    1.949    0.487
       227  -9.6144     52.5874     54.1069   8.8152160844e+01   6.0117581164e+01      0.34877    0.2138594 -50.51  0.001369818    1.629    0.386
       228  -8.3836    218.3477     56.3027   4.8390375787e+01   2.3659035699e+01    0.1367341    0.1082046  26.52 0.0004605613    1.692    0.409
       229 -10.5956    118.1632     53.5229   6.6386204243e+01   4.8268566128e+01    0.4950322     0.291684 -27.68  0.002188426    1.790    0.441
       230 -10.0691    122.9974     52.0139   6.4612197148e+01   4.7414904633e+01    0.4302473    0.3655949  25.51  0.002307425    1.197    0.165
       231 -10.0991    123.7209     47.9740   6.3023319089e+01   4.7875330516e+01    0.2725205    0.2370326  27.66 0.0002706099    1.142    0.124
       232 -10.2060    124.6213     45.0000   6.1759113972e+01   4.8111268930e+01    0.4329859    0.2053428  54.88  0.001761957    2.071    0.517
       233 -10.6538     83.1965     51.8288   7.6188965450e+01   5.5707045251e+01    0.4555923    0.4277098 -48.65 0.0002995069    1.257    0.205
       234  -9.6119     83.4837     45.2161   7.3590310348e+01   5.6767676442e+01    0.5033661    0.3103296 -62.63  0.001749696    3.304    0.697
       235  -8.6435    192.3301    248.3091   9.4415660436e+01  -3.7003412342e+00    0.1221323   0.08021142  10.79 0.0004528245    1.665    0.399
       236  -9.1354     87.7929     46.1563   7.2544603242e+01   5.5802246153e+01    0.2625373    0.1717218 -31.26  0.000243261    1.477    0.323
       237 -12.0594    103.6051     39.3624   6.5183339109e+01   5.3631019852e+01    0.5844978    0.4356654 -22.71 0.0006252723    1.347    0.258
       238  -9.7301     82.3613     38.7128   7.1406800399e+01   5.8001081952e+01    0.2622303    0.2147753 -23.40 0.0007271588    1.165    0.142
       239 -10.3313    163.4898    246.2069   9.9482093006e+01   1.0011057665e+00    0.2325821    0.1776531 -30.62  0.001365634    1.570    0.363
       240 -10.1713     77.8540     34.7692   7.1315907532e+01   5.9426144139e+01    0.4586852    0.2399064  44.49 0.0007176599    1.926    0.481
       241 -10.6119     73.9008     29.2916   7.0375709874e+01   6.0929611960e+01    0.5537399    0.3899676  36.15  0.003136336    1.370    0.270
       242  -9.6150     93.2950     54.9691   7.4073832942e+01   5.3256213365e+01    0.3198821    0.2360101 -14.71 0.0009840133    1.450    0.311
       243 -11.7670     95.2688     49.3400   7.1394589840e+01   5.3819498119e+01    0.9910595    0.4682856  39.29  0.002352143    2.184    0.542
       244  -9.3135     42.7157     44.5804   8.8693481116e+01   6.3157683191e+01     0.217475    0.1954409 -25.71 0.0005665643    1.165    0.142
       245  -9.1209     32.1520     41.7618   9.2182759825e+01   6.4860447095e+01    0.3125561    0.2422203 -49.85  0.001985847    1.357    0.263
       246  -9.9719     46.9435     46.8851   8.7802228428e+01   6.2211128494e+01    0.3361867    0.2236952 -20.45  0.000620753    1.495    0.331
       247 -12.1835     41.3583     37.6114   8.6585072698e+01   6.4570515717e+01    0.4897453    0.2814959 -22.91  0.002557969    1.787    0.440
       248 -11.0824     42.1265     51.4971   9.1425057847e+01   6.1919070670e+01    0.6057432    0.3285755 -53.22  0.002196606    1.852    0.460
       249 -10.0038     37.7987     46.1783   9.1349800285e+01   6.3427993084e+01    0.4347076    0.3257751 -35.45  0.002700232    1.111    0.100
       250  -8.4454    243.4894     55.5721   4.5212472494e+01   1.8171333739e+01    0.1326078    0.1147986 -56.01 7.757267e-05    1.020    0.020
       251 -10.4783    191.4587     54.3740   5.1695504695e+01   3.0362906116e+01    0.3011654    0.2547808 -32.54  0.001635089    1.209    0.173
       252 -10.2475     57.7391     33.9528   7.8331615652e+01   6.2929114013e+01    0.8646092    0.5079952  45.83  0.002864212    2.068    0.516
       253  -9.1099      1.4594    244.0503   1.2861455112e+02   2.3019798562e+01    0.1458912   0.07805664 -89.51 0.0004108064    1.526    0.345
       254 -11.0682     71.2374     51.7025   8.0280235768e+01   5.7800429445e+01    0.3967802    0.2759443 -12.39 0.0002218621    1.590    0.371
       255 -10.1025     41.3948     21.8419   7.9799250701e+01   6.7105136761e+01    0.4565104    0.2958009  59.69  0.002090833    3.885    0.743
       256  -9.9267    202.8648    242.1911   9.1569441661e+01  -4.4502012015e+00    0.1738232    0.1406454  28.25 0.0005117769    1.131    0.116
       257  -9.2814    247.2055    239.4160   8.3321675093e+01  -1.0350776265e+01    0.1541439   0.09551457  38.79 0.0009556183    1.759    0.431
       258  -9.0267    221.1945    237.6001   8.7533929299e+01  -6.5371123784e+00    0.1713364    0.0925942  25.65 0.0009395109    1.671    0.402
       259  -9.1881     51.8224     28.8506   7.8514691207e+01   6.4601783368e+01    0.2992447    0.1608186  37.03  0.001196954    1.933    0.483
       260  -9.4012     48.9676     26.0463   7.8455744505e+01   6.5436964122e+01    0.2746162    0.2117346  12.85  0.001269097    1.204    0.169
       261 -10.6637     65.3937     49.5913   8.1622610392e+01   5.9113668102e+01    0.4366234    0.2623689 -19.68   0.00126077    1.935    0.483
       262  -8.8171    168.2965    237.6567   9.7368290434e+01   1.5431797723e+00    0.1180878   0.09279505  65.46 0.0005768714    1.667    0.400
       263 -10.7745     67.5870     44.4402   7.8840924431e+01   5.9664579891e+01    0.4254457    0.2949153   4.47 0.0006548488    1.641    0.391
       264  -8.5034    106.9003     52.9644   6.9276843590e+01   5.0821518047e+01    0.1720286     0.151082  34.98  0.000393498    1.121    0.108
       265  -9.0259      8.4508     43.9435   1.0357258101e+02   6.6395857053e+01    0.1652119    0.1340645 -30.62 0.0003270773    1.116    0.104
       266 -11.0783      5.0096     37.8357   1.0329403169e+02   6.7803475292e+01    0.4391699     0.381616 -86.56  0.002517277    1.626    0.385
       267  -8.6045      5.2733     31.6660   1.0113672065e+02   6.8961272777e+01    0.3896026    0.2308225   8.01  0.002456903    1.873    0.466
       268 -10.4679      6.7618     50.3710   1.0614939401e+02   6.5195980249e+01    0.3269659     0.234934 -69.27  0.001804951    1.472    0.321
       269 -11.3532     11.7936     45.5100   1.0253637780e+02   6.5867450700e+01    0.7541646    0.1256956 -51.13  0.002848929    3.346    0.701
       270 -11.6279     14.5309     39.0665   9.9221630505e+01   6.6933366425e+01    0.5692362    0.3452837 -63.88  0.002605107    1.941    0.485
       271 -10.1874    176.4076     49.7854   5.2814264507e+01   3.4757080862e+01    0.5122443    0.2405375  45.59  0.001993516    2.382    0.580
       272  -8.9385    181.4154     49.2128   5.1825880725e+01   3.3596003366e+01    0.2235605    0.1414713 -33.89  0.001040638    1.579    0.366
       273  -9.7663     18.2317     47.4318   1.0026510795e+02   6.5020214795e+01    0.3169985    0.2414715 -51.64  0.002088879    1.208    0.172
       274  -9.5077    203.8198     46.5290   4.7789934715e+01   2.8493524711e+01    0.3986283    0.2132182  40.55  0.001646384    2.561    0.610
       275  -9.0843    196.9442     48.0677   4.9152988725e+01   2.9940053577e+01    0.2069165    0.1997345  73.55 0.0005108973    1.103    0.093
       276  -9.4877     31.7581     47.8266   9.4504692510e+01   6.3748206281e+01    0.1755478    0.1378837 -27.72 0.0005439772    1.066    0.062
       277 -10.3288    114.6685     46.1911   6.4704113097e+01   5.0201647833e+01     0.288242    0.2291401 -19.02 0.0007630453    1.285    0.222
       278  -9.0601     26.8361     44.1712   9.5387285537e+01   6.4927482233e+01    0.2369844     0.133776 -46.23 0.0006423455    1.456    0.313
       279  -9.5639    245.7323     45.2101   4.2608527376e+01   1.9139867617e+01    0.3267125     0.216212 -70.62  0.001326946    1.538    0.350
       280  -9.2314    164.7657     46.0505   5.3713498370e+01   3.8195443289e+01    0.1953754    0.1876976 -51.06 0.0003402986    1.055    0.052
       281  -9.2931    133.9228     45.6149   5.9789626011e+01   4.5829374087e+01    0.2979222    0.2103398 -40.82  0.001462853    1.471    0.320
       282  -9.6890    179.6507     43.1176   5.0351031136e+01   3.4893116670e+01    0.4653961    0.2035522 -33.03  0.001486396    2.255    0.556
       283  -8.9210    176.1684     44.6913   5.1363766438e+01   3.5542281750e+01    0.2995167    0.1898703  86.66   0.00127744    1.945    0.486
       284  -9.6202    186.5034     36.8908   4.7556235565e+01   3.4026198254e+01    0.2811895    0.2208787 -52.41 0.0006927417    1.247    0.198
       285  -9.1430    182.2041     38.8432   4.8733472177e+01   3.4835176207e+01    0.2331435     0.182051  82.76 0.0004295383    1.288    0.224
       286  -9.9543    176.6192     36.5648   4.8917239920e+01   3.6523672311e+01     0.374805    0.2483498 -89.76  0.001116294    1.749    0.428
       287  -9.6000    199.9882     43.4648   4.7491516628e+01   2.9842922848e+01    0.2515902    0.2007543 -36.29 0.0003719406    1.253    0.202
       288  -9.1856    157.5378     43.4737   5.4233083142e+01   4.0358113272e+01    0.2370483    0.1410691 -29.49 0.0006695889    1.752    0.429
       289  -9.3638    157.9680     39.2009   5.2812080540e+01   4.0833695630e+01    0.2823756    0.1867359 -54.44  0.001328869    1.701    0.412
       290  -9.3840    149.8209     43.8907   5.5846926200e+01   4.2211403092e+01    0.2206737    0.1909629  26.36 0.0004521967    1.241    0.194
       291  -9.2361    141.6931     43.4531   5.7363551025e+01   4.4265296200e+01     0.390713    0.2055358  35.97  0.001547841    2.343    0.573
       292 -10.1726     53.1377     42.8553   8.3766997574e+01   6.2115775731e+01    0.2423055    0.1900587 -44.10 0.0004386282    1.351    0.260
       293  -8.4901    209.6288     42.1875   4.5905907116e+01   2.7703404614e+01    0.1852766    0.1306672 -21.09 0.0009382034    1.655    0.396
       294  -8.9997    121.2868     39.4215   6.0585409010e+01   4.9681276223e+01    0.2599053     0.205944  31.80  0.001382213    1.259    0.206
       295 -10.3757    135.9857     36.1539   5.6102277832e+01   4.6643280796e+01    0.4391807    0.3783453 -55.08 0.0003709544    1.280    0.219
       296  -9.8420    152.3507     31.7735   5.1459392239e+01   4.3185118972e+01    0.3749448    0.2453176  61.89  0.001064194    1.442    0.307
       297  -9.6350    186.6160    231.1994   9.2889280846e+01  -3.8748655945e-01    0.1678055    0.1116525 -24.70 0.0009484927    1.729    0.422
       298 -10.6630    142.1391     23.8910   5.0718710789e+01   4.6634890701e+01    0.5273945    0.2979479  21.43  0.001223566    2.651    0.623
       299 -11.1641    127.2782     39.4086   5.9160274661e+01   4.8285016198e+01    0.4158546    0.3099295 -26.86 0.0006266169    1.385    0.278
       300 -10.3859    131.0798     36.4324   5.7257470565e+01   4.7784775391e+01    0.3977037    0.3596306 -79.64 0.0006627877    1.253    0.202
       301  -9.4678     91.0194     41.0157   6.9540410038e+01   5.5981900437e+01    0.2024623    0.1881177  -7.60 0.0003607052    1.082    0.076
       302 -10.4074    228.2241     37.7755   4.2675398829e+01   2.3978617510e+01    0.3516935    0.1890661 -42.34 0.0004077273    1.640    0.390
       303  -8.7393    191.2393     39.1924   4.7530827487e+01   3.2555776240e+01    0.3092673    0.1285871 -20.75  0.001057105    3.513    0.715
       304  -8.8571    165.9296     39.6371   5.1554602246e+01   3.8788788095e+01    0.1957839    0.1699974  71.17 0.0003820011    1.114    0.102
       305  -9.3027    215.0911     38.6499   4.4346925853e+01   2.6888117260e+01    0.3183342    0.1812582 -56.61  0.001510639    1.769    0.435
       306  -8.3541     78.6263     39.2018   7.2854328457e+01   5.8615497340e+01    0.1799626    0.1179821 -21.11 8.515324e-05    1.533    0.348
       307  -9.1372     24.5294     38.6936   9.4475451321e+01   6.6174090943e+01    0.2303232    0.1731808 -18.29  0.001507975    1.185    0.156
       308  -9.8967    238.0626     37.8498   4.1688004767e+01   2.1779835795e+01    0.2139693    0.1724683 -41.82 0.0002962169    1.181    0.153
       309 -10.4887    208.2591     34.8825   4.4192472276e+01   2.8995225629e+01    0.4735861    0.2936137 -16.51 0.0008688733    2.118    0.528
       310  -9.9280    211.9857     28.1448   4.2055937220e+01   2.8958441081e+01    0.2290322    0.2009444 -68.13 0.0003318438    1.018    0.018
       311  -8.9821    207.8846     26.8005   4.2166150620e+01   3.0093856362e+01    0.2137406     0.160858 -73.89 0.0004713102    1.273    0.215
       312  -9.5390    204.5226     24.0344   4.1830159376e+01   3.1226860618e+01    0.2626902    0.2174007  75.93  0.001105214    1.160    0.138
       313  -9.0394    216.7342     33.7510   4.2935678150e+01   2.7141381587e+01    0.4040745     0.209455 -75.63  0.001693578    2.552    0.608
       314  -9.2462     47.6219     34.6212   8.2712959754e+01   6.4273951771e+01     0.197064    0.1347179  15.74 0.0005798429    1.499    0.333
       315  -8.6241     99.8582     30.7948   6.2911736456e+01   5.5607203477e+01    0.2172248    0.1517586 -31.12 0.0003040724    1.463    0.317
       316  -8.7510    223.5056    225.0023   8.5020153285e+01  -5.2044929336e+00    0.1683095    0.1117999 -28.62 0.0005415234    1.517    0.341
       317 -10.2466     99.7739     26.8425   6.1365796433e+01   5.6127259263e+01    0.9242435    0.2880186  38.01  0.002825597    4.366    0.771
       318  -8.4890      2.1457    224.3783   1.2763532403e+02   2.6642491966e+01    0.1445117   0.07213317  51.59 0.0004679071    1.618    0.382
       319  -8.8378    232.8235     31.8413   4.0808023678e+01   2.3712821998e+01    0.1929024     0.131392 -64.74 0.0005672961    1.370    0.270
       320 -10.8473    186.1157     29.8677   4.5642971921e+01   3.5009135750e+01    0.7077194    0.3994352  74.32  0.002530066    1.788    0.441
       321  -9.7197    124.3228     30.2576   5.6569293293e+01   5.0175244931e+01    0.3648407    0.2677053 -55.67  0.001868859    1.670    0.401
       322  -8.7614     13.9076     28.8943   9.5851612128e+01   6.8861522761e+01    0.3191011    0.1509621  22.72  0.001767416    2.336    0.572
       323  -8.6759    196.4946    222.5005   8.9598561814e+01  -6.5589539603e-01    0.1289271    0.1073743  15.76 -0.0002233921    1.036    0.035
       324  -9.1541     88.9040    221.0178   1.1099279176e+02   1.6954046565e+01    0.1943258    0.1655049  63.55 0.0007050124    1.026    0.025
       325  -8.2619    183.4954    219.4709   9.1603912215e+01   1.9355724934e+00    0.1295583    0.1124538  24.10  2.58313e-05    1.023    0.022
       326  -8.8585    202.9826    217.8293   8.7574839739e+01  -9.9234399854e-01    0.1927769    0.1456946  10.86 0.0003437789    1.256    0.204
       327  -8.3695      2.2494    211.9676   1.2700503822e+02   2.9090120648e+01    0.1367288   0.07321247 -86.16 0.0003730965    1.495    0.331
       328  -8.8541    230.8858    209.3340   8.0922546754e+01  -4.1320655726e+00    0.1784771    0.1356854  15.15  0.000494091    1.152    0.132
       329  -9.8194     34.5012    200.4821   1.2006869184e+02   2.8275170033e+01    0.3019171    0.1302785  65.97  0.001406236    2.481    0.597
       330 -11.0271     19.3034     29.0750   9.3274974861e+01   6.8379739420e+01    0.3259869    0.1965045  -4.46 0.0003863027    1.794    0.443
       331 -10.6538     27.5482     31.4433   9.0295948230e+01   6.7185264279e+01    0.6344412    0.3024561 -16.47  0.002263184    3.185    0.686
       332 -11.1550     23.3311     30.8326   9.2037559508e+01   6.7704395439e+01     1.243853    0.3003043  23.19  0.001481689    5.885    0.830
       333  -7.9656    203.2815     31.3413   4.3867393025e+01   3.0636676319e+01    0.1307412    0.1045365  28.49  0.000701116    1.630    0.386
       334  -9.0524    159.1665     31.1701   5.0084924993e+01   4.1563210253e+01    0.2029367    0.1554217 -55.82  0.001035626    1.398    0.285
       335  -9.1529    247.3002     30.1970   3.9105631234e+01   2.0772233126e+01    0.2014519    0.1606379  67.51 0.0006530414    1.390    0.280
       336  -9.7738    134.0328     27.4256   5.3491965165e+01   4.8201444938e+01    0.2359938     0.202069 -23.94 0.0004133875    1.234    0.190
       337 -10.2616    159.1103     24.5277   4.8018767633e+01   4.2362417344e+01    0.2462961    0.2249546 -68.70 0.0005191655    1.119    0.107
       338  -9.3620    169.8668     23.1359   4.5962876761e+01   3.9838376503e+01    0.2439946    0.1750787 -50.38 0.0002938904    1.438    0.305
       339 -10.4883    165.0085     25.7726   4.7479157258e+01   4.0748591007e+01    0.4922833    0.2907634 -66.32  0.001714934    2.174    0.540
       340  -8.6805    120.4255    199.2253   1.0148203864e+02   1.6411880363e+01    0.1767977    0.1291354 -75.91 0.0006214087    1.579    0.367
       341  -9.4479      7.0802    194.8558   1.2512875216e+02   3.2212947180e+01    0.2154136    0.1352036  52.84  0.001422669    1.449    0.310
       342  -8.5299     92.1863    188.3926   1.0620614905e+02   2.3317997558e+01    0.1897467    0.1145863  49.95  0.000727317    1.574    0.365
       343 -10.7446      1.6936     22.3033   9.9576297154e+01   7.0883200770e+01    0.1601639     0.124344 -35.89 0.0002662544    1.108    0.097
       344  -8.8201    178.0047     25.2420   4.5433352578e+01   3.7571414168e+01    0.1949312    0.1659343  76.61 0.0003828992    1.098    0.089
       345 -11.1521    153.5622     23.0785   4.8462125847e+01   4.3905601886e+01    0.3120323    0.2330545  45.23 0.0003377083    1.334    0.250
       346 -10.2689    123.8477     22.5419   5.3873988252e+01   5.1192088754e+01    0.4653502    0.2931239 -83.74 0.0009685301    2.607    0.616
       347  -9.4909     55.4345    181.4213   1.1369790609e+02   3.0064420979e+01    0.2200721    0.1849089  84.07 0.0002405907    1.001    0.001
       348 -10.9936    105.0960     20.9107   5.7608347688e+01   5.5665713745e+01    0.4744172     0.267063  64.70 0.0003063864    2.026    0.506
       349  -9.4672     17.1524    174.8110   1.2160382861e+02   3.5723414824e+01    0.1565095     0.125705 -66.45 0.0004488323    1.317    0.240
       350 -10.5402     61.6311     23.8349   7.2421679257e+01   6.3801235157e+01    0.3003136    0.2178653 -10.78   0.00178463    1.273    0.214
       351  -9.8078     66.0348     22.7299   7.0293270625e+01   6.3206388148e+01    0.3660805    0.2638584  22.87  0.001834128    1.293    0.227
       352  -9.3992     16.4697    169.4785   1.2130545304e+02   3.7002127493e+01    0.1227214   0.09558242  89.91 4.167284e-05    1.010    0.010
       353 -10.5513      5.8557    167.9003   1.2352677218e+02   3.8261573195e+01    0.3026356    0.1968561 -37.08  0.001021729    2.306    0.566
       354  -9.1408    233.8393     24.5599   3.9028189969e+01   2.4389583963e+01    0.3001892    0.1213425  75.97  0.001290538    2.632    0.620
       355  -9.0400    243.7454     23.0512   3.7831584649e+01   2.2410645098e+01    0.2755343    0.1263627 -72.31  0.001191359    2.705    0.630
       356  -9.7616    175.2117     21.7486   4.4806190682e+01   3.8664045455e+01      0.47242    0.1985021  51.79  0.001684064    2.338    0.572
       357 -11.5840     37.7928    159.5509   1.1531489887e+02   3.7247303353e+01    0.6062611    0.3401487  63.19  0.002374955    1.909    0.476
       358  -8.6253     85.5346     23.4826   6.4106915224e+01   5.9483329748e+01    0.1344833    0.1148337  15.17 0.0004742167    1.034    0.033
       359 -12.1959     30.4039    154.5458   1.1655048748e+02   3.9198106430e+01    0.6470708    0.4247067  64.77  0.002754124    1.530    0.346
       360  -9.2991     20.4923    161.4786   1.1965898691e+02   3.8493620446e+01     0.203504    0.0928967  44.36  0.000832405    2.190    0.543
       361  -8.7497     10.0836     22.7090   9.5340537889e+01   7.0240375452e+01    0.1489383    0.1122285 -21.72 0.0004249362    1.079    0.073
       362  -9.1067    189.0737     21.3945   4.2922213470e+01   3.5278999014e+01    0.2437357    0.1914739  -1.45  0.001100631    1.651    0.394
       363  -9.5680    132.3419     21.6824   5.1822815896e+01   4.9261252970e+01    0.2761181    0.2372698  81.22 0.0008906642    1.243    0.196
       364  -9.8641     21.4961    141.4844   1.1730006449e+02   4.3149900974e+01    0.2381619    0.1890641 -86.15 0.0008474012    1.058    0.055
       365 -10.0517     93.6609     20.2506   6.0372670572e+01   5.8204835895e+01    0.2136738      0.18188  45.16 0.0002986913    1.164    0.141
       366 -10.8826      2.5478    153.0402   1.2309789569e+02   4.1919803220e+01    0.6365218    0.1542401 -68.19  0.002642791    2.863    0.651
       367 -10.2008     11.2900    151.9951   1.2093905676e+02   4.1498989028e+01    0.2837571    0.2081135 -67.63  0.001297249    1.227    0.185
       368  -9.6692    198.7482     13.9694   3.9852350389e+01   3.3746148971e+01    0.2483235    0.1720325  86.00 0.0005655462    1.361    0.265
       369  -9.6787    235.6139     18.7605   3.7553732475e+01   2.4687115178e+01    0.3409168    0.1547862  80.12  0.001482301    2.306    0.566
       370  -8.7773    193.6832     18.6397   4.1634983249e+01   3.4462002894e+01    0.1975712    0.1468187  33.11 0.0007432637    1.723    0.420
       371  -9.4327    225.8117     16.5080   3.7879810610e+01   2.7135154783e+01    0.2313706    0.1622557 -40.38 0.0009915109    1.353    0.261
       372  -9.7790     73.0800     16.6158   6.5077644522e+01   6.2700291281e+01    0.2158545    0.1747351 -40.15 0.0005273171    1.525    0.344
       373 -11.4504      5.5061    146.0464   1.2178566746e+02   4.3332934823e+01    0.6317899    0.3549231  74.09  0.003350877    1.747    0.428
       374 -10.7290     13.8705    143.7666   1.1949464502e+02   4.3235736311e+01    0.3454065    0.3035403 -29.37  0.002156961    1.501    0.334
       375  -9.8048     17.4889    140.4636   1.1821786598e+02   4.3731152608e+01    0.2214643    0.1809293 -82.66 0.0006003354    1.035    0.033
       376  -8.9011    179.5086     13.4642   4.1884409658e+01   3.8489499810e+01    0.2134257    0.1209744  70.88 0.0005306564    1.620    0.383
       377 -10.6336     45.5792    152.0216   1.1242407762e+02   3.8204492247e+01    0.4040343    0.2026291 -51.42  0.001895982    2.019    0.505
       378 -10.2215     24.6249    162.7635   1.1881632160e+02   3.7809828750e+01     0.214799    0.1860619  70.56  0.000258994    1.172    0.147
       379  -9.4877    139.3320     13.8407   4.7825168451e+01   4.8376041462e+01    0.2638401    0.1663327  56.49 0.0007382999    1.411    0.291
       380  -9.4129     54.1004    145.9854   1.0934372693e+02   3.8675729030e+01    0.2020044    0.1721236 -81.31 0.0003472528    1.025    0.025
       381  -8.8607     30.1899    141.9948   1.1509874297e+02   4.2238962017e+01    0.1814256    0.1391513 -76.04  0.001103307    1.071    0.066
       382  -9.3429     41.6339    139.0160   1.1164608108e+02   4.1808280449e+01     0.241353    0.1657806  67.33  0.001079667    1.575    0.365
       383  -9.4047    236.0053    137.0098   6.5183095762e+01   6.5314518228e+00    0.2143081    0.1900021 -28.09 0.0004777562    1.042    0.040
       384  -9.9415     34.4692    136.5036   1.1322896544e+02   4.3158802443e+01    0.2627444    0.2251315  43.68  0.001198094    1.337    0.252
       385 -10.8907      2.1865     25.5797   1.0054025163e+02   7.0267270730e+01    0.2096306    0.1421106 -45.00 0.0002804224    1.182    0.154
       386  -9.1751     58.5239    135.9697   1.0653036652e+02   4.0588684913e+01    0.2066727   0.09233984 -45.00 8.846963e-05    2.525    0.604
       387 -10.1902      2.2660    134.3895   1.2149373050e+02   4.6293556081e+01    0.3105622     0.155817 -81.53  0.001102479    1.620    0.383
       388 -10.2071      3.2947    130.3550   1.2082315976e+02   4.7177101873e+01     0.291924   0.09676067 -64.48  0.001219655    2.185    0.542
       389  -8.5319     83.0158    134.4585   9.9429827401e+01   3.7509834788e+01    0.1909443    0.1456072  36.75 8.365438e-06    1.425    0.298
       390 -10.4728     43.2781    130.9492   1.0996885740e+02   4.3609492174e+01    0.5914304    0.2164402 -47.64  0.002273037    2.881    0.653
       391  -8.4593     26.7491     12.7606   8.2306411743e+01   7.0231352056e+01     0.144721    0.1267496 -26.05  0.001045301    1.407    0.289
       392 -10.1479     61.8193    131.2900   1.0477996905e+02   4.1319369168e+01    0.3085945    0.2310985  82.92  0.001268769    1.478    0.323
       393  -8.8444    219.2316     11.4104   3.7257852585e+01   2.9202173629e+01    0.1787188    0.1079464 -88.01 0.0007671788    1.615    0.381
       394 -10.3342     32.2705    121.7313   1.1166985874e+02   4.6974268388e+01    0.6108431    0.2808053 -48.16   0.00280914    2.105    0.525
       395  -9.4202     23.7329    133.3976   1.1572240472e+02   4.4906147026e+01    0.1993292    0.1770391  40.73 0.0005884705    1.347    0.258
       396 -10.2424     20.2137    131.4702   1.1643148006e+02   4.5668121901e+01    0.2886654    0.2038216  77.18 0.0003394595    1.421    0.296
       397 -11.9439     28.7071    131.9625   1.1417565604e+02   4.4812073981e+01    0.2698608    0.2164981 -77.99 0.0002756344    1.037    0.036
       398 -10.8643     33.9056    128.8958   1.1229248490e+02   4.5070689478e+01    0.3532162    0.2860663  33.67  0.001122609    1.459    0.315
       399  -9.4302     12.6311    130.8512   1.1840157060e+02   4.6409479838e+01    0.1806731     0.129349 -81.25  0.001118392    1.135    0.119
       400 -10.6567     12.0773    127.3129   1.1813700895e+02   4.7295984965e+01    0.3064319    0.2448469 -66.67  0.001146704    1.114    0.103
       401 -10.6006      7.6922    123.4351   1.1888244651e+02   4.8526908946e+01    0.2905416    0.2021996  66.67  0.001793599    1.527    0.345
       402  -8.7620    232.8356    128.1747   6.3700048486e+01   8.6538085473e+00    0.1985011    0.1603884  -5.74 0.0008711561    1.338    0.253
       403  -9.1714     88.6164    127.1254   9.6324348418e+01   3.8404884776e+01    0.2144296      0.16996 -57.07 0.0005745833    1.171    0.146
       404  -8.9491    217.9729    125.5065   6.5609521438e+01   1.2108840868e+01    0.2431701    0.1814256 -35.89  0.001233751    1.222    0.182
       405  -9.5684     59.8663    125.8554   1.0433471467e+02   4.2910043505e+01    0.2087656    0.1715859 -47.90 0.0003252317    1.204    0.170
       406 -10.0533      8.1344    133.0894   1.1984118839e+02   4.6201717826e+01    0.2470568    0.1761265  -8.21  0.001509244    2.066    0.516
       407  -9.2646    123.6409    121.0561   8.5248985589e+01   3.3408190216e+01    0.2397501    0.2121504  63.26 0.0003776083    1.214    0.176
       408 -10.5487     33.8661    114.3576   1.0999192514e+02   4.8618598212e+01     0.472418    0.2510426  83.02  0.001953516    2.910    0.656
       409 -10.1744     14.0318    113.3246   1.1577946966e+02   5.0502765688e+01    0.3059817    0.2279637  24.38   0.00164278    1.680    0.405
       410 -11.1443     19.3969    109.3846   1.1358709204e+02   5.1051711325e+01    0.5725894    0.3789154 -34.04  0.002325732    1.736    0.424
       411 -11.4432     21.3316    119.5790   1.1452654154e+02   4.8447764771e+01    0.5312765    0.4225046  65.03   0.00336763    1.373    0.272
       412 -10.5556     28.9709    114.5215   1.1149841311e+02   4.9026452922e+01    0.6706075     0.200279 -49.51  0.002010429    3.017    0.668
       413  -9.2944    237.1962    120.6084   6.1255944374e+01   9.0973370654e+00    0.1913434    0.1298229  36.58  0.000954275    1.714    0.417
       414  -9.3327     93.3295    119.1181   9.3162161365e+01   3.9548432787e+01    0.2744848    0.2439679 -25.27 0.0009015938    1.228    0.186
       415  -8.9413     44.6656    119.9075   1.0771517407e+02   4.6168709086e+01    0.2111433    0.1870876  -8.49 0.0006303441    1.386    0.279
       416 -11.0948     54.7413    118.1014   1.0436443724e+02   4.5453010503e+01    0.2330587     0.209139 -66.77 0.0002565527    1.033    0.032
       417  -9.3239      7.7577    107.2116   1.1680544976e+02   5.2374494616e+01    0.2934608    0.1707491 -76.63   0.00165239    1.433    0.302
       418 -10.4130      1.7060    115.9786   1.1968565704e+02   5.0669271549e+01    0.3499739    0.2949943  54.81   0.00151566    1.385    0.278
       419 -10.3293      4.2706    112.3754   1.1851651611e+02   5.1367332189e+01    0.4452528    0.1192213 -64.89  0.001515159    2.500    0.600
       420  -8.8722     67.0124    118.2285   1.0070693055e+02   4.3832677619e+01    0.1718582    0.1207635  33.07 0.0005962386    1.599    0.374
       421  -9.7835      9.4068    117.9694   1.1773925704e+02   4.9713142085e+01    0.2006007    0.1561445 -38.86  0.000428735    1.460    0.315
       422  -9.3779     83.2452    117.2694   9.5668840557e+01   4.1657882255e+01    0.1996734    0.1672971  74.41  0.001002439    1.363    0.266
       423  -9.9422     61.5234    114.5113   1.0158281125e+02   4.5475351387e+01    0.2888407    0.2222339 -82.57  0.001533732    1.403    0.287
       424 -10.1867     62.8433    111.1117   1.0044872466e+02   4.6127181152e+01    0.3304423     0.195292 -54.05  0.000244413    1.477    0.323
       425  -9.4747    129.2736    109.0117   8.0625820713e+01   3.4955809018e+01    0.3277879    0.1609262  54.34  0.001164977    2.471    0.595
       426 -10.0777     37.0786    107.7267   1.0781430619e+02   4.9915831947e+01    0.3920304    0.2052349 -51.37  0.001510956    1.636    0.389
