#   1 NUMBER                 Running object number                                     
#   2 MAG_AUTO               Kron-like elliptical aperture magnitude                    [mag]
#   3 X_IMAGE                Object position along x                                    [pixel]
#   4 Y_IMAGE                Object position along y                                    [pixel]
#   5 X_WORLD                Barycenter position along world x axis                     [deg]
#   6 Y_WORLD                Barycenter position along world y axis                     [deg]
#   7 A_WORLD                Profile RMS along major axis (world units)                 [deg]
#   8 B_WORLD                Profile RMS along minor axis (world units)                 [deg]
#   9 THETA_WORLD            Position angle (CCW/world-x)                               [deg]
#  10 FWHM_WORLD             FWHM assuming a gaussian core                              [deg]
#  11 ELONGATION             A_IMAGE/B_IMAGE                                           
#  12 ELLIPTICITY            1 - B_IMAGE/A_IMAGE                                       
         1 -12.8884    108.8547     34.6559   7.9283199348e+01   5.3709634171e+01     1.250908    0.8566632  66.48   0.00572212    1.899    0.473
         2 -12.6098    113.7740     27.2984   7.4843667862e+01   5.3601722351e+01     1.067691    0.4360215 -31.58  0.004064462    2.433    0.589
         3 -11.8407    119.2342      9.7812   6.6073739870e+01   5.4300158117e+01    0.7922122    0.4513316  43.08  0.003138033    1.595    0.373
         4  -8.2475    238.6436      8.3359   4.9598563679e+01   2.4051959265e+01    0.1427571   0.07936239 -57.24 0.0007041983    1.803    0.445
         5  -9.2474    171.4242      2.2059   5.4383690187e+01   4.1316701695e+01    0.1989998    0.1204394 -36.81  0.000943413    1.714    0.417
         6 -11.9279    240.1880    243.2977   1.0042596372e+02  -4.8243591175e+00    0.2034881    0.1504419  16.19 0.0002793869    1.154    0.134
         7 -16.3887    148.5545    182.7755   1.0822504693e+02   1.7282951558e+01     2.178391    0.5239025  36.69  0.006724392    4.080    0.755
         8 -14.7534    164.5611    166.3647   1.0182269381e+02   1.7271371197e+01    0.6062058    0.3723693 -48.20  0.002122956    1.930    0.482
         9 -18.9531    145.7737    163.8880   1.0555542409e+02   2.1155284018e+01     5.798191      5.75608 -43.37   0.02157084    1.151    0.131
        10 -11.3691    236.2943    151.5522   8.4679229836e+01   6.2853063732e+00    0.5609872    0.3469348  18.87  0.002301072    1.637    0.389
        11 -11.4336    236.7512    145.0329   8.3204620454e+01   7.0853398838e+00    0.7292497    0.5131479  52.45  0.003950336    1.823    0.451
        12 -12.0569    225.8554    142.8040   8.4614479054e+01   9.3937147331e+00    0.8445476    0.5496262 -40.66  0.001262155    1.769    0.435
        13  -8.5319     66.4897    232.5175   1.3071413438e+02   2.0611779610e+01    0.1085004   0.08138765  54.16 0.0003949748    1.005    0.005
        14  -9.9980    250.1414    147.7135   8.1562430377e+01   4.3905591182e+00    0.4571086    0.1560615 -32.72  0.001775478    2.702    0.630
        15 -10.8121    237.7516    111.1241   7.5332575864e+01   1.1594181607e+01     1.099602     0.292995 -43.05  0.002931174    5.909    0.831
        16 -10.2294    248.1113    138.1473   7.9832405501e+01   5.9832610835e+00    0.6524909    0.2056097 -38.48  0.002403255    3.417    0.707
        17 -11.3868    244.6386    127.1146   7.7939307036e+01   8.0798673208e+00     1.026906    0.2820807 -40.32  0.003266278    4.393    0.772
        18  -9.9856    242.0000    120.9544   7.6955463690e+01   9.4113678714e+00     0.427919    0.1345033 -33.22 0.0009143102    2.847    0.649
        19  -9.7468     24.8841    163.3081   1.3428345600e+02   3.7976565940e+01     0.299423    0.1206962 -72.99  0.001154082    2.193    0.544
        20 -10.7609    222.1014    130.2344   8.2451996619e+01   1.1938639646e+01    0.4688555    0.3335331  21.27  0.001541566    1.389    0.280
        21 -15.7233    129.5454    164.2984   1.0939265419e+02   2.3953251293e+01    0.8400246    0.6239697  31.00  0.003113744    1.288    0.224
        22 -10.7138     11.2797    206.4304   1.3943204294e+02   3.0734296721e+01    0.2519421    0.1992913  41.63  0.001588269    1.349    0.259
        23 -10.2312     26.1838    200.4588   1.3633217703e+02   3.0501372260e+01    0.2966989    0.1289307  88.47  0.001655854    2.308    0.567
        24  -9.3968    108.0219    222.0262   1.2189982590e+02   1.6979919674e+01    0.2826571    0.1546559  52.36  0.001166774    1.679    0.404
        25 -10.5030    226.5903    196.5715   9.5180832497e+01   2.1109982475e+00    0.3681918    0.1860566 -14.10  0.001662442    2.400    0.583
        26  -9.4152     70.3049    198.3882   1.2723937784e+02   2.6117480354e+01    0.2104378    0.1515005  78.10 0.0007002242    1.375    0.273
        27  -9.3545    231.3779    118.2707   7.8058273187e+01   1.1845683154e+01    0.2235652    0.2224747  17.43 0.0005582762    1.291    0.225
        28 -10.1787      5.8810    120.7752   1.3580955160e+02   4.8663087006e+01    0.2984345    0.1526661 -68.50 0.0009481009    1.610    0.379
        29  -8.9542     61.2696    195.1363   1.2884677362e+02   2.7819746761e+01    0.4280788    0.1798347 -78.27  0.002069627    2.801    0.643
        30  -8.5098      4.7636    236.2593   1.4158722319e+02   2.6224039149e+01    0.1094773   0.09562363  68.15 0.0004329948    1.353    0.261
        31  -9.1400     79.3083    192.5400   1.2475119607e+02   2.6081380472e+01    0.3312046    0.1863335  82.22  0.001315729    2.376    0.579
        32 -10.5974     60.3633    186.9379   1.2831276979e+02   2.9513710626e+01    0.3535318    0.2552728  37.08  0.002154392    1.346    0.257
        33 -10.9085     52.3267    186.2204   1.2999048433e+02   3.0571312623e+01    0.4408499     0.236807  85.47  0.001554134    2.053    0.513
        34 -10.7746    205.6897    102.3689   7.8640303952e+01   1.9631680479e+01    0.5015397    0.3461042  87.26  0.002042701    2.790    0.642
        35 -10.1900     90.6761    203.1226   1.2344048662e+02   2.2603927978e+01    0.3649871    0.2317713 -78.54  0.001746632    1.879    0.468
        36  -8.9661     60.9230     88.9793   1.1383904237e+02   5.1287976521e+01    0.1981005     0.179909 -47.97  0.000310178    1.022    0.022
        37 -10.6051    221.6376    237.8383   1.0272985310e+02  -1.7841675426e+00    0.2927276    0.1863873  40.80  0.001917589    1.644    0.392
        38 -10.0630    223.8258    180.3353   9.2688680140e+01   4.6010063419e+00    0.2683607    0.2121171  33.41  0.001123948    1.298    0.230
        39 -10.1405    230.7060     80.7528   6.8930432052e+01   1.7294314486e+01     0.420598     0.233859  41.99  0.001919509    1.926    0.481
        40 -10.1995    235.2267     77.3908   6.7428700630e+01   1.6772122616e+01    0.2859444    0.2220931 -44.23 0.0008267384    1.326    0.246
        41  -9.9297    235.7404     83.1364   6.8801109531e+01   1.5884226622e+01     0.225067     0.197199  76.76  0.000877762    1.401    0.286
        42  -8.8475     50.5024    220.0830   1.3284925336e+02   2.4506967322e+01     0.145915   0.09556009 -84.71  0.001021543    1.558    0.358
        43 -10.5385    219.3473    211.0944   9.8964569585e+01   1.4938249311e+00    0.4969149    0.2439195 -12.04  0.002329736    2.891    0.654
        44  -8.9577     24.7137    173.9444   1.3505295151e+02   3.5794554237e+01    0.1609948    0.1202172  81.19 0.0004517742    1.119    0.107
        45  -9.6169    231.6963    171.3246   8.9532971501e+01   4.4592497081e+00    0.2534121    0.1699494  50.85   0.00119076    1.993    0.498
        46 -10.9956    230.1307    166.8057   8.8908758641e+01   5.3176313143e+00     0.353989    0.2270284 -41.96  0.001246355    2.017    0.504
        47  -9.3365      6.0020    171.0062   1.3889148302e+02   3.7906509615e+01    0.1528308    0.1159342 -55.16 0.0005145657    1.624    0.384
        48 -10.5457    156.9261     73.3488   8.0481938800e+01   3.5929131277e+01    0.5188287    0.3552043  63.60  0.002050583    1.707    0.414
        49  -8.9959     62.1347    168.8727   1.2612189059e+02   3.2973347561e+01    0.1868398     0.144674  70.26 0.0005205868    1.194    0.162
        50  -8.5618      2.4859    212.9112   1.4124847997e+02   3.0313216371e+01    0.1386552   0.07924016 -88.97 0.0006955226    1.539    0.350
        51 -11.5935     99.3920     63.0886   9.3039298536e+01   5.0776103911e+01    0.5153927    0.3231884  33.86  0.002325493    1.659    0.397
        52 -10.0245    236.3677    166.1399   8.7681659458e+01   4.3469558507e+00    0.2181485    0.1518859  20.06 0.0005845321    1.255    0.203
        53  -9.8814    233.6182     65.6916   6.4669311510e+01   1.8674926609e+01    0.3016856    0.1847875 -66.29   0.00119006    2.471    0.595
        54  -9.9815    228.2184     60.7378   6.4104506173e+01   2.0531109171e+01    0.2861325    0.2434047 -78.74 0.0006504334    1.372    0.271
        55 -10.5900    209.9126    209.4828   1.0040283018e+02   3.1392481032e+00    0.3506508    0.2157447 -17.55   0.00204718    1.774    0.436
        56  -8.7307     85.2686     60.3564   9.6935698275e+01   5.3959331167e+01     0.150569    0.1070526 -14.50 0.0006598741    1.636    0.389
        57 -10.7302     16.7178    160.1862   1.3593049944e+02   3.9309576623e+01    0.2992405    0.1606304 -86.15  0.001213252    1.628    0.386
        58  -9.5592     64.2275    163.0129   1.2497000320e+02   3.3959245627e+01    0.5139102    0.2258786  49.00  0.002408467    2.192    0.544
        59 -11.1745    140.9467    248.6990   1.1849282814e+02   8.4552583646e+00    0.4320266    0.2359321  32.13  0.002673686    1.493    0.330
        60 -11.5876     46.9874    201.9191   1.3231222078e+02   2.8144563652e+01    0.9005849    0.3358546  88.21  0.003759362    4.115    0.757
        61  -9.2708    246.1655    160.6898   8.4913127789e+01   3.4072697100e+00    0.2106328    0.2029788   8.10 0.0002529148    1.482    0.325
        62  -8.5941    246.4794    156.1330   8.3923884767e+01   3.9330111662e+00    0.2172871     0.143933 -23.85 0.0002643248    1.393    0.282
        63 -10.4805    129.4317     50.0267   7.9445984089e+01   4.6501990386e+01    0.3010799    0.2517152  33.61   0.00152684    1.149    0.130
        64  -9.2531    182.4019     46.3246   6.6892739539e+01   3.3618219159e+01    0.2973488    0.1845533  64.69  0.001312986    1.666    0.400
        65  -8.6950    245.4239    165.9223   8.6096228235e+01   2.8727287669e+00    0.1870068    0.1434009  18.53  0.000299273    1.130    0.115
        66 -10.1712    146.8630     43.3988   7.2842167636e+01   4.3182347178e+01    0.3053779    0.2043081  -0.36  0.001310574    1.859    0.462
        67 -10.1137     23.7248    155.6894   1.3398935237e+02   3.9690468775e+01    0.3293839    0.1194276 -79.36  0.001537616    2.552    0.608
        68  -9.9257    221.3344     39.7948   5.9410488817e+01   2.4740482889e+01    0.3246875    0.2044691 -66.98  0.001142004    1.990    0.498
        69 -10.2410    137.7613     38.6982   7.3226320321e+01   4.6154308209e+01    0.3532745    0.2505315  51.12 0.0008769428    1.343    0.255
        70 -11.0910    239.7405    135.0962   8.0522154411e+01   7.8967718776e+00    0.9874961    0.4277413 -34.64  0.004333166    2.206    0.547
        71  -9.3447    224.9256     32.4286   5.7027089892e+01   2.4738488832e+01    0.2676266    0.1937793 -16.10 0.0007868233    1.445    0.308
        72  -8.0584    198.3078     25.6780   5.8281151054e+01   3.2035949947e+01    0.1493702    0.1011155 -59.39 0.0002407741    1.644    0.392
        73  -9.3915    233.2741    136.1729   8.1849158262e+01   8.9444618784e+00    0.2330306    0.1708356  32.89 0.0004716938    1.318    0.241
        74 -10.8549    219.9996    146.6705   8.6518884142e+01   9.9337186725e+00    0.5720862    0.4045224  -1.68  0.001900036    1.414    0.293
        75 -10.0526    171.0873    247.2789   1.1289892563e+02   4.3568908404e+00    0.2982212    0.1954876  43.10  0.002016105    1.362    0.266
        76  -9.8915     90.1378    246.0897   1.2742997420e+02   1.5623640883e+01    0.2007518    0.1167988  49.82 0.0008029643    1.326    0.246
