#   1 NUMBER                 Running object number                                     
#   2 MAG_AUTO               Kron-like elliptical aperture magnitude                    [mag]
#   3 X_IMAGE                Object position along x                                    [pixel]
#   4 Y_IMAGE                Object position along y                                    [pixel]
#   5 X_WORLD                Barycenter position along world x axis                     [deg]
#   6 Y_WORLD                Barycenter position along world y axis                     [deg]
#   7 A_WORLD                Profile RMS along major axis (world units)                 [deg]
#   8 B_WORLD                Profile RMS along minor axis (world units)                 [deg]
#   9 THETA_WORLD            Position angle (CCW/world-x)                               [deg]
#  10 FWHM_WORLD             FWHM assuming a gaussian core                              [deg]
#  11 ELONGATION             A_IMAGE/B_IMAGE                                           
#  12 ELLIPTICITY            1 - B_IMAGE/A_IMAGE                                       
         1 -11.3466    221.0960     37.1579   1.2248984785e+01   2.4716630082e+01    0.7451666    0.6687576  18.09  0.004570151    1.351    0.260
         2 -10.3260    247.7358     15.9151   4.9375739470e+00   2.1281270410e+01    0.7810565    0.4209079 -50.78  0.004302806    1.572    0.364
         3  -9.2120    248.5676      8.8769   3.3046009295e+00   2.1833202142e+01    0.3705664    0.2511386 -79.40   0.00229911    1.429    0.300
         4  -9.4319    119.7442      9.0818   1.7284450944e+01   5.3776895227e+01    0.4323728    0.2864293  63.23  0.002152823    1.372    0.271
         5  -8.1302     96.8108      9.4045   2.2551599199e+01   5.9534056531e+01    0.2172509    0.1834109 -29.45 0.0004246469    1.282    0.220
         6  -8.4725    216.0432      5.1909   4.5444957048e+00   2.9380873558e+01    0.1962249    0.1688346 -42.43 0.0004325736    1.145    0.127
         7  -8.8605     48.9482    236.1011   8.7525514025e+01   2.0845432260e+01    0.1860378    0.1360296  87.58 0.0007764852    1.406    0.289
         8  -7.9088    216.8476    249.8385   5.7380723990e+01  -3.6832296699e+00    0.1360853    0.1055356  25.03 0.0003535869    1.286    0.222
         9 -12.4616     34.0612    193.1139   8.7865154998e+01   3.0673622490e+01     2.538644    0.7400321  38.24   0.01066193    2.588    0.614
        10 -11.9394     38.5785    241.9609   8.9808844671e+01   2.0995412664e+01     1.277892    0.6453925  83.69  0.006362723    2.088    0.521
        11 -11.2082     30.3673    248.9388   9.1631478286e+01   2.0701552461e+01    0.6327715    0.2259773  43.05  0.003718622    1.865    0.464
        12 -14.6739     10.3639    236.3103   9.4746844897e+01   2.4812904731e+01     3.519098     2.522589  23.92   0.01825699    1.774    0.436
        13  -7.0484     72.4470    206.4803   8.0437079778e+01   2.3399846650e+01    0.1228148    0.1018535  54.17 0.0002151021    1.028    0.027
        14  -7.4674     85.4678    202.9566   7.7201665803e+01   2.2308378015e+01    0.1709662    0.0969744  76.96  0.000808246    2.432    0.589
        15  -9.8232    123.8950    194.3907   6.7505852779e+01   1.8094750752e+01     0.224193    0.2059169 -42.05 0.0001311373    1.266    0.210
        16  -8.6362     62.9200    194.2577   8.1417113550e+01   2.7074125902e+01    0.3024215    0.1854263  59.90  0.001697922    1.502    0.334
        17  -7.8974    129.8820    192.0978   6.5832509954e+01   1.7537629597e+01    0.1994691    0.1603915  51.50  0.001171044    1.208    0.172
        18  -8.4803     66.9286    190.1291   8.0085485371e+01   2.7408828414e+01    0.1852989    0.1534003  57.02 0.0002878139    1.018    0.018
        19  -7.1402    155.7129    186.6693   5.9305083006e+01   1.4130606172e+01    0.1340681   0.09924233   2.57  0.000373222    1.618    0.382
        20  -8.7640    123.9808    228.9941   7.1943784199e+01   1.2128707869e+01    0.1501333    0.1209887  39.11 0.0006266235    1.022    0.021
        21  -8.9514     67.4817    179.7366   7.8849989004e+01   2.9536511578e+01    0.2239182    0.2092558  55.37 0.0001983231    1.144    0.126
        22 -12.0207     43.9683    182.4419   8.4771444741e+01   3.1844651966e+01     2.200127    0.6973982  40.80  0.009651317    2.491    0.599
        23  -9.5940     11.0938    173.0784   9.1881817059e+01   3.7121357599e+01     0.438577      0.17984  73.59  0.002104955    2.384    0.580
        24  -7.9264    211.9545    172.9678   4.5591102926e+01   6.6103828946e+00    0.1936301    0.1631506   8.97 0.0004454015    1.019    0.019
        25  -8.2939      3.0045    170.7340   9.3651234522e+01   3.8281159130e+01    0.1678728    0.1283271  63.65  0.001173625    1.084    0.077
        26  -9.2812     60.8206    169.1302   7.9314014657e+01   3.2740514315e+01    0.2951829    0.2441088 -22.80  0.001727596    1.682    0.406
        27  -8.1952    110.6788    168.0894   6.6580420112e+01   2.5494931064e+01    0.2278538    0.1728892  48.77 0.0004233272    1.221    0.181
        28  -7.7941     44.9582    165.6628   8.2990609539e+01   3.5443681738e+01    0.1813723    0.1412613  56.03  0.000707383    1.142    0.124
        29  -9.0593      8.0274    165.4904   9.2190847603e+01   3.9036553469e+01    0.2530272    0.1550187  53.60 0.0009699878    1.403    0.287
        30 -10.1871     12.6844    161.2697   9.0798896505e+01   3.9600667353e+01    0.5187855    0.3101208  57.74  0.003091346    1.455    0.313
        31  -8.6185      6.8318    154.6784   9.1863264948e+01   4.1552389830e+01    0.3782664   0.09132561  37.55  0.001572959    3.123    0.680
        32  -8.7418      9.4698    152.5156   9.1053611191e+01   4.1843931461e+01     0.217587    0.1524079  82.88 0.0008772586    1.191    0.160
        33  -9.5425     66.1830    164.4496   7.7378431044e+01   3.3091718337e+01    0.3293274    0.3218458  -9.77 0.0007706905    1.256    0.204
        34  -8.9681     33.4863    162.3606   8.5619965513e+01   3.7433552138e+01    0.3363551    0.1587712  68.93  0.001069741    2.309    0.567
        35  -9.2212     22.0393    157.7236   8.8180156084e+01   3.9597243990e+01    0.3548492    0.1713521 -43.06  0.001446807    3.141    0.682
        36  -8.9641     81.6734    161.4670   7.2937761481e+01   3.1573506856e+01    0.4271411    0.2416584  58.52  0.001948384    1.945    0.486
        37  -9.8413     76.3849    156.5714   7.3626888063e+01   3.3465339179e+01    0.3842795    0.2994111  47.99  0.001369722    1.193    0.162
        38  -8.2338      2.4780    161.2146   9.3307186170e+01   4.0409326895e+01    0.2410686    0.1252261  67.57   0.00136026    1.660    0.398
        39  -7.9392     37.1292    160.9299   8.4550545925e+01   3.7382272292e+01    0.2087867    0.1474976  66.89  0.001228693    1.276    0.217
        40  -8.1885      2.2562    152.0349   9.2873391145e+01   4.2485877588e+01     0.217743    0.1490977  57.11 0.0009360634    1.288    0.224
        41 -10.7240     63.0655    151.9037   7.6581058290e+01   3.6400691395e+01    0.3972433    0.2903484 -37.20  0.000872291    1.763    0.433
        42 -10.7519     69.0905    144.9555   7.3908012646e+01   3.7218422863e+01    0.7327749    0.4546682  66.73   0.00280663    1.860    0.462
        43  -8.5362     82.0240    151.5189   7.1341342702e+01   3.3790056185e+01    0.2602108     0.203377 -65.19 0.0004856404    1.300    0.231
        44  -9.2825    137.8064    149.9524   5.6584706242e+01   2.4355237357e+01    0.4705822    0.3481279  35.98  0.001593688    1.289    0.224
        45  -7.9715     18.7316    147.0744   8.8211244642e+01   4.2354037297e+01    0.2079072    0.1447906  50.24   0.00083062    1.346    0.257
        46  -9.8637      6.7611    145.3416   9.1297206841e+01   4.3698234195e+01    0.4696468    0.2841502  20.84  0.002742203    1.961    0.490
        47  -7.3260     43.3462    146.6688   8.1388534215e+01   4.0043558535e+01    0.1451277     0.085077  63.82 0.0007049832    1.760    0.432
        48  -8.6998     15.5176    141.8460   8.8667498565e+01   4.3847322914e+01    0.3221875    0.1464167  33.43  0.001626937    2.150    0.535
        49  -8.0007     96.5640    138.4901   6.5056620187e+01   3.4456089774e+01    0.1436398    0.1381069  68.66 0.0001162435    1.016    0.016
        50  -9.6369     85.8535    136.4577   6.7704409007e+01   3.6709818459e+01    0.2629304    0.2261529 -62.61 0.0003556708    1.169    0.145
        51  -9.6997      4.0873    135.6276   9.1376755708e+01   4.6149919300e+01    0.4227904    0.1944071  53.75  0.001925381    2.056    0.514
        52 -10.3728      2.1957    128.5996   9.1426775045e+01   4.7928897963e+01    0.6116084    0.2479071 -83.62  0.002901763    2.117    0.528
        53  -9.6168     59.6563    134.5558   7.5049373679e+01   4.0992097420e+01    0.3062882    0.2534402  18.85 0.0008458386    1.417    0.294
        54 -10.5219     57.4609    131.5082   7.5234882066e+01   4.2017306694e+01    0.5123315    0.3484576  58.65   0.00263187    1.519    0.342
        55  -7.8655     13.4094    134.7611   8.8679862260e+01   4.5690579898e+01    0.1722985   0.09759145 -67.97 0.0005830828    1.570    0.363
        56  -7.1166    117.2222    133.9576   5.8478533224e+01   3.1732682515e+01    0.1857026    0.1237385 -52.40 0.0003623513    1.561    0.359
        57  -8.6265     56.8855    125.7852   7.4497394091e+01   4.3490862448e+01    0.2566863    0.1691109  54.32 0.0006302773    1.574    0.365
        58  -7.9651     96.0389    124.6886   6.2411225282e+01   3.7760842599e+01    0.2096225     0.181834  38.54 0.0003865156    1.156    0.135
        59 -10.4102     45.6466    122.8327   7.7552654368e+01   4.5573871378e+01    0.4046625    0.2384927  57.21  0.001944202    1.846    0.458
        60  -8.6779      6.3673    124.4348   8.9889077325e+01   4.8654767618e+01    0.2112468   0.09981511 -79.82 0.0007325713    1.786    0.440
        61  -8.7349     23.9470    136.0444   8.5766254897e+01   4.4520309082e+01    0.1848232    0.1591714  89.01 0.0002911254    1.030    0.029
        62  -9.4875      2.3333    114.6894   9.0327808280e+01   5.1241437588e+01    0.3238001    0.2039479 -48.36  0.001880257    1.696    0.410
        63  -7.4957    106.2161    117.8748   5.7922761862e+01   3.7468312145e+01    0.1945929    0.1748638 -10.55 0.0003648551    1.267    0.211
        64  -7.3360    230.8001    117.6325   3.0669064183e+01   1.1435226845e+01    0.1633662    0.1301672  62.51 0.0003920473    1.590    0.371
        65  -7.2660     97.6396    113.7760   5.9482912243e+01   4.0023165931e+01    0.1456571    0.1171284   6.41 0.0003217069    1.571    0.363
        66  -8.1103    192.1489     94.9180   3.1551158402e+01   2.3085782057e+01    0.2089108    0.1971678 -17.80  0.000285132    1.023    0.022
        67  -7.4528    205.1539     92.1781   2.8609952452e+01   2.0608676896e+01    0.1828685    0.1598729 -62.25 0.0002711362    1.265    0.210
        68  -8.1111    119.0324     90.0188   4.6858242381e+01   4.0994965549e+01     0.220113    0.2175263  24.07  0.001176562    1.005    0.005
        69  -7.4402     87.8395     87.8913   5.5877932023e+01   4.7821515341e+01    0.1977406    0.1733603 -82.32            0    1.285    0.222
        70  -8.6492    133.9802    226.5867   6.9642804438e+01   1.1029033826e+01    0.1642248    0.1576358  29.59 0.0005279087    1.211    0.174
        71  -8.4406     90.9164     75.7240   5.1168269253e+01   4.9935037767e+01    0.2389522    0.2053454 -42.76 0.0003262201    1.143    0.125
        72  -7.5075      7.6606     65.6835   8.2355179293e+01   6.2805771857e+01    0.1359627   0.07455672 -42.85 0.0001985026    1.705    0.413
        73  -7.8065    143.7847     59.8184   3.0962765791e+01   4.0796812747e+01    0.2128255    0.1782872 -70.54 0.0007101585    1.354    0.261
        74  -7.2712     89.4796     59.5761   4.6156771005e+01   5.3561952428e+01    0.1455061    0.1432976   2.82 0.0006253825    1.050    0.048
        75 -10.5143    198.3651     54.3139   1.9547159769e+01   2.7864691885e+01    0.8210017    0.3257094  54.65   0.00316663    2.509    0.601
        76 -11.2089    208.4385     49.2338   1.6834210020e+01   2.6138969345e+01    0.9904273    0.6291695 -15.71  0.004690193    1.859    0.462
        77 -11.1940    204.8864     46.8774   1.6643001670e+01   2.7296298725e+01     1.001242    0.4854342  49.95  0.004259788    2.257    0.557
        78  -8.0422    140.9547     55.5519   3.0174562277e+01   4.2213009548e+01    0.2130315    0.2020522 -32.45 0.0001686762    1.076    0.071
        79 -12.5617     10.1241    207.9364   9.3747105973e+01   3.0037943538e+01    0.9390079    0.7137537  50.67  0.005173706    1.170    0.146
        80  -8.3121    178.8865     36.2371   1.7060270278e+01   3.5155500665e+01    0.2274261    0.2011978 -32.06  0.000447413    1.158    0.137
        81  -8.9283    109.2144    245.0667   7.6545273198e+01   1.1720524962e+01    0.1896395    0.1420907  35.26 0.0002906862    1.127    0.113
        82  -9.2623     76.4517    233.6060   8.1962062520e+01   1.7937257383e+01    0.3328902    0.1882513  56.09 0.0006492058    1.553    0.356
        83  -7.1007    140.2910    241.3153   7.0152221110e+01   7.9089394351e+00    0.1117896   0.08059037  11.29 0.0002141743    1.594    0.373
        84  -7.7042     95.1266    239.8946   7.8807356825e+01   1.4439590718e+01    0.1851979    0.1372866 -72.88  0.001123497    1.675    0.403
