#   1 NUMBER                 Running object number                                     
#   2 MAG_AUTO               Kron-like elliptical aperture magnitude                    [mag]
#   3 X_IMAGE                Object position along x                                    [pixel]
#   4 Y_IMAGE                Object position along y                                    [pixel]
#   5 X_WORLD                Barycenter position along world x axis                     [deg]
#   6 Y_WORLD                Barycenter position along world y axis                     [deg]
#   7 A_WORLD                Profile RMS along major axis (world units)                 [deg]
#   8 B_WORLD                Profile RMS along minor axis (world units)                 [deg]
#   9 THETA_WORLD            Position angle (CCW/world-x)                               [deg]
#  10 FWHM_WORLD             FWHM assuming a gaussian core                              [deg]
#  11 ELONGATION             A_IMAGE/B_IMAGE                                           
#  12 ELLIPTICITY            1 - B_IMAGE/A_IMAGE                                       
         1 -13.4697    204.8604     32.1779   5.6538252029e+01   2.9741284359e+01     1.383628     1.286867  31.70  0.006127376    1.149    0.130
         2 -12.8634      6.2628     21.7418   1.1140500289e+02   7.0726788830e+01    0.5022765    0.3796911 -45.27  0.003651788    1.074    0.069
         3 -12.7151      2.8212      4.9760   1.0690232824e+02   7.4160736049e+01    0.7338361    0.5571607  -8.04  0.005521393    1.439    0.305
         4 -13.5363    221.6543     14.8516   4.9530285071e+01   2.7401661566e+01     1.038141    0.9106911  28.94  0.002849521    1.298    0.229
         5 -13.8955     28.1054    219.7148   1.2986049095e+02   2.7859505959e+01    0.5870136    0.3979649  67.59  0.002524772    1.005    0.005
         6 -11.5429    216.7534    249.4107   1.0186518476e+02  -2.1498090241e+00    0.2710938    0.1450636  43.09  0.001817325    1.488    0.328
         7 -11.1304    185.9690    250.0000   1.0667491044e+02   2.2576554803e+00    0.2124852    0.1103275  38.71  0.001135662    1.420    0.296
         8 -11.8688    144.0099    250.0000   1.1328899361e+02   8.4011905661e+00    0.4573674    0.1007022  42.08  0.001929575    3.410    0.707
         9 -11.9912    123.2353    249.4369   1.1653551463e+02   1.1438254150e+01    0.4052135    0.1620403  50.18  0.002347882    1.898    0.473
        10 -11.5157    128.5025    245.5284   1.1533788380e+02   1.1201130008e+01    0.3069765    0.1249529 -51.64  0.001763964    3.303    0.697
        11 -12.5320     89.7859    248.5264   1.2174734818e+02   1.6099897335e+01    0.5407052    0.1726862  40.58   0.00284333    2.582    0.613
        12 -12.4038    171.3759    248.5773   1.0880320384e+02   4.5605075601e+00    0.4310801    0.1928841  41.23  0.002597139    1.643    0.391
        13 -15.4712      7.2761    135.4196   1.2887693150e+02   4.5902119598e+01     11.98945     2.420651 -84.61   0.03395992    7.390    0.865
        14 -12.3260    198.1476    248.4085   1.0459239552e+02   6.3689504011e-01    0.4108267      0.20807  37.39  0.002656133    1.462    0.316
        15  -9.6553     70.3192    243.3280   1.2444965979e+02   1.9316595605e+01   0.08295194   0.07622829  36.53  0.000704714    1.684    0.406
        16 -13.2246     39.4136    208.7326   1.2737785572e+02   2.8523222182e+01    0.7822014    0.5541468 -74.28  0.004574754    1.538    0.350
        17 -11.5769     58.5735    241.5744   1.2618128849e+02   2.0995132397e+01    0.2254126    0.1216904  54.71 0.0008870033    1.301    0.232
        18 -12.9545     22.9257    226.0182   1.3097613278e+02   2.7352733694e+01    0.2471966     0.202114  78.90 0.0008051617    1.349    0.259
        19 -10.9392    247.8549    234.2708   9.5120013035e+01  -5.2099775916e+00    0.1716707    0.1179638 -36.55  0.001236237    2.112    0.526
        20  -9.3820    179.7712    232.9831   1.0561056971e+02   5.0815089756e+00    0.1172047   0.09375417 -36.64 0.0005914166    1.627    0.385
        21 -11.3684    131.7326    232.4442   1.1352281397e+02   1.2491705573e+01    0.3045325   0.08106215  44.39  0.001351416    2.804    0.643
        22 -11.5086    106.4806    230.4993   1.1757534385e+02   1.6439921838e+01    0.1742991    0.1594323  83.00 0.0009546062    1.320    0.242
        23 -12.4178    115.8547    231.9249   1.1613362258e+02   1.4893026838e+01    0.3854761     0.187277  47.17  0.002344219    1.552    0.356
        24 -12.8342     89.4742    227.0688   1.2014318822e+02   1.9311367380e+01     0.874437    0.1223409  47.98  0.003124106    4.797    0.792
        25 -11.2783     68.8891    218.5109   1.2297163926e+02   2.3375613841e+01    0.4432153    0.0888934  50.33  0.001829303    3.718    0.731
        26 -12.5570     59.4063    213.1723   1.2421637732e+02   2.5445211568e+01    0.6840693    0.2671605  58.62  0.003740997    2.212    0.548
        27  -8.7848    152.5349    213.0022   1.0770113940e+02   1.2001741337e+01    0.1373387    0.1174573 -57.28 0.0003265926    1.450    0.310
        28 -13.0536      7.5231    187.2002   1.3181538175e+02   3.5569181535e+01     1.168812    0.4616056  86.81  0.006854461    2.143    0.533
        29 -11.8668     59.7759    186.0919   1.2200924197e+02   3.0265075671e+01     0.217946    0.1852529  81.01 0.0004273994    1.179    0.152
        30 -11.6611     52.5336    194.1064   1.2403746509e+02   2.9645389013e+01    0.2186986    0.1981587  70.52  0.000518884    1.354    0.261
        31 -10.7294     71.3742    173.8284   1.1851456352e+02   3.1146008695e+01    0.2077379    0.1721641  78.77 0.0003555724    1.059    0.056
        32 -13.0758     57.3608    171.5061   1.2114952756e+02   3.3395529502e+01    0.4288082    0.2466651 -51.44  0.001978422    2.293    0.564
        33 -11.7812     79.5008    165.5167   1.1587191202e+02   3.1690486155e+01    0.4840808    0.4677004 -63.68  0.003447177    1.372    0.271
        34 -10.0125     93.5714    150.3115   1.1072144720e+02   3.2730050945e+01    0.2464412    0.2170019  80.50 0.0008574202    1.025    0.024
        35 -11.9256     81.8647    149.0256   1.1318838272e+02   3.4756640765e+01    0.2602205    0.2135037 -62.42 0.0005674957    1.289    0.224
        36  -8.3374    134.2616    148.6396   1.0139958278e+02   2.6085053775e+01     0.137053    0.1026235  87.83 0.0003577509    1.631    0.387
        37 -11.7677     68.1832    143.1795   1.1553657726e+02   3.7906222123e+01    0.5443262    0.3206167  83.88  0.001617437    1.898    0.473
        38 -10.9476     64.4974    142.4689   1.1630410657e+02   3.8542547252e+01    0.2664508    0.1989634 -80.88 0.0007913427    1.179    0.152
        39  -8.9921     97.0428    146.3229   1.0931453138e+02   3.3017183747e+01    0.1786712    0.1538053  63.44 0.0003450126    1.086    0.079
        40  -9.4817    106.8571    136.1924   1.0531091123e+02   3.3530196838e+01    0.3191806    0.2307899  -5.17  0.001448576    2.739    0.635
        41 -10.2006     93.7402    133.0419   1.0787751954e+02   3.6372782257e+01    0.2063988    0.1878546  51.39 0.0003665509    1.189    0.159
        42  -9.7254     50.1183    129.9512   1.1812060255e+02   4.3043981794e+01    0.2011343    0.1597431  63.17 0.0006613095    1.213    0.176
        43  -9.0921    104.9866    122.9702   1.0323563849e+02   3.6681662042e+01    0.1589124    0.1461841  88.47            0    1.008    0.008
        44 -13.5631      9.7982    207.6234   1.3231134561e+02   3.1709165129e+01    0.7789042    0.6188008  72.66  0.004266506    1.259    0.205
        45 -10.4584    244.2457    103.9964   7.0524695235e+01   1.0500686286e+01    0.2377353    0.1476192 -71.95 0.0008992673    3.597    0.722
        46  -9.5303    160.9744     79.0196   7.8637205073e+01   3.3865171434e+01    0.1854156    0.1827268 -31.60 0.0004187534    1.002    0.002
        47 -14.8942      9.8612    242.4546   1.3356347534e+02   2.6051717754e+01     2.315479     1.148605  50.41   0.01836397    1.442    0.307
        48 -12.2817    233.0921    248.6964   9.9319160160e+01  -4.3891658986e+00    0.4234121    0.1633815  38.76  0.002493068    1.885    0.470
        49 -12.8896    107.5178    244.8564   1.1865021874e+02   1.4238974413e+01    0.4157798    0.3058528  60.54  0.003296877    1.096    0.088
        50 -10.8720     63.2364    250.4196   1.2597344795e+02   1.9139504675e+01    0.1797822   0.09661722  45.01  0.001065711    1.486    0.327
