#   1 NUMBER                 Running object number                                     
#   2 MAG_AUTO               Kron-like elliptical aperture magnitude                    [mag]
#   3 X_IMAGE                Object position along x                                    [pixel]
#   4 Y_IMAGE                Object position along y                                    [pixel]
#   5 X_WORLD                Barycenter position along world x axis                     [deg]
#   6 Y_WORLD                Barycenter position along world y axis                     [deg]
#   7 A_WORLD                Profile RMS along major axis (world units)                 [deg]
#   8 B_WORLD                Profile RMS along minor axis (world units)                 [deg]
#   9 THETA_WORLD            Position angle (CCW/world-x)                               [deg]
#  10 FWHM_WORLD             FWHM assuming a gaussian core                              [deg]
#  11 ELONGATION             A_IMAGE/B_IMAGE                                           
#  12 ELLIPTICITY            1 - B_IMAGE/A_IMAGE                                       
         1 -10.1561    118.8293     19.4268   6.1043098157e+01   5.3207227057e+01    0.5263464    0.2178717 -20.96  0.001882824    2.667    0.625
         2 -10.2146    142.8040     18.0511   5.5817704778e+01   4.7068704728e+01     0.476207    0.3187684  33.03  0.002182745    1.675    0.403
         3 -10.4516    171.3032     13.0278   4.9893729638e+01   3.9968425001e+01    0.3256856    0.2499868  -9.00  0.001668336    1.400    0.286
         4 -11.8812    165.9500      5.2396   4.7820154994e+01   4.2135191102e+01     0.667335    0.5838236  27.63  0.003718222    1.234    0.189
         5  -9.2178     78.9687      4.4985   6.4202932621e+01   6.4674205795e+01    0.2089834    0.1341683  57.33  0.001032121    1.591    0.371
         6  -9.5625    234.9737      1.9577   4.1132920479e+01   2.5190892621e+01    0.3039148    0.1756319 -85.67  0.001574017    1.887    0.470
         7  -9.5646    149.4662      1.3285   4.8363046161e+01   4.6919724149e+01    0.2672435    0.1296862  73.03  0.001092142    2.007    0.502
         8 -10.5756    122.9725    218.7652   1.0812645657e+02   1.6519746157e+01    0.2042303    0.1698667 -59.43 0.0004370544    1.540    0.351
         9  -9.5690    185.6029    249.2934   1.0066541348e+02   4.2769803193e+00      0.24556    0.1351682   7.51  0.001454941    2.655    0.623
        10 -10.9516    110.1105    246.3922   1.1306561829e+02   1.4427724318e+01    0.3867083    0.2824192  13.15  0.002346423    1.839    0.456
        11 -16.7871     52.9558    239.4453   1.2261026356e+02   2.2170342610e+01     2.808513     1.826082  24.86  0.006949137    1.862    0.463
        12 -11.0651    220.3900    220.4355   9.1366580871e+01   2.5193718819e+00    0.6656625    0.2474317  24.85  0.003016378    3.317    0.699
        13 -10.9962    214.0890    218.7997   9.2131035771e+01   3.5386165659e+00    0.2616578    0.1950112  37.48  0.001800582    1.395    0.283
        14 -12.7863    111.4644    214.2015   1.0983016183e+02   1.8796778138e+01    0.8103783    0.5558342  81.84  0.005201227    1.970    0.493
        15  -9.5062      8.6003    214.5229   1.2953893525e+02   3.0529064107e+01    0.2183803    0.1169747  73.51  0.001562722    1.528    0.346
        16 -11.4896    209.0116    213.4874   9.2180804686e+01   4.7957408108e+00    0.7320616    0.1530917  39.76  0.002875176    3.851    0.740
        17 -12.7820    133.8589    210.7180   1.0515755716e+02   1.6132487608e+01    0.6415978    0.4264029  50.56  0.004147328    1.396    0.284
        18 -11.4268    127.9261    203.3132   1.0540665318e+02   1.8106611115e+01    0.4198819    0.2355223  32.31  0.002391429    1.621    0.383
        19 -11.5300    153.4198    208.5525   1.0120909614e+02   1.3549437526e+01    0.3077336    0.2689615 -34.13   0.00228781    1.410    0.291
        20  -9.0220    249.6120    209.2067   8.5235120081e+01  -2.9436690322e-01    0.1910012   0.07077507  40.91  0.001025196    2.509    0.601
        21 -11.0243    199.6031    208.0205   9.2935583367e+01   6.7458680336e+00    0.2957216    0.1800345  20.71  0.001854896    1.504    0.335
        22  -9.8206    193.6978    206.3426   9.3690848051e+01   7.8074864425e+00    0.1611538    0.1320514  58.14  0.001105652    1.771    0.435
        23 -10.0201    186.9610    205.2401   9.4693973358e+01   8.9420650519e+00    0.2103316    0.1472784 -29.98  0.001409164    1.653    0.395
        24  -9.2566    225.5053    204.5308   8.8172518132e+01   3.4071920883e+00    0.1124316    0.0840852  16.84 1.296117e-05    1.008    0.008
        25 -11.7431    118.3533    211.2780   1.0819140053e+02   1.8277453389e+01    0.3671514    0.2708765 -29.21  0.002422007    1.954    0.488
        26 -10.4364    149.5022    237.4040   1.0535580691e+02   1.0384658577e+01    0.4096509    0.2224027  55.81  0.002386747    2.406    0.584
        27  -9.5956      2.8310    200.6119   1.3020869365e+02   3.3429221701e+01    0.2432315     0.114421  49.16 0.0009498457    1.517    0.341
        28  -9.6488    250.1966    197.9759   8.3359998153e+01   6.5993772018e-01      0.24584    0.1297061 -19.71  0.001561428    1.809    0.447
        29  -8.9195    233.5153    198.9957   8.6041121526e+01   2.8462408363e+00     0.156743   0.07974969  -2.48  0.000810238    2.556    0.609
        30 -10.5648    153.3179    197.5228   9.9729632227e+01   1.5115224688e+01    0.3264859    0.1779117  22.92  0.001644449    2.246    0.555
        31 -10.2268    200.3734    194.0140   9.0645814666e+01   8.2659246953e+00    0.3497799    0.2239384 -38.31  0.002178003    1.894    0.472
        32 -10.5165     69.1318    195.6309   1.1654144674e+02   2.7489107497e+01    0.2025805    0.1621109 -70.78  0.001447006    1.432    0.302
        33 -11.3191    191.4460    217.9028   9.5730872896e+01   6.8059659863e+00    0.4604718    0.3505462  25.44  0.003252284    1.018    0.017
        34  -8.7761      5.8002    192.8168   1.2938526707e+02   3.4589424237e+01    0.1519381   0.08453318  61.18 0.0003871353    1.335    0.251
        35 -10.5673    228.6066    190.6681   8.5442147431e+01   4.4126294993e+00    0.3480445    0.1640496  17.53  0.001667113    2.746    0.636
        36 -11.5824     68.8531    189.9915   1.1610424215e+02   2.8546722245e+01    0.3855058    0.2157837  25.99   0.00211597    2.112    0.527
        37  -9.4503    109.3940    239.6998   1.1262496123e+02   1.5408635644e+01    0.2072488    0.1539895  49.32  0.001612412    1.117    0.105
        38  -8.9748    207.4649    242.6627   9.6398030131e+01   2.0955728281e+00    0.1899926   0.07136287  37.05  0.001091544    1.978    0.495
        39  -9.3872     55.3033    183.3151   1.1845295760e+02   3.1438643309e+01    0.1007053   0.09009617 -29.44 0.0002810982    1.619    0.382
        40  -9.8402    114.4002    231.3220   1.1097208225e+02   1.5905309741e+01    0.1803251    0.1482872 -40.96  0.001041922    1.667    0.400
        41  -9.7302    203.6077    225.7552   9.4796055058e+01   4.2634298767e+00    0.1618036    0.1366649 -23.28  0.001296053    1.516    0.340
        42  -9.4859    228.3945    179.7895   8.3613886277e+01   5.6302679349e+00    0.1630617   0.09701333 -13.51 0.0009582163    1.700    0.412
        43 -11.1796     78.8849    173.8135   1.1227019195e+02   3.0294010572e+01    0.4420452    0.1843052  58.29  0.001860885    2.947    0.661
        44 -10.1712    101.0117    175.9940   1.0757257366e+02   2.6730663439e+01    0.1775552     0.149979  52.45            0    1.014    0.014
        45  -8.8860      2.0066    226.5490   1.3103405533e+02   2.9116195400e+01    0.1366458   0.06963421  40.26 0.0007542567    1.510    0.338
        46 -11.7991    147.0215    221.4500   1.0399069128e+02   1.2747554534e+01     0.356313    0.3143325 -35.92  0.002795688    1.449    0.310
        47  -9.3898      4.1560    170.5143   1.2892693776e+02   3.8976887498e+01    0.2273113    0.1026441  74.37  0.001313053    1.874    0.467
        48 -10.1875    125.1402    166.4043   1.0087548615e+02   2.4686041953e+01    0.3212264    0.2485859 -33.33  0.001729304    1.578    0.366
        49  -9.6803    151.7076    218.0048   1.0272474374e+02   1.2529587013e+01    0.2338126    0.1390967  33.06   0.00123084    1.365    0.267
        50 -15.9012     39.3619    221.0257   1.2411761673e+02   2.6502899467e+01     2.498447     1.683806  76.35   0.01917822    1.351    0.260
        51 -10.6509     80.7950    144.2931   1.0801954524e+02   3.6042135097e+01    0.4053161    0.3187841  68.99  0.002072206    1.229    0.186
        52 -11.8594     56.9617    128.2532   1.1211280704e+02   4.2825146314e+01    0.6422662    0.4089308 -47.82  0.003393788    1.824    0.452
        53  -9.2211    240.9954    130.6665   7.2133923281e+01   9.3105871378e+00    0.2101677   0.07418111  31.59 0.0007051833    4.419    0.774
        54 -11.0224    117.0309    121.1103   9.4459971418e+01   3.4918921924e+01    0.6940577    0.5769193 -58.75  0.003815588    1.253    0.202
        55 -12.2356    244.1664    106.5146   6.6379762043e+01   1.1665577995e+01    0.8317197    0.6246865  -6.30  0.005017263    1.212    0.175
        56 -11.6415    244.6026    100.6652   6.4983514435e+01   1.2293738527e+01    0.5140017    0.3706633  14.37  0.002926521    1.448    0.310
        57  -9.9503      2.2683    109.5344   1.2625152108e+02   5.2277352191e+01    0.4453346    0.1577025 -69.01  0.002116252    2.309    0.567
        58  -9.4795    228.6773    110.5876   6.9507022104e+01   1.4055995923e+01    0.3401089    0.1925518 -25.33  0.001707502    1.622    0.383
        59  -9.5701     48.8204     98.6689   1.0993277305e+02   5.0739459839e+01    0.1983665    0.1756026 -16.41  0.001199179    1.416    0.294
        60 -10.3989     37.6941     98.4081   1.1360484782e+02   5.2037623717e+01    0.3365157    0.2672279  23.77  0.001991111    1.486    0.327
        61 -10.1827     14.1958     94.8500   1.2109500654e+02   5.4940753444e+01    0.3293706    0.2836577 -32.49  0.002216542    1.431    0.301
        62 -10.0466    240.4995     88.8301   6.2739132664e+01   1.4518378889e+01    0.3151705    0.1962219 -24.41  0.001676824    1.409    0.290
        63  -9.4912    209.9875     85.0186   6.6070075601e+01   2.1327559424e+01    0.2360055     0.162992  16.04  0.001143172    1.736    0.424
        64 -10.4751     82.4264     82.2946   9.5020005189e+01   4.9678771858e+01    0.4553052    0.2448162 -42.72  0.001828621    1.945    0.486
        65 -10.3393     86.1516     81.2960   9.3535391723e+01   4.9246881490e+01    0.4120426    0.2851237 -30.80  0.001932696    1.758    0.431
        66 -10.6465      4.5097     65.5852   1.2113653107e+02   6.2550613957e+01    0.4809194    0.3334328  86.58  0.002954351    1.326    0.246
        67 -10.0644    140.1351     64.8487   7.3303510232e+01   4.0950191281e+01    0.4961991    0.3511909 -64.95  0.002192268    1.818    0.450
        68 -10.0954     87.1605     63.7529   8.7830946425e+01   5.2864582571e+01    0.3664237    0.2971819 -57.73  0.001912934    1.253    0.202
        69 -10.5725    250.1282     61.4376   5.4975881717e+01   1.5854185717e+01    0.4756311    0.1555704 -28.60  0.001923489    2.453    0.592
        70  -9.5207     20.7460     55.8302   1.1223343714e+02   6.3818291622e+01    0.3257417    0.1237522 -56.23  0.001451711    2.087    0.521
        71  -9.7443    234.8632     46.2388   5.2716325541e+01   2.0759067341e+01    0.4323632    0.2234042  16.94  0.001599324    3.645    0.726
        72 -10.8014     82.1003     43.5309   8.2119679760e+01   5.7916877679e+01    0.7116663    0.4070128 -28.07  0.003012557    2.046    0.511
        73  -9.7508    199.4295     43.3062   5.5977538330e+01   2.9324496827e+01    0.4896129    0.1520794 -47.99  0.001412707    4.321    0.769
        74 -10.2864     50.0210     42.2557   9.4553167639e+01   6.3686150209e+01    0.4930125    0.2825092 -41.84  0.002381874    1.635    0.388
        75  -9.8568    140.9644     38.2604   6.3845411721e+01   4.4971733575e+01    0.4202722    0.3163638 -59.77  0.001996443    1.512    0.338
        76  -9.0311    172.4923     35.4926   5.7307041429e+01   3.7120242350e+01    0.1456943     0.143448  -4.64 5.953693e-05    1.034    0.033
        77  -9.8713     40.8516     33.8452   9.5573703838e+01   6.6718906207e+01    0.2688549    0.1399682 -44.90  0.001280318    1.700    0.412
        78  -9.9848    181.5072     25.9954   5.2938664622e+01   3.5906318123e+01    0.2934359    0.1925292  49.25  0.001300927    1.587    0.370
        79 -11.1756    144.8247    240.9410   1.0653916775e+02   1.0586790467e+01    0.3868979    0.2333738  32.68   0.00268447    1.291    0.225
        80  -8.7289    225.6471    247.6729   9.4250734129e+01  -6.2609688990e-01    0.1070609   0.05617158  15.67 0.0007047192    1.768    0.434
        81  -9.9657    203.2250     17.6920   4.7939020766e+01   3.1256939361e+01    0.2984225    0.2434762  55.96  0.001376551    1.301    0.232
        82  -9.9664    238.6892     15.5755   4.4412535324e+01   2.3120220846e+01    0.3433812    0.1816318  44.97  0.001638902    2.349    0.574
        83 -10.0019    118.4831    244.9907   1.1149213994e+02   1.3542659439e+01    0.2852401    0.1344436  37.31  0.001325315    1.562    0.360
        84 -10.3993    124.4119    243.3220   1.1031076636e+02   1.2989153501e+01    0.3339117    0.2195594  11.39   0.00182634    2.239    0.553
        85 -11.6375    134.3111    237.6469   1.0803176043e+02   1.2404058617e+01    0.8603441    0.2228784  34.47  0.003552726    3.548    0.718
        86 -13.1892    125.5549    225.2637   1.0833459793e+02   1.5241119279e+01    0.8146414    0.6900359 -86.41  0.006321243    1.537    0.349
