#   1 NUMBER                 Running object number                                     
#   2 MAG_AUTO               Kron-like elliptical aperture magnitude                    [mag]
#   3 X_IMAGE                Object position along x                                    [pixel]
#   4 Y_IMAGE                Object position along y                                    [pixel]
#   5 X_WORLD                Barycenter position along world x axis                     [deg]
#   6 Y_WORLD                Barycenter position along world y axis                     [deg]
#   7 A_WORLD                Profile RMS along major axis (world units)                 [deg]
#   8 B_WORLD                Profile RMS along minor axis (world units)                 [deg]
#   9 THETA_WORLD            Position angle (CCW/world-x)                               [deg]
#  10 FWHM_WORLD             FWHM assuming a gaussian core                              [deg]
#  11 ELONGATION             A_IMAGE/B_IMAGE                                           
#  12 ELLIPTICITY            1 - B_IMAGE/A_IMAGE                                       
         1 -16.0766    135.1174     25.0778   2.9037691297e+02   6.6985561689e+00    0.4205093    0.2408103 -80.25   0.03817414    2.242    0.554
         2 -18.3685    235.5553     49.1635   2.8937643044e+02   5.8381785716e+00    0.3908982    0.1730605 -57.93   0.02963786    2.112    0.527
         3 -11.3701    112.7455    105.1743   2.9111006044e+02   5.9028025185e+00   0.05464794    0.0231456 -69.43  0.004338319    2.730    0.634
         4 -15.0231    210.7282     69.2944   2.8977939594e+02   5.7500067175e+00   0.08759214   0.04205082  53.99  0.007060393    2.849    0.649
         5  -9.9032     79.3254     13.3133   2.9094358106e+02   7.1567974020e+00   0.02672855  0.004466276 -57.67  0.001605642    4.422    0.774
         6  -9.9991    163.0956     14.5938   2.8999508704e+02   6.6574700282e+00   0.01124116  0.008629402 -52.71 0.0004297707    1.268    0.211
         7 -11.1141     92.0022      9.3288   2.9077498688e+02   7.1295870874e+00   0.02164806   0.01469079 -80.96  0.001530708    1.707    0.414
         8  -9.8295    205.4220      8.4901   2.8947611888e+02   6.4822901766e+00  0.007570281  0.004927785 -29.57 0.0007312717    1.861    0.463
         9 -10.5139    229.1500      5.2814   2.8918667707e+02   6.3814178643e+00   0.02701278   0.01386108  -1.91  0.001900188    4.048    0.753
        10 -11.1374    217.0488      1.3798   2.8930110716e+02   6.4967181491e+00  0.008852246  0.006381453  18.74 0.0009474999    1.485    0.327
        11 -10.7579    206.9875    177.4838   2.9046747582e+02   4.5220117335e+00    0.0173639  0.009868761  47.42  0.001032179    1.924    0.480
        12 -13.4632    246.9707    248.6146   2.9043640494e+02   3.4687782251e+00    0.1575047    0.0560376  34.08   0.01256542    2.643    0.622
        13 -13.3915     14.4898    246.4803   2.9306831741e+02   4.8341558047e+00    0.1325144   0.03741824  32.13  0.009603234    3.208    0.688
        14 -10.0325    142.9385    180.9589   2.9121708848e+02   4.8522411571e+00   0.01100183  0.007658564  64.00  0.001127067    1.732    0.423
        15 -10.8941    188.3163    179.0405   2.9068915577e+02   4.6120738798e+00   0.02252998  0.009094992  38.03  0.001873109    2.419    0.587
        16 -10.4818    220.5245    175.7844   2.9030339571e+02   4.4632715329e+00    0.0238695   0.01579128 -84.53  0.002386456    1.843    0.457
        17 -11.1007    221.1450    170.1646   2.9026285374e+02   4.5246102873e+00   0.01642609    0.0124765  55.17   0.00148448    1.436    0.304
        18 -12.0013    214.9037    169.0567   2.9032723169e+02   4.5735566944e+00   0.03125492   0.01547581  40.88  0.002844472    2.053    0.513
        19 -11.0321    179.5396    173.5863   2.9075656024e+02   4.7258902692e+00   0.02954136   0.01517331  62.77  0.002280708    3.233    0.691
        20 -12.0772    190.9039    170.9692   2.9061165307e+02   4.6903884579e+00   0.04335753   0.01275987  43.98  0.002856473    3.988    0.749
        21 -11.1893    180.7392    165.4901   2.9069469989e+02   4.8125318998e+00   0.02914478   0.01284381  47.54  0.002006889    2.669    0.625
        22 -10.6352    229.9926    172.8888   2.9017848558e+02   4.4418890396e+00   0.02834046  0.009501805  31.82  0.001552729    2.803    0.643
        23 -10.3930    230.1102    166.6790   2.9014013538e+02   4.5129489423e+00   0.01461203    0.0094933 -85.13  0.001123168    1.915    0.478
        24 -12.0877    203.4546    166.0128   2.9043933069e+02   4.6750237042e+00   0.02426319   0.02041224  52.08  0.002254849    1.245    0.197
        25 -10.6710    203.6430    160.9254   2.9040687387e+02   4.7327202302e+00   0.01377913   0.01115242 -82.97 0.0008116071    1.331    0.249
        26 -11.2928    194.8339    167.2221   2.9054461686e+02   4.7109501231e+00   0.02485937   0.01078946  47.86  0.001840203    2.753    0.637
        27  -8.9791     62.1525    247.3259   2.9253066276e+02   4.5503912911e+00  0.008783335  0.008140328  29.65 0.0006943209    1.098    0.090
        28 -12.2761     82.4033    143.7608   2.9168568136e+02   5.6317787517e+00   0.04608933   0.02455531 -77.90  0.002514265    2.418    0.586
        29 -10.4736    198.8284    152.5224   2.9041157878e+02   4.8576980026e+00   0.01216866  0.009134117 -60.21 0.0006932855    1.296    0.228
        30 -10.0665    180.9542    152.5868   2.9061539524e+02   4.9604215522e+00   0.01517168  0.009719145  50.73  0.001336761    1.729    0.422
        31 -10.2531    134.0000    147.0030   2.9111688044e+02   5.2964855477e+00   0.02468851  0.008861196 -65.69  0.001845638    2.968    0.663
        32 -10.4225    133.0000    142.0047   2.9109852121e+02   5.3600486668e+00   0.03469783   0.01005738 -69.30  0.001970967    5.307    0.812
        33 -10.5962    192.1899    143.9518   2.9043604544e+02   4.9951739239e+00   0.01090765  0.008823625  47.70 0.0004759784    1.283    0.221
        34 -10.3274    201.3212    140.6698   2.9031255583e+02   4.9802168939e+00   0.01180412  0.008160948  89.09  0.001194363    1.794    0.443
        35 -12.2383    200.0916    144.2104   2.9034765856e+02   4.9464285466e+00   0.03796688   0.01702691  51.25 0.0006709259    2.935    0.659
        36 -10.9639    237.4311    249.3606   2.9054918926e+02   3.5153382713e+00   0.03724978   0.01605372  32.81  0.002967432    2.242    0.554
        37 -10.6923    176.1049    146.1567   2.9063229095e+02   5.0627996707e+00   0.02154704   0.01084402  54.77  0.001786258    2.668    0.625
        38  -9.6370    161.0674    145.1812   2.9079770891e+02   5.1610711017e+00   0.01672313   0.01064461 -11.95  0.001565718    2.212    0.548
        39  -9.2765    128.9798    141.6777   2.9114238403e+02   5.3870562371e+00  0.009044516  0.008228352  26.02 0.0004084033    1.122    0.109
        40  -9.9622    157.0541    139.5309   2.9080976036e+02   5.2495922598e+00    0.0116467  0.009118732  86.00 0.0005385682    1.462    0.316
        41 -10.9844    134.7950    109.2369   2.9088288010e+02   5.7284364652e+00   0.05366077  0.009746651 -63.83  0.002809257    6.023    0.834
        42 -10.6968    192.3709    193.9944   2.9073203678e+02   4.4157764682e+00    0.0475131   0.02256603  88.00  0.002566618    6.808    0.853
        43 -10.5162    118.1362    109.6521   2.9107526873e+02   5.8199089572e+00   0.01405639   0.01138035  66.67  0.001209988    1.376    0.273
        44 -10.9667    126.8306    105.0623   2.9094879275e+02   5.8227177668e+00   0.03039238   0.01227742 -59.30  0.002540853    2.312    0.567
        45 -12.0400    121.3348    104.1707   2.9100613797e+02   5.8647817044e+00   0.03073832   0.02528151 -35.52  0.002233863    1.269    0.212
        46 -11.6788    134.5348    124.1519   2.9097471767e+02   5.5575552013e+00   0.05888644   0.02370369 -75.00  0.003990368    3.929    0.745
        47 -10.5023    128.9331    115.2078   2.9098527992e+02   5.6933102187e+00   0.02500886   0.01394968 -89.59  0.001212407    2.832    0.647
        48 -12.0292    160.6273    128.7682   2.9070493204e+02   5.3533165153e+00    0.0259158   0.01985099 -13.26  0.002371953    1.541    0.351
        49 -10.0980    208.6945    186.1345   2.9049957916e+02   4.4121626085e+00   0.01085252  0.008805955  45.48 0.0005027788    1.269    0.212
        50  -8.9462     99.7463    130.1006   2.9140669630e+02   5.6897014103e+00   0.01103985  0.006622471 -37.93 0.0009566377    1.876    0.467
        51 -12.3155     56.0446    156.5245   2.9206205781e+02   5.6360164054e+00   0.02036897   0.01860855 -24.82  0.000917879    1.139    0.122
        52  -8.9176    125.9841    126.9395   2.9108877377e+02   5.5747445377e+00  0.008376967  0.006829171 -62.29 0.0005975722    1.201    0.168
        53 -10.0543    154.0134    125.9949   2.9076374789e+02   5.4236279002e+00   0.01026069  0.009922176 -66.43  0.000749126    1.019    0.018
        54 -10.4073    151.8599    120.9339   2.9075812045e+02   5.4945750773e+00   0.02186412   0.01012271 -65.70 0.0009143954    2.222    0.550
        55  -9.4976    153.9563    158.3890   2.9095734084e+02   5.0495145392e+00   0.01024179   0.00887513 -86.85 0.0004368805    1.221    0.181
        56  -9.0908    146.3481    112.9541   2.9077336244e+02   5.6186742948e+00  0.009201587  0.007873636 -66.53  0.000614021    1.158    0.136
        57  -9.5638     97.0996    111.2913   2.9132492219e+02   5.9224292378e+00   0.01226061  0.009286845 -78.51  0.000685625    1.424    0.298
        58 -14.3560     66.8632    148.8095   2.9189287799e+02   5.6629478207e+00    0.0867938   0.06288615 -31.56  0.004025737    1.545    0.353
        59  -9.4561    139.9311    106.0974   2.9080562303e+02   5.7350215163e+00   0.01271442  0.009238914 -43.94  0.001278678    1.395    0.283
        60 -10.3538    144.3069    103.1232   2.9073801667e+02   5.7440832055e+00   0.01374626   0.01144356  17.16 0.0005685712    1.261    0.207
        61  -8.7980     94.4576    105.9679   2.9132335874e+02   5.9992127434e+00   0.00918915  0.005627759  82.12  0.000807111    2.403    0.584
        62 -11.4937    153.4247     99.6213   2.9061321776e+02   5.7317988154e+00   0.03015057   0.02059139  67.11  0.002994553    1.830    0.454
        63  -9.1968     36.2878    103.1037   2.9197007949e+02   6.3675219212e+00  0.009226044  0.008262743 -70.33 0.0005052406    1.114    0.102
        64 -10.0566    120.7371    113.9965   2.9107149550e+02   5.7546698756e+00    0.0221744   0.01179468 -37.61  0.001972182    2.242    0.554
        65  -8.6748     81.6047     95.4615   2.9140742420e+02   6.1948065619e+00  0.006473802  0.006221701 -61.07 9.457547e-05    1.020    0.019
        66 -11.5998    149.4665     89.6262   2.9059870834e+02   5.8701780286e+00   0.01443035   0.01155346 -70.24 0.0005758211    1.264    0.209
        67  -9.4490    147.0110    158.8938   2.9103944189e+02   5.0838258071e+00   0.01492586  0.009350196  17.64   0.00104049    1.779    0.438
        68  -9.1144     31.1610     84.5289   2.9191815017e+02   6.6117455875e+00   0.01344792   0.00836141 -82.90  0.001277705    2.010    0.502
        69 -10.6349     80.0224     78.0504   2.9132177190e+02   6.4051528301e+00   0.02837134    0.0110591 -70.86  0.002038647    3.291    0.696
        70  -9.9915    183.4447    195.1143   2.9084024734e+02   4.4544586868e+00   0.01125295   0.00909657  37.17 0.0004177023    1.251    0.200
        71 -11.1228    118.8017     93.8044   2.9097324047e+02   5.9992160481e+00   0.02245605   0.01364513 -86.69  0.002070172    2.214    0.548
        72 -10.7605    198.9869     40.7762   2.8974261304e+02   6.1472535539e+00  0.009793768  0.008471988 -64.03 0.0005419826    1.137    0.121
        73  -9.7392    205.6042     37.7223   2.8964897276e+02   6.1440857909e+00   0.01057446  0.009047706 -33.53  0.001249011    1.218    0.179
        74  -9.3060    171.1418     35.0967   2.9002595809e+02   6.3742764376e+00  0.008358856   0.00731249  77.90  0.000295591    1.232    0.188
        75 -11.8514    205.9764     31.9107   2.8960996809e+02   6.2089696101e+00   0.01530546  0.008975676 -64.76 0.0008084396    1.704    0.413
        76 -10.7368    203.7369     25.4885   2.8959705333e+02   6.2960486713e+00   0.02274147   0.01237768  51.33  0.002067498    2.171    0.539
        77  -9.9080    201.3486     31.6234   2.8966096383e+02   6.2391448856e+00  0.008065225  0.005813241 -52.28 0.0003213298    1.348    0.258
        78 -10.4850     92.1880     28.6928   2.9088850984e+02   6.9050213942e+00   0.02314885  0.008202674 -61.77  0.001793825    2.703    0.630
        79  -9.5435     78.4347     28.3022   2.9104323625e+02   6.9889232614e+00   0.01269028  0.005915724 -57.86  0.001123331    2.014    0.503
        80  -9.4625    177.4722     25.8407   2.8989844754e+02   6.4443746960e+00  0.008580578  0.006271191 -58.58 0.0009334566    1.326    0.246
        81 -11.2937    200.2723     20.0267   2.8960383859e+02   6.3791562119e+00   0.01159567  0.007877197 -42.56 0.0005818583    1.523    0.343
        82  -9.5586     79.0272     16.7167   2.9096730902e+02   7.1192381220e+00   0.01144797  0.008407297 -53.49 0.0004539259    1.320    0.242
        83 -13.2959     21.6752    182.3901   2.9260731926e+02   5.5344700471e+00   0.09255499   0.05318987  63.57  0.008166431    2.473    0.596
        84 -13.6528     29.7166    169.7769   2.9244088802e+02   5.6341810373e+00    0.1123916    0.0464217  38.76  0.008097483    2.388    0.581
        85  -9.4711    217.8508    182.1655   2.9037181441e+02   4.4050214287e+00   0.03173256  0.007125605  30.90  0.002077254    3.902    0.744
        86 -11.2053    200.6436    175.1625   2.9052581306e+02   4.5855585621e+00   0.02146104   0.01942354 -26.67  0.002633797    1.151    0.131
        87 -11.3267    210.5061    178.5442   2.9043377081e+02   4.4893896665e+00   0.02057915   0.01195635  54.72  0.001547465    2.092    0.522
