#   1 NUMBER                 Running object number                                     
#   2 MAG_AUTO               Kron-like elliptical aperture magnitude                    [mag]
#   3 X_IMAGE                Object position along x                                    [pixel]
#   4 Y_IMAGE                Object position along y                                    [pixel]
#   5 X_WORLD                Barycenter position along world x axis                     [deg]
#   6 Y_WORLD                Barycenter position along world y axis                     [deg]
#   7 A_WORLD                Profile RMS along major axis (world units)                 [deg]
#   8 B_WORLD                Profile RMS along minor axis (world units)                 [deg]
#   9 THETA_WORLD            Position angle (CCW/world-x)                               [deg]
#  10 FWHM_WORLD             FWHM assuming a gaussian core                              [deg]
#  11 ELONGATION             A_IMAGE/B_IMAGE                                           
#  12 ELLIPTICITY            1 - B_IMAGE/A_IMAGE                                       
         1 -13.6407    208.3659     43.4861   3.5516305081e+01   2.8236934015e+01     1.827488     1.328493  34.64   0.01023035    2.034    0.508
         2 -12.9067    226.5264     28.0349   3.0414904370e+01   2.6388471742e+01    0.7595513    0.6524992 -69.38  0.002780916    1.105    0.095
         3 -11.4882    248.2500      8.3822   2.5056490701e+01   2.4400124743e+01    0.4022728    0.2943181 -54.47  0.002983887    1.108    0.097
         4 -11.2682    247.9854      3.1847   2.4097379492e+01   2.4989812679e+01    0.3832923     0.265175  63.34  0.002722583    1.796    0.443
         5 -10.4489      1.9951      3.9082   8.0925693647e+01   7.5752612362e+01    0.3426021    0.1429022 -42.86  0.001823813    2.241    0.554
         6 -10.4519    118.3883    238.1768   9.4714703899e+01   8.4909755126e+00    0.4146018    0.1370304 -60.20  0.001526099    4.224    0.763
         7 -16.1302     17.2195    242.5124   1.1689488035e+02   2.0068600894e+01     7.904293     4.753415  22.96   0.04765462    1.906    0.475
         8  -8.8125     99.2481    180.7603   9.1077423728e+01   2.3535423935e+01    0.1968512    0.1704032 -13.08 0.0007156163    1.315    0.240
         9 -12.3406     30.6050    198.0788   1.1103891099e+02   2.8376611606e+01    0.4590399    0.3567941 -31.65  0.001206122    1.718    0.418
        10 -10.7117    129.5987    218.6103   8.9522140509e+01   1.0580034722e+01    0.3265345    0.1618042  27.42  0.001440142    1.978    0.494
        11 -11.3669     59.6495    172.5509   1.0064496833e+02   3.1284004373e+01    0.4621421    0.3131479 -25.73     0.001498    2.045    0.511
        12 -11.2145     64.6616    167.8726   9.8568900357e+01   3.1808611245e+01    0.3743275    0.2880335 -30.46  0.000870965    1.565    0.361
        13 -12.0514     82.3824    152.6950   9.0893247285e+01   3.3108950141e+01     1.319516    0.6133686 -52.13  0.001507821    2.073    0.518
        14 -12.8238     61.8462    154.6613   9.7365259219e+01   3.5568953715e+01     0.525651    0.3752701 -34.43  0.001307945    1.641    0.391
        15 -11.6203     74.8298    159.0154   9.4234303521e+01   3.2638429536e+01    0.5588379    0.4756344   6.50 0.0004238064    1.348    0.258
        16 -13.6360     68.5278    144.7198   9.3626121058e+01   3.7222413654e+01     4.029487     1.799798  63.02  0.002920854    6.637    0.849
        17  -9.9884     46.8932    169.1754   1.0378748789e+02   3.3697683286e+01    0.3243959    0.2301684 -33.07  0.001299261    1.761    0.432
        18  -8.9053    110.7703    167.7676   8.5716766805e+01   2.4726895740e+01    0.2055873    0.1767373  78.71  0.000491868    1.346    0.257
        19  -8.1948    169.2006    236.0942   8.3541463339e+01   1.6884224461e+00    0.1490608   0.09553943 -37.94 0.0004234026    1.659    0.397
        20 -10.8522     33.5021    157.1227   1.0616662495e+02   3.8240701952e+01    0.5502218    0.3068712  79.47  0.002413122    2.127    0.530
        21 -10.3975    194.2310    197.0521   7.1871068441e+01   4.6641711681e+00    0.3764577    0.1964661 -58.61  0.001376811    4.104    0.756
        22  -8.6350    174.6413    148.8277   6.6168774060e+01   1.7125825899e+01    0.2122214    0.1313044 -51.05 0.0004765668    1.720    0.419
        23 -10.1196     54.2990    147.2443   9.8478953042e+01   3.8469940275e+01    0.5577623    0.1344884 -65.96  0.001546754    4.288    0.767
        24  -9.6427    134.0238    146.4003   7.5165398414e+01   2.5488181492e+01    0.5948402    0.1887605 -55.34  0.001561775    4.537    0.780
        25  -9.6840     85.5887    170.8301   9.3140869338e+01   2.8065045619e+01    0.4169267    0.2569784 -25.75  0.001677042    2.457    0.593
        26  -8.7289     47.9784    146.0196   1.0025408860e+02   3.9555872996e+01    0.1770808    0.1614046 -74.98  0.000659439    1.020    0.019
        27  -9.2901     28.5053    142.9805   1.0592099839e+02   4.2398837116e+01     0.198594    0.1901735 -87.77 0.0007086122    1.079    0.073
        28 -10.0696     98.3756    138.7918   8.3336012220e+01   3.3952090085e+01    0.6505484    0.3881439 -18.76  0.002237606    3.079    0.675
        29 -11.6853     85.0005    138.1357   8.7236292831e+01   3.6390512288e+01    0.3262769    0.2785304 -45.94 0.0004522258    1.157    0.136
        30 -10.6985    240.2508    169.3602   5.8350807384e+01   2.5279123809e+00     0.216013    0.1558454 -32.67 0.0004926297    1.164    0.141
        31 -10.2280    107.1869    130.2816   7.8806260879e+01   3.4427547147e+01    0.5186492    0.3423642  23.01  0.001819152    1.806    0.446
        32  -9.7705    119.4805    212.0178   9.0899202393e+01   1.3437834934e+01    0.1973864    0.1382379 -55.83 0.0006036549    1.586    0.369
        33  -9.4272     44.0356    129.2267   9.8794468131e+01   4.4408088152e+01    0.2467916    0.1484354  55.37  0.001084992    1.989    0.497
        34  -8.7249     96.8120    124.8081   8.0607787515e+01   3.7677112211e+01    0.2290886    0.2024314 -16.57 0.0005358929    1.220    0.180
        35  -9.4602     67.7818    125.3832   9.0061011055e+01   4.2322977236e+01    0.2084174    0.1467835  14.62 0.0009475275    1.679    0.404
        36 -15.2352      9.0025    207.7953   1.1678656741e+02   2.8194775610e+01     9.539577     1.313122 -79.26   0.02083054    8.004    0.875
        37  -8.5208    162.4948    119.9823   6.2050952037e+01   2.5434258086e+01    0.3519871    0.2104392 -74.58  0.001109843    3.963    0.748
        38  -8.4634    159.3647    115.7009   6.1673235982e+01   2.6970029737e+01    0.2656168    0.1878543 -76.72  0.001119502    2.112    0.527
        39  -8.7347     73.3208    120.6522   8.7170328511e+01   4.2690408905e+01    0.1582406    0.1185873  74.49 0.0007049101    1.737    0.424
        40  -9.1354    106.0045    118.5562   7.6284076187e+01   3.7455648102e+01    0.2239557    0.2035226 -43.47  0.000340691    1.080    0.074
        41  -9.9320    231.2451    113.9082   4.8428751740e+01   1.3038681010e+01    0.2655012    0.2216562 -35.48 0.0008478541    1.049    0.047
        42  -9.4235     34.9171    111.3159   9.8767396567e+01   5.0034552835e+01    0.3664561    0.2175572  50.47  0.001666971    2.031    0.508
        43  -8.4281     75.7578    110.8814   8.4022045083e+01   4.4741964333e+01    0.2006821     0.176873  76.46 0.0004488921    1.315    0.240
        44  -9.1881    205.3285    110.3033   5.1561514948e+01   1.8473860423e+01    0.2722387    0.1910767  45.49 0.0008340914    1.607    0.378
        45  -9.0519    241.3461    102.3053   4.4638122834e+01   1.3139910918e+01    0.1212742   0.09524424  -3.27 0.0007041856    1.694    0.410
        46  -8.6761     60.0112    100.0312   8.6902935647e+01   4.9822456830e+01    0.2331995     0.180569  69.63 0.0007486026    1.692    0.409
        47 -10.0060     53.2001     94.3986   8.8041976676e+01   5.2138817772e+01    0.2076796    0.1826892  87.37  0.001119873    1.357    0.263
        48  -8.9263     46.9801     91.6638   8.9779792472e+01   5.3605998288e+01    0.2351151   0.08768899  47.29  0.000704797    4.322    0.769
        49  -8.8321    161.5153     83.5573   5.2761198731e+01   3.2655201780e+01     0.145232    0.1407529 -67.01 4.297726e-05    1.012    0.012
        50  -8.3550     45.9655     68.9955   8.3722594954e+01   5.8952968744e+01    0.1668077    0.1486617 -21.77 0.0003547349    1.000    0.000
        51 -10.3875      2.1119     62.9708   1.0269208173e+02   6.4305603535e+01    0.3700216     0.117607 -66.27  0.001483223    2.762    0.638
        52  -9.0141     34.9612     62.9382   8.6748002508e+01   6.1624744445e+01     0.191848    0.1629685  61.44 0.0004638892    1.607    0.378
        53 -12.3390     11.9909     58.8468   9.6732088348e+01   6.4643111562e+01    0.7060444    0.4703408 -63.47  0.001764598    1.491    0.329
        54 -11.1426    116.9215    247.6587   9.6189285179e+01   6.9826414855e+00    0.4422882    0.2101158  22.38  0.002005227    2.312    0.568
        55 -11.3237     95.6694    242.8625   1.0025732597e+02   1.0744650414e+01    0.4843692    0.3046207 -78.91  0.002608406    2.140    0.533
        56  -8.5406     28.6251     59.3105   8.8602714047e+01   6.3095499209e+01    0.1283145    0.1030777  60.51 0.0007030857    1.782    0.439
        57  -9.3512     21.4092     56.3142   9.1225533898e+01   6.4438403249e+01    0.2476956    0.1901706  34.84 0.0007671787    1.537    0.350
        58  -9.5837     17.5979     55.1925   9.2815752591e+01   6.5010102840e+01    0.1919019     0.145639 -39.87 0.0004575605    1.114    0.103
        59 -10.9961      3.6148     49.7986   9.8608879366e+01   6.7146477158e+01    0.3647021    0.2246334  14.79  0.002098592    1.742    0.426
        60 -11.3898    219.8784     34.0829   3.2276384845e+01   2.7011871918e+01    0.3136627    0.2874642  36.66   0.00114411    1.502    0.334
        61  -9.2385    197.8740     24.1765   3.2042706129e+01   3.2887063237e+01    0.2077738    0.1615573  13.12  0.001092317    2.012    0.503
        62 -14.6039     40.6527    189.1321   1.0770096317e+02   2.9442566303e+01     3.860008     1.822932  70.91   0.01545886    2.784    0.641
        63  -8.6200    189.5144     14.9970   3.0622300637e+01   3.5754996921e+01    0.1728319    0.1147481 -36.57 0.0005096123    1.525    0.344
        64  -7.8167    223.7260    206.7115   6.8079639076e+01  -1.0717869563e+00    0.1239482   0.08016327  -8.09 0.0001638553    1.512    0.339
        65  -9.5653     31.8916    205.3799   1.1132093446e+02   2.6545536716e+01    0.2856128    0.1597337  65.21  0.001454212    1.764    0.433
