#   1 NUMBER                 Running object number                                     
#   2 MAG_AUTO               Kron-like elliptical aperture magnitude                    [mag]
#   3 X_IMAGE                Object position along x                                    [pixel]
#   4 Y_IMAGE                Object position along y                                    [pixel]
#   5 X_WORLD                Barycenter position along world x axis                     [deg]
#   6 Y_WORLD                Barycenter position along world y axis                     [deg]
#   7 A_WORLD                Profile RMS along major axis (world units)                 [deg]
#   8 B_WORLD                Profile RMS along minor axis (world units)                 [deg]
#   9 THETA_WORLD            Position angle (CCW/world-x)                               [deg]
#  10 FWHM_WORLD             FWHM assuming a gaussian core                              [deg]
#  11 ELONGATION             A_IMAGE/B_IMAGE                                           
#  12 ELLIPTICITY            1 - B_IMAGE/A_IMAGE                                       
         1 -15.5328      3.0434     88.7796   1.2010031889e+02   5.6521965734e+01     7.669877    0.2186403 -69.66   0.01753906    9.214    0.891
         2 -16.5646     10.2971    127.8057   1.2282351097e+02   4.7127750870e+01     2.983211     0.927429 -66.88  0.008112866    2.322    0.569
         3 -14.6353    198.0694     35.1276   5.0260367151e+01   3.1138818574e+01     1.562218     1.112427  26.58  0.007518815    1.862    0.463
         4 -14.5398    209.3855     22.5140   4.5383705044e+01   2.9849980410e+01     1.143336     0.853305  26.85    0.0059747    1.784    0.439
         5 -11.1355    233.4978      1.4965   3.7868679026e+01   2.6352739754e+01      0.38456     0.114118  74.32  0.001474644    3.184    0.686
         6 -17.4436     65.9334    230.5112   1.2041963865e+02   1.9222111635e+01     1.857438     1.167354 -67.29   0.01189473    1.723    0.420
         7 -12.1635    226.8925    233.7996   9.1060009836e+01  -6.3972450410e+00    0.5991164    0.2932765  27.84  0.002397655    1.858    0.462
         8 -13.7574    216.9805    242.3070   9.4119756675e+01  -5.9119025870e+00     0.895238    0.5625182  -5.93  0.004512375    1.897    0.473
         9 -12.2382    227.1461    242.0602   9.2321771513e+01  -7.3994225210e+00     0.511741    0.3280406   8.95  0.002062248    1.555    0.357
        10 -11.1601    139.6023    236.8925   1.0745052730e+02   7.1753482584e+00    0.3483541    0.2744682 -69.29  0.001261206    1.569    0.363
        11 -12.6670    136.5746    249.8291   1.0952722064e+02   5.6698762103e+00    0.6088287    0.2568821  46.64  0.002192045    1.880    0.468
        12 -12.5858    139.8965    244.0609   1.0826062587e+02   6.0180351460e+00    0.5027424    0.3142186  29.42  0.002698328    1.717    0.418
        13 -16.2741     48.6185    182.7479   1.1952853227e+02   3.0984356768e+01     3.610411     2.149417  67.27   0.02054419    1.571    0.364
        14 -15.0164     57.5723    210.5517   1.2029716983e+02   2.4101840349e+01    0.8635991    0.6931307  43.31  0.003562214    1.392    0.282
        15 -16.7284      8.7111    244.0709   1.3079540686e+02   2.3375074216e+01     2.043536     1.591083  46.98   0.01734025    1.538    0.350
        16 -16.0415      6.1524    212.6455   1.2979828074e+02   2.9329751771e+01     2.096997    0.7840551 -70.22   0.01196076    2.396    0.583
        17 -17.1909     81.7963    230.2188   1.1750317472e+02   1.7120056888e+01     1.577697     1.022369 -66.48  0.006445961    1.696    0.410
        18 -10.0941     52.3779    250.5420   1.2419306684e+02   1.7430103153e+01    0.1920222   0.07684813  45.28 0.0007787916    1.911    0.477
        19 -12.1764    183.4254    215.2273   9.6007502113e+01   3.2049306157e+00    0.2670543    0.2443765  81.73  0.001734677    1.431    0.301
        20 -10.5667    103.9543    213.9224   1.1154572927e+02   1.6854498036e+01    0.2788615    0.2295268 -34.51  0.001693413    1.745    0.427
        21 -15.0556    183.4066    152.4970   8.4076787222e+01   1.4132921314e+01     2.427538     1.605851 -31.71    0.0112527    1.610    0.379
        22 -15.2403    149.2095    202.5208   1.0077474462e+02   1.1370100151e+01     2.260635     1.476968  26.33  0.007098123    1.767    0.434
        23 -15.0826    159.1361    182.8341   9.5368876563e+01   1.3190543156e+01     1.546069    0.9159672  53.07  0.004572544    1.761    0.432
        24 -15.3944    169.1578    176.4081   9.2039374878e+01   1.2472450715e+01     1.464591     1.151516  41.99  0.005490663    1.187    0.158
        25 -10.5471    122.5242    210.9819   1.0744886761e+02   1.4416958769e+01     0.355358    0.1759477  58.99  0.001576924    2.367    0.578
        26 -10.8780    208.9837    208.5192   9.0035760644e+01  -1.9216308959e-01    0.2374898    0.1450863  33.58 0.0006600674    1.437    0.304
        27 -12.3405    203.7833    207.3497   9.0804226151e+01   8.7054805028e-01    0.3484112    0.2621188  55.36  0.001382384    1.647    0.393
        28 -17.2370    102.9032    242.5185   1.1482300970e+02   1.1941226157e+01     1.918978     1.378215 -83.28   0.01263177    1.552    0.356
        29 -13.2004    193.2423    193.4751   9.0341435387e+01   4.9050857227e+00    0.8056182    0.4569556 -53.83  0.003664602    2.493    0.599
        30 -12.9958     19.2521    191.8909   1.2622121101e+02   3.2214320862e+01    0.3500597    0.2536774  40.23  0.000910269    1.568    0.362
        31 -13.2409    210.0015    146.8152   7.7450179191e+01   9.6334612652e+00     1.236322    0.8138531 -48.55  0.004861781    1.704    0.413
        32 -15.6538    213.3975    177.4338   8.3348296921e+01   3.7819083584e+00      2.04045     1.746858  54.18  0.009980648    1.405    0.288
        33 -14.3959    216.6857    164.6562   8.0086624592e+01   5.2486181176e+00     1.138217     1.022094  19.25  0.005178793    1.065    0.061
        34  -9.6645     99.5113    180.5467   1.0810717748e+02   2.4316479460e+01    0.1358273    0.1193031  71.73 0.0001107023    1.008    0.008
        35 -11.8359     70.1983    178.5494   1.1438253512e+02   2.9138387992e+01    0.3591225    0.2489968 -37.38  0.001901444    2.183    0.542
        36 -11.7605     74.5096    173.4653   1.1277251119e+02   2.9665064735e+01    0.2929069    0.2259155 -42.46  0.001192536    1.681    0.405
        37 -14.0841     68.6290    144.2598   1.0998627240e+02   3.7220794211e+01     5.154987     1.931446  61.16   0.01133028    9.604    0.896
        38 -12.8861     83.0658    163.7992   1.0943213641e+02   3.0600722874e+01    0.9566664    0.3926158  51.19 0.0003864132    2.590    0.614
        39 -13.4817     70.9744    159.6748   1.1171884341e+02   3.3292443240e+01    0.5701011     0.404416 -35.21  0.001315955    2.006    0.501
        40  -9.7601      7.5178    175.9611   1.2745793325e+02   3.6627025661e+01    0.1686063   0.08698659 -84.42 0.0003696013    1.530    0.346
        41 -10.6292      4.1675    181.5499   1.2846920593e+02   3.5733087374e+01    0.2640037    0.1888188 -63.30  0.001685002    1.572    0.364
        42 -12.9155     89.8767    156.4815   1.0664344962e+02   3.1232017409e+01    0.5852116    0.4369823 -28.97  0.002970226    1.914    0.477
        43 -11.6144     20.3747    153.4683   1.2292777892e+02   4.0452218629e+01    0.4557104    0.3161315 -76.17  0.002954971    1.180    0.153
        44 -12.4842    146.3078    119.8571   8.4767194422e+01   2.8867503226e+01    0.6572042    0.5440109  73.90   0.00234827    1.400    0.286
        45 -13.5571    157.7692    135.0303   8.5746804319e+01   2.3131687260e+01     1.354778    0.8390226 -39.33  0.005062329    1.665    0.399
        46 -14.0892    146.7459    140.8882   8.9677284029e+01   2.4230211426e+01     1.504445    0.7374806 -55.99  0.005166966    2.425    0.588
        47 -11.9505    134.2200    146.6122   9.3921313971e+01   2.5534673315e+01    0.7850886    0.2102906 -53.56  0.002117815    4.560    0.781
        48 -12.2897    170.4721    232.3549   1.0106764821e+02   2.8179349027e+00    0.3489432    0.2018266 -56.96  0.001850348    2.487    0.598
        49 -13.7090     33.4783    114.0973   1.1475895928e+02   4.8444038874e+01    0.9072516    0.5000132 -49.89  0.003300891    1.714    0.417
        50 -12.5911    103.1087    141.2392   1.0057140841e+02   3.2579341609e+01    0.5665156    0.3478573 -32.08  0.002359073    2.387    0.581
        51 -12.4404     90.7218    141.4277   1.0380034273e+02   3.4609182365e+01    0.2848294    0.2530887 -60.07 0.0003685033    1.117    0.105
        52 -12.3253     57.4108    127.8203   1.1027041359e+02   4.2593584973e+01     0.927838    0.3325515 -74.92  0.002752143    4.744    0.789
        53 -11.2540    112.1495    131.3230   9.6165429350e+01   3.3255861354e+01    0.3151038    0.2520333   2.54 0.0009103022    1.720    0.419
        54 -11.2948    106.0968    130.8160   9.7644704107e+01   3.4481379107e+01    0.3490408    0.3003374 -81.80  0.001392375    1.193    0.162
        55 -13.4058    118.8094    126.2489   9.3282029574e+01   3.3156333943e+01    0.8823471    0.4947325 -45.47  0.003702349    1.779    0.438
        56 -11.3752     98.9598    127.7422   9.8888066864e+01   3.6460715035e+01    0.3567893    0.2811151   2.19 0.0008195749    1.785    0.440
        57 -13.7935    148.6202    129.9248   8.6685653543e+01   2.6195293069e+01    0.9972695    0.7252368 -68.17  0.003162194    1.700    0.412
        58 -10.0943    108.1879    119.8838   9.4624671485e+01   3.6642612504e+01    0.2143427    0.1949396 -85.98 0.0003425651    1.130    0.115
        59  -9.6441    167.6690    112.3524   7.7823214501e+01   2.5599790130e+01    0.1648796    0.1255747 -78.75 0.0007046754    1.777    0.437
        60  -9.9861    205.5407    110.1596   6.9478559771e+01   1.7208938883e+01     0.241926    0.2067342  17.75 0.0007366068    1.285    0.222
        61 -11.8186    118.9393    109.5911   8.9165693964e+01   3.6914621067e+01     0.409578    0.2804056  77.19  0.001673824    2.233    0.552
        62 -11.9074     43.5603    108.9856   1.1094755201e+02   4.8664559513e+01    0.3408734    0.2890946  51.79  0.001931088    1.332    0.249
        63  -9.8695     86.1865     99.1946   9.5858601416e+01   4.5289683092e+01    0.1891934    0.1649302  85.42 0.0003480894    1.307    0.235
        64  -9.8387    109.3169    147.6572   1.0025270141e+02   3.0002332604e+01    0.1533579    0.1100876  80.29   0.00070487    1.714    0.417
        65 -10.4548     41.7541     91.7929   1.0815605567e+02   5.2890348263e+01    0.1692229    0.1422635  88.62 0.0004757747    1.307    0.235
        66 -12.4564     33.2196     82.0744   1.0892215365e+02   5.5934836119e+01    0.6353326    0.2922416 -73.61  0.002701893    2.638    0.621
        67 -10.9852    150.7552     54.2395   6.4443091737e+01   4.0515895721e+01    0.2888795     0.242128 -73.09  0.000520996    1.389    0.280
        68 -13.2996    167.2150    222.0805   1.0018976477e+02   4.9266960686e+00    0.6030637    0.4301092  11.12  0.002816647    1.796    0.443
        69 -13.7248    188.8034     41.8954   5.3555181558e+01   3.2603125642e+01    0.7927772    0.5634369  20.81  0.001121209    1.904    0.475
        70 -12.1896    164.5950    218.2130   1.0011666412e+02   5.9899462619e+00    0.4530153    0.2534491 -28.39  0.002125878    2.728    0.633
        71 -10.0569    122.1494    224.8519   1.0929028493e+02   1.1984172084e+01    0.1897505    0.1477746  58.84  0.001208198    1.127    0.113
        72 -11.1350    151.9691     47.2511   6.1884775236e+01   4.1290007338e+01    0.3481124    0.2655086 -80.72  0.001030794    1.658    0.397
        73 -11.8569     21.1408     33.7894   1.0029509778e+02   6.7070264492e+01    0.2669712    0.1415647  33.78  0.001496656    2.358    0.576
