#   1 NUMBER                 Running object number                                     
#   2 MAG_AUTO               Kron-like elliptical aperture magnitude                    [mag]
#   3 X_IMAGE                Object position along x                                    [pixel]
#   4 Y_IMAGE                Object position along y                                    [pixel]
#   5 X_WORLD                Barycenter position along world x axis                     [deg]
#   6 Y_WORLD                Barycenter position along world y axis                     [deg]
#   7 A_WORLD                Profile RMS along major axis (world units)                 [deg]
#   8 B_WORLD                Profile RMS along minor axis (world units)                 [deg]
#   9 THETA_WORLD            Position angle (CCW/world-x)                               [deg]
#  10 FWHM_WORLD             FWHM assuming a gaussian core                              [deg]
#  11 ELONGATION             A_IMAGE/B_IMAGE                                           
#  12 ELLIPTICITY            1 - B_IMAGE/A_IMAGE                                       
         1 -11.2445      2.1430     33.7878   1.1140898138e+02   6.9804255468e+01     1.494797    0.1330653 -73.34  0.003422246    9.449    0.894
         2 -10.9595      1.7926      6.5605   1.0401410134e+02   7.5817043437e+01     1.212374    0.1993589 -68.22  0.003312603    7.065    0.858
         3 -11.4482    205.5482     30.6474   4.7800965146e+01   2.8932613525e+01    0.8862203    0.6868383 -41.51  0.004565875    1.242    0.195
         4 -11.3790    213.2762     23.5332   4.4787162493e+01   2.7695785551e+01    0.8840573    0.5738931  25.54   0.00160758    1.889    0.471
         5 -11.8053    222.4153     13.2191   4.0869234703e+01   2.6383530685e+01    0.7948392    0.6938732 -45.75  0.002773723    1.071    0.066
         6 -10.8145    127.9755    230.4033   1.0308398707e+02   1.5833267707e+01    0.2267531    0.2161065 -37.58   0.00202752    1.519    0.342
         7 -12.0411    121.1295    248.1886   1.0573159046e+02   1.4632002925e+01    0.8159648    0.2414179  39.21  0.004285605    2.521    0.603
         8 -10.7579     96.9921    246.7614   1.0947364878e+02   1.7916712431e+01    0.3617662    0.2201351  26.97  0.002498977    2.197    0.545
         9  -9.4515     93.3479    245.6913   1.0998554512e+02   1.8507924254e+01    0.1658564   0.08092724  52.10   0.00046341    1.464    0.317
        10 -11.0488     85.6343    248.9315   1.1142646945e+02   1.9050686966e+01     0.432231    0.1746899  39.85  0.002786029    1.819    0.450
        11  -7.4585     52.7175    250.7321   1.1670739999e+02   2.2622377782e+01   0.07680398   0.06144931  41.93 0.0002171608    1.492    0.330
        12 -12.4855     36.8819    210.7872   1.1753280293e+02   3.0137570912e+01    0.7932856    0.6295685 -18.73  0.004038812    2.839    0.648
        13 -13.5104     46.4043    200.0059   1.1522990235e+02   3.0851051841e+01     1.743991    0.7062592  56.13  0.008266347    1.879    0.468
        14 -11.3231    116.2423    230.1898   1.0502870982e+02   1.7484288045e+01    0.4236062    0.1633767  42.51  0.002457668    1.833    0.454
        15  -8.7795     53.5645    230.3194   1.1560901257e+02   2.5344859155e+01    0.1579346   0.08294187 -88.97 0.0009910737    2.068    0.516
        16 -10.2745    105.8290    229.6524   1.0673820475e+02   1.8965198626e+01    0.3444043   0.08025301  43.70   0.00160865    2.833    0.647
        17 -10.6105     97.5431    225.9779   1.0785351903e+02   2.0564043964e+01    0.4013022    0.1729738  56.46  0.002246235    2.084    0.520
        18 -10.9963     45.3739    221.1653   1.1654348240e+02   2.7609671399e+01    0.3133413     0.157059 -81.88  0.002148267    2.138    0.532
        19 -14.8810      6.6941    241.6880   1.2355182062e+02   2.8460656915e+01      9.17824     1.389361 -83.16    0.0257141    6.775    0.852
        20  -8.8009     37.0689    224.2370   1.1810167913e+02   2.8038407180e+01     0.160977        0.108 -51.42  0.001187103    2.668    0.625
        21 -10.2984     73.3121    219.2126   1.1156426419e+02   2.4639994997e+01    0.2822935    0.1143058  53.57  0.001483151    1.875    0.467
        22 -10.6420    134.8825    230.5649   1.0195095827e+02   1.4843003045e+01    0.2709371    0.1834371  22.88  0.001897243    1.858    0.462
        23  -8.7847    142.3017    241.6591   1.0179599238e+02   1.2518978075e+01    0.1001712   0.06194013  58.73 0.0003614859    1.673    0.402
        24  -7.9889     74.5210    189.4924   1.0907478056e+02   2.9201255482e+01    0.1148977    0.0839664  59.83 0.0002577361    1.042    0.040
        25  -9.8576     52.6673    183.3085   1.1293384985e+02   3.2994666072e+01    0.4184762    0.1361976  59.46  0.001896246    3.098    0.677
        26 -10.0401     68.5235    176.4555   1.0914007838e+02   3.2258813553e+01    0.2270032    0.2220745 -87.61 0.0008470096    1.443    0.307
        27 -10.0840     63.3462    182.3183   1.1070359262e+02   3.1873252325e+01    0.2855326    0.2417035 -22.26  0.001639409    2.098    0.523
        28  -8.5865    195.0774    168.9155   8.3391582079e+01   1.2893255491e+01    0.1947302     0.155933  31.72 0.0006362877    1.028    0.027
        29  -9.8058     78.2139    166.1560   1.0607467792e+02   3.2840392104e+01    0.2252179    0.1953141  70.99 0.0004321111    1.129    0.114
        30 -11.6242     65.4320    162.4994   1.0848524679e+02   3.5244906647e+01    0.3727567    0.2573311 -48.03  0.001502961    2.064    0.515
        31 -11.0244     83.7508    159.7757   1.0414639867e+02   3.3248334503e+01    0.6343911    0.4719761  33.02  0.000804693    1.539    0.350
        32 -10.2818     73.6118    155.5704   1.0592607540e+02   3.5483623144e+01    0.4373911    0.2200339 -79.13  0.002236568    2.268    0.559
        33  -9.5101     33.2333    156.7793   1.1517024193e+02   4.0119698946e+01    0.2412409    0.1127356 -84.91  0.001195135    2.000    0.500
        34 -13.5505      9.0922    207.5377   1.2231929028e+02   3.3388132901e+01     2.038828     1.154086 -61.55   0.01472844    2.559    0.609
        35 -10.8158     70.4001    145.2107   1.0545915124e+02   3.7972734083e+01    0.5371295     0.297189 -59.31  0.002309571    1.935    0.483
        36 -10.7791     67.5200    142.4943   1.0581924294e+02   3.8914662104e+01     0.413229    0.3230214  70.70  0.001480154    1.079    0.073
        37  -8.5623     52.8327    238.2251   1.1611841085e+02   2.4304798288e+01    0.1167312   0.09231312  49.89 0.0004332404    1.323    0.244
        38  -9.2487     99.4467    144.4847   9.8552065487e+01   3.3767033999e+01    0.1992053    0.1682495 -57.37 0.0008673441    1.358    0.264
        39 -10.5203     87.1031    143.1527   1.0123572614e+02   3.5968241420e+01    0.2585822    0.2320471  44.66 0.0005288497    1.251    0.201
        40  -8.9885     82.5463    142.4938   1.0222290953e+02   3.6784968667e+01    0.3085424    0.1840189  72.57  0.001596687    1.884    0.469
        41 -10.1801     49.0360    235.5787   1.1661401028e+02   2.5095895578e+01    0.2000266     0.161276  86.14  0.001836349    1.446    0.308
        42 -10.6140    134.9003    236.8415   1.0254095830e+02   1.4093251713e+01    0.1921966    0.1351162 -78.92  0.001451369    2.151    0.535
        43  -8.4159    109.8710    132.4317   9.4155596407e+01   3.4352838468e+01     0.241942    0.1740987 -35.78 0.0008812905    1.878    0.468
        44 -10.3854     57.7469    129.9668   1.0671379268e+02   4.2806730960e+01    0.5468013    0.1958418 -77.50  0.002104516    3.532    0.717
        45  -8.0131    105.5054    130.4897   9.4852607409e+01   3.5495993554e+01    0.1329488    0.1190069  65.83 0.0004176733    1.029    0.028
        46  -9.1591     96.9673    128.7827   9.6630595132e+01   3.7287504737e+01    0.2178034    0.2065249 -64.23 0.0005096972    1.225    0.183
        47  -7.6784     54.3133    121.3049   1.0651012454e+02   4.5103364609e+01    0.1140984   0.09482209 -41.86 0.0003849851    1.618    0.382
        48  -7.7570    106.6035    120.5037   9.2749613457e+01   3.7305710093e+01    0.1337826     0.122713  76.04  0.000100515    1.031    0.030
        49  -7.8996    168.1731    113.0203   7.7224018082e+01   2.6268177085e+01    0.2253427    0.1620013 -68.94  0.001066357    1.974    0.493
        50  -8.1411     32.6843    109.2974   1.1106263870e+02   5.0182883054e+01    0.1275996   0.07505678  67.20 0.0004199153    1.608    0.378
        51  -9.5265     83.5302    232.7863   1.1072851978e+02   2.1432373018e+01    0.1787307    0.1181151 -75.06  0.001158249    1.871    0.466
        52  -9.6286     13.1943     59.7102   1.1101096135e+02   6.3209955337e+01    0.2118249    0.1370556 -85.95  0.000584387    1.342    0.255
        53  -9.1633    145.2619     50.1312   6.4065189337e+01   4.2277315973e+01    0.2923409    0.2000038 -83.97 0.0005513434    2.045    0.511
        54  -9.9255    108.3674    249.8964   1.0788416868e+02   1.6089834317e+01    0.3365624    0.1321425  35.19  0.001932938    2.388    0.581
        55 -10.1532    101.0408    250.3436   1.0907547936e+02   1.6967183892e+01    0.3399803    0.1541992  47.36 0.0008504585    1.463    0.317
        56  -8.3923    144.4166     41.5553   6.1199101320e+01   4.3828859312e+01    0.3896787    0.2171846 -78.73   0.00121753    3.722    0.731
        57  -8.0294     94.6682     41.3084   7.3972015045e+01   5.5837351524e+01    0.1478486    0.1137263 -77.07 0.0006810845    1.667    0.400
        58 -11.2027    197.1750     37.2216   5.0883365310e+01   3.0363626297e+01    0.8175645    0.5190422  66.64  0.003027858    1.620    0.383
        59 -10.0036     69.8912    242.1032   1.1354990496e+02   2.1823407435e+01    0.2380357    0.1400235  83.83  0.001841621    1.869    0.465
        60 -10.6150     65.6119    241.1765   1.1419234404e+02   2.2447800128e+01    0.2734189    0.2029163 -55.55  0.001273135    2.161    0.537
        61  -8.3253     33.0000     28.9805   9.3982464246e+01   6.8443507825e+01    0.2192889   0.06228608 -57.11 0.0008080673    2.982    0.665
