#   1 NUMBER                 Running object number                                     
#   2 MAG_AUTO               Kron-like elliptical aperture magnitude                    [mag]
#   3 X_IMAGE                Object position along x                                    [pixel]
#   4 Y_IMAGE                Object position along y                                    [pixel]
#   5 X_WORLD                Barycenter position along world x axis                     [deg]
#   6 Y_WORLD                Barycenter position along world y axis                     [deg]
#   7 A_WORLD                Profile RMS along major axis (world units)                 [deg]
#   8 B_WORLD                Profile RMS along minor axis (world units)                 [deg]
#   9 THETA_WORLD            Position angle (CCW/world-x)                               [deg]
#  10 FWHM_WORLD             FWHM assuming a gaussian core                              [deg]
#  11 ELONGATION             A_IMAGE/B_IMAGE                                           
#  12 ELLIPTICITY            1 - B_IMAGE/A_IMAGE                                       
         1 -13.8946    169.4100     41.6786   7.1565771332e+01   3.7188278406e+01     1.351146     1.125296  -4.67  0.004309184    1.420    0.296
         2 -13.4266    186.7728     12.7351   6.0405261589e+01   3.6081130299e+01     1.154891    0.5546882  64.90  0.005115173    1.987    0.497
         3 -13.3967    184.7534      7.5856   5.9053996756e+01   3.7118217792e+01     2.365997    0.4710177  66.10  0.007490084    3.874    0.742
         4 -11.3304    125.0585    244.5627   1.2519662486e+02   9.3254524789e+00    0.3479996    0.1673073 -55.14  0.001686635    2.845    0.649
         5 -10.9402    139.3429    248.7916   1.2275992715e+02   6.8352919751e+00    0.3288634    0.2795116 -75.57  0.001902879    1.830    0.454
         6 -19.8643     60.3948    166.5341   1.3245146176e+02   3.3063697336e+01     18.67874     4.911254 -71.67    0.0601505    4.296    0.767
         7 -10.9090     15.6689    219.7056   1.4672619130e+02   2.6506935574e+01    0.1457398    0.1133118  74.02 0.0006280696    1.227    0.185
         8 -10.9830     14.7610    215.6306   1.4679864068e+02   2.7364972766e+01   0.09540167   0.08114682 -60.94 0.0006922723    1.610    0.379
         9  -9.3603     30.6751    205.0001   1.4286138242e+02   2.7957412920e+01    0.1434885    0.1157346  46.64 0.0009852953    1.119    0.106
        10 -10.9313    209.5350    204.3059   1.0295739940e+02   3.0776779979e+00    0.3236668    0.0882112  31.87  0.001221703    3.526    0.716
        11 -11.5614    161.4898    200.4846   1.1188700957e+02   1.0812677574e+01    0.4247839    0.3018257  64.88  0.002118129    2.431    0.589
        12 -11.2088    159.8743    197.1191   1.1170821636e+02   1.1609811925e+01    0.3888175    0.2382822  18.94 0.0002975301    1.651    0.394
        13  -9.7833    153.4044    201.0824   1.1372752884e+02   1.1982954083e+01    0.2172004    0.1906323  48.64  0.001376758    1.340    0.254
        14 -10.5361    138.5688    200.5064   1.1694340771e+02   1.4408143681e+01    0.4802159    0.2397411  49.70  0.001688016    2.297    0.565
        15 -10.2811    141.5632    198.7517   1.1601106196e+02   1.4240962103e+01     0.259291    0.2372232  64.33 0.0007481205    1.359    0.264
        16  -9.5044    121.8011    198.3033   1.2050734729e+02   1.7417892000e+01    0.1994177     0.181688  81.36 0.0007233361    1.331    0.249
        17  -9.5294     13.3091    197.6339   1.4655998367e+02   3.1078736129e+01    0.1335837   0.05884965  56.48 0.0003270309    1.754    0.430
        18  -9.9330      9.2575    194.8783   1.4740674788e+02   3.1991074294e+01    0.1717233    0.1433025 -54.80  0.001184437    1.611    0.379
        19  99.0000      8.3241    191.3535   1.4751958303e+02   3.2804467703e+01    0.1681391    0.1086111  22.78 0.0005812164    1.668    0.401
        20  -9.5679    180.7058    193.5390   1.0673741877e+02   8.8771131034e+00    0.1916363    0.1680385 -65.44  0.001173868    1.803    0.445
        21 -11.1630    152.6953    192.7578   1.1259506093e+02   1.3488586921e+01    0.2973011    0.2444515  56.53  0.001346763    1.506    0.336
        22 -11.0498    172.5833    188.7420   1.0761275699e+02   1.0922322229e+01    0.2428372    0.2065592  31.81 0.0007526171    1.190    0.160
        23 -10.4474    162.8368    188.3387   1.0963736360e+02   1.2579428814e+01    0.3641785    0.1086344  30.21  0.001108778    4.179    0.761
        24 -10.2986    176.2106    186.6982   1.0649893457e+02   1.0659202016e+01    0.2141274    0.1860588 -73.79 0.0007093824    1.842    0.457
        25 -10.9287    152.1288    184.9769   1.1145859923e+02   1.4931240102e+01    0.2636414    0.1974725 -48.53 0.0008862898    1.601    0.375
        26 -10.5043    169.2726    181.8941   1.0713418209e+02   1.2587015285e+01    0.2425003    0.1662606  39.04  0.001306405    1.364    0.267
        27 -10.9303    135.4831    179.8453   1.1450165838e+02   1.8677035832e+01    0.2760215    0.1744518  35.51 0.0007703215    1.364    0.267
        28 -13.1703    137.7982    171.5140   1.1253873044e+02   1.9888423143e+01    0.9458283    0.5405025  52.74  0.004138412    2.063    0.515
        29 -11.3434    204.5687    176.5265   9.9007742767e+01   7.6349739465e+00    0.3744141    0.3032756 -30.56  0.001478818    1.369    0.269
        30 -11.6889    203.5207    166.1529   9.7225592118e+01   9.3464966967e+00    0.5641385    0.4099728  -8.47  0.002569331    1.323    0.244
        31  -9.2056    198.5378    177.5083   1.0034325390e+02   8.4547323249e+00     0.130576    0.1104566   9.71 8.691069e-05    1.063    0.059
        32 -10.1179    168.0721    176.3842   1.0641093015e+02   1.3720208941e+01    0.2210352    0.1985593 -43.35 0.0004280131    1.359    0.264
        33 -11.5406    193.9176    166.8372   9.9220240695e+01   1.0856675570e+01    0.3314593    0.2976236  -8.53 0.0007535979    1.154    0.134
        34 -10.8123    190.6324    161.1685   9.8757407384e+01   1.2331297084e+01    0.3667062    0.3104367   2.60  0.001123107    1.049    0.046
        35 -10.9430    190.0088    155.7535   9.7786376613e+01   1.3328415969e+01    0.4108729    0.3782223  26.42  0.001685168    1.191    0.160
        36 -10.2094     22.7673    166.5777   1.4286169047e+02   3.7078107384e+01    0.2651701    0.1878582  -2.16  0.001062137    1.980    0.495
        37 -10.2377    229.9984    166.2542   9.2522750214e+01   5.1247811986e+00     0.155975    0.0976212  33.48 0.0005736485    1.568    0.362
        38  -9.9548    141.2899    164.0271   1.1034348575e+02   2.0737935846e+01    0.1918099    0.1838605   5.59 0.0002238808    1.100    0.091
        39  -9.6229     13.6343    157.6926   1.4490250848e+02   3.9917984507e+01    0.1948041    0.1781418 -66.76 0.0006532063    1.293    0.227
        40 -11.1000    120.5108    156.8459   1.1433779744e+02   2.5980514590e+01    0.2750652    0.1962878  37.12 0.0005228327    1.267    0.211
        41 -12.9288    134.0233    145.9397   1.0866203106e+02   2.5809146659e+01       1.3525    0.3871437 -55.37  0.003403284    5.800    0.828
        42  -9.8384    174.7882    148.9611   9.9555733503e+01   1.7318180974e+01    0.2510224    0.2056157 -56.87  0.000933436    1.563    0.360
        43 -11.7280    144.4143    146.2477   1.0607208937e+02   2.3728902059e+01    0.5056808    0.3625884 -80.44  0.002184547    2.316    0.568
        44 -11.2715    142.4922    139.3563   1.0508565075e+02   2.5530706567e+01    0.3445007    0.2707605 -77.56  0.001628677    1.756    0.431
        45 -10.4829    168.0071    245.2015   1.1673752920e+02   3.5196375409e+00    0.1756132    0.1467821   1.01  0.001089385    1.274    0.215
        46 -12.2409    135.6509    126.9681   1.0406951860e+02   2.9562786447e+01     1.331658    0.2354701 -49.63  0.002759862    7.396    0.865
        47 -10.5938    160.4158    127.5793   9.8007369099e+01   2.4223090472e+01     0.384476    0.2752591 -50.22  0.001337543    1.554    0.356
        48 -10.2233    150.7075    245.5606   1.2015141876e+02   5.7634913059e+00    0.1901817    0.1501565  28.20 0.0003186109    1.124    0.110
        49 -10.6914    113.7735    118.0550   1.0816001873e+02   3.6082710675e+01    0.2891328    0.2275591  34.72 0.0004196111    1.252    0.201
        50  -9.8139    168.2376    113.1400   9.2668728103e+01   2.5317882854e+01    0.3437604    0.2389278 -72.50  0.001402759    2.359    0.576
        51 -11.0646    134.7550    111.8887   1.0059444853e+02   3.3030673079e+01    0.5187734    0.1274522 -45.91  0.001357328    4.239    0.764
        52  -9.7303    166.8042    155.2100   1.0261938415e+02   1.7697101487e+01    0.2296885    0.1639855  79.02 0.0009544687    2.838    0.648
        53 -10.0605    205.1475    110.4983   8.4743939813e+01   1.7871418457e+01    0.3550494    0.2304935  26.48  0.001387898    1.839    0.456
        54 -11.4708    119.0692    240.5761   1.2602756326e+02   1.0716481933e+01    0.2391007    0.1828593 -78.38 0.0006606312    1.911    0.477
        55 -10.5344    197.8374    245.5987   1.1122892455e+02  -3.4780059605e-01    0.1578872   0.08046111  35.91 0.0007397445    1.712    0.416
        56  -9.3716    154.4112    239.7229   1.1873182973e+02   6.0506385915e+00    0.1670192    0.1192684 -50.61 0.0008647603    1.986    0.496
        57  -9.4986    146.9800     80.9825   8.8632027027e+01   3.6523357334e+01    0.1901989     0.188601  50.55 0.0004556401    1.004    0.004
        58 -11.8424    175.8675    231.6521   1.1347030286e+02   4.2004863157e+00    0.3269646    0.1762532 -33.09  0.001895748    2.201    0.546
        59 -10.5010     13.5282    233.2481   1.4753337355e+02   2.4217652168e+01    0.1069008   0.06947553  42.96  0.000235016    1.156    0.135
        60 -13.5122    157.0559     56.6553   7.8641385446e+01   3.8232336572e+01     1.350674     1.155311  59.08  0.001032045    1.152    0.132
        61  -9.1090    159.8056    247.9897   1.1865380199e+02   4.2439738015e+00    0.1231532    0.0900101 -37.07 0.0008583372    1.779    0.438
        62 -12.0175    173.7221     34.2789   6.8560623870e+01   3.7027885853e+01    0.4322527    0.3772865 -17.83  0.000940262    1.268    0.211
        63  -9.8728     13.4421     59.6961   1.3608064962e+02   6.4989946420e+01    0.2089702    0.2032256 -88.33 0.0003252568    1.127    0.113
        64  -9.2469    131.5069     28.9641   7.3959989621e+01   4.9259659873e+01    0.2425813    0.1918164  67.74   0.00055016    1.197    0.165
        65  -9.9922     24.0195    228.4814   1.4526097758e+02   2.4097125165e+01    0.1353987    0.1024987  55.70 0.0001064968    1.074    0.069
        66 -10.8120    133.8454    247.3544   1.2370600300e+02   7.7605033136e+00    0.1704439    0.1507568   6.48 0.0003015521    1.295    0.228
