#   1 NUMBER                 Running object number                                     
#   2 MAG_AUTO               Kron-like elliptical aperture magnitude                    [mag]
#   3 X_IMAGE                Object position along x                                    [pixel]
#   4 Y_IMAGE                Object position along y                                    [pixel]
#   5 X_WORLD                Barycenter position along world x axis                     [deg]
#   6 Y_WORLD                Barycenter position along world y axis                     [deg]
#   7 A_WORLD                Profile RMS along major axis (world units)                 [deg]
#   8 B_WORLD                Profile RMS along minor axis (world units)                 [deg]
#   9 THETA_WORLD            Position angle (CCW/world-x)                               [deg]
#  10 FWHM_WORLD             FWHM assuming a gaussian core                              [deg]
#  11 ELONGATION             A_IMAGE/B_IMAGE                                           
#  12 ELLIPTICITY            1 - B_IMAGE/A_IMAGE                                       
         1 -12.4013    218.9929     74.0397   7.7956807418e+01   2.0041939539e+01     1.630114    0.9864946 -52.63  0.004372646    1.812    0.448
         2 -12.5653    208.1513     41.1436   7.0744898032e+01   2.7466391269e+01     1.954374    0.7061533 -40.87   0.00273735    2.626    0.619
         3 -12.5277    215.7972     28.7929   6.6489064724e+01   2.7062990390e+01    0.9766828    0.4689552 -29.62 0.0007812208    2.121    0.529
         4 -16.8695    241.1214     16.5784   6.0935936172e+01   2.2302212818e+01     4.411204     2.352192 -33.14   0.02221793    1.804    0.446
         5  -8.7154    113.5553     23.3146   8.2553690310e+01   5.4084175652e+01    0.7781054    0.5283992  32.12   0.00392659    1.440    0.306
         6  -9.6721    175.1291     23.6923   7.0423481480e+01   3.8287349299e+01    0.4454463    0.2744913 -57.90 0.0004153867    1.895    0.472
         7  -9.8517     21.0302     15.6714   1.1490705754e+02   7.0655462284e+01     0.545733    0.2675321  43.55  0.002629147    3.731    0.732
         8  -8.4544    168.1809     16.1568   6.9125205417e+01   4.0947328578e+01    0.4596649    0.2255096 -55.72  0.001783926    2.678    0.627
         9  -9.0798    177.3342     14.8411   6.7405781683e+01   3.8649875267e+01    0.2776018    0.2278653  74.02 0.0006530673    1.101    0.092
        10  -9.4795    179.6573      9.2886   6.5434663247e+01   3.8583848469e+01    0.3060533    0.2380797 -64.44 0.0008745778    1.337    0.252
        11  -8.8708    167.8818      8.8056   6.6857743390e+01   4.1747504402e+01     0.347615    0.2192571 -89.08  0.001319467    1.737    0.424
        12  -7.8875    134.2305      8.0301   7.2071803089e+01   5.0597257685e+01    0.1969032    0.1746813  49.58  0.001151419    1.016    0.015
        13  -7.4358    141.3265      7.3080   7.0519140073e+01   4.8846478607e+01    0.1512829   0.09145872  38.58   0.00060502    1.654    0.395
        14  -9.3936    160.3750      4.5677   6.6571580900e+01   4.4113148041e+01    0.3393884    0.2543241 -34.18 0.0008870034    1.473    0.321
        15  -9.2456    181.9541      2.7608   6.3236130576e+01   3.8581983045e+01    0.3223161    0.2353388 -41.31  0.001756937    1.452    0.311
        16  -7.4318     98.3087      5.6606   7.9180459483e+01   5.9421517984e+01     0.125958    0.1034829 -61.90  0.000704362    1.686    0.407
        17  -9.2198    190.1265      3.3303   6.2479141506e+01   3.6390374147e+01    0.3102346    0.1864839 -43.34   0.00116649    1.709    0.415
        18  -8.4390    108.5537      3.8810   7.5857050597e+01   5.7239894259e+01    0.2410515    0.2066227 -77.35  0.001044126    1.505    0.336
        19  -7.9948    127.1826      2.9887   7.1532055661e+01   5.2804589009e+01    0.2204831    0.1427964 -52.49 0.0007260988    1.983    0.496
        20  -8.1094    101.0907      3.0456   7.7319070250e+01   5.9029790912e+01    0.2014538    0.1613877 -68.11  0.001129496    1.757    0.431
        21  -7.5788     92.5197      3.5354   7.9805570424e+01   6.0885811279e+01    0.1313769    0.1139252  30.34 0.0002021663    1.051    0.048
        22  -9.5804    176.0126      3.0741   6.4037003060e+01   4.0117970024e+01    0.3213377    0.2634704 -38.17  0.001181495    1.331    0.249
        23  -7.7522    148.4721      2.4979   6.7661627931e+01   4.7407028308e+01    0.1398643    0.1230899  64.71 9.933841e-05    1.024    0.023
        24  -7.2777     78.6928      1.3757   8.2898420486e+01   6.3963094075e+01    0.1196078   0.09864998 -54.35 0.0007029633    1.775    0.437
        25  -8.6740    149.4809    120.9082   1.0458984152e+02   2.8476281780e+01    0.2200368    0.2103884 -36.31 0.0008625045    1.079    0.073
        26  -8.6139     55.7134    250.5007   1.4409761257e+02   1.8447582624e+01    0.1927314   0.07370138  45.66 0.0002721885    1.906    0.475
        27  -7.9357    135.1612    120.9244   1.0819094208e+02   3.1632342910e+01    0.2520327    0.1790615 -77.61 0.0009104438    2.014    0.503
        28  -7.8136    194.5263    118.4762   9.3886023324e+01   1.8458198844e+01    0.1545951     0.145509  14.62 -4.162143e-06    1.045    0.043
        29  -8.8510    242.8438    116.8329   8.4793433893e+01   7.9573532446e+00    0.2412982    0.1908287 -40.74 0.0003996193    1.259    0.206
        30  -7.7825    166.6810    116.6658   9.9429511797e+01   2.5365258922e+01    0.1632999     0.124055   9.72 0.0005025267    1.698    0.411
        31  -7.9982    220.4825    111.9887   8.7365154409e+01   1.3588547295e+01    0.2255195    0.1399588 -35.68  0.001016916    1.558    0.358
        32  -8.9932    200.5054    110.0033   9.0554280584e+01   1.8562497715e+01    0.2240118    0.2111509 -28.26  0.001178676    1.060    0.057
        33  -8.0554    233.4234    111.1690   8.4970441356e+01   1.0848345968e+01    0.2159222    0.1239392 -43.34 0.0009553268    1.760    0.432
        34  -8.3074    214.0065    109.9709   8.8018665289e+01   1.5406097805e+01    0.1840022    0.1738811  35.80  0.001005144    1.066    0.062
        35  -9.6901    245.5242    108.2604   8.2368153212e+01   8.7154335729e+00    0.4116255    0.2708347  32.03  0.001549154    1.768    0.434
        36  -7.9265    177.7120    108.6725   9.4883217071e+01   2.4274770344e+01    0.1594853    0.1231967   9.95 0.0004097147    1.614    0.380
        37  -8.8634    233.5558    105.6841   8.3625616237e+01   1.1689290988e+01    0.3303739    0.2025943  -3.92  0.001333043    2.510    0.602
        38  -7.8347    217.7747    105.5760   8.6248330612e+01   1.5271341040e+01    0.1971436    0.1462307  65.96 0.0006600592    1.550    0.355
        39  -8.7979    197.4333    104.9948   8.9859593121e+01   2.0179501049e+01    0.3145604    0.2067529  35.44  0.001149992    1.672    0.402
        40  -8.6846    146.6261    104.5927   1.0103014806e+02   3.2486638490e+01    0.2857737    0.2702027 -71.76 0.0005937026    1.129    0.114
        41  -9.5644    139.8242    103.2593   1.0238992272e+02   3.4324634714e+01    0.3211523    0.2563304  55.15  0.001531732    1.280    0.219
        42  -8.4381    241.4404    102.9573   8.1733792468e+01   1.0397371443e+01    0.2183491    0.1298973 -32.57 0.0004624192    1.565    0.361
        43  -7.4731    162.4788    102.5053   9.6640441327e+01   2.9139485629e+01    0.1585435    0.1526937  26.93 0.0008101131    1.029    0.028
        44  -7.9342    167.5063    101.0275   9.5084581725e+01   2.8203150471e+01    0.2280325    0.1327188 -60.05 0.0008098616    2.518    0.603
        45  -8.6937     30.2518    247.0024   1.4809480467e+02   2.2014828886e+01    0.1231627    0.0721743 -87.40 0.0008842825    1.565    0.361
        46  -7.6474    102.5198    231.5078   1.3412745153e+02   1.5180148788e+01    0.1230009   0.09431305  56.63 9.926512e-05    1.024    0.023
        47 -10.8193     44.4593    221.7388   1.4416362336e+02   2.4843829470e+01     0.615893    0.3363554  65.31  0.003864006    1.520    0.342
        48 -11.1042     28.6985    208.0289   1.4615958973e+02   2.9202758921e+01    0.5689563    0.4383893  75.85  0.002267587    1.066    0.062
        49 -12.3731    225.1725     28.0215   6.5246830548e+01   2.4815898322e+01     0.435176    0.3158456 -24.51  0.001229165    1.518    0.341
        50  -8.2357    226.4852     98.5138   8.3010432153e+01   1.4419325164e+01    0.2799758    0.1975909 -33.32 0.0008993707    1.356    0.263
        51 -10.0360    228.0382     95.5193   8.2013974897e+01   1.4541151118e+01    0.4313133    0.3046903 -81.99   0.00166704    2.067    0.516
        52  -7.9546    147.2805     97.3971   9.8871948284e+01   3.3781604949e+01    0.2246272    0.1499336  58.94 0.0009447746    1.632    0.387
        53 -10.4080    219.3860     89.9049   8.1999887055e+01   1.7456116854e+01    0.7026613    0.3200888 -28.60  0.002087612    2.342    0.573
        54  -8.7034    210.4850     93.0882   8.4335781260e+01   1.9067649735e+01    0.3311136    0.2188101 -32.95 0.0009139979    1.495    0.331
        55 -10.3706    155.0931     89.6592   9.4754440837e+01   3.3406442864e+01    0.6330711    0.3652142  38.68  0.002504553    1.865    0.464
        56  -9.7483    226.2050     90.0773   8.0942839008e+01   1.5825538666e+01    0.2479479    0.2139057  55.39 0.0006950632    1.205    0.170
        57  -8.5977    181.2057     90.1368   8.9107210189e+01   2.6815009999e+01    0.2190862    0.1885787 -80.31 0.0007122638    1.344    0.256
        58  -8.0966    107.2315     87.6297   1.0699209685e+02   4.4590639862e+01    0.2838191    0.1818441 -55.51   0.00124474    1.733    0.423
        59  -8.4466    148.4110     87.2287   9.5657655136e+01   3.5496089353e+01    0.2160252    0.1484516 -49.37 0.0001116667    1.571    0.364
        60  -9.6126    207.1668     82.7277   8.2179434683e+01   2.1578317621e+01    0.5229504    0.2535146 -41.38  0.002000297    2.032    0.508
        61  -8.2394    211.9695     83.2902   8.1512837849e+01   2.0306422752e+01    0.2105756    0.1974854  52.36  0.001146274    1.082    0.076
        62  -8.3809    182.5296     81.5031   8.6408425805e+01   2.7987906041e+01    0.1542491     0.151988  62.36 0.0005889153    1.011    0.010
        63  -9.6569    157.6391     78.9676   9.0998368082e+01   3.4752280334e+01    0.4654703    0.2510155 -53.44  0.001701003    2.388    0.581
        64  -9.0905    164.2583     80.0209   8.9818722486e+01   3.2895795114e+01    0.2161862    0.2120232  19.56  0.000527849    1.027    0.026
        65 -10.3248    169.4385     76.2179   8.7567769151e+01   3.2243072098e+01    0.5260333    0.3422776 -49.36  0.001861049    1.688    0.407
        66  -8.3477     61.6741     79.6627   1.1952144492e+02   5.3877529950e+01    0.1429875   0.09622661 -25.76  0.000537689    1.723    0.420
        67  -8.6077    185.1420     77.8161   8.4846591750e+01   2.7945484300e+01    0.2361843     0.212731 -78.22 0.0006003418    1.199    0.166
        68  -7.7759    179.6780     78.6793   8.6171370288e+01   2.9198560393e+01    0.1626641    0.1208396  21.12 0.0007045008    1.673    0.402
        69  -8.4616     81.7993     78.0475   1.1218913432e+02   5.1244638717e+01    0.2484767    0.2011568  68.83  0.001300492    1.615    0.381
        70 -10.3086    202.7193     71.8409   7.9992057393e+01   2.4430164741e+01    0.7886614    0.3244723 -33.10  0.002657297    2.411    0.585
        71  -9.3638    175.6604     75.9930   8.6205799064e+01   3.0685719878e+01    0.2801239    0.2228752 -86.24 0.0007425911    1.529    0.346
        72  -7.2835     15.3342     76.6667   1.3532704418e+02   5.8988888796e+01    0.1171578   0.08375953  74.25 0.0007052229    1.734    0.423
        73 -11.0744    161.8924     72.7838   8.8170025591e+01   3.4763674729e+01    0.6267091    0.5143275   3.86  0.002447652    1.434    0.303
        74 -10.1172    169.7719     67.5122   8.4891859866e+01   3.3621658632e+01    0.3665303    0.2929589 -67.04  0.001572904    1.458    0.314
        75  -8.0584    104.9839     72.2539   1.0294779920e+02   4.8165313035e+01    0.2043457    0.1879358  28.88   0.00039608    1.083    0.077
        76  -9.3299    195.9884     70.7554   8.0850327733e+01   2.6315653393e+01    0.3129839    0.2473883  72.14  0.000764379    1.325    0.246
        77 -10.4158    188.5532     67.0246   8.1118619135e+01   2.8820994453e+01    0.5200163    0.3942472  73.56  0.001688107    1.409    0.290
        78  -9.7174    181.2294     71.1232   8.3676871254e+01   3.0060684917e+01    0.4203764    0.2236595  55.97  0.001341352    1.816    0.449
        79  -8.5252    111.4103     70.2330   1.0035467224e+02   4.7224203591e+01    0.2748479    0.2204914 -30.05  0.001029542    1.251    0.200
        80  -8.8524    212.1825     73.5204   7.8889159209e+01   2.1796062076e+01     0.266819    0.2363374   1.78 0.0005741106    1.269    0.212
        81  -8.4336    208.9129     65.5734   7.7274933441e+01   2.3828223809e+01    0.2690496    0.2136241  -0.41  0.001090727    1.550    0.355
        82 -10.4255    197.0007     58.7488   7.7301688103e+01   2.7894693102e+01    0.5070861    0.4157099  35.15  0.001557395    1.343    0.255
        83 -10.5428    200.0283     61.9708   7.7709772835e+01   2.6632954888e+01     0.657947    0.3993601  31.41 0.0003621228    2.239    0.553
        84  -9.3418    201.3544     58.2060   7.6446898336e+01   2.6850195532e+01    0.3414566    0.2662622 -71.88 0.0002048416    1.420    0.296
        85 -10.6551    174.5849     61.0522   8.1977610404e+01   3.3400372015e+01    0.5339803    0.4522133  53.33  0.001804535    1.137    0.120
        86 -10.2396    174.6533     53.7973   7.9762762525e+01   3.4484956394e+01    0.7904364    0.4663391  83.40   0.00300598    2.427    0.588
        87 -10.2319    185.9999     59.8603   7.9501852455e+01   3.0593818383e+01    0.5862561    0.3347975  29.92  0.002192277    2.559    0.609
        88  -9.9433    182.8583     55.7665   7.8857166289e+01   3.2032001692e+01    0.5360387    0.3922656 -62.28  0.001427418    1.568    0.362
        89  -9.1927    165.6693     62.5091   8.4210868999e+01   3.5497298613e+01    0.2908535      0.25231 -20.07  0.001317909    1.231    0.188
        90  -9.5432    161.4679     59.8268   8.4254698311e+01   3.7015416352e+01     0.336097    0.2910181  17.10  0.001484992    1.267    0.211
        91  -8.6421     39.9664     99.1575   1.3123824514e+02   5.1949019058e+01    0.2331289    0.1619801 -64.26  0.000648275    1.238    0.192
        92  -7.5677     90.6195     57.8072   1.0266023088e+02   5.3710455388e+01    0.1999431    0.1295322 -48.84 0.0008729773    1.687    0.407
        93  -8.9355    191.6673     53.0804   7.6561610046e+01   3.0111703650e+01    0.3305127      0.18915 -44.64  0.001404288    1.799    0.444
        94  -9.4374    164.5072     52.6288   8.1362505264e+01   3.7328300292e+01    0.3819689    0.2892094  76.55  0.001580393    1.446    0.308
        95  -7.6751    143.4017     51.2127   8.5449631056e+01   4.2992309781e+01    0.2177439    0.1388267 -43.13 0.0009497694    1.693    0.409
        96  -9.5452    193.6044     45.8791   7.4178726539e+01   3.0613516029e+01    0.3517777    0.2824744 -33.43   0.00129773    1.289    0.224
        97  -8.9931    187.2321     46.9877   7.5517681694e+01   3.2138162324e+01    0.2853066    0.1935156  83.34  0.001282112    1.674    0.403
        98  -9.5903    105.3089     44.7684   9.3219175128e+01   5.2978673675e+01    0.4604124    0.2955116 -67.97  0.001766185    3.212    0.689
        99  -7.9597    154.0056     46.4854   8.1532124262e+01   4.0972162662e+01    0.2448487    0.1424625  56.98 0.0006001184    1.608    0.378
       100  -9.1125     84.6558     43.0359   9.9212657589e+01   5.7402543031e+01    0.3138466    0.2472094 -85.12  0.001554857    2.234    0.552
       101  -9.3304    195.8103     40.8425   7.2404086680e+01   3.0709298816e+01    0.2925772    0.2665552  63.22 0.0004033252    1.075    0.070
       102 -10.3312    192.6508     31.1428   7.0083782500e+01   3.2765913606e+01    0.6906676    0.4074522 -71.32  0.001871248    2.165    0.538
       103  -9.1266    197.8183     36.5790   7.0905499200e+01   3.0733747281e+01    0.4914751    0.1836713  58.36  0.001440904    2.397    0.583
       104  -9.7399    198.5458     33.5004   6.9937351236e+01   3.0929401160e+01    0.5520915    0.2421848  67.54   0.00217154    2.183    0.542
       105  -8.1078    168.2958     40.9627   7.6953889317e+01   3.7979534204e+01    0.2092368    0.1945934 -31.88  0.001136208    1.143    0.125
       106  -9.7566    188.5834     38.1198   7.2703111538e+01   3.2966817544e+01    0.5665476    0.3102248 -45.09  0.002429751    1.901    0.474
       107  -9.2217    172.8526     37.7564   7.5143499279e+01   3.7191637778e+01    0.5209524    0.2935857  81.80  0.002041368    2.263    0.558
       108  -8.0254     91.6787     38.4078   9.5028383116e+01   5.6791396035e+01    0.2689756     0.133635  51.64   0.00113757    2.212    0.548
       109  -8.4510     73.0686     37.2266   1.0105650217e+02   6.0408266741e+01    0.2343284    0.1934665  54.73 0.0009150735    1.583    0.368
       110 -10.1401     58.5458    199.9671   1.3970461044e+02   2.7314114597e+01    0.2384321    0.1748403  65.11  0.001565634    1.115    0.103
       111 -10.2755    111.9953     30.4921   8.5800355271e+01   5.3550827382e+01    0.4633191    0.3163005  44.36  0.001409099    1.344    0.256
       112  -9.9421    115.4871     29.5006   8.4481396963e+01   5.2869861486e+01    0.3492018    0.3024555 -25.54  0.001191614    1.224    0.183
       113  -9.0259     87.0572     35.2952   9.5310429893e+01   5.8171418135e+01    0.2423622    0.1918873  35.68 0.0009570513    1.223    0.182
       114  -8.7177    161.4560     33.9746   7.5965060136e+01   4.0700654071e+01    0.3003809    0.2193606  64.24 0.0009388488    1.286    0.222
       115 -10.0476     97.2004     29.7496   8.9774465394e+01   5.6914191636e+01    0.5522532    0.3446946 -54.53  0.002357572    2.496    0.599
       116 -10.3174    152.1604     30.5990   7.6596344273e+01   4.3567199829e+01    0.4310796    0.3305152  76.56 0.0009791125    1.365    0.267
       117 -10.8185    123.3195     36.2747   8.5034801380e+01   5.0115882294e+01    0.5561539     0.398572 -32.61  0.001662752    1.467    0.318
       118  -8.1091    140.8085     30.8355   7.8982614831e+01   4.6478216782e+01    0.1988165    0.1734805 -74.88 0.0005873023    1.327    0.247
       119  -8.1118    135.8232     30.6318   7.9993890384e+01   4.7770269820e+01    0.2301652    0.1786836 -34.21 0.0009522658    1.386    0.279
       120 -10.3761     52.0242    174.2326   1.3856257913e+02   3.3497529780e+01    0.3092322    0.2205141  57.69  0.001023399    1.263    0.208
       121  -8.2666    174.4761     19.4740   6.9223917590e+01   3.8924718409e+01    0.2552079    0.1562962  55.66 0.0005705099    1.486    0.327
       122  -8.2049    163.1782     27.3982   7.3524934802e+01   4.1042769451e+01    0.2698126     0.178829  73.48 0.0009462319    1.511    0.338
       123  -8.9899    155.9342     25.0843   7.4039997392e+01   4.3226940547e+01    0.4472781    0.2853216 -85.25  0.001933373    2.084    0.520
       124  -7.9976     84.5929     24.8573   9.1756503764e+01   6.0137098128e+01    0.1844189     0.119112 -39.19 0.0007049399    1.726    0.421
       125  -8.3118    181.0589     21.4958   6.8888664732e+01   3.6954143840e+01    0.2314084    0.1882953 -72.58  0.000786712    1.271    0.213
       126  -8.7516    164.4816     19.3789   7.0722818354e+01   4.1593106374e+01    0.3051568    0.2088623 -54.22  0.001173247    1.651    0.394
       127  -8.4311    155.4648     17.9071   7.1725998621e+01   4.4134592651e+01    0.2885322    0.1936218  83.95  0.001318551    1.641    0.391
       128  -9.5114    115.7179     34.3668   8.6297124981e+01   5.2172644365e+01    0.3724362    0.2484616 -35.96  0.001254514    1.593    0.372
       129 -11.8030     47.4318    187.0471   1.4082292362e+02   3.1322957916e+01    0.9202923    0.3772658  51.41  0.004563262    2.175    0.540
       130 -11.6944     45.7418    180.8489   1.4060781188e+02   3.2822799785e+01    0.7017401    0.5938547 -21.43  0.004619088    1.874    0.466
       131  -7.6828    108.4706    187.5085   1.2753865352e+02   2.2464470722e+01    0.1386099    0.1144391  64.34 0.0008080741    1.097    0.088
       132  -8.0385     68.2176     15.0270   9.3125505078e+01   6.4448996496e+01    0.1962155    0.1433206 -50.42   0.00107621    2.037    0.509
       133  -7.8757     80.4956     11.4832   8.7118433589e+01   6.2578413882e+01    0.1313507    0.1126277  17.06 0.0008101675    1.036    0.035
       134  -8.0133     66.1718    188.1794   1.3693225131e+02   2.8728682521e+01    0.1816058    0.1234953  71.49  0.001067188    1.353    0.261
       135  -8.0275    151.9919     10.4829   6.9811181296e+01   4.5783182374e+01    0.2283975    0.1252929  64.25  0.001032411    1.596    0.373
       136  -7.4652     28.8381     10.6192   1.0848422188e+02   7.0678011635e+01    0.1343799    0.1018428  27.09  0.000291828    1.516    0.340
       137  -9.2224    248.7470    169.1618   9.5330354250e+01  -9.3852692643e-01    0.3812869    0.1946753 -33.38  0.001856222    1.907    0.476
       138  -8.6714     61.1843    167.1811   1.3566075858e+02   3.3897147790e+01    0.1847099    0.1291621  67.71 0.0007708948    1.348    0.258
       139  -8.2410    203.2565    163.4470   1.0251827043e+02   8.6214094789e+00    0.1966819     0.133165  52.83 0.0009163412    1.608    0.378
       140 -10.2449    178.7141    150.7226   1.0486667536e+02   1.6048956025e+01    0.5673121    0.4903927 -89.91  0.002144519    1.474    0.321
       141  -7.4609     80.3114    148.6554   1.2833910387e+02   3.5416701567e+01    0.1451888   0.09775208  74.65 0.0004726086    1.705    0.413
       142  -8.9965    248.2469    132.6438   8.7550938563e+01   4.4574816577e+00    0.3555237    0.3147495  83.87   0.00202336    1.539    0.350
       143 -10.3732    242.6457    138.3159   8.9741882068e+01   4.6975763027e+00    0.6209818    0.4508969 -26.87   0.00272356    1.289    0.224
       144  -9.0999    239.4706    134.9708   8.9521650023e+01   5.8408749939e+00    0.3183888    0.2350798 -38.71  0.001530074    1.370    0.270
       145  -8.3534    196.4061    139.2262   9.8523911878e+01   1.4284351423e+01    0.2088618    0.1400318 -48.02 0.0009420881    1.677    0.404
       146  -8.2930    198.9355    135.6949   9.7183765603e+01   1.4354325007e+01    0.2174754    0.1903783  44.96  0.001143633    1.139    0.122
       147  -9.1444    234.0323    128.0804   8.8863818637e+01   8.0312077979e+00    0.4193211    0.2890439 -57.03  0.001986278    1.950    0.487
       148  -7.6300    197.3251    126.6535   9.5342396620e+01   1.6335736562e+01    0.1542935    0.1224239 -77.11   0.00057554    1.745    0.427
       149  -8.1077    166.2507    122.9982   1.0113411611e+02   2.4214843890e+01     0.204845    0.1351179 -40.33 0.0008833299    1.566    0.362
