#   1 NUMBER                 Running object number                                     
#   2 MAG_AUTO               Kron-like elliptical aperture magnitude                    [mag]
#   3 X_IMAGE                Object position along x                                    [pixel]
#   4 Y_IMAGE                Object position along y                                    [pixel]
#   5 X_WORLD                Barycenter position along world x axis                     [deg]
#   6 Y_WORLD                Barycenter position along world y axis                     [deg]
#   7 A_WORLD                Profile RMS along major axis (world units)                 [deg]
#   8 B_WORLD                Profile RMS along minor axis (world units)                 [deg]
#   9 THETA_WORLD            Position angle (CCW/world-x)                               [deg]
#  10 FWHM_WORLD             FWHM assuming a gaussian core                              [deg]
#  11 ELONGATION             A_IMAGE/B_IMAGE                                           
#  12 ELLIPTICITY            1 - B_IMAGE/A_IMAGE                                       
         1 -11.9473    117.0653     10.9176   1.8661254084e+01   5.4488445674e+01    0.2595855    0.2196314  37.62 0.0003494564    1.134    0.118
         2 -11.0862     55.2026     11.0814   3.7778351961e+01   6.8734355107e+01    0.2136515     0.163308   8.42  0.001221844    1.231    0.188
         3 -12.1919     81.9244      8.9879   2.6535149816e+01   6.3373875033e+01    0.3097154    0.2249094  57.21   0.00078056    1.387    0.279
         4 -13.0820     89.9591      5.0360   2.2156557356e+01   6.1871376911e+01    0.4810203    0.3432587 -78.10  0.002360006    2.007    0.502
         5 -11.2448    114.0433      6.9245   1.7517763648e+01   5.5647377302e+01    0.2073012    0.1924028  48.98 0.0002996285    1.015    0.015
         6 -10.5700     48.5313      7.5772   3.8749068237e+01   7.0416841354e+01    0.1315814    0.1110514   4.07 9.675368e-05    1.013    0.013
         7 -11.4610    106.3999      4.1845   1.7842237947e+01   5.7857354858e+01    0.2363344     0.170352  49.23 0.0006086975    1.250    0.200
         8 -11.1140      5.1722      3.3339   6.4058156018e+01   7.6769723375e+01    0.2034972    0.1219479 -38.97 0.0004790002    1.307    0.235
         9 -10.7141    133.9675      2.8452   1.2378447390e+01   5.0720271170e+01    0.2563934    0.1230494  46.91  0.001065627    2.016    0.504
        10 -11.1706    100.8170      2.0777   1.8049690487e+01   5.9450429880e+01    0.2030472    0.1909809 -79.88 0.0006560206    1.206    0.171
        11 -11.0278     49.7235      1.9794   3.4562606965e+01   7.0890697339e+01    0.1799468    0.1469579  -4.70 0.0003579967    1.094    0.086
        12 -10.4321    128.9478      1.0000   1.2397756339e+01   5.2208929494e+01    0.2290403   0.07511442  70.57 0.0003376658    2.808    0.644
        13 -10.0881    197.3168    241.7188   6.1381477085e+01  -4.2571032254e-01     0.101713   0.07827926  42.92  0.000294729    1.578    0.366
        14 -12.7337    247.0965    248.3700   5.4060334741e+01  -7.4732921607e+00     0.345143    0.1823028  30.55  0.001193053    1.533    0.348
        15 -11.8887    237.1527    249.2572   5.5762886724e+01  -6.3682549351e+00    0.2507142    0.1666124  20.12  0.001128081    1.108    0.098
        16 -12.6494    102.6447    234.5806   7.8329524156e+01   1.4063460709e+01    0.3723431    0.2834311 -81.51  0.002133413    1.622    0.383
        17 -13.0771    115.4543    244.5590   7.6838245581e+01   1.0748652420e+01    0.5315049    0.1966471 -53.81  0.002690833    3.434    0.709
        18 -14.0842    118.3333    237.3820   7.5557302013e+01   1.1427879150e+01    0.4666395    0.4185375  -3.24  0.002549719    1.409    0.290
        19 -13.5721    111.5956    234.7992   7.6600198693e+01   1.2780083247e+01    0.4197637    0.3047097  22.84  0.002701776    1.485    0.326
        20 -13.5872    113.9193    218.4556   7.4351580374e+01   1.5121842597e+01    0.2963983    0.2904904 -62.53 0.0009735346    1.253    0.202
        21 -11.5513    100.4937    227.0768   7.8016146148e+01   1.5596542944e+01    0.1969504    0.1318175  53.32 0.0006382019    1.310    0.237
        22 -14.0691    114.6029    226.8243   7.5157856545e+01   1.3628820075e+01    0.4338101    0.3602719 -17.24  0.001254204    1.637    0.389
        23 -11.5706     97.4719    249.7622   8.0690017631e+01   1.2395945441e+01    0.2045939   0.09883601  46.74  0.001204015    1.590    0.371
        24 -10.6953     80.5061    246.4820   8.3586932823e+01   1.5094583955e+01    0.1589824   0.07680234  45.31 8.722743e-06    1.521    0.343
        25 -11.8691     85.0485    250.5856   8.3056213428e+01   1.3878939462e+01    0.1819491    0.1001852  42.33 0.0003461027    1.331    0.249
        26 -12.7039     85.3602    246.3175   8.2667752746e+01   1.4501227529e+01    0.2911918    0.1821707  52.76 0.0008866948    1.290    0.225
        27 -10.4658     59.8842    242.3887   8.7142950200e+01   1.8289051958e+01    0.6267608    0.2415372  27.08  0.002813036    3.508    0.715
        28 -12.6285     70.0488    248.6540   8.5677061163e+01   1.6050866250e+01    0.2346848    0.1996305  54.28 0.0005812623    1.187    0.157
        29 -12.2718     66.2750    249.6655   8.6434292190e+01   1.6347496513e+01     0.159122    0.1250411  49.70 0.0004705243    1.112    0.101
        30 -13.3141     67.8747    244.9896   8.5829997392e+01   1.6902819789e+01    0.3159889    0.2770739 -24.99  0.002424992    1.801    0.445
        31 -12.6474     56.9633    250.7811   8.8188863614e+01   1.7270212985e+01    0.2625023    0.1365562  49.90  0.001078121    1.389    0.280
        32 -13.1510     51.9821    250.2706   8.9053621709e+01   1.7924357752e+01    0.3006634    0.1749132  39.60  0.002071992    1.376    0.273
        33 -13.7930      3.9444    208.1800   9.6080499550e+01   3.0296525578e+01    0.7625296    0.3973756 -75.38  0.004898372    1.894    0.472
        34 -15.5828     62.2941    159.9967   7.9230149419e+01   3.4398637186e+01     1.698771    0.8374456 -53.42  0.005685405    2.181    0.542
        35 -14.5010      7.8514    187.7727   9.4474180032e+01   3.4035471559e+01     1.003638    0.7364458  80.64  0.007177001    1.116    0.104
        36 -16.1523     69.5592    184.1588   8.0244927720e+01   2.8064130512e+01     2.254528     1.930621 -42.89   0.01426766    1.496    0.332
        37 -15.8055     94.2690    197.1296   7.6059378353e+01   2.1929297896e+01     1.600192     1.253454 -34.42  0.009555588    1.722    0.419
        38 -14.6466     92.6325    183.7663   7.4767255168e+01   2.4861504956e+01    0.9318863    0.5196265  39.92  0.003536677    1.587    0.370
        39 -13.5883     77.4356    218.9294   8.1930416573e+01   2.0162908752e+01    0.4421832    0.2672842  69.08 0.0009989523    1.752    0.429
        40 -14.2348     78.9109    212.3324   8.1017840402e+01   2.1181104301e+01     1.373413    0.2761175  37.12  0.004964428    3.661    0.727
        41 -13.6975     69.4103    207.2924   8.2569654563e+01   2.3392030393e+01    0.4969263    0.3514464  15.08  0.001640496    1.987    0.497
        42 -14.0116     77.1347    202.4408   8.0435413894e+01   2.3311594586e+01    0.4300088    0.3767635 -41.10  0.002445102    1.510    0.338
        43 -14.9514     28.2885    246.6089   9.3077777696e+01   2.1091548045e+01    0.9961603    0.6179781  10.93  0.005815232    3.301    0.697
        44 -17.2311     10.8110    235.1280   9.5728756426e+01   2.4754362674e+01     2.228015     1.368476  83.88   0.01664024    1.447    0.309
        45 -13.7609     26.7509    234.7436   9.2845649067e+01   2.3259287117e+01    0.4680927    0.2007847  89.14  0.002725801    2.395    0.583
        46 -14.7199     19.9532    213.7053   9.3184277890e+01   2.7766797585e+01      1.45129    0.4081395  87.63  0.005668282    4.654    0.785
        47 -10.6558    158.6106    240.7728   6.8276838754e+01   5.1600204576e+00    0.1262755    0.1140432 -66.14 0.0007303462    1.608    0.378
        48 -12.3301     90.2346    239.0009   8.1141637518e+01   1.5029330517e+01    0.3783189    0.2141748 -50.66  0.001979988    2.390    0.582
        49 -10.2625     72.5161    240.4883   8.4642613370e+01   1.7065479312e+01    0.1119911   0.08598717  49.66 0.0001168148    1.049    0.047
        50 -10.4979    239.8135    239.5999   5.3914108385e+01  -5.7722762378e+00    0.1374135   0.08289323  33.88 0.0004420092    1.567    0.362
        51 -10.9385    147.8415    239.1851   7.0105049446e+01   6.9291854311e+00    0.1590187    0.1133025  23.02 0.0004549632    1.291    0.225
        52 -10.6952     49.2241    239.0144   8.8919314805e+01   2.0093760823e+01    0.1224622   0.08115805 -85.25 0.0004856844    1.602    0.376
        53 -10.9433     52.7154    237.4785   8.8175853343e+01   1.9953636880e+01    0.1770993    0.1117518 -63.95  0.001026342    1.949    0.487
        54 -10.0709    190.4287    237.4198   6.2004064728e+01   1.0359144293e+00    0.1159438   0.08652551  22.72 0.0001432403    1.008    0.008
        55 -11.6584     97.5891    234.9154   7.9350065720e+01   1.4703008716e+01    0.2665851    0.1845917 -40.11  0.001690098    2.103    0.524
        56 -10.6360     55.5027    228.4483   8.7065293225e+01   2.1196271131e+01    0.1791961    0.1297652  51.38 0.0006856682    1.064    0.060
        57 -12.6681     62.1538    232.0866   8.6023693719e+01   1.9761045332e+01    0.5040363    0.4066245  31.39  0.003685274    1.396    0.284
        58 -11.4906     59.0160    230.2298   8.6502960019e+01   2.0463425144e+01    0.2791851    0.2133603   0.39  0.001493456    2.246    0.555
        59 -12.0642     72.0081    234.1966   8.4270559122e+01   1.8180844795e+01    0.3340352    0.1415007  36.77  0.001789433    1.901    0.474
        60 -10.6889     64.4966    225.4406   8.5081269843e+01   2.0643129958e+01    0.1633998    0.1292622 -13.64  0.001045412    2.169    0.539
        61 -12.3043     72.4711    229.2155   8.3793739048e+01   1.8978153129e+01    0.4431325     0.203887  41.92  0.002478748    1.657    0.396
        62 -10.9213    214.0736    233.3624   5.7257648474e+01  -1.7772602297e+00    0.1588801    0.1117595  22.08 0.0004344977    1.083    0.077
        63 -13.3586    219.9128    230.2209   5.5781733657e+01  -2.2219500484e+00    0.2906216    0.2048969  23.83 0.0009303164    1.140    0.123
        64 -12.4380    130.0036    231.5092   7.2633626127e+01   1.0646054898e+01    0.1656157    0.1575426  46.62  0.000971274    1.217    0.179
        65 -13.2250    106.1076    227.0959   7.6891172638e+01   1.4802062221e+01    0.3585681    0.2155112  42.00 0.0004777981    1.310    0.237
        66 -11.0168    194.4753    230.0486   6.0219650370e+01   1.3528094225e+00    0.1554831    0.1101478 -27.42 0.0008406626    1.598    0.374
        67 -11.9718    149.6989    229.4333   6.8536274507e+01   8.0407473629e+00    0.2030106    0.1624156  34.36 0.0007897142    1.042    0.041
        68 -10.2898    181.6546    231.6906   6.2793456897e+01   3.0026194171e+00    0.1225842   0.07653961  12.29 0.0007044754    1.702    0.413
        69 -11.3471    177.9967    228.4694   6.3015387050e+01   3.9570100628e+00    0.1654392    0.1358322  16.81 0.0001513541    1.090    0.082
        70 -10.7863     83.9848    229.5084   8.1540452853e+01   1.7433591861e+01    0.1779637    0.0926843  38.89 0.0005298266    1.530    0.347
        71 -12.0744    231.8501    226.9291   5.3262040246e+01  -3.4619680826e+00    0.2578484    0.1789225   2.34   0.00181411    1.177    0.150
        72 -12.2610    248.6420    226.1840   5.0420284202e+01  -5.5453167153e+00    0.2391435    0.1153245 -28.99 0.0008668546    2.100    0.524
        73 -12.6277     27.5485    224.6950   9.2235393316e+01   2.4964134856e+01    0.3181275    0.1702616  50.99  0.001568293    1.383    0.277
        74 -11.6813     95.9036    225.3366   7.8767411341e+01   1.6530919619e+01    0.1938528    0.1489478  71.60  0.001235259    1.361    0.265
        75 -11.3401     91.6443    225.7438   7.9665981546e+01   1.7047911496e+01    0.1857979     0.140945  82.63 0.0005250122    1.465    0.318
        76 -10.7828    222.1408    225.4796   5.4666372743e+01  -1.9982872729e+00    0.1643193    0.0906869  31.21 0.0004111643    1.480    0.324
        77 -11.2871    212.3678    223.6513   5.6067412339e+01  -4.3051770174e-01    0.2214874    0.1483099   1.50  0.001059577    1.403    0.287
        78 -12.3527    159.8348    222.1231   6.5585490177e+01   7.5704767094e+00     0.323529    0.1807142  34.41 0.0007325682    1.450    0.311
        79 -13.4280    125.2098    221.4976   7.2403506484e+01   1.2934249414e+01    0.3747739    0.2231584  42.03 0.0007539077    1.361    0.265
        80 -11.6515    237.7141    220.9730   5.1341109358e+01  -3.5992125557e+00    0.1629812     0.120238   5.07  0.001168079    1.057    0.054
        81 -11.7277    223.2953    220.4008   5.3661986681e+01  -1.5833718391e+00    0.1985729    0.1567253  10.57 0.0004834641    1.112    0.101
        82 -11.0693    194.5019    220.0580   5.8710244019e+01   2.6020918356e+00    0.1995191    0.1394528  44.08 0.0009774159    1.587    0.370
        83 -11.3268    189.7379    220.0548   5.9588185247e+01   3.3135041338e+00    0.1670353    0.1321464  15.09 0.0003621051    1.057    0.054
        84 -11.9759    173.2115    219.2209   6.2580619624e+01   5.9347039398e+00    0.2111895    0.1936918  14.42  0.001253269    1.207    0.172
        85 -11.4411    231.3074    218.8231   5.2052024561e+01  -2.5055107898e+00    0.1567302    0.1321195 -11.74 0.0005495519    1.393    0.282
        86 -11.6827    129.7550    218.2974   7.1083404574e+01   1.2769500331e+01     0.195841     0.154966 -76.73  0.001093736    1.682    0.406
        87 -13.7185    109.8750    214.7615   7.4762216178e+01   1.6356996695e+01    0.4455159    0.2779898 -35.66  0.002393785    2.376    0.579
        88 -12.0622    145.6805    215.9958   6.7545107191e+01   1.0683594509e+01    0.3116457    0.2916595  -7.37  0.001743552    1.226    0.184
        89 -13.3113    141.2706    210.6140   6.7698879602e+01   1.2238424765e+01    0.4365362    0.2847187 -67.53 0.0006569377    2.319    0.569
        90 -10.7940    225.5581    216.4815   5.2639174260e+01  -1.4488450959e+00    0.1192859   0.08800967  10.57 8.052856e-05    1.029    0.028
        91 -11.7740    155.8506    213.9224   6.5208237603e+01   9.4128881268e+00    0.2362616    0.1915861  52.07  0.001510412    1.372    0.271
        92 -13.1313    125.3749    213.0416   7.1317921321e+01   1.4313605985e+01    0.3086973    0.2177447  41.51 0.0003624033    1.172    0.147
        93 -12.3310    248.1805    212.5075   4.8244244714e+01  -4.0690581471e+00    0.2872742    0.1553499  21.08  0.001352111    1.591    0.371
        94 -12.4461     97.5448    211.9572   7.7039876728e+01   1.8657368878e+01     0.512159    0.2891938 -88.27  0.002487733    2.768    0.639
        95 -12.7899    101.0633    207.5746   7.5796663145e+01   1.8947242716e+01    0.5498946    0.2880362  19.97  0.002340654    3.085    0.676
        96 -10.6401     30.4416    212.6123   9.1051237208e+01   2.6918338503e+01    0.1125699   0.08430213  60.58 0.0001726671    1.019    0.019
        97 -10.7779    210.0192    211.5284   5.4534254996e+01   1.3816522938e+00    0.1507758   0.09841654  52.66 0.0006573419    2.401    0.584
        98 -10.7201    188.2725    211.6671   5.8551900467e+01   4.6606793273e+00    0.1071712   0.09587391  57.05 0.0002248905    1.594    0.373
        99 -12.7740    119.2423    210.2789   7.2251616298e+01   1.5729546836e+01    0.2478462    0.1768779  17.56 0.0006552459    1.657    0.397
       100 -13.1594    123.7039    205.6513   7.0704496840e+01   1.5850123793e+01    0.3225967     0.212592 -40.05  0.000646204    1.899    0.473
       101 -11.8254    229.5907    208.8062   5.0671620571e+01  -1.1234609664e+00    0.3174804    0.2060348  -8.17  0.002004663    1.419    0.295
       102 -11.5488     26.5331    208.6358   9.1623195280e+01   2.8086531666e+01    0.2791405    0.1567028  60.43  0.001452982    1.415    0.293
       103 -11.4194    244.0257    209.5081   4.8402340572e+01  -3.1927185342e+00    0.1615072   0.09405655  29.96 0.0003774617    1.500    0.333
       104 -10.8459     37.9415    209.3775   8.9340243228e+01   2.6742920972e+01    0.1607129   0.09162567  39.48  0.000401006    1.516    0.340
       105 -11.1170    181.7911    208.0232   5.9204548950e+01   6.1848063533e+00    0.2140018    0.1334803  -2.00  0.001100373    2.107    0.525
       106 -11.1885    160.1935    206.4667   6.3225188612e+01   9.8753333643e+00    0.2187902    0.1738647 -73.89   0.00128506    1.956    0.489
       107 -12.7681     42.6955    205.7329   8.8115035797e+01   2.6929956024e+01    0.2619614    0.1787173  59.34 0.0006283786    1.171    0.146
       108 -11.2588     37.7847    203.2142   8.8978908528e+01   2.7971260153e+01    0.3060906    0.1231321  49.12  0.001586371    1.961    0.490
       109 -12.6251     31.7041    203.8874   9.0294070215e+01   2.8486217534e+01    0.4151802    0.1794924  76.86  0.001099532    2.444    0.591
       110 -12.4394    145.6381    202.5152   6.5620648989e+01   1.2877819952e+01     0.383462    0.2038969 -48.93  0.001927774    2.228    0.551
       111 -11.6701    239.0746    202.3089   4.7964769254e+01  -1.7001313692e+00    0.2172497      0.14267 -37.95  0.001330231    1.970    0.492
       112 -11.3813     48.9357    203.0260   8.6598656409e+01   2.6752407349e+01    0.1786027    0.1407786  63.33 0.0004290337    1.015    0.015
       113 -10.7694    180.5154    201.5440   5.8395279340e+01   7.3316907840e+00    0.1302413    0.1053847  19.06 0.0001194132    1.040    0.038
       114 -11.1713    212.1334    199.8691   5.2173917746e+01   2.5582903896e+00    0.1761403    0.1587142  19.02 0.0008898531    1.318    0.241
       115 -13.6929    123.1666    196.4574   6.9556840313e+01   1.7590850091e+01    0.4691747    0.2707459  40.23  0.002422015    1.482    0.325
       116 -11.9397    225.0695    198.5429   4.9661830079e+01   7.7345091394e-01     0.210803      0.16199 -33.73 0.0009575994    1.591    0.372
       117 -13.4840    140.0183    196.9049   6.5965086014e+01   1.4759516032e+01    0.4358219    0.2955454  42.04  0.002428429    1.290    0.225
       118 -11.2426     35.5575    198.9719   8.9173434400e+01   2.9063185320e+01    0.1662913    0.1273771  59.40 0.0004730179    1.051    0.049
       119 -12.3959    113.8895    197.1156   7.1692110921e+01   1.8943527309e+01    0.1995652    0.1580281  57.98 0.0004262739    1.233    0.189
       120 -11.0995     61.3843    197.1556   8.3401250349e+01   2.6424606597e+01    0.1663918    0.1270596  79.42 0.0009777811    1.224    0.183
       121 -11.3623    205.0517    206.0832   5.4522134448e+01   2.8279272312e+00    0.1820015    0.1423265  14.35 0.0002795914    1.016    0.015
       122 -12.4562    167.9950    195.5563   5.9896204725e+01   1.0315669739e+01    0.2484328    0.1940056  30.72 0.0003365793    1.097    0.088
       123 -11.3578    152.8204    195.8008   6.3075420259e+01   1.2818553794e+01    0.1772451    0.1458845  52.46 0.0005619016    1.317    0.241
       124 -11.6862    193.2819    193.9573   5.4628370416e+01   6.3640905011e+00    0.3432399    0.2022878   6.85  0.001638995    2.242    0.554
       125 -12.4083    189.2186    193.3802   5.5307816530e+01   7.1160368022e+00    0.3545537    0.2886688  28.85  0.001659292    1.128    0.113
       126 -12.9611     26.4452    192.8851   9.0748774891e+01   3.1252106418e+01    0.4028603    0.1806423 -81.98  0.001252964    2.111    0.526
       127 -11.4716    217.5197    193.5887   5.0096510174e+01   2.5524139853e+00    0.2132547    0.1833943  10.49  0.001440125    1.174    0.148
       128 -11.8711    145.7160    193.6042   6.4232561353e+01   1.4385973624e+01    0.2049091    0.1668236 -84.82 0.0006061745    1.729    0.422
       129 -12.0423    243.3687    192.2637   4.5465553159e+01  -1.1275672537e+00    0.3529583    0.1608876  26.66  0.001248051    2.164    0.538
       130 -12.4205    247.8669    186.2647   4.3636817348e+01  -1.0556132743e+00    0.4376626    0.2313286   4.96  0.001798518    2.286    0.563
       131 -11.0762    212.4502    193.1958   5.0932273943e+01   3.3946662863e+00    0.1563713    0.1150507 -37.62 0.0005767541    1.633    0.387
       132 -11.9163    162.6613    193.0850   6.0578395610e+01   1.1613325704e+01    0.3245209    0.1506052  37.41  0.001041293    1.883    0.469
       133 -10.7829     17.2918    179.0186   9.1950296257e+01   3.5055039336e+01     0.261811      0.14142 -65.57  0.001128051    1.887    0.470
       134 -11.3891     36.0681    183.9011   8.8004009210e+01   3.2148820808e+01    0.4039956    0.1971378 -83.71   0.00210287    1.997    0.499
       135 -12.6803     23.8933    181.2101   9.0588854502e+01   3.3964421934e+01     0.798012    0.2968165  68.51  0.003453926    2.934    0.659
       136 -13.3621     31.4052    187.4577   8.9311008841e+01   3.1881709048e+01    0.6189428    0.2958376  62.39  0.001943892    1.899    0.473
       137 -12.5297     29.6819    181.1965   8.9268778410e+01   3.3394728404e+01    0.5545619    0.2522759 -48.46  0.002524232    3.326    0.699
       138 -11.4577    234.0178    190.9777   4.6773528239e+01   3.8703913856e-01    0.2080289    0.1235753   6.86  0.001142181    1.736    0.424
       139 -13.1001    111.1333    188.6122   7.1140402023e+01   2.1010324548e+01    0.3196832    0.2187065 -55.85   0.00175487    1.642    0.391
       140 -13.1216    135.2613    186.7491   6.5422167358e+01   1.7382996340e+01    0.4939358    0.2130893 -42.65  0.002068222    2.758    0.637
       141 -12.6212    131.7701    184.9847   6.5920310690e+01   1.8304892785e+01     0.224928    0.1802997  48.83 0.0005864404    1.182    0.154
       142 -13.5942    121.2605    187.0420   6.8609402974e+01   1.9672122456e+01    0.4714318    0.3412738  22.42  0.001404016    1.517    0.341
       143 -13.6113    118.3530    179.6922   6.8153080108e+01   2.1593991276e+01    0.4497761    0.3043227  44.75  0.001989465    1.331    0.249
       144 -10.6364    174.3060    188.6767   5.7434623924e+01   1.0346871097e+01    0.1227316    0.1046808  67.82 0.0007033541    1.643    0.391
       145 -12.0751    121.1521    182.3922   6.7925258837e+01   2.0592488102e+01    0.2938703    0.1693124  40.79 0.0002653027    1.536    0.349
       146 -11.8104    151.0497    183.0198   6.1333149001e+01   1.5336794387e+01    0.2055601     0.179091  28.22 0.0003243488    1.019    0.019
       147 -11.5489    166.8336    181.8468   5.7758682899e+01   1.2767287431e+01    0.2013877    0.1664171  12.47  0.000394697    1.165    0.142
       148 -11.9095    167.0217    178.0318   5.7024068853e+01   1.3383392567e+01    0.2157025     0.191219 -21.53 0.0003240279    1.187    0.157
       149 -10.6593    221.5136    180.4857   4.6955962117e+01   3.6752684293e+00    0.1295989    0.1043581   5.36 7.190165e-05    1.006    0.006
       150 -12.1262    198.7353    179.8243   5.0998635341e+01   7.5391649776e+00    0.2191279    0.1922841  18.47 0.0002740293    1.121    0.108
       151 -12.1555    192.5637    178.7416   5.1980683521e+01   8.7638473371e+00    0.3309561    0.2229729 -58.08  0.001350323    2.493    0.599
       152 -12.9497    106.5266    175.9282   7.0366279863e+01   2.4312160376e+01    0.2641419    0.2466902  76.04 0.0006083676    1.089    0.082
       153 -12.4955    136.8484    176.2745   6.3329222752e+01   1.9081422537e+01    0.2862877    0.2013667  68.46  0.001391879    1.953    0.488
       154 -11.1955    250.6136    176.1189   4.1282224721e+01  -2.2713400031e-01    0.1715687   0.09898562 -24.66 0.0003767662    1.521    0.342
       155 -11.6548     12.6873    174.8550   9.2760508237e+01   3.6364576712e+01    0.2455734    0.1347435 -63.10  0.001413673    1.919    0.479
       156 -14.2917     50.8939    187.1950   8.4878416103e+01   2.9774765209e+01     1.227645    0.5822184 -66.80   0.00625645    2.110    0.526
       157 -11.1828      2.7051    172.3154   9.4901038424e+01   3.7734664841e+01    0.3084503    0.1348807  86.68  0.001515095    1.970    0.492
       158 -12.6600    126.8690    173.7859   6.5206923837e+01   2.1317120761e+01     0.348602    0.2205482 -54.89  0.001470902    1.768    0.434
       159 -13.6377    131.7494    169.5924   6.3340027296e+01   2.1291515017e+01    0.5568955     0.303966  50.00  0.002469548    1.887    0.470
       160 -13.6602    124.6805    167.5859   6.4658837087e+01   2.2952232821e+01    0.5775178    0.3222859  40.03  0.002653731    1.643    0.391
       161 -11.2890     40.6742    174.6881   8.6185599844e+01   3.3657637796e+01     0.259742    0.2362702  -0.04  0.001270273    1.512    0.338
       162 -12.8466    101.1786    172.2968   7.1109555630e+01   2.5939948447e+01    0.2874439    0.1896123 -42.70  0.001440728    1.822    0.451
       163 -12.0676     33.9204    171.9218   8.7576566697e+01   3.4995357006e+01    0.4165766     0.249666  20.86  0.002260374    2.116    0.527
       164 -10.7119     27.3756    172.7180   8.9201578434e+01   3.5479682484e+01    0.1542892   0.09846594 -70.41 0.0002841658    1.522    0.343
       165 -11.7755    244.0274    171.9925   4.1524418145e+01   1.2705732528e+00    0.1873844    0.1480992  -1.05  0.001226277    1.016    0.015
       166 -11.4070    197.1409    170.7917   4.9550429936e+01   9.1948062524e+00    0.1951848    0.1441536   7.23 0.0007602548    1.351    0.260
       167 -13.2848    152.4249    167.5323   5.8224255145e+01   1.7922866650e+01    0.5085257    0.2332275 -44.61  0.001405001    2.352    0.575
       168 -10.1291    230.7148    169.7054   4.3264373645e+01   3.6585178808e+00     0.129647   0.08485826   4.34 0.0002455069    1.543    0.352
       169 -12.7562    104.6280    168.2954   6.9646143901e+01   2.6232813874e+01    0.3659797    0.2427904  87.37   0.00170385    2.106    0.525
       170 -10.7761     48.9279    170.0000   8.3742612163e+01   3.3766960853e+01    0.1961056   0.06797316  31.19 0.0007908645    2.863    0.651
       171 -12.5808     40.0120    166.3660   8.5606150419e+01   3.5599177904e+01    0.5773925    0.2476009  70.85 0.0007886211    2.937    0.660
       172 -11.5852     24.1567    169.2552   8.9720037290e+01   3.6561599354e+01    0.2006079    0.1493062  31.64  0.001281794    1.492    0.330
       173 -13.8302     59.8932    204.7482   8.4387808808e+01   2.5094248870e+01    0.8132254     0.463528  24.99   0.00437089    2.105    0.525
       174 -11.6010     10.6577    166.7646   9.2776291976e+01   3.8315625702e+01    0.2464773    0.2157369  13.93  0.001406192    1.544    0.352
       175 -12.4825    110.8255    164.2508   6.7454508906e+01   2.6059518746e+01    0.2609212    0.2479913 -37.27 0.0003215039    1.170    0.145
       176 -11.0848    205.9765    164.3080   4.6568353996e+01   8.6294748508e+00    0.1935156    0.1560821  20.42 0.0005231119    1.123    0.109
       177 -11.6680     46.7125    163.5874   8.3650621127e+01   3.5483791564e+01    0.2898084    0.1945281 -45.69  0.001263496    1.892    0.471
       178 -13.4354     42.8920    159.7564   8.4237629924e+01   3.6801769526e+01    0.6122307    0.2485474  33.75  0.002774542    2.353    0.575
       179 -11.2166     28.5123    163.9533   8.8256374571e+01   3.7338780229e+01    0.1734884     0.106904 -81.15 -0.0001198254    1.452    0.311
       180 -13.1007     26.1164    134.1592   8.6180506269e+01   4.4616974593e+01     0.366906    0.2485223 -77.90  0.001735624    1.275    0.216
       181 -13.1357      2.9841    105.2475   9.0423423349e+01   5.3424350382e+01     0.678641     0.183705 -55.06  0.002673546    3.164    0.684
       182 -15.0862     13.0695    130.5832   8.9600875922e+01   4.6562543398e+01     1.517933     1.324516 -50.96  0.007025207    1.341    0.254
       183 -13.8386      5.8039    118.9857   9.0755361883e+01   4.9887183896e+01    0.7405883    0.4695494 -30.13  0.002971319    2.137    0.532
       184 -14.0916     12.2422    106.7119   8.7514446401e+01   5.2498779134e+01     1.259075    0.5840323  80.84  0.005582918    2.402    0.584
       185 -13.4366     18.7993    159.6529   9.0344375211e+01   3.9225438247e+01    0.8704513    0.2754124  47.54  0.003838187    2.694    0.629
       186 -13.3945      9.1542    147.2258   9.1938769889e+01   4.2892521552e+01     0.525615    0.4472221 -39.55  0.003594505    1.539    0.350
       187 -14.0634     32.5731    139.0978   8.4859022952e+01   4.2804769173e+01    0.7772684    0.4195891   6.72  0.003428366    3.135    0.681
       188 -14.2662     35.0702    130.4867   8.3140571663e+01   4.4669308371e+01    0.7240801    0.4830066  60.82  0.001344836    1.492    0.330
       189 -14.2840     18.9273    151.0119   8.9668916830e+01   4.1214955466e+01    0.7160008    0.5782989 -81.86  0.004531583    1.140    0.123
       190 -14.7119     26.6830    151.2350   8.7655892564e+01   4.0463529532e+01     1.023559    0.5841407  58.79  0.005543055    1.635    0.388
       191 -12.7709     22.9037    116.7042   8.5208705788e+01   4.9209788802e+01    0.4699802    0.3173439 -37.65  0.001827778    1.797    0.444
       192 -12.5253     19.1080    113.6731   8.6064409033e+01   5.0269523193e+01    0.3417535    0.3008571 -34.03  0.001242307    1.364    0.267
       193 -11.7165      4.3530    163.2487   9.4077272583e+01   3.9600058326e+01     0.301524    0.1506962  58.98  0.001095943    1.701    0.412
       194 -11.1940      6.9855    160.2800   9.3286104584e+01   4.0062467967e+01    0.2111062    0.1341596 -75.37 0.0005931745    1.421    0.296
       195 -11.0729    242.7969    162.2232   3.9774222880e+01   2.7267348140e+00    0.1774641    0.1518232 -14.54 0.0004993421    1.206    0.171
       196 -11.3403     32.9990    162.1094   8.6980994928e+01   3.7312439109e+01     0.187952    0.1556837  75.91 0.0003287825    1.006    0.006
       197 -12.8343    169.9864    159.9777   5.2881137903e+01   1.6005653598e+01    0.3235755    0.2461096 -37.30  0.001716106    1.375    0.273
       198 -11.9371    158.9854    160.3100   5.5346693403e+01   1.8042331741e+01    0.2051331    0.1696041  33.66 0.0002572913    1.124    0.110
       199 -13.1534     81.8167    156.6437   7.3647079532e+01   3.2431897346e+01    0.3872975    0.2644022 -62.67   0.00179996    1.478    0.324
       200 -11.0483    105.0292    158.4842   6.7927706540e+01   2.8297918540e+01    0.2190505    0.1316247  40.59 0.0005120587    1.559    0.358
       201 -11.7795     34.6913    158.4287   8.6220447878e+01   3.7989607387e+01     0.230852    0.1059581  36.31  0.001124865    2.053    0.513
       202 -11.4624    117.5030    157.5355   6.4613806273e+01   2.6334232303e+01    0.1437039    0.1337362  51.40 0.0001240131    1.017    0.017
       203 -12.2507    121.9134    155.9976   6.3230355797e+01   2.5868936116e+01    0.2130758    0.2010041  52.50 0.0002878623    1.027    0.026
       204 -11.8126    112.2614    156.3985   6.5724597088e+01   2.7507912261e+01    0.2090467    0.1249432  47.91 0.0009459225    1.626    0.385
       205 -12.2311      2.3002    153.6172   9.4064685477e+01   4.1922916918e+01    0.4218628    0.1707336  85.88  0.002036358    2.201    0.546
       206 -11.6785    141.5251    154.3094   5.8138557976e+01   2.2550491420e+01    0.2713374    0.1454671 -52.36  0.001136871    2.102    0.524
       207 -14.6084     43.7493    221.8707   8.8945352281e+01   2.3740159523e+01     1.735177     1.345259   1.41   0.01148183    2.166    0.538
       208 -11.9981     88.5027    152.9793   7.1303129850e+01   3.2246548428e+01    0.2116233    0.1369736 -63.61  0.000765522    1.579    0.367
       209 -13.3669     50.1369    151.8395   8.1456681382e+01   3.7829651102e+01    0.4381162    0.2566057  53.98 0.0005459868    1.648    0.393
       210 -13.2310     39.3331    151.5223   8.4323104209e+01   3.9123877454e+01    0.4722255    0.2589788 -86.62  0.002077736    1.790    0.441
       211 -13.0723     43.2152    146.3542   8.2699297253e+01   3.9935341593e+01    0.4521857    0.1640112  41.09   0.00190296    2.509    0.601
       212 -13.0842     32.4913    147.3733   8.5741417442e+01   4.0818199554e+01    0.5084973    0.2123728  52.20  0.001618096    2.361    0.577
       213 -13.2173     37.1771    143.6104   8.4060560425e+01   4.1245494818e+01    0.3924461    0.3047305 -10.09  0.001476184    1.857    0.462
       214 -11.4138    232.2384    151.9400   3.9359099373e+01   5.8651028257e+00    0.2043235    0.1692763  14.67 0.0003900433    1.131    0.116
       215 -10.4066    249.6361    151.6844   3.6543439465e+01   3.0284439240e+00    0.1354231   0.08398362   6.13  0.000704052    1.766    0.434
       216 -12.2637    147.6147    149.5758   5.5725861349e+01   2.2319601180e+01    0.3236241    0.2552131 -58.74 0.0006084266    1.472    0.321
       217 -12.4878    130.4357    150.7243   6.0094555190e+01   2.5404239548e+01    0.3260164    0.2347899  27.50 0.0001853743    1.480    0.324
       218 -13.9940     85.1106    147.6799   7.1339198116e+01   3.4010078335e+01    0.5928282    0.3780479 -57.93  0.002375044    1.571    0.363
       219 -12.3887     80.0739    147.1356   7.2625320187e+01   3.4911842112e+01     0.208373    0.1942809 -25.44 0.0004883835    1.279    0.218
       220 -11.7598     44.6589    152.6971   8.3025475298e+01   3.8259832167e+01    0.1947507    0.1637671  43.17 0.0006357795    1.237    0.191
       221 -12.4942    170.3860    149.8842   5.0666314537e+01   1.7759089742e+01    0.3036243    0.2341022  69.23  0.001301977    1.821    0.451
       222 -12.7272    108.5605    148.7476   6.5265641424e+01   2.9852041963e+01    0.3831995    0.2840714 -56.31 0.0009475772    1.397    0.284
       223 -13.0043     97.8534    148.9915   6.8134767210e+01   3.1641594829e+01    0.4101881     0.312758  88.09  0.002081362    1.519    0.342
       224 -11.0344    223.9801    147.9652   3.9896095482e+01   7.8786894526e+00    0.1983339    0.1642316 -56.04 0.0007125593    1.723    0.420
       225 -11.4790    180.8332    148.1384   4.8076562636e+01   1.6008740883e+01    0.2068849     0.163289   6.18 0.0006705988    1.332    0.249
       226 -11.3856    206.7269    146.7682   4.2701811143e+01   1.1227947031e+01    0.2368865     0.170202  26.30  0.001020774    1.374    0.272
       227 -11.8077    121.1773    146.8070   6.1628445138e+01   2.7986816093e+01    0.1994759    0.1747093   0.08 0.0004798568    1.322    0.244
       228 -12.7414      3.6386    142.7005   9.3089259490e+01   4.4350407834e+01    0.4470153    0.2208128 -60.44    0.0020604    1.985    0.496
       229 -13.2797    101.4251    142.4729   6.5969992017e+01   3.2529666912e+01    0.5922121      0.39087  79.94  0.002535472    2.200    0.546
       230 -12.1961     59.9339    145.1929   7.7909023385e+01   3.8205592583e+01     0.222126     0.166244  68.33 0.0007036144    1.310    0.237
       231 -12.6663     55.7288    141.4241   7.8566411133e+01   3.9653090903e+01    0.2955289    0.1622974  41.19  0.001120411    1.768    0.434
       232 -11.4034    139.8899    140.8722   5.5698175066e+01   2.5628020850e+01     0.221948    0.2011151  -3.26 0.0004969097    1.173    0.147
       233 -12.2040     94.9672    140.0092   6.7266244258e+01   3.4208572134e+01    0.2862635    0.2005999 -56.33 0.0008392876    1.434    0.302
       234 -11.9311    230.2466    139.2529   3.6941114656e+01   8.0354540937e+00    0.2232335    0.1957118 -14.37 0.0002142749    1.101    0.092
       235 -12.0535    223.1034    139.7709   3.8246383781e+01   9.2562766698e+00    0.2362088    0.1862595 -15.57  0.000275041    1.125    0.111
       236 -11.0019    189.4807    140.1548   4.4527855249e+01   1.5681826543e+01    0.2488079     0.192915 -84.81 0.0009357138    2.220    0.549
       237 -12.0291    179.8387    135.2027   4.5345216727e+01   1.8521458670e+01    0.2460224    0.2180188 -11.62 0.0002436048    1.086    0.079
       238 -12.4943    103.3535    134.3166   6.3817322975e+01   3.4077694997e+01    0.3471999    0.2521696 -48.05  0.001019823    1.412    0.292
       239 -12.4789    104.7568    130.9591   6.2721263061e+01   3.4604444006e+01     0.290463    0.2638331  47.43 0.0006422089    1.087    0.080
       240 -13.1537     45.9161    135.0053   8.0518882242e+01   4.2395470940e+01    0.4526001    0.1990593  38.80  0.001716227    2.200    0.545
       241 -11.1429    170.7531    135.4740   4.7338726887e+01   2.0358265800e+01    0.2102164    0.1364044  31.48 0.0009391549    1.622    0.383
       242 -12.3144    117.8041    134.8353   6.0005531046e+01   3.1275307394e+01    0.2881169    0.2453143  40.23 0.0006760292    1.153    0.133
       243 -13.3977     63.8140    134.8582   7.5250035471e+01   4.0205179083e+01    0.3568445    0.2666653  37.44  0.001504411    1.382    0.277
       244 -12.5809     75.6941    134.2859   7.1684055021e+01   3.8651947131e+01    0.3066439     0.180424  35.06  0.001409553    1.744    0.427
       245 -11.3932    211.6245    133.2905   3.8771038211e+01   1.2430607381e+01    0.2413755    0.1563503  24.58 0.0006319722    1.717    0.418
       246 -12.1811    126.8227    131.9249   5.6987054913e+01   3.0157235714e+01     0.340702    0.2678233  77.73 0.0008391925    1.619    0.382
       247 -12.6655     81.2058    129.5903   6.9204535641e+01   3.8946767973e+01    0.2763763    0.2665986  -0.07 0.0009155421    1.182    0.154
       248 -13.1707     84.0000    127.5396   6.7979358147e+01   3.8998666996e+01    0.7105938    0.2154045 -62.20  0.002089513    3.961    0.748
       249 -10.8396    236.7325    130.9335   3.4052352600e+01   8.0745279334e+00    0.1847885    0.1502033 -19.99 0.0002478218    1.070    0.066
       250 -11.6070    201.8335    130.8449   3.9983103629e+01   1.4769945213e+01    0.2147317    0.1801413   0.51 0.0003814431    1.154    0.133
       251 -12.4910    206.6746    129.2628   3.8720804030e+01   1.4056120045e+01    0.2521485    0.2348248 -14.47  0.000366487    1.097    0.088
       252 -13.4964     48.3059    129.7070   7.9070621687e+01   4.3431055097e+01    0.5504398    0.1727817  35.88  0.002085238    2.973    0.664
       253 -11.1019    130.2478    128.2553   5.5250407760e+01   3.0268101437e+01    0.2177924    0.2048255   3.20 0.0008061412    1.112    0.101
       254 -11.1007    121.9874    128.2933   5.7426454348e+01   3.1923531265e+01    0.2150244    0.1971399  44.35 0.0006793676    1.074    0.069
       255 -14.0226     60.3802    125.3633   7.4708425729e+01   4.3011379184e+01    0.5569419    0.3766269  83.68  0.002714091    1.679    0.404
       256 -10.9768    162.4358    127.5207   4.7278201436e+01   2.3636043830e+01    0.1516086    0.1435519   1.96 7.534988e-05    1.016    0.016
       257 -13.4125    103.8880    121.1386   6.0783695215e+01   3.7059522334e+01    0.5182112    0.4412139  -0.27  0.002585019    1.431    0.301
       258 -12.3376     99.2150    118.3589   6.1499348697e+01   3.8579603267e+01    0.2993194    0.2521991  79.36 0.0003572102    1.328    0.247
       259 -13.9418     44.9674    120.2882   7.8690322873e+01   4.6165333916e+01    0.5898291    0.4802274 -24.68  0.001879393    1.550    0.355
       260 -11.9550     36.0003    119.5873   8.1426863633e+01   4.7292040299e+01    0.3254494    0.2105463  44.00 0.0005047403    1.596    0.374
       261 -12.3508     54.5460    117.5226   7.5179798673e+01   4.5723999959e+01    0.7649598    0.2087696  34.48  0.002617797    3.473    0.712
       262 -11.2213    188.9966    121.6772   4.0228177207e+01   1.9003971536e+01    0.2032574    0.1850076  27.45 0.0002764886    1.100    0.091
       263 -10.6843    165.6508    122.3175   4.5272865016e+01   2.3947441591e+01    0.1535271    0.1241752 -85.15 0.0004972837    1.732    0.423
       264 -12.6594     67.9126    121.9444   7.1768317025e+01   4.2825590866e+01    0.2724788    0.1984603 -73.38  0.001380793    1.349    0.259
       265 -11.5084    199.8408    121.1613   3.8029383039e+01   1.6795858619e+01    0.2123675    0.1678028   2.56  0.001087231    1.344    0.256
       266 -12.9055     73.1588    120.0238   6.9767227297e+01   4.2532636330e+01    0.2595742    0.2119107  40.31 0.0009545993    1.270    0.213
       267 -10.9876    230.6434    119.1978   3.2313223092e+01   1.0918870853e+01    0.3037785    0.1385895  29.21  0.001097322    3.469    0.712
       268 -11.5458     94.0142    117.1335   6.2761592496e+01   3.9810873381e+01    0.2777824    0.2133715 -54.75  0.001029807    1.273    0.214
       269 -12.2140    124.4254    114.4546   5.3401428309e+01   3.4507193511e+01    0.2660578    0.2605715 -63.82   0.00142255    1.037    0.036
       270 -11.4282    105.4586    114.4458   5.8734125698e+01   3.8327639810e+01    0.2833512    0.2296757   4.86  0.001221965    1.560    0.359
       271 -11.5034    109.2145    111.9726   5.7026511911e+01   3.8169625657e+01    0.4149598    0.2561433 -27.39  0.001617369    2.279    0.561
       272 -12.2663     82.3680    112.1404   6.5200030911e+01   4.3019909216e+01    0.4433009    0.1909026 -63.43  0.001411044    2.692    0.629
       273 -12.5871     63.9167    113.5106   7.1403539446e+01   4.5491501856e+01    0.3018272    0.2793191   6.89  0.000985467    1.257    0.205
       274 -12.3506     61.5894    110.2673   7.1515264676e+01   4.6624245425e+01     0.390004    0.2253004 -48.91  0.001387518    1.705    0.414
       275 -10.6935    171.5723    113.4738   4.1720602832e+01   2.4316970335e+01    0.1518322     0.145729 -17.64 0.0004112632    1.033    0.032
       276 -12.0326     57.4990    113.0689   7.3409564385e+01   4.6466121276e+01    0.3265997    0.1718033 -67.66   0.00142236    1.829    0.453
       277 -12.4593     52.9401    110.2801   7.4390240881e+01   4.7746638458e+01    0.4854246    0.3125485  84.58  0.002054142    1.883    0.469
       278 -12.2227    219.4005    109.7504   3.1835678753e+01   1.4578361651e+01    0.3057761    0.2496657  -1.79  0.001470779    1.234    0.189
       279 -11.5794    210.4533    108.0036   3.2881970483e+01   1.6718169610e+01    0.2532938    0.2123351  83.57   0.00101662    1.598    0.374
       280 -12.0110    170.4004    106.8796   4.0226683657e+01   2.5817560902e+01    0.2762589    0.2210473  37.33 0.0005599156    1.274    0.215
       281 -11.8116    120.9723    106.9933   5.2388482887e+01   3.6890107220e+01     0.226678    0.2258717 -80.59 0.0003266385    1.015    0.015
       282 -10.4438    153.5275    106.4522   4.3894118389e+01   2.9773488528e+01    0.1554231    0.1511149 -72.31 0.0003119298    1.105    0.095
       283 -10.1616    116.3163    104.3019   5.2969262320e+01   3.8471145121e+01    0.1573582    0.1249561  -2.95 0.0007022475    1.619    0.382
       284 -11.0603     64.5081    104.0056   6.9214025693e+01   4.7783521489e+01     0.216708    0.1344714 -60.54 0.0003653634    1.495    0.331
       285 -10.8651    230.0961    103.1090   2.8560181644e+01   1.3416437501e+01    0.2030111    0.1690391  -3.35 0.0002724437    1.192    0.161
       286 -11.0194     54.5897    102.1005   7.2211766966e+01   4.9599101459e+01    0.3957748    0.2132463 -34.52  0.001373044    2.546    0.607
       287 -12.3366     59.0729     96.5277   6.9414389068e+01   5.0404408865e+01    0.5100238     0.253488 -51.03  0.002171446    1.845    0.458
       288 -12.1228     78.7179    101.2025   6.3780569913e+01   4.6294187183e+01    0.3684103    0.2584332  65.44 0.0007845777    1.790    0.441
       289 -12.3002     75.1396     97.5363   6.4064689184e+01   4.7770901621e+01    0.2558912    0.2160043 -32.48 0.0005387687    1.268    0.211
       290 -11.4077    208.1081     99.8113   3.1194804685e+01   1.8536350525e+01    0.2118817    0.1903563 -48.76 0.0003316635    1.189    0.159
       291 -11.7477    105.3843     99.2613   5.4788941737e+01   4.1859696450e+01    0.2564348    0.1815687 -45.35 0.0006904409    1.385    0.278
       292 -11.7325     31.4186     99.1837   7.9846998057e+01   5.2877376420e+01    0.3766398    0.1869279 -50.69  0.001740244    1.888    0.470
       293 -12.0883     23.6306     97.5689   8.2376111062e+01   5.3955840136e+01    0.5507532    0.1789962  40.67  0.002157963    3.247    0.692
       294 -11.9910    162.0228     99.3031   3.9971013462e+01   2.9193057850e+01    0.2204848    0.2143937  37.25   0.00116451    1.053    0.051
       295 -11.3168     94.1975     99.2449   5.8246134404e+01   4.4037490199e+01    0.2146468    0.1827168  87.30 0.0007456857    1.358    0.264
       296 -11.1048    249.3958     97.4837   2.4554651491e+01   1.0473155182e+01    0.2694459      0.15158 -50.72  0.001054551    2.133    0.531
       297 -11.4633    188.6029     97.7668   3.4111754736e+01   2.3259153849e+01     0.209942    0.1347434 -42.46 0.0003541639    1.537    0.349
       298 -11.3329    178.7328     98.0158   3.6091159194e+01   2.5506928584e+01    0.2204151     0.192773 -28.84 0.0003911586    1.100    0.091
       299 -11.7655     89.3284     97.4436   5.9321280854e+01   4.5361742191e+01    0.3296861    0.2209951 -89.64  0.001115364    2.432    0.589
       300 -12.2151     81.5949     97.1512   6.1789377382e+01   4.6794355238e+01    0.3312264    0.2084256 -25.86   0.00072775    2.290    0.563
       301 -11.3581     98.7351     93.4634   5.5203125531e+01   4.4513316415e+01    0.4093699    0.1335991 -53.09  0.001197073    3.439    0.709
       302 -12.1086     68.5894     95.1694   6.5730646818e+01   4.9373594880e+01    0.2344286    0.1783615  25.87  0.001176739    1.477    0.323
       303 -11.9598    170.7438     90.5263   3.5608428540e+01   2.8744237883e+01    0.4171224    0.1391291 -30.87  0.001207217    3.483    0.713
       304 -12.3893     25.3187     89.9974   8.0524897646e+01   5.5723847326e+01    0.4593839    0.2389002  31.55  0.001019002    2.120    0.528
       305 -12.4836    230.5262     89.5360   2.5161924889e+01   1.5324648784e+01    0.2866664     0.246278  43.40  0.000592249    1.296    0.228
       306 -12.2195      4.6718     87.7478   8.7958612817e+01   5.7660541335e+01    0.3389186    0.1973279 -52.03  0.001304504    1.569    0.363
       307 -12.3275    149.4255     86.8513   3.9223426078e+01   3.4582509697e+01    0.4451185    0.2004751 -28.53  0.001452407    2.776    0.640
       308 -11.1408    138.6279     88.0965   4.2236157137e+01   3.6924286999e+01    0.2215019    0.1939127 -34.61 0.0003732575    1.130    0.115
       309 -12.1801     54.0539     85.8642   6.8696928769e+01   5.3717096534e+01    0.4750478    0.4035035 -13.21  0.002637031    1.354    0.262
       310 -11.7125     51.2522     78.8490   6.7970712428e+01   5.5797649856e+01    0.4376259     0.269496  67.40  0.001841224    2.567    0.610
       311 -13.5208     63.7380     82.2307   6.4076845424e+01   5.3252737672e+01    0.5647879    0.4134879  87.77  0.002670544    1.849    0.459
       312 -11.7449     11.5988     87.1446   8.5274088946e+01   5.7420162582e+01    0.2893492    0.1967196  65.63  0.001558456    1.607    0.378
       313 -11.9152    178.5619     86.9550   3.3021607164e+01   2.7492964229e+01     0.268485    0.2276443  52.94 0.0002928473    1.227    0.185
       314 -10.4811    102.6156     85.8074   5.1706360047e+01   4.5464587929e+01    0.2079038    0.1451786 -55.15 0.0002864532    1.503    0.335
       315 -10.5920     35.2009     86.1838   7.6015555911e+01   5.5790922506e+01    0.1782661    0.1501524  77.37 0.0004787488    1.280    0.219
       316 -11.8187    171.0413     83.6686   3.3555047823e+01   2.9892337041e+01    0.2131628    0.2019792  46.10 0.0004252035    1.084    0.078
       317 -10.6739    110.2194     83.4373   4.8632802172e+01   4.4374883153e+01    0.2090991    0.1524349  56.57 0.0003636918    1.520    0.342
       318 -11.6520     77.6684     81.6644   5.8802687279e+01   5.1151012452e+01    0.3112963    0.2301644  58.54  0.001207073    1.627    0.385
       319 -11.4591    206.6575     80.7926   2.6409964599e+01   2.1860012627e+01    0.2245268    0.1757068 -11.33 0.0005760495    1.361    0.265
       320 -12.2269    182.2970     80.9873   3.0600571781e+01   2.7605094952e+01    0.2858657    0.1983112 -43.94  0.000615878    1.425    0.298
       321 -11.7963    153.3673     79.8914   3.6183739901e+01   3.4925896201e+01    0.2473363    0.2220678  72.08  0.000385618    1.206    0.171
       322 -11.4919     88.3817     79.2056   5.4296872903e+01   4.9770907184e+01    0.2885379    0.2522783  68.43 0.0009571027    1.319    0.242
       323 -12.2576     29.3329     79.7296   7.6996176209e+01   5.7949360659e+01    0.3129701    0.2106915  32.11  0.001441059    1.682    0.405
       324 -12.1406     22.8301     78.8421   7.9461055142e+01   5.8711519964e+01    0.4116975    0.2389751 -85.99  0.001995065    1.887    0.470
       325 -13.4886    215.0084     75.8835   2.3847014635e+01   2.0696508933e+01    0.4514077    0.2970596 -23.08  0.001318351    1.496    0.332
       326 -11.6982    188.2361     77.8911   2.8643715112e+01   2.6673550299e+01    0.2965616    0.1871243  29.37  0.000965206    2.067    0.516
       327 -11.5655    112.0913     76.1867   4.5722410643e+01   4.5494782117e+01    0.3436043     0.248634 -48.66  0.001414985    1.407    0.289
       328 -11.3260    116.5674     74.9153   4.3986168548e+01   4.4741994873e+01    0.3642193    0.2683108  57.41  0.001652889    1.480    0.324
       329 -11.8974    161.4782     76.1898   3.3271581825e+01   3.3573860318e+01    0.3021606    0.2476627 -76.22 0.0007817688    1.466    0.318
       330 -12.3531     75.4877     74.7995   5.7468768511e+01   5.3115280740e+01    0.5101807    0.3048167 -28.58  0.001917019    2.142    0.533
       331 -11.3831     86.0124     75.2726   5.3847028659e+01   5.1102969365e+01    0.3368275    0.2026699 -37.67 0.0005128152    1.692    0.409
       332 -11.3405    168.8694     74.1090   3.1125707181e+01   3.2082587316e+01    0.2182214    0.1853267   5.48 0.0006125846    1.324    0.245
       333 -11.8598     50.9189     72.6406   6.6388162499e+01   5.7339213694e+01    0.2815933    0.1933447 -64.35 0.0008149836    1.444    0.307
       334 -10.6652    105.7997     72.4330   4.6368072998e+01   4.7664315688e+01     0.218176    0.1472351  33.11 0.0009391263    1.636    0.389
       335 -11.0805     11.2637     70.2951   8.2704829229e+01   6.1609595486e+01    0.3594108    0.1385225 -81.57  0.001171178    2.957    0.662
       336 -12.1380      1.9550     69.0033   8.6490538343e+01   6.2398497399e+01    0.3314398    0.1751319 -81.01 0.0007885626    1.676    0.404
       337 -10.8595    187.4395     69.8281   2.6449350723e+01   2.8154694599e+01    0.2432496    0.1772155  52.21 0.0006791844    1.424    0.298
       338 -10.7489     60.4337     67.4539   6.0920629339e+01   5.7229938522e+01    0.1445214    0.1310087 -41.34 7.782176e-05    1.007    0.007
       339 -11.2638     47.6622     67.4335   6.6220557660e+01   5.8992315747e+01    0.2496896    0.1330712  34.68 0.0009949605    2.052    0.513
       340 -10.3641    203.3227     66.3196   2.2941577893e+01   2.4828421074e+01    0.1493419     0.111863  18.89 0.0004310245    1.672    0.402
       341 -11.9630      7.6138     65.8317   8.3494968625e+01   6.2901000967e+01    0.2165068    0.1255037 -56.90 0.0004994916    1.379    0.275
       342 -12.0458      8.3257     60.6243   8.2183902661e+01   6.4124339652e+01    0.4839665    0.2652007  61.84  0.002038816    2.538    0.606
       343 -11.9621    178.5728     64.1483   2.6281146306e+01   3.1259889502e+01    0.2591607    0.2573474  72.48 0.0003392958    1.039    0.038
       344 -11.2756    110.0579     64.0217   4.2112489577e+01   4.8396061789e+01    0.2285081    0.2209918 -19.50 0.0003155379    1.015    0.015
       345 -13.5530    107.3059     58.7605   4.1006095452e+01   5.0031938687e+01    0.5295826    0.3686441 -57.52   0.00232499    1.756    0.430
       346 -10.8562     43.4618     57.4574   6.4929067579e+01   6.1831914831e+01     0.196408    0.1802274  28.90 9.396463e-05    1.232    0.188
       347 -11.6152    199.2108     65.4061   2.3297107480e+01   2.5951885673e+01    0.1941558    0.1438932  80.73 0.0004087276    1.586    0.370
       348 -10.4103     63.2996     61.6365   5.7788901255e+01   5.8103189993e+01    0.1437104     0.115195 -87.77 0.0007034412    1.723    0.420
       349 -11.4074    233.7563     58.9902   1.7067614550e+01   1.8900793285e+01    0.2011582    0.1926871 -81.68 0.0003553165    1.149    0.130
       350 -12.6519     28.5452     55.4047   7.1274877853e+01   6.3906675308e+01    0.4249394    0.2147136  46.64  0.001885831    2.705    0.630
       351 -11.7515    192.9288     57.1451   2.1862400231e+01   2.8704196200e+01    0.2394571     0.195453 -60.89  0.001185552    1.272    0.214
       352 -11.3617    160.1864     57.4080   2.7548093818e+01   3.7039322250e+01    0.2113295    0.1509358  75.37 0.0005556315    1.602    0.376
       353 -11.4263     52.3451     56.3295   6.0559725787e+01   6.0920400990e+01    0.2676966    0.2478501  88.73  0.000622627    1.312    0.238
       354 -10.9153     50.0617     52.2856   6.0113492495e+01   6.2129994370e+01    0.2120442    0.1705824 -45.17 0.0002759495    1.128    0.113
       355 -11.0384    176.4902     56.4441   2.4272351310e+01   3.2969431567e+01    0.1524572    0.1434499 -59.36 0.0001044974    1.056    0.053
       356 -11.1264     54.9427     62.8807   6.1691596265e+01   5.9078145034e+01    0.2230166    0.1761971  86.82  0.001131784    1.741    0.426
       357 -11.4076    132.2467     54.2032   3.2525067658e+01   4.4773249907e+01    0.2459494    0.1276468  66.59 0.0008733565    2.432    0.589
       358 -11.1573    126.7732     53.8294   3.3747658046e+01   4.6217808687e+01    0.2191551    0.1860085 -66.59  0.001066536    1.357    0.263
       359 -10.9869    115.5960     53.7424   3.6694922201e+01   4.8987597599e+01    0.2118967    0.1426678 -44.33 0.0004758107    1.538    0.350
       360 -12.8527     43.3912     61.4781   6.6255075505e+01   6.0912819329e+01    0.5074869    0.2983822  53.21  0.002276444    2.413    0.586
       361 -13.0408     37.3419     52.0475   6.5973912556e+01   6.3778423263e+01    0.3225509    0.2332414 -54.90 0.0003735397    1.256    0.204
       362 -10.8823    233.4818     52.5461   1.5464618283e+01   1.9802629579e+01    0.1360322    0.1189881 -40.93 0.0001002604    1.005    0.005
       363 -11.3797     43.5562     52.0217   6.3017286500e+01   6.3046178929e+01     0.191332    0.1756743 -19.11  0.000290911    1.089    0.082
       364 -13.5042     30.4195     49.5049   6.8508168306e+01   6.5085862394e+01    0.4183486    0.3254212 -84.70  0.001989434    1.636    0.389
       365 -11.4633     18.7194     48.9586   7.4266938468e+01   6.6228309714e+01    0.2037733    0.1819547 -15.37  0.000624561    1.206    0.171
       366 -10.3191    155.5034     47.4291   2.5111306624e+01   3.9784011320e+01    0.1512665    0.1482314  47.20 0.0001014799    1.028    0.027
       367 -12.6578      2.4499     42.0659   8.1047459192e+01   6.8786502139e+01    0.3575852    0.1616321 -46.65 0.0009989279    1.761    0.432
       368 -13.1243     36.0591     39.9197   6.2120895953e+01   6.6580985284e+01    0.4265801    0.2807621  21.72 0.0009112995    1.675    0.403
       369 -13.1690    135.5336     38.9497   2.6121947494e+01   4.6274631697e+01    0.4401506    0.3058583  48.21 0.0006719193    1.409    0.290
       370 -12.3981     24.1463     38.5384   6.7954210622e+01   6.8123735629e+01    0.3009318    0.1561406 -31.97  0.001211124    1.987    0.497
       371 -13.4642    230.4251     34.6599   1.1212922551e+01   2.2697850725e+01      0.31223    0.2787445 -45.01 0.0006438443    1.042    0.041
       372 -12.2185     43.9939     33.2760   5.5157379156e+01   6.6905847630e+01     0.333741    0.2363391 -20.23  0.000925538    1.413    0.292
       373 -12.9358     32.0300     32.1725   6.1007991668e+01   6.8653071825e+01    0.4165918    0.2849714 -47.05  0.002344014    1.309    0.236
       374 -11.7068    135.0121     29.8415   2.2760372777e+01   4.7634607920e+01    0.3857514    0.2046102 -29.09  0.001123665    1.897    0.473
       375 -12.8433     78.3406     31.0060   3.8973566881e+01   6.1242786099e+01    0.3113626    0.2718899 -53.06  0.001388174    1.376    0.273
       376 -10.5094     65.5381     32.4824   4.4749873018e+01   6.3526124414e+01    0.1405222    0.1280178 -11.66  0.000255436    1.050    0.048
       377 -11.2970      8.5682     31.9891   7.4616165211e+01   7.0742022903e+01    0.1760787    0.1495642 -27.99 0.0003435641    1.148    0.129
       378 -11.4579    208.0150     29.3038   1.1970607695e+01   2.8594800944e+01    0.1975136    0.1740922 -87.73 0.0006546637    1.131    0.116
       379 -13.3815     46.6321     26.5741   5.0558180096e+01   6.7767248173e+01     0.410021    0.3400313  74.71  0.001993642    1.999    0.500
       380 -12.1642    159.3441     31.1412   1.8840953984e+01   4.0964870773e+01    0.2609672    0.2392342  71.63 0.0002713216    1.066    0.062
       381 -12.7394    106.6335     32.2136   3.0455407665e+01   5.4601954260e+01    0.3207534    0.2701339 -49.02   0.00077829    1.320    0.243
       382 -11.3552      4.5178     25.9839   7.5065894426e+01   7.2279687986e+01    0.1860376    0.1006472 -60.53  0.000401891    1.547    0.354
       383 -13.0298     84.0854     24.0876   3.3583066685e+01   6.1031682053e+01    0.3843702    0.2885437 -50.35 0.0004970431    1.631    0.387
       384 -12.4180     68.0323     25.3270   4.0161068907e+01   6.4221317379e+01    0.1982501    0.1787133  19.87  0.001160438    1.091    0.084
       385 -11.5365    238.0082     22.7063   7.5837585034e+00   2.2373847245e+01    0.1749881    0.1509569 -66.77 0.0003372694    1.099    0.090
       386 -10.4566    166.2827     22.3088   1.4808389666e+01   4.0142092203e+01    0.1464279    0.1075479  33.20 0.0001864268    1.565    0.361
       387 -11.6672     36.5190     20.9724   5.3017474340e+01   7.0228362335e+01    0.1882349    0.1604763  -3.21 0.0003497202    1.092    0.085
       388 -10.4732    189.5095     20.3774   1.1354008572e+01   3.4247984163e+01    0.1391393    0.1279169 -79.22 0.0001010718    1.032    0.031
       389 -11.3588     67.4570     17.5047   3.6259891515e+01   6.5479142325e+01    0.1382968    0.1232971   4.51 7.084668e-05    1.028    0.027
       390 -10.5468     31.0182     15.9835   5.3456663038e+01   7.1835520153e+01    0.1551869    0.1286024 -13.86 0.0004184595    1.028    0.028
       391 -11.7796    224.4385     15.0123   6.6826645633e+00   2.6258187393e+01    0.2307231    0.1826371 -87.94 0.0003586233    1.252    0.201
       392 -11.5144    121.0357     12.7505   1.8653985133e+01   5.3268722075e+01    0.2529011    0.2083117  71.66 0.0004350289    1.207    0.172
       393 -11.4946    139.5154    248.4343   7.2728241808e+01   6.8434583782e+00    0.2139477    0.1693828  39.27 0.0005933086    1.097    0.088
       394 -10.9956     90.5030     11.5231   2.5312705228e+01   6.1094132005e+01    0.1414803    0.1286243  27.63 -5.266385e-06    1.013    0.013
       395 -12.2412    135.9246    246.0000   7.3131161168e+01   7.6825062950e+00    0.3964092    0.1249562  36.55  0.001486145    2.427    0.588
       396 -10.2881     90.2589    249.6629   8.2020884153e+01   1.3351864729e+01    0.1100064   0.06631009  59.60 0.0006959618    1.578    0.366
       397 -11.2090    162.3757    246.9535   6.8343033269e+01   3.8223006244e+00    0.2175965    0.1308973  28.67  0.000868344    1.328    0.247
       398 -10.5871     99.3297    246.3351   8.0048024029e+01   1.2669672959e+01    0.1044043   0.08207833   9.62 0.0007052074    1.727    0.421
       399 -10.7221    180.6792    244.3592   6.4695888827e+01   1.5724954277e+00    0.1675708   0.08228768  29.95 0.0009472893    1.622    0.383
       400 -10.3548    168.2896    243.6247   6.6847630998e+01   3.4080300758e+00    0.1060792   0.08140803  55.84 0.0007020495    1.728    0.421
       401 -10.8784     75.1409    243.1607   8.4343610251e+01   1.6301339089e+01    0.3051302    0.1928055   4.64  0.001495805    3.863    0.741
       402 -11.0576     93.5340    248.9591   8.1355378777e+01   1.3033732159e+01    0.1356422    0.1083226 -77.17 0.0005326733    1.553    0.356
       403 -11.0162    104.1568    242.1780   7.8758237846e+01   1.2658267615e+01    0.1567259    0.1044209  51.49 0.0002409475    1.273    0.214
       404 -10.2926     47.2541    242.3932   8.9473933403e+01   1.9748566208e+01   0.08843034   0.08064287 -44.62 0.0002147657    1.688    0.408
