#   1 NUMBER                 Running object number                                     
#   2 MAG_AUTO               Kron-like elliptical aperture magnitude                    [mag]
#   3 X_IMAGE                Object position along x                                    [pixel]
#   4 Y_IMAGE                Object position along y                                    [pixel]
#   5 X_WORLD                Barycenter position along world x axis                     [deg]
#   6 Y_WORLD                Barycenter position along world y axis                     [deg]
#   7 A_WORLD                Profile RMS along major axis (world units)                 [deg]
#   8 B_WORLD                Profile RMS along minor axis (world units)                 [deg]
#   9 THETA_WORLD            Position angle (CCW/world-x)                               [deg]
#  10 FWHM_WORLD             FWHM assuming a gaussian core                              [deg]
#  11 ELONGATION             A_IMAGE/B_IMAGE                                           
#  12 ELLIPTICITY            1 - B_IMAGE/A_IMAGE                                       
         1 -14.1300      4.3469    103.9470   1.2503132131e+02   5.3003044656e+01     1.351215     0.699385 -76.80  0.007977872    1.501    0.334
         2 -13.3165    206.3337     35.0011   5.3834447937e+01   2.8594041568e+01     1.282549     1.126379 -68.93  0.005946962    1.145    0.126
         3 -12.8427      5.4402     21.3079   1.0937997290e+02   7.0866048542e+01    0.5808385    0.3183687 -41.95  0.003609633    1.449    0.310
         4 -12.7067      3.3818      5.0607   1.0430421431e+02   7.4059598795e+01    0.7218086    0.4683676 -49.14  0.004962278    1.236    0.191
         5 -13.8499    225.2689     16.0905   4.6417321479e+01   2.5981613830e+01     1.202323    0.9576311  27.54   0.00121517    1.527    0.345
         6 -11.6381    170.1290    247.7435   1.0592848339e+02   4.0932457889e+00    0.4162947    0.2103328  22.79  0.002068504    3.044    0.671
         7 -12.0603    177.9456    248.6199   1.0473421815e+02   2.8204309286e+00    0.6413722    0.1751916  35.47  0.002531536    3.785    0.736
         8 -10.9205    162.8060    250.1122   1.0741692779e+02   4.9099606169e+00    0.3210571    0.1183609  42.09   0.00170016    1.972    0.493
         9 -10.7481    143.3387    249.6800   1.1061869848e+02   7.8513237923e+00    0.2226576    0.1355729  56.35  0.001474035    1.555    0.357
        10 -11.5879    140.6905    248.2984   1.1092113149e+02   8.4182952346e+00    0.3398146    0.2002521 -57.11  0.002150543    2.329    0.571
        11 -12.2733    132.8510    249.1776   1.1232525621e+02   9.4529914804e+00     1.076533    0.2988381  51.10  0.004387082    3.740    0.733
        12 -13.2235    119.2107    237.5513   1.1351517508e+02   1.3045129287e+01    0.7609063    0.5274605  49.33  0.004140472    1.078    0.072
        13 -11.0160    122.8088    249.0038   1.1399195548e+02   1.0927463877e+01    0.3429336    0.2769907  71.40  0.002726576    1.311    0.237
        14 -11.5342    117.1843    249.7936   1.1500439211e+02   1.1621549447e+01    0.5084866    0.2579294  45.46  0.001839281    1.426    0.299
        15 -11.1279    110.5029    247.9303   1.1595698132e+02   1.2819591839e+01    0.2758299    0.1980481  54.25  0.002088068    1.057    0.054
        16  -9.4182    100.2359    250.5464   1.1788305841e+02   1.3869729212e+01    0.1661459    0.1138652  40.11  0.001218656    1.344    0.256
        17 -11.1217     99.0716    246.8044   1.1777471809e+02   1.4560486127e+01    0.4099205    0.1542443  45.40  0.002299519    1.901    0.474
        18 -10.0853     81.5524    248.1778   1.2078195620e+02   1.6689329414e+01    0.2890125     0.133915 -81.11  0.001702777    2.877    0.652
        19 -10.0200     90.7840    250.1056   1.1940628954e+02   1.5201097111e+01    0.2635151    0.1472802  36.81  0.001732583    1.720    0.419
        20 -11.1441     86.8480    248.0526   1.1990143268e+02   1.6017510057e+01    0.3330173    0.2582576  36.83  0.001376579    1.482    0.325
        21 -10.4816     84.1940    230.2502   1.1897221566e+02   1.9081720579e+01     0.320601    0.2517854  -0.65  0.002075165    2.629    0.620
        22 -12.1164     88.8005    238.1554   1.1881298921e+02   1.7232881030e+01    0.6905315    0.3375263  72.02  0.003786637    2.625    0.619
        23 -11.4409     82.7897    240.1239   1.1998700816e+02   1.7732223113e+01    0.4428456     0.190612  57.71   0.00212312    2.025    0.506
        24 -11.0246     90.6352    224.5896   1.1735028324e+02   1.9111464761e+01    0.4076742    0.2147022  53.02  0.002495947    1.498    0.332
        25  -9.6069     90.8304    220.0462   1.1690598662e+02   1.9826167802e+01    0.2155091    0.1375642  83.08 0.0007459344    1.717    0.418
        26 -11.1569     68.0044    245.3880   1.2281294711e+02   1.8819345296e+01    0.2931316    0.1561885  61.45  0.001240297    1.498    0.333
        27 -11.5925     59.4350    246.5356   1.2427538151e+02   1.9688134512e+01    0.5159702    0.2922289  57.16  0.003781481    1.260    0.206
        28 -12.1329     32.6630    230.1913   1.2774525319e+02   2.5312140148e+01    0.7539844     0.614023 -13.08  0.003042416    2.816    0.645
        29 -12.4352     36.9274    206.1608   1.2567503335e+02   2.8987715129e+01    0.7623254    0.4144104  44.61  0.005069287    1.570    0.363
        30  -8.5844     73.2913    247.3656   1.2207877489e+02   1.7862919899e+01    0.0840505   0.07942989  21.03 0.0007026637    1.708    0.414
        31 -10.8675    100.4492    224.1216   1.1554146945e+02   1.7804257235e+01    0.2973504    0.2432173  53.03  0.002216108    1.121    0.108
        32 -10.7062     97.3619    239.5047   1.1746005678e+02   1.5863869884e+01    0.2563992     0.190008 -61.73  0.001925973    1.739    0.425
        33 -12.0398    102.3704    230.0093   1.1575013081e+02   1.6605153958e+01    0.7643151    0.3634795  33.13  0.004029117    2.389    0.581
        34 -11.4417    101.7215    240.0194   1.1675807392e+02   1.5183486431e+01    0.3525804    0.2103294 -86.77   0.00112114    2.183    0.542
        35 -12.1538    104.9829    237.1353   1.1594267794e+02   1.5153272192e+01    0.4341976    0.2630562  53.21   0.00257636    1.269    0.212
        36 -11.3628    132.0053    239.9861   1.1154594854e+02   1.0813158099e+01     0.350482    0.1631619  28.42  0.001260619    3.311    0.698
        37 -14.5497     23.2433    219.7992   1.2880807323e+02   2.8032166475e+01     0.895876    0.8016222  38.20  0.007794519    1.642    0.391
        38 -10.6040     74.1543    243.4757   1.2167330878e+02   1.8338233066e+01    0.2672155    0.1714352  56.63  0.001788597    1.122    0.108
        39 -10.1087     69.1124    237.5116   1.2210512078e+02   1.9892682434e+01    0.1561721    0.1358712 -75.57 0.0006128435    1.515    0.340
        40 -10.6543     73.5544    236.9627   1.2131685266e+02   1.9416305231e+01     0.326301    0.1821753  58.85  0.001249612    1.398    0.285
        41 -13.9664      8.7220    211.4704   1.3089000364e+02   3.0873736733e+01     2.199337    0.8538507 -88.57   0.01332479    2.266    0.559
        42  -9.4040     55.4013    235.7268   1.2428559874e+02   2.1849049519e+01    0.2496306   0.09462596  56.67  0.001425229    2.089    0.521
        43 -11.1107    113.5318    229.7239   1.1374195017e+02   1.5033873092e+01    0.2803379    0.1536061 -56.09  0.001720016    2.292    0.564
        44  -9.9651    153.7964    230.0810   1.0663341781e+02   8.8309398667e+00    0.1649923    0.1301956  54.16 0.0003639538    1.205    0.170
        45  -9.3970    123.2954    229.7307   1.1200530107e+02   1.3581749444e+01    0.1662936    0.1233566  68.37  0.000737133    1.370    0.270
        46 -10.7359     79.0224    225.6476   1.1951008985e+02   2.0512435321e+01     0.295895    0.1554088 -66.02  0.001855742    2.166    0.538
        47  -9.1082     65.1204    223.6623   1.2181402195e+02   2.2631442201e+01    0.2934895    0.1057668 -51.55  0.001264591    5.204    0.808
        48 -14.7731     14.8519    241.7709   1.3106609087e+02   2.5277916024e+01      2.52126    0.8369172  44.67   0.01620224    2.066    0.516
        49 -10.8991     56.5896    228.2681   1.2361384140e+02   2.2914512161e+01    0.1963356    0.1468172  64.50 0.0002469791    1.055    0.052
        50 -10.1794     71.3890    219.3875   1.2037335048e+02   2.2551833232e+01    0.4039073    0.2257244  67.84  0.002531104    1.655    0.396
        51 -10.4485     60.2750    220.2917   1.2242765584e+02   2.3799545226e+01    0.1851891    0.1378075  62.31 0.0003119292    1.028    0.027
        52  -9.6475    246.3176    219.3214   8.9451145432e+01  -4.3503347508e+00    0.1182442   0.06783263  15.27 0.0003762421    1.664    0.399
        53 -10.6614    108.0151    217.1246   1.1346023364e+02   1.7826455818e+01    0.4138664    0.1670426  57.01  0.001274496    2.727    0.633
        54 -10.0874     50.8539    218.7001   1.2398494479e+02   2.5202967619e+01    0.3412983     0.131925  62.32 0.0009251338    2.448    0.592
        55  -9.5640     46.9404    214.5038   1.2440422513e+02   2.6384388857e+01    0.3142394   0.06702223  45.90  0.001436257    3.046    0.672
        56  -9.9537     88.2426    212.3376   1.1666622441e+02   2.1483506218e+01    0.2762166    0.1535686 -68.79  0.001286891    2.011    0.503
        57  -9.2259     58.5228    212.5372   1.2217937717e+02   2.5352431173e+01    0.2568916    0.1663637  32.03  0.001674421    1.864    0.464
        58 -10.1668     55.9095    208.8837   1.2238751479e+02   2.6316366687e+01    0.3640897    0.1573742 -71.95  0.002063417    2.353    0.575
        59  -9.7453    110.9740    211.2856   1.1227908041e+02   1.8339946551e+01    0.1783597    0.1528501  77.56 0.0009535271    1.184    0.156
        60  -9.8685     99.4462    209.7910   1.1430208069e+02   2.0312666469e+01    0.2583813    0.1318438  70.94  0.001018069    2.721    0.633
        61 -10.2555     62.5424    208.5169   1.2113164685e+02   2.5564923250e+01    0.2809062    0.1385354  49.49  0.000566165    1.598    0.374
        62  -9.4090     67.3107    205.6929   1.2000755935e+02   2.5464630342e+01     0.200124   0.08656633  64.39 0.0009803028    2.507    0.601
        63  -9.4153     64.1388    204.9060   1.2054097524e+02   2.6010839355e+01    0.1445065    0.1370361 -39.83 0.0003682834    1.622    0.384
        64  -9.5175    114.0082    204.5537   1.1093091749e+02   1.9002815000e+01    0.2060714    0.1512252  85.23 0.0006255843    1.538    0.350
        65  -9.2936     90.9910    204.8476   1.1540895904e+02   2.2395150750e+01     0.287582    0.1302962  30.39  0.001286263    3.088    0.676
        66  -9.5803    106.8568    203.4664   1.1219091076e+02   2.0290333683e+01    0.1995613    0.1636702 -63.72 0.0006877918    1.430    0.301
        67  -8.3354     72.6321    203.3102   1.1878852267e+02   2.5199881198e+01    0.1265725   0.06726664  63.68 0.0007036787    1.762    0.433
        68 -10.8783     45.2945    199.1330   1.2365705006e+02   2.9338413958e+01    0.3963467    0.2364264  27.94  0.002410197    2.245    0.555
        69  -9.6124    250.6049    200.2436   8.5605983660e+01  -3.0537784854e+00     0.152222   0.09547282  -8.94 0.0005323304    1.571    0.363
        70  -8.3237     97.7063    196.2869   1.1317471018e+02   2.2941202119e+01    0.1227227    0.0780289  66.01 0.0002450437    1.544    0.352
        71  -9.8315    250.1465    193.8382   8.4556676033e+01  -2.2993019345e+00    0.1743885    0.1157319  11.06  0.001087294    1.359    0.264
        72 -11.8188     50.3482    191.8786   1.2213631932e+02   3.0113820578e+01    0.3194762    0.2199958 -57.45  0.001416636    1.817    0.450
        73  -9.9991     30.8571    193.5480   1.2600949214e+02   3.1958847655e+01    0.1758182    0.1286714 -74.11 0.0005616475    1.445    0.308
        74 -10.2349     35.7870    191.8559   1.2495909490e+02   3.1757297590e+01    0.3661409    0.1373334  42.89  0.001701962    2.181    0.541
        75 -10.5706     21.6998    193.3043   1.2771376013e+02   3.2929121566e+01    0.3823572    0.1740566  32.11  0.002239942    2.468    0.595
        76 -10.4893     19.0779    188.6315   1.2794250023e+02   3.4064100538e+01    0.4471909    0.1775917  55.56  0.001269629    2.013    0.503
        77  -9.1210    191.5375    191.5124   9.4203807381e+01   7.8572447384e+00    0.1283534    0.1068795  29.82 0.0001140697    1.009    0.009
        78  -8.9926     58.0195    193.2419   1.2074347933e+02   2.8930861399e+01    0.3488292    0.1779032  73.68  0.001904436    2.056    0.514
        79  -9.9132     70.1180    187.2737   1.1777434020e+02   2.8524029085e+01    0.3586261    0.1878477  29.19  0.001823684    2.508    0.601
        80 -10.3048      9.9679    187.1776   1.2957722461e+02   3.5179808125e+01    0.2363161    0.1184161  82.49  0.001518634    1.630    0.387
        81 -11.9836     57.0038    184.5180   1.2018303851e+02   3.0731877164e+01    0.3438342    0.2057995  48.50  0.001434238    1.441    0.306
        82  -9.1590     29.3173    184.1059   1.2569151479e+02   3.3922675334e+01    0.2102126    0.1582956 -45.17  0.001438369    2.059    0.514
        83  -8.6553     88.9618    181.0798   1.1319505691e+02   2.7088457103e+01    0.1411305    0.1188209  79.18 0.0002902529    1.088    0.081
        84  -9.4710     36.9114    180.2924   1.2390804814e+02   3.3874209876e+01    0.2030818    0.1406061 -78.83 0.0007641003    1.340    0.254
        85  -8.8572    110.0988    178.2423   1.0836040902e+02   2.4359588038e+01    0.1630969   0.09782085  41.36 0.0003608712    1.528    0.346
        86  -9.5053     59.2571    177.0665   1.1901792182e+02   3.1925717956e+01    0.4372609   0.08539147  44.69  0.001644006    3.777    0.735
        87 -11.1275     12.2929    153.3301   1.2712914227e+02   4.1717514668e+01    0.2866733    0.1450202 -81.04  0.001727349    1.615    0.381
        88 -11.3636      2.7167    172.8586   1.3025251549e+02   3.8555594522e+01    0.5942605    0.2505994  73.44  0.003257053    2.031    0.508
        89 -11.0917      9.9839    156.8342   1.2786092256e+02   4.1182770148e+01    0.3144181    0.1210107  74.93  0.001530107    2.656    0.624
        90 -11.2422     13.7318    173.0037   1.2808051141e+02   3.7591738139e+01    0.3108856    0.2476232 -16.67  0.002208618    2.277    0.561
        91 -11.4832     13.2833    167.1205   1.2781617110e+02   3.8806927114e+01    0.3546476    0.1590355  38.04   0.00211324    2.139    0.532
        92 -12.0354      9.5166    163.9741   1.2840110702e+02   3.9764109262e+01     0.550675    0.3079925 -42.56  0.003091986    3.142    0.682
        93 -11.2995    248.8470    172.3931   8.0797984704e+01   3.4606731686e-01    0.3876509    0.2646183  -1.21  0.002319163    1.406    0.289
        94 -10.7706     69.4695    172.5810   1.1637341784e+02   3.1512092798e+01    0.2275987     0.192017  66.34  0.001547865    1.071    0.066
        95 -10.9763     53.9166    171.4514   1.1960514406e+02   3.3714470915e+01    0.2880097    0.2204982  54.14 0.0007770681    1.201    0.167
        96 -10.0413     27.2359    171.4693   1.2523214584e+02   3.6632136817e+01    0.2632078    0.1769073 -61.57 0.0009145102    1.676    0.403
        97  -9.6556     10.6944    170.3314   1.2853411208e+02   3.8388363602e+01    0.1571373    0.1148744  61.47 0.0005501629    1.180    0.153
        98 -10.8587     20.0140    168.2539   1.2650151603e+02   3.7972646714e+01    0.1881523    0.1445125 -75.51 0.0003173427    1.320    0.242
        99 -10.2805     39.7173    167.8294   1.2231629386e+02   3.6080412309e+01     0.263725    0.1901527  17.54  0.001247827    2.101    0.524
       100 -12.0424     77.5266    164.8725   1.1369309938e+02   3.1985341979e+01    0.4813971     0.396161  53.21  0.002845661    1.159    0.138
       101 -10.9464    245.2852    162.2312   7.9374881124e+01   2.1913883542e+00     0.219452    0.1786367 -16.85  0.001370447    1.199    0.166
       102 -10.7062    249.5055    161.5122   7.8556615655e+01   1.5487569525e+00    0.2868426    0.1813704 -33.00  0.001618342    1.642    0.391
       103 -10.8696    248.2759    157.5750   7.7958032905e+01   2.2503649793e+00    0.7684897     0.384302  62.52  0.002689988    5.196    0.808
       104 -10.6738     23.6208    162.1004   1.2530502318e+02   3.8892115098e+01    0.2055002    0.1840039   0.59 0.0001483685    1.729    0.422
       105  -9.0495     37.1678    162.1852   1.2237548626e+02   3.7520443675e+01    0.1649357    0.1091543  72.20 0.0007262365    1.295    0.228
       106  -8.6566     42.9380    160.9966   1.2099459442e+02   3.7145199788e+01    0.1406884    0.1125732  78.27 0.0003571385    1.006    0.006
       107 -11.0619     26.1175    155.2565   1.2422451236e+02   4.0081357896e+01    0.3118651    0.1631583  57.17  0.001226941    1.723    0.420
       108  -9.8896     68.0667    166.3273   1.1597548795e+02   3.2977845041e+01     0.169897    0.1354724  65.98 0.0003574046    1.076    0.071
       109  -9.5842     31.8585    154.1012   1.2283964593e+02   3.9765425005e+01    0.2211214    0.1397893 -42.74  0.001077836    2.354    0.575
       110 -10.6552    249.7218    150.8930   7.6357805621e+01   2.8364548752e+00    0.3237472    0.2288893 -29.83  0.001893803    1.411    0.291
       111 -10.9901     92.2086    149.6927   1.0817164182e+02   3.2989361519e+01    0.3206919     0.271854  63.24  0.001167889    1.080    0.074
       112  -9.2162     95.9981    145.7297   1.0662943929e+02   3.3231532904e+01    0.2046254    0.1824564  87.52 0.0004075733    1.048    0.046
       113 -10.8161     23.5317    149.9150   1.2436489427e+02   4.1452863608e+01    0.2683855    0.1486474  55.17  0.001512185    1.643    0.391
       114 -10.4546     80.6312    148.5103   1.1075539905e+02   3.4995517106e+01    0.2298766    0.2038966  78.43 0.0007421699    1.026    0.025
       115  -9.7864     38.8453    148.9042   1.2074161631e+02   4.0159192760e+01     0.168807    0.1431568 -72.17 0.0003722546    1.245    0.197
       116 -11.8792     68.3887    143.4686   1.1299877104e+02   3.7809116418e+01    0.6956446    0.3851209  74.51  0.002737541    2.297    0.565
       117  -9.3207     59.2059    146.9227   1.1568627089e+02   3.8244568707e+01    0.2046409    0.1289851 -45.59   0.00109307    2.040    0.510
       118 -13.0365      6.2509    142.6658   1.2774464334e+02   4.4436858707e+01    0.5900259    0.4811495  88.27  0.002888907    1.119    0.106
       119 -11.8780      8.5033    132.4948   1.2646973085e+02   4.6443894924e+01    0.2833373    0.1600741  83.86  0.001056312    1.500    0.333
       120 -13.7275     14.3789    124.2423   1.2430385329e+02   4.7801479717e+01    0.9282212    0.7808684 -34.03  0.006700345    1.614    0.380
       121  -8.3838     92.5498    133.4279   1.0536588648e+02   3.6452948740e+01    0.1348723    0.1236873  82.55 0.0001112527    1.012    0.012
       122 -11.5910     17.9085    132.5931   1.2418974981e+02   4.5683437823e+01    0.2773367    0.2186433  58.66 0.0009326598    1.258    0.205
       123 -10.7497    239.5774    249.4429   9.4978689519e+01  -6.1759919258e+00    0.2728849     0.117186  49.38  0.001369016    3.277    0.695
       124  -8.8125    113.2972    129.3041   9.9360767878e+01   3.3775923687e+01    0.1350671     0.113969 -10.04 0.0002126485    1.584    0.369
       125  -9.6796     44.9016    139.7177   1.1828771182e+02   4.1509964060e+01    0.1979483    0.1436479 -69.88  0.000322473    1.261    0.207
       126 -12.7311    248.2661    101.7649   6.5614489496e+01   9.6636151235e+00     1.072848    0.4641024 -25.13  0.004404448    2.287    0.563
       127 -13.6752      3.5280     78.4569   1.2234893066e+02   5.8740765820e+01     1.363611    0.3227477 -68.03  0.005766858    2.821    0.646
       128 -12.2001    244.4843    120.8995   7.0635825939e+01   7.7942074311e+00    0.9379301     0.460155  55.88  0.004142168    2.412    0.585
       129  -9.9315    106.3087    135.4536   1.0229938363e+02   3.3705726176e+01    0.3699987    0.2540776 -23.76  0.001293923    2.398    0.583
       130 -10.2900    232.0159    116.5109   7.1582408630e+01   1.0941593517e+01    0.2211336    0.1785844 -22.38 0.0007208305    1.163    0.141
       131 -10.2414    249.8240    117.7823   6.9116957955e+01   7.1704354036e+00    0.2594758    0.2187816  -0.18 0.0006761626    1.089    0.082
       132 -11.9586    247.9036    142.3948   7.4854414282e+01   4.2579652065e+00    0.5757535    0.4099446  -6.72  0.003278285    1.356    0.262
       133 -11.9521    247.7312    113.1887   6.8371625997e+01   8.2073856606e+00     0.600832     0.390945  41.17  0.003052543    1.583    0.368
       134 -12.5235    248.2212    134.1775   7.3028132498e+01   5.2803923281e+00     1.072468    0.5277961 -20.13  0.004821626    2.164    0.538
       135  -9.0741    235.9834    145.9997   7.7543136101e+01   5.9964358497e+00    0.2081049    0.1426871  11.27 0.0004591303    1.558    0.358
       136  -9.2807    161.6848     79.6924   7.5042096001e+01   3.3291564677e+01    0.1586385    0.1206453  16.82 0.0004185681    1.628    0.386
       137  -8.7136    133.2415    140.9763   9.6932112993e+01   2.7587633393e+01    0.1844901    0.1204873 -50.89 0.0008847748    1.613    0.380
       138 -10.8303    197.8889    245.7925   1.0110324863e+02   1.5008450035e-01    0.1793702    0.1178807  26.54  0.001008405    1.282    0.220
       139 -11.6164    135.9511    241.5775   1.1103222153e+02   1.0008065297e+01     0.226122    0.1759415  27.48  0.001424536    1.431    0.301
       140 -12.3168    151.3969    247.5182   1.0903924255e+02   6.9284497851e+00    0.5204511    0.2513012  42.94  0.003141634    1.515    0.340
