#   1 NUMBER                 Running object number                                     
#   2 MAG_AUTO               Kron-like elliptical aperture magnitude                    [mag]
#   3 X_IMAGE                Object position along x                                    [pixel]
#   4 Y_IMAGE                Object position along y                                    [pixel]
#   5 X_WORLD                Barycenter position along world x axis                     [deg]
#   6 Y_WORLD                Barycenter position along world y axis                     [deg]
#   7 A_WORLD                Profile RMS along major axis (world units)                 [deg]
#   8 B_WORLD                Profile RMS along minor axis (world units)                 [deg]
#   9 THETA_WORLD            Position angle (CCW/world-x)                               [deg]
#  10 FWHM_WORLD             FWHM assuming a gaussian core                              [deg]
#  11 ELONGATION             A_IMAGE/B_IMAGE                                           
#  12 ELLIPTICITY            1 - B_IMAGE/A_IMAGE                                       
         1 -12.0155    176.8896     50.0834   5.9005463424e+01   3.4129126839e+01     1.604763     0.915071  21.32   0.00471428    2.629    0.620
         2 -12.6511    190.9878     37.2015   5.2568984677e+01   3.2151550022e+01     1.222018    0.8918203   2.17  0.004453986    1.517    0.341
         3 -12.3894    196.2818     30.9070   4.9797325280e+01   3.1509685127e+01     1.009035    0.7719221  -5.25  0.001711225    1.351    0.260
         4 -11.7581    220.0922      5.4898   3.9298592871e+01   2.7887801923e+01    0.8135805     0.547261   5.94  0.003836219    1.671    0.402
         5 -11.7114    213.7713      4.6353   3.9555214578e+01   2.9579156843e+01    0.9135004    0.4457347 -25.35  0.003920825    1.828    0.453
         6 -10.0283    184.5862    213.9486   9.3140386533e+01   9.5320930035e+00    0.1911054    0.1502251  49.98  0.001458792    1.372    0.271
         7 -10.5557    140.1846    248.9245   1.0390910902e+02   1.1994012070e+01    0.2522559    0.2136864 -50.43  0.002345021    1.722    0.419
         8 -19.5177     15.1803    144.7038   1.1911470360e+02   4.3503340076e+01     16.14785     2.484262 -80.44   0.05199642    6.378    0.843
         9  -7.7182    188.6818    175.3179   8.6846568530e+01   1.3324160587e+01    0.1101154   0.09141076  68.51 0.0003279649    1.658    0.397
        10  -9.6944    115.3260    174.4515   1.0041834192e+02   2.5540338873e+01    0.1856547    0.1098249 -59.01 0.0008061868    1.973    0.493
        11 -10.3639    103.7970    171.7759   1.0239751884e+02   2.7732526795e+01    0.3853688    0.2035505  56.96  0.002084464    1.837    0.455
        12  -8.4693     87.8250    202.8221   1.0864925712e+02   2.4901762242e+01    0.1528922    0.1280926  48.47 0.0009830762    1.215    0.177
        13  -9.8508     97.6024    200.6767   1.0667479376e+02   2.3932255082e+01    0.2774868     0.209908   7.95   0.00134065    2.321    0.569
        14  -7.8575    161.6759    166.3444   9.0243410778e+01   1.9169247731e+01    0.1209433   0.09302179  73.56 0.0007050454    1.737    0.424
        15 -10.0550     73.4672    163.9936   1.0782476279e+02   3.3381189657e+01    0.3293098    0.1812184  66.18  0.001716807    1.834    0.455
        16 -10.7418     95.6975    153.0643   1.0171102668e+02   3.2302662757e+01    0.4872015     0.379302 -24.85  0.002885871    2.056    0.514
        17  -7.9468    114.3116    152.3465   9.7563358632e+01   2.9516233442e+01    0.1182808   0.09941297  -1.61 0.0007045946    1.710    0.415
        18 -10.1228    133.9035    145.6030   9.2290470112e+01   2.7376335122e+01    0.8060159    0.2354074 -54.59  0.002640363    4.893    0.796
        19  -8.8581    144.4770    147.9641   9.0503892813e+01   2.5081727587e+01    0.1724587    0.1126581 -76.20 0.0008099116    2.549    0.608
        20  -9.7438    114.0057    143.6946   9.6277979427e+01   3.1152157223e+01    0.3195851    0.1797568  72.39  0.001357705    2.922    0.658
        21 -10.7703    107.6258    138.5733   9.6878586221e+01   3.3179926299e+01    0.3903601    0.3159787  -7.55  0.002225321    1.899    0.473
        22 -10.7667     95.5663    138.6595   9.9671918976e+01   3.5095772830e+01    0.2566021    0.2299961  48.06  0.001678727    1.171    0.146
        23 -10.2407    113.6468    207.9984   1.0449077738e+02   2.0648015614e+01    0.2631716    0.1581491  59.44  0.001308566    1.573    0.364
        24 -10.0342    194.2575    197.0061   8.9253542842e+01   9.8875764839e+00    0.3935499    0.2238605 -57.31  0.001926054    4.188    0.761
        25  -9.8170    105.8870    130.9949   9.6004523075e+01   3.4945201467e+01    0.3299525    0.2803324 -83.95  0.001361281    1.184    0.155
        26 -10.3358    114.6140    129.9203   9.3773124742e+01   3.3665229215e+01    0.2925754    0.2319551 -43.70 0.0008941275    1.436    0.304
        27  -9.3210    135.5771    128.2625   8.8706849571e+01   3.0163356217e+01    0.2498806    0.1317912 -51.48  0.001141536    2.084    0.520
        28  -9.2729    109.8057    197.4231   1.0411580387e+02   2.2733705039e+01    0.2245382    0.1310772  30.36  0.001329959    1.953    0.488
        29  -9.4626    102.3532    125.5983   9.5897626199e+01   3.6612425970e+01    0.2383363    0.2179953 -17.75 0.0004997093    1.414    0.293
        30  -9.9505    119.8604    123.6405   9.1362002873e+01   3.3948473438e+01    0.2575132    0.1856524 -26.06  0.001302038    1.964    0.491
        31  -9.1451     67.7908    124.6062   1.0436270603e+02   4.2025442120e+01    0.1846851    0.1006088  50.08 0.0009542402    1.732    0.423
        32  -9.5099    114.2735    194.7155   1.0300400182e+02   2.2501509202e+01    0.2427933     0.168649 -20.46  0.001238066    2.947    0.661
        33  -8.7063    110.0360    118.9114   9.2775664528e+01   3.6643343493e+01     0.199629    0.1869625  81.34 0.0004536831    1.027    0.026
        34  -8.6147    151.5343    196.4926   9.6462864528e+01   1.6639072888e+01    0.1144663   0.09013887  42.21 0.0008096407    1.005    0.005
        35  -8.8885    167.6720    112.5266   7.8452931485e+01   2.6447455888e+01    0.2794537     0.215938 -71.63  0.001324317    1.783    0.439
        36 -10.2576     60.6117    112.7401   1.0451307628e+02   4.5545903495e+01    0.2457185    0.2161657 -87.49   0.00150933    1.070    0.066
        37 -10.3912    118.9777    111.0497   8.8965793289e+01   3.6587000520e+01    0.3286541    0.2216493  59.23  0.001004057    1.567    0.362
        38  -8.7687    205.8366    109.9299   7.0749386255e+01   1.8732007098e+01    0.2214905    0.1719136  15.52 0.0007403633    1.288    0.224
        39  -9.0565     66.1917    104.1903   1.0156602345e+02   4.6711533044e+01    0.1876691    0.1393899  75.47 0.0009421369    1.342    0.255
        40  -8.8300     81.9696    195.1462   1.0907068464e+02   2.6869113111e+01    0.2096827    0.1567608  57.61  0.001566067    1.019    0.019
        41 -11.9456     68.0375    187.2477   1.1105817715e+02   2.9933466637e+01    0.7609379    0.5192067  49.06  0.005444626    1.195    0.163
        42  -7.4641     78.2710    193.3162   1.0960907729e+02   2.7640540478e+01   0.08833914   0.08465847   6.94 0.0002627825    1.558    0.358
        43 -10.6422    107.8654    203.1707   1.0504932858e+02   2.2150313914e+01    0.3843165    0.1756166  51.07  0.002148487    1.804    0.446
        44  -8.3676     68.9205     71.7256   9.3757882851e+01   5.3676143990e+01    0.1800426    0.1674014  81.58 0.0003410622    1.104    0.095
        45  -9.8998    161.1414     62.5896   6.6006434835e+01   3.6240802471e+01    0.3684615    0.2802708 -79.21 0.0007910955    1.733    0.423
        46  -9.5750    162.5752     55.6783   6.3478969595e+01   3.6969215742e+01    0.2761621      0.24868 -49.75 0.0003105126    1.150    0.131
        47 -10.5940    125.3054    246.5089   1.0600436208e+02   1.4187960483e+01    0.3529008    0.1598902 -52.77  0.002400456    3.144    0.682
        48  -9.7066    115.3946    183.7599   1.0154875246e+02   2.4027980504e+01    0.1426169    0.1082538 -46.15 0.0009555778    1.704    0.413
        49 -10.0601     71.5741    230.0518   1.1343212340e+02   2.2918425681e+01    0.3137074    0.2048834 -88.24  0.001229706    1.693    0.409
        50  -8.4089    147.6945    183.7040   9.5453865012e+01   1.9004294377e+01     0.112277   0.08385241  19.32 0.0007000386    1.584    0.369
        51  -9.0951     99.5081    180.6859   1.0428536782e+02   2.6853221912e+01     0.201151     0.144889  51.21 0.0005464235    1.123    0.109
        52  -9.4756     96.7582    192.0671   1.0600410857e+02   2.5387953858e+01    0.1951719    0.1829698 -19.85 0.0007857189    1.563    0.360
        53  -8.6228    204.4127    175.7880   8.4265678307e+01   1.0625612435e+01    0.1558336    0.1045956 -10.20 0.0009501213    1.699    0.411
        54 -11.1032    171.2194    219.5570   9.5988932992e+01   1.0891807332e+01    0.4586092    0.2468105  16.43  0.002334366    3.386    0.705
