#   1 NUMBER                 Running object number                                     
#   2 MAG_AUTO               Kron-like elliptical aperture magnitude                    [mag]
#   3 X_IMAGE                Object position along x                                    [pixel]
#   4 Y_IMAGE                Object position along y                                    [pixel]
#   5 X_WORLD                Barycenter position along world x axis                     [deg]
#   6 Y_WORLD                Barycenter position along world y axis                     [deg]
#   7 A_WORLD                Profile RMS along major axis (world units)                 [deg]
#   8 B_WORLD                Profile RMS along minor axis (world units)                 [deg]
#   9 THETA_WORLD            Position angle (CCW/world-x)                               [deg]
#  10 FWHM_WORLD             FWHM assuming a gaussian core                              [deg]
#  11 ELONGATION             A_IMAGE/B_IMAGE                                           
#  12 ELLIPTICITY            1 - B_IMAGE/A_IMAGE                                       
         1  -4.7516     24.5997     39.0747   8.3386925151e+01   6.6911447684e+01     1.438477    0.8833736  73.42  0.005756037    4.522    0.779
         2 -12.8021     42.7570     45.4819   7.7446046124e+01   6.3537819853e+01    0.9539259     0.735178  60.69 0.0009036983    1.816    0.449
         3 -12.2040    119.4482     57.3738   5.5972633876e+01   4.7066275974e+01     1.663571     1.084627 -85.89  0.006484316    2.777    0.640
         4 -12.4161    117.5186     44.5223   5.1877356514e+01   4.9606393079e+01    0.7515057    0.6827411  15.93  0.003340053    1.142    0.124
         5 -11.2258    105.8985     20.5616   4.5324925562e+01   5.5611940175e+01    0.5649038    0.4254181 -56.38  0.002576059    1.589    0.371
         6 -12.5433    113.8949     25.2229   4.5351187253e+01   5.3155469203e+01     1.152262    0.3490279  47.22  0.002148204    3.238    0.691
         7 -11.3795    157.6730     43.0167   4.2986569586e+01   3.9981335647e+01     1.016615    0.7778802  70.67  0.004313496    1.335    0.251
         8 -12.2044    163.7406     27.8111   3.7109786885e+01   4.0400622356e+01    0.5335873     0.487435   5.90 0.0006681206    1.221    0.181
         9 -12.5373    119.7623     37.8709   4.8871216302e+01   5.0063660545e+01    0.9338331    0.5993367 -64.19  0.002675819    2.204    0.546
        10 -12.4523    125.2032     27.7955   4.3876117771e+01   5.0097099178e+01    0.9742727    0.5849361  49.29  0.001711233    1.608    0.378
        11 -11.3750    153.1371     25.3877   3.7931135310e+01   4.3379849898e+01    0.7669619    0.5495756  57.24  0.003945906    1.349    0.259
        12 -11.8174    136.1905     22.6993   3.9853510867e+01   4.7978804321e+01     1.521816      1.12616 -86.73  0.007746553    1.556    0.357
        13 -10.9415    139.4996     30.0294   4.1874443742e+01   4.6267572792e+01    0.7151455    0.3199609 -13.85  0.001546562    3.397    0.706
        14 -12.1208    134.1839     15.2932   3.7495573077e+01   4.9293738054e+01      1.88454    0.7735069  78.93  0.006391391    3.496    0.714
        15 -11.3483    182.8155     25.8170   3.3927339550e+01   3.5825488122e+01    0.5557618    0.4535562  20.03   0.00305526    1.493    0.330
        16 -10.8320     59.7970     23.7671   6.1074603962e+01   6.4760677839e+01    0.3659982    0.2143017 -27.44 0.0004799169    1.677    0.404
        17 -11.7632     27.3585     27.8070   7.7568554373e+01   6.8792681097e+01     0.545137    0.4324992 -28.71  0.001842828    1.076    0.071
        18 -10.3637     47.2286     19.1737   6.4034298235e+01   6.7551054456e+01    0.3282731    0.2216618 -26.99  0.001169469    1.366    0.268
        19 -12.0158     36.2383     17.5999   6.8325230881e+01   6.9429004211e+01    0.8237092    0.4423641 -34.74  0.004387127    1.679    0.405
        20 -12.0065     20.1948     22.0794   7.8789037199e+01   7.0613071865e+01     0.707516    0.2404671 -47.19  0.002546318    2.442    0.591
        21 -12.9071     16.8750     13.1289   7.6359404154e+01   7.2526724360e+01    0.7538919    0.4979043 -28.95  0.002910934    1.304    0.233
        22 -12.1378     23.2913     11.2295   7.1716519592e+01   7.2119547338e+01    0.5112816    0.3850748  -9.30  0.003383409    1.229    0.186
        23 -11.9088     48.7535     12.9399   6.0145573991e+01   6.8208726524e+01    0.5934551    0.3268439  45.15  0.002377427    1.920    0.479
        24 -11.2154     75.7753      4.7549   4.6088297356e+01   6.4055881330e+01    0.8886372    0.5063294  70.39  0.004206283    2.340    0.573
        25 -11.0704     90.6070     20.7045   4.9359665354e+01   5.9063020103e+01    0.6717089    0.3407144 -31.40  0.002696883    1.947    0.486
        26 -11.5449     85.8310     14.3984   4.7845552094e+01   6.0863846932e+01    0.6886123    0.3434309 -16.04  0.002505769    2.335    0.572
        27 -10.2125     88.8477      7.3196   4.3717521432e+01   6.0962614039e+01    0.3171765    0.2293643  19.54 0.0009916184    1.436    0.304
        28  -9.6563     84.4951      8.5291   4.5452786350e+01   6.1799761922e+01    0.2344125    0.1916882  14.45 0.0005970314    1.191    0.160
        29 -10.9530    178.7832     21.0245   3.2987194586e+01   3.7373441430e+01    0.5537962    0.2641305  43.63  0.001966621    2.556    0.609
        30 -10.5502    147.9054     16.6195   3.5754074564e+01   4.5682069382e+01    0.6015784    0.3066317  35.03  0.002430686    2.558    0.609
        31 -11.9036     68.2470     18.0947   5.5194152706e+01   6.4012196563e+01    0.5189432    0.4691037  48.07  0.001504107    1.238    0.192
        32 -11.9881    237.3816     15.9725   2.6116697430e+01   2.4090327056e+01    0.5418575      0.35742  63.24  0.003133915    1.661    0.398
        33 -11.3948    165.4623     17.6031   3.3602882756e+01   4.1108940784e+01    0.5267301     0.294163  41.36  0.001721062    2.085    0.520
        34 -10.0951    186.8043     15.3035   3.0384526387e+01   3.5982736615e+01    0.5041034    0.2716661 -83.09  0.001581269    2.194    0.544
        35 -10.5289    183.8302      5.5068   2.7834007218e+01   3.7686926995e+01    0.4550615    0.2572486 -37.84  0.001709607    1.674    0.402
        36 -11.5888    191.8118      8.5638   2.7953563110e+01   3.5425449167e+01     1.054892     0.619304 -15.91  0.005071994    1.971    0.493
        37  -9.8329    188.0219      3.5055   2.6865596639e+01   3.6835529216e+01    0.4046241    0.1844381 -65.36  0.001628725    2.596    0.615
        38 -11.5895    227.8349     15.5339   2.6726106262e+01   2.6238599459e+01    0.4707523     0.306957 -74.46  0.001361162    1.532    0.347
        39 -12.2184    104.8670     12.8076   4.2292611209e+01   5.6722328520e+01     0.535539    0.3603102 -23.76  0.001404149    1.525    0.344
        40 -11.5070    211.5183     10.2543   2.6687062632e+01   3.0524973155e+01    0.5532693    0.3504568   8.25   0.00268082    2.435    0.589
        41  -9.9996      5.4626     12.4870   8.2938497997e+01   7.3693871231e+01    0.2827495    0.1925458  19.40  0.001884313    1.628    0.386
        42  -9.4208      5.4284      9.4574   8.1486174190e+01   7.4232531009e+01    0.1806227    0.1359943 -28.15 0.0008362946    1.070    0.065
        43  -9.5712     98.3460     11.5429   4.3268554250e+01   5.8374850286e+01    0.2687446    0.2042871  20.77  0.001482856    1.367    0.269
        44 -10.1943    163.2481      7.9425   3.0786083023e+01   4.2636426516e+01    0.5744993    0.2565957 -11.60  0.002251054    2.969    0.663
        45 -10.1285     66.0795     10.4389   5.2117222784e+01   6.5397683531e+01    0.2825449    0.1984541  50.71  0.001606195    1.467    0.318
        46 -11.5160    247.1011      6.4478   2.3265675365e+01   2.3002179856e+01    0.5611652    0.3549624  17.43  0.002858714    2.804    0.643
        47 -10.4950    232.5391      7.4376   2.4421763752e+01   2.6026557250e+01    0.2983902    0.2365805 -56.79  0.001256028    1.069    0.065
        48  -9.9234    233.3493      2.7128   2.3244849544e+01   2.6313152060e+01    0.2590229    0.1264734 -64.26  0.001209148    2.024    0.506
        49 -10.7301    237.8020      5.6079   2.3645424216e+01   2.5061413625e+01    0.3111008    0.1828049 -73.61  0.001532644    1.678    0.404
        50 -10.7917    241.6824      3.5740   2.2935281450e+01   2.4429523347e+01    0.3809139    0.1753447  71.27  0.001748865    2.214    0.548
        51  -9.7837    168.6926      9.9180   3.0771865693e+01   4.1067531639e+01    0.3270536    0.1566492  54.60  0.001438191    2.030    0.508
        52  -9.2508    145.2516      9.7604   3.3760139699e+01   4.7043734352e+01    0.1894937    0.1482816  35.17 0.0007051425    1.375    0.273
        53  -9.5619      1.1202      7.4779   8.3312203897e+01   7.4920480059e+01    0.2929082   0.05093425 -52.76 0.0009775679    4.477    0.777
        54 -11.1697      2.6931      1.9891   7.9330686194e+01   7.5729735158e+01    0.3226196    0.1847173   4.80  0.001946345    1.986    0.497
        55  -9.3192    157.9601      6.9206   3.1095663816e+01   4.4075570986e+01    0.2022909    0.1717728  41.47 0.0004179172    1.253    0.202
        56 -10.1395    157.1267      2.1327   2.9619458047e+01   4.4713384792e+01    0.3361613    0.2754663 -57.26  0.001265495    1.225    0.184
        57  -9.6370     62.8179      6.7611   5.1334206667e+01   6.6456074293e+01    0.2224309    0.1610966  -1.14  0.001288672    1.380    0.275
        58 -10.8759    176.8896      5.8236   2.8617567071e+01   3.9389280194e+01    0.3754286    0.2123395  87.84 0.0009999099    1.834    0.455
        59 -10.2211     41.4774      4.0340   5.8381583185e+01   7.0573325705e+01    0.3851152    0.2149579  -6.11   0.00188872    2.306    0.566
        60 -10.4213    218.7270      3.2942   2.4358547621e+01   2.9535790154e+01    0.3113182    0.2329239 -21.92  0.001228777    1.444    0.308
        61 -11.2472    224.7968      2.4099   2.3724117810e+01   2.8241470754e+01    0.5026399    0.2564935  89.24  0.001237765    2.020    0.505
        62 -11.5804    134.6037      3.0163   3.2890957888e+01   5.0348587907e+01    0.5685855      0.33414  80.68  0.002406007    1.776    0.437
        63 -10.0206    142.8872      3.5998   3.1922968180e+01   4.8204057093e+01    0.3504203    0.2142329  69.52  0.001347619    1.518    0.341
        64 -10.7754    106.6935      2.1000   3.7310261980e+01   5.7307268913e+01    0.9256948    0.2804591  67.71  0.003223041    3.375    0.704
        65 -11.0329    205.5434      2.3554   2.5087765362e+01   3.2701260805e+01      0.46112    0.2565431 -85.41  0.001204919    1.842    0.457
        66  -9.1673     33.6414      1.6570   6.0688444741e+01   7.2097647817e+01    0.1819709    0.1193293   2.86  0.001005559    1.617    0.382
        67 -10.0376     13.2250      1.8887   7.2332981613e+01   7.4724613487e+01    0.3103161    0.1591261  24.80  0.001762866    2.103    0.525
        68  -9.2221    152.2998      1.3530   2.9933932227e+01   4.6005706484e+01    0.1877841    0.1194453  85.19 0.0005168935    1.579    0.367
        69 -10.2753    116.7682      2.4334   3.5557445588e+01   5.4837687452e+01    0.2389791    0.2297582  45.74  0.001015104    1.038    0.037
        70 -10.4722     82.1803      1.3170   4.2572329678e+01   6.3009271766e+01    0.2023605    0.1096112  57.01 0.0003212219    1.729    0.422
        71 -10.3167     49.7355    145.9976   9.7516449276e+01   3.9667249617e+01    0.2674876    0.1942649 -72.84            0    1.254    0.203
        72  -9.0645    216.7809    249.9756   7.7657854334e+01  -3.2431303226e+00    0.1210674   0.08026778 -24.68 0.0006729656    1.661    0.398
        73  -9.9499    239.6323    146.8353   5.6186005304e+01   6.1530441661e+00     0.204099    0.1598529  19.90 0.0007562864    1.271    0.213
        74 -10.6838    249.6712    141.6876   5.3632228393e+01   5.1789628429e+00    0.4370217    0.2208681 -22.60  0.002142285    1.954    0.488
        75 -11.0022     33.3812    144.4345   1.0161894049e+02   4.1852639722e+01    0.4062665    0.2483532  52.60  0.001700721    1.588    0.370
        76  -9.0544    233.9492    143.4477   5.6356909817e+01   7.6084152353e+00    0.1539352    0.1178829  82.84 0.0008046901    2.328    0.570
        77  -9.2273     59.0265    142.6537   9.4595997351e+01   3.9282497289e+01    0.1764432     0.155323  62.60 0.0005050757    1.110    0.099
        78  -8.5633    104.6984    142.2938   8.2621208945e+01   3.2394418108e+01    0.1425038    0.1065081  76.14 0.0003334231    1.572    0.364
        79  -9.2691    132.4238    140.2299   7.5440317481e+01   2.7743491387e+01    0.2062845    0.1372113 -60.99 0.0009543409    1.713    0.416
        80  -9.7530     32.5724    137.7059   1.0105758083e+02   4.3499835772e+01    0.3140891    0.2024005  50.77  0.001311633    1.535    0.348
        81 -11.6452     23.0255    135.9587   1.0344652268e+02   4.4828364872e+01    0.5893839    0.5026153 -82.67  0.003984464    1.078    0.072
        82 -11.5152     30.0057    132.9450   1.0119072567e+02   4.4871987809e+01    0.4620992    0.3017889 -80.76 0.0004746507    1.347    0.257
        83  -9.0424     53.7461    139.6142   9.5571104326e+01   4.0661359591e+01    0.1921025    0.1093531  46.65 0.0009590859    1.743    0.426
        84  -9.8113     80.3141    137.0604   8.7992009497e+01   3.7567929798e+01    0.3786787    0.2610759 -29.90  0.001815151    2.077    0.519
        85  -9.7583     47.4853    134.9962   9.6620718560e+01   4.2501947897e+01    0.3868311    0.1676442 -64.90  0.001736889    2.051    0.512
        86  -9.4669     44.2911    133.6811   9.7320339913e+01   4.3181829789e+01    0.2017305    0.1592634  78.32 0.0004437442    1.194    0.162
        87 -10.0661     40.1076    137.9464   9.9042197969e+01   4.2647757629e+01    0.3433643    0.1585524  49.06  0.001606344    2.196    0.545
        88  -9.8128     38.5720    133.3393   9.8863322965e+01   4.3896775759e+01    0.2325695    0.1934333  86.79 0.0006956946    1.060    0.057
        89  -8.2654     66.3070    138.3305   9.1978336397e+01   3.9312702065e+01     0.132955    0.1020745 -34.75  0.000396879    1.661    0.398
        90 -10.0360     61.4214    132.2538   9.2332024561e+01   4.1397430286e+01    0.3888863    0.2848392   0.85  0.001699436    2.102    0.524
        91  -9.2754    103.8383    130.8751   8.0560583556e+01   3.5076487731e+01    0.2011797    0.1940351 -15.48 0.0003492795    1.166    0.142
        92  -9.4411     93.0106    129.3428   8.3114320870e+01   3.7296283628e+01    0.2661389    0.1989146  87.09    0.0013295    1.582    0.368
        93 -10.7264      9.2142    128.5308   1.0647344888e+02   4.7710472419e+01    0.3737831    0.2752977 -66.47  0.002430914    1.255    0.203
        94  -9.6393     84.8069    123.3733   8.4148156499e+01   4.0019956927e+01    0.2608507    0.1836032  -2.18 0.0008156329    2.441    0.590
        95  -9.0909     77.4755    123.4430   8.6224372918e+01   4.1160164948e+01    0.2293429    0.1353973  39.73 -5.671729e-06    1.746    0.427
        96 -10.0120     78.9912    128.6940   8.6815179760e+01   3.9705260984e+01    0.2690663     0.181927 -45.94 0.0006148731    1.576    0.365
        97  -9.2871    241.0116    127.9972   5.1992642442e+01   8.5686608652e+00    0.2351236    0.1263221  25.84  0.000997767    2.629    0.620
        98 -10.3176    217.0633    138.5248   5.8029421881e+01   1.1391871214e+01    0.2500603    0.2335875  -6.04 0.0006784531    1.071    0.066
        99 -10.0792     22.9317    127.0180   1.0246840460e+02   4.6931933653e+01    0.1837463    0.1528556 -82.52 0.0003130278    1.029    0.028
       100  -9.5045     53.4306    125.2575   9.3449209594e+01   4.4083221314e+01    0.2830196       0.1216 -64.97  0.001205857    2.128    0.530
       101 -10.0999     49.6616    123.0766   9.4187741340e+01   4.5063984626e+01    0.3106672    0.2378451  36.03 0.0009114592    1.431    0.301
       102 -10.2295     48.7660    112.5329   9.2653538593e+01   4.7684135670e+01    0.4012009    0.2508791 -55.13  0.002086513    1.475    0.322
       103 -10.0965     45.0468    120.0410   9.5056674830e+01   4.6330585003e+01    0.2885769    0.2142765  61.21 0.0008757324    1.395    0.283
       104 -10.1456     43.5290    116.4958   9.4934792834e+01   4.7349538054e+01      0.28813    0.2454636  43.31  0.001141333    1.279    0.218
       105  -9.4717      1.9368    126.1487   1.0826837917e+02   4.8783552254e+01    0.1927225    0.1299418  74.90 0.0008072489    1.328    0.247
       106 -12.9185    103.9469    122.4063   7.8709467248e+01   3.6947630213e+01    0.3760686    0.3540404  13.76 0.0004314454    1.197    0.164
       107  -9.3479     19.1089    122.5387   1.0303969615e+02   4.8321471854e+01    0.2094321     0.141409 -87.67  0.001232319    1.303    0.233
       108  -9.6330     56.6825    122.0967   9.1968724513e+01   4.4420086298e+01    0.1931655    0.1619456 -67.20 0.0007405304    1.097    0.088
       109  -9.2367     71.3485    120.8817   8.7475633032e+01   4.2680957054e+01    0.1954948     0.165087 -62.46 0.0005579006    1.116    0.104
       110  -8.7626    221.4653    120.4862   5.3292195044e+01   1.3326293317e+01    0.1358643    0.1223156 -19.70 0.0001454136    1.011    0.011
       111  -8.9996     13.9421    118.9393   1.0413285739e+02   4.9591356870e+01    0.1463711    0.1143266 -80.37 0.0003237027    1.053    0.051
       112 -12.4731      2.7039    111.9034   1.0671480116e+02   5.2045257802e+01    0.5280036    0.2992632  67.06  0.001280478    1.814    0.449
       113 -11.1576      3.8393    104.9519   1.0562199198e+02   5.3600984909e+01    0.3886941    0.3308854  55.47  0.001994424    1.288    0.223
       114  -9.1086    113.6161    116.2158   7.4723444163e+01   3.6502129928e+01    0.2114436    0.1355714 -40.83 0.0004510375    1.635    0.389
       115  -8.9325    109.4645    116.5604   7.5900676389e+01   3.7221051452e+01    0.1441703    0.1409146 -74.78 1.307521e-05    1.021    0.021
       116  -9.4363     79.1866    114.4629   8.3882384461e+01   4.2985480661e+01    0.2741988    0.1894053 -56.68  0.001379923    1.365    0.268
       117  -9.2371     67.4695    114.8010   8.7411047674e+01   4.4676108046e+01      0.31374    0.2152635  74.58   0.00153236    1.794    0.443
       118  -9.9221     66.4560    110.8497   8.6908627189e+01   4.5752859241e+01    0.3407042    0.2069117  28.82  0.001621108    1.932    0.482
       119 -11.3947     49.7113     96.9321   8.9296749841e+01   5.1276458914e+01     1.679898    0.7084351 -51.44  0.007155142    2.133    0.531
       120 -10.3417     42.9564     94.7419   9.1103180134e+01   5.2595468167e+01    0.3391313    0.3166414 -67.54  0.001466387    1.067    0.063
       121 -11.9224      7.2612     89.0875   1.0246147819e+02   5.7107783128e+01    0.5398484    0.3953263  33.46  0.001610583    1.600    0.375
       122 -11.8702      9.4718     97.2287   1.0284677485e+02   5.5045359334e+01    0.5058237    0.4560064  35.21 0.0004794606    1.328    0.247
       123 -12.0682     34.9672     93.9042   9.3657855346e+01   5.3659016523e+01     1.124343    0.7616794 -37.47  0.005774758    1.651    0.394
       124 -11.7944     41.9725     85.7513   8.9497801416e+01   5.4819824781e+01    0.8530324    0.5532194  17.42  0.004447445    1.953    0.488
       125 -11.4736     27.3889     86.3256   9.4838785644e+01   5.6186122260e+01    0.8757467     0.455723  29.39   0.00390717    2.175    0.540
       126 -12.0751     17.1315    100.6685   1.0079903233e+02   5.3666021032e+01    0.3830462    0.3524772 -59.59  0.000575222    1.166    0.143
       127 -11.2903     22.8248     94.9147   9.7994889781e+01   5.4562550783e+01    0.3647033    0.2791362 -22.69  0.001283756    1.629    0.386
       128 -11.5741     18.2029     90.5192   9.8856795840e+01   5.5983992917e+01    0.4523037    0.2962616 -68.63   0.00125733    1.269    0.212
       129 -12.2860     24.8638    108.4462   9.9448753190e+01   5.1165117845e+01    0.9661149    0.7463467 -28.41  0.005869054    1.624    0.384
       130 -10.8838     22.0216    114.3055   1.0114804510e+02   5.0021315746e+01     0.790801    0.3135355  13.01  0.003027614    4.467    0.776
       131 -11.3631     28.1577    113.1763   9.9113773639e+01   4.9735371031e+01    0.4874133    0.2874137  15.13  0.002489666    2.300    0.565
       132  -8.9354     86.6865    114.2797   8.1672615081e+01   4.1807637072e+01    0.1432655    0.1085734  77.10 0.0002638074    1.569    0.363
       133  -8.8094    126.6643    113.6870   7.0765770584e+01   3.4448022013e+01    0.1508996    0.1198053  -0.08 0.0007045877    1.687    0.407
       134 -10.1221    108.1223    112.4547   7.5278295994e+01   3.8380398901e+01    0.4599503    0.2842204  48.08  0.002083751    1.664    0.399
       135 -10.8868    103.0675    108.9109   7.5792254623e+01   4.0118027976e+01    0.5824965    0.5030522  11.96   0.00263604    1.389    0.280
       136  -9.7557     94.0711    112.4116   7.9145128250e+01   4.0966885125e+01     0.291351    0.2106232 -63.82  0.001051816    1.411    0.292
       137 -10.4807    170.4751    110.5319   6.0044776558e+01   2.5673520688e+01    0.3908111    0.3031226 -27.21  0.001328602    1.332    0.249
       138 -11.7321     79.5625    108.1267   8.2367229096e+01   4.4395668602e+01    0.6532196    0.3435231  32.72 0.0004039767    2.176    0.541
       139 -10.9070     89.0669    104.8094   7.8772723890e+01   4.3567055456e+01    0.4203247    0.3222766  12.19 0.0003806691    1.747    0.427
       140 -10.2351     85.6656    103.7009   7.9506557422e+01   4.4403363243e+01    0.2459408    0.2123913 -41.01 0.0006792634    1.188    0.158
       141  -9.3140     59.8575    110.2624   8.8805852205e+01   4.6809862289e+01    0.2454427      0.13658  70.52   0.00096439    2.901    0.655
       142 -10.5810     15.9066    109.6634   1.0242063401e+02   5.1629253851e+01    0.3357257    0.1813525  55.52  0.001070626    2.038    0.509
       143 -10.0964    121.0853    108.9690   7.0996494386e+01   3.6583053704e+01    0.4236223    0.2731733  32.03  0.001463368    1.826    0.452
       144 -11.3126    141.9609    106.4030   6.5201925062e+01   3.2715955159e+01    0.5651278    0.2475967  39.47  0.002014007    2.624    0.619
       145 -11.2240    145.4686    100.3004   6.2768942421e+01   3.3150220831e+01    0.4627694    0.3372159 -25.51 0.0004222706    1.553    0.356
       146  -9.5873    181.3952    104.1652   5.6283171575e+01   2.4402416736e+01    0.2189502    0.1294117 -46.31 0.0009269411    1.723    0.420
       147  -9.9209     57.1319    102.8969   8.8145993765e+01   4.8917505027e+01    0.3242372    0.1882685 -61.00  0.001197661    1.563    0.360
       148 -10.3240     65.4742     98.5137   8.4504165196e+01   4.8787872275e+01    0.5236818    0.2026715 -46.71  0.001978455    2.590    0.614
       149 -11.1192     68.5944     95.4746   8.2779912410e+01   4.9031736529e+01    0.4458666    0.2647914  45.11  0.001482674    1.817    0.450
       150 -10.3648    210.1927     98.8154   4.9936077159e+01   1.9003128859e+01    0.5965392    0.3673494   3.65  0.002388676    2.828    0.646
       151  -9.2054    120.9662    101.2978   6.9028510407e+01   3.8227726579e+01     0.214645    0.1996556  47.46 0.0007840598    1.097    0.088
       152 -11.3786     89.6362     89.6170   7.4648514929e+01   4.6862471277e+01    0.6092172    0.3284301 -38.85  0.002086592    2.007    0.502
       153 -10.8589     79.9333     98.0440   7.9845786661e+01   4.6653140658e+01    0.5131996    0.3106245  56.00  0.002185029    1.997    0.499
       154 -11.1848     80.7041     92.9739   7.8307914871e+01   4.7674296401e+01     0.843817    0.3675515  42.58  0.003350414    2.415    0.586
       155  -9.5022     57.5302     97.4718   8.6836978063e+01   5.0142044649e+01    0.3395831    0.1671115 -45.24  0.001469025    2.079    0.519
       156  -8.5995     61.3102     97.6746   8.5652020332e+01   4.9576760458e+01    0.1408486    0.1039425  79.70 0.0004322181    1.657    0.396
       157  -9.3285    116.4672     94.3966   6.8329377345e+01   4.0604775828e+01    0.5042831    0.3112072 -10.15  0.001671384    3.745    0.733
       158 -11.3974    124.9489     94.0115   6.6007786853e+01   3.8894673788e+01    0.6192933    0.4302353  55.78  0.001442091    1.537    0.350
       159 -10.7171    121.0060     88.9939   6.5598161387e+01   4.0759130924e+01    0.6979635    0.3066168 -46.04  0.002601819    2.249    0.555
       160 -10.6575    152.8534     91.9764   5.8829926849e+01   3.3072343333e+01    0.4206001    0.3152273  32.74  0.002006742    1.506    0.336
       161 -10.8973     98.6290     91.0689   7.2375686093e+01   4.4872778868e+01    0.2903711    0.2728035  30.93 0.0004553647    1.129    0.114
       162 -10.5120    183.5584     85.9947   5.1101530208e+01   2.7017543467e+01    0.6935957     0.262178 -42.58  0.002469213    2.565    0.610
       163 -10.0381     66.4496     88.7626   8.1800327300e+01   5.0895253240e+01     0.321843    0.2416527  -0.19  0.001180561    1.838    0.456
       164 -10.7262    104.4396     87.4175   6.9662365431e+01   4.4516747302e+01    0.3513026     0.273985 -14.18  0.001701347    1.627    0.385
       165 -11.6004    112.2652     82.9768   6.6165190528e+01   4.3832954273e+01     0.741546    0.4690912  63.29  0.003170611    2.014    0.503
       166 -11.7398     76.6183     80.1911   7.6087143071e+01   5.1199614868e+01    0.9716713    0.6813751  85.47  0.002742121    2.238    0.553
       167 -10.1208    165.6050     83.7686   5.3864240583e+01   3.1590172314e+01    0.3577804    0.2608346 -55.43  0.001160617    1.488    0.328
       168 -10.7665    142.6420     84.5818   5.9004847927e+01   3.6799786316e+01    0.5808118    0.2850568  44.47  0.001112126    2.139    0.533
       169 -10.3772     67.0992     82.1232   7.9814575615e+01   5.2299048631e+01    0.3868255    0.3142144 -42.65  0.002151582    1.178    0.151
       170  -9.8964     60.5192     83.3885   8.2406218207e+01   5.2986369893e+01    0.2660941    0.2126803 -62.01 0.0005873338    1.185    0.156
       171  -9.4749     47.0124     75.1460   8.5054826653e+01   5.6659296528e+01    0.3862455    0.1703904 -46.83  0.001007301    2.077    0.519
       172 -11.6337     53.2616     76.2016   8.3044671486e+01   5.5614731992e+01    0.6355452    0.4096239 -59.79  0.003006808    1.461    0.316
       173 -10.8794     58.3614     77.6627   8.1615078368e+01   5.4584926347e+01    0.3345562    0.2530307 -50.46 0.0008241562    1.195    0.163
       174  -9.2058    127.7849     83.3773   6.2214014462e+01   4.0394648230e+01    0.2121411    0.1403357  40.16 0.0008165571    1.613    0.380
       175  -9.6608    103.4366     79.9974   6.7745804272e+01   4.6260027604e+01    0.3045902    0.2000984 -39.53 0.0008578465    1.505    0.336
       176 -10.5405    103.7082     74.9540   6.6102506680e+01   4.7226168762e+01    0.3986639     0.333734 -80.37  0.002049565    1.438    0.305
       177 -11.6802      2.0980     71.5518   1.0164156647e+02   6.1490903023e+01    0.8302401    0.1726323 -69.23  0.003002578    3.553    0.719
       178 -12.8403      4.5047     62.0789   9.8921753560e+01   6.3511210886e+01    0.4456465    0.3006476 -52.82 0.0009882638    1.228    0.186
       179 -11.8814     10.2966     62.4267   9.6549623902e+01   6.3066754001e+01    0.4591602    0.2707678 -48.32  0.001374695    1.453    0.312
       180 -11.6994     13.7957     74.0053   9.7512804748e+01   6.0177753627e+01    0.5943403    0.3397633 -80.49  0.002926176    1.776    0.437
       181  -9.9165     14.7644     67.5752   9.5813094508e+01   6.1582283210e+01    0.4005355    0.2199488  17.91  0.002155988    2.220    0.550
       182 -10.0485    233.2524     77.5087   4.1442733703e+01   1.7306203933e+01    0.2700618    0.2316362 -39.17  0.001078164    1.039    0.037
       183 -10.2891     93.8468     74.5238   6.8893223141e+01   4.9282029621e+01    0.6639425    0.5202198 -56.16  0.003052042    1.316    0.240
       184 -11.7103     85.4576     73.0628   7.1054369287e+01   5.1167215401e+01    0.6270329      0.52706  55.16  0.002410104    1.306    0.234
       185 -11.7117     91.7758     62.8868   6.5701940019e+01   5.2004630958e+01     1.174521    0.4403959  48.92  0.004062882    2.897    0.655
       186 -10.9501     87.8665     55.9492   6.4488724819e+01   5.4089404308e+01     1.219659    0.6312406 -40.89  0.005289752    1.856    0.461
       187 -10.8984     91.5984     57.2246   6.3771608657e+01   5.3112292506e+01    0.5389563    0.3685192 -24.54  0.002576604    1.636    0.389
       188 -11.5874     79.2793     68.1246   7.1489264016e+01   5.3304229654e+01    0.8408862    0.5631984 -83.15  0.003476771    2.750    0.636
       189 -12.7304     74.7478     53.7432   6.8065118277e+01   5.6966480997e+01    0.8692512    0.6725878 -38.00  0.001354923    1.216    0.177
       190 -10.9497     72.5876     47.2214   6.6368516741e+01   5.8570268100e+01     0.375798    0.2516499 -47.42  0.001813976    1.508    0.337
       191 -12.1107    186.4182     70.8830   4.6458171377e+01   2.8781508684e+01    0.9784845    0.6553089 -34.44  0.004710787    1.424    0.298
       192  -9.7022    184.4588     61.0094   4.3988062602e+01   3.0754546438e+01    0.2762909    0.2340841 -29.43  0.001320429    1.172    0.146
       193  -9.2889    134.7655     77.5652   5.8752653755e+01   3.9921041343e+01    0.2145318    0.1468047  66.48 0.0009475037    1.722    0.419
       194 -10.0882    126.9394     76.9893   6.0488091154e+01   4.1810965964e+01    0.2233471    0.2213817 -41.83 0.0003094645    1.010    0.010
       195  -8.8664     24.5937     73.9446   9.3300400282e+01   5.9321301063e+01    0.4747345    0.2465208 -68.95  0.002351829    1.785    0.440
       196 -11.6920     40.9007     71.4494   8.6378806445e+01   5.8226315054e+01    0.5055265    0.3066389 -65.06  0.001566002    1.614    0.380
       197 -11.5391     35.0713     71.9415   8.8756121962e+01   5.8760084361e+01    0.7406641    0.2557816  30.53  0.003028603    3.168    0.684
       198  -9.1109    197.6354     74.7065   4.5707819151e+01   2.5560670354e+01    0.1473309    0.1095765  22.76 0.0003287681    1.711    0.415
       199 -10.2465    153.9411     72.5573   5.2959955388e+01   3.6301937388e+01    0.3634239    0.2315103  38.25  0.001361316    1.792    0.442
       200  -9.4632    122.2978     72.6536   6.0306842159e+01   4.3671867133e+01    0.2345498    0.2081741  61.51 0.0005409426    1.178    0.151
       201 -11.5826    123.1088     68.7291   5.8841043957e+01   4.4216638153e+01    0.5075758    0.4179589  45.29  0.001467909    1.236    0.191
       202  -9.3569    161.9937     70.9787   5.0868031161e+01   3.4631513343e+01    0.2411362    0.1793404 -72.14 0.0008911937    1.661    0.398
       203  -9.6464    171.9854     68.6981   4.8322439397e+01   3.2588433303e+01       0.3307    0.2469583 -42.93   0.00116622    1.298    0.229
       204 -10.2344    169.8979     63.4970   4.7166603432e+01   3.3918196047e+01     0.474357    0.3270286 -89.96  0.001935127    1.904    0.475
       205 -11.3206    219.9660     66.7932   4.0475892272e+01   2.1661584631e+01    0.5397365    0.3195848  64.75  0.002111595    1.869    0.465
       206  -9.6587    192.4496     65.7778   4.4079217507e+01   2.8128768059e+01    0.2716911    0.2099854 -71.33 0.0007660193    1.463    0.317
       207 -10.8031     59.2634     63.0723   7.6913124701e+01   5.7630724950e+01    0.4556911    0.3004486 -47.92  0.001596138    1.379    0.275
       208  -9.5589     64.9124     61.3909   7.4272892592e+01   5.7110515816e+01    0.4177437    0.1957789 -52.01  0.001626614    2.099    0.523
       209 -11.8711     21.1923     64.8398   9.2554026312e+01   6.1691912602e+01    0.2555793    0.2217702 -63.71 0.0005788316    1.073    0.068
       210  -9.6093    201.5151     64.5269   4.2389251786e+01   2.6180672584e+01    0.2588179    0.2019576  65.46 0.0006306854    1.358    0.264
       211  -9.6120    198.3173     62.6545   4.2343217883e+01   2.7202290326e+01    0.3202115    0.2008294 -46.45  0.001059618    1.541    0.351
       212  -9.9546    106.2267     63.8409   6.1740309409e+01   4.8847132117e+01    0.2940502    0.2858918 -26.02  0.001673001    1.002    0.002
       213 -10.8115    106.6404     58.7063   5.9854003961e+01   4.9697235215e+01     0.395189    0.2752387 -60.62  0.001173649    1.786    0.440
       214  -9.1904     52.3859     65.6966   8.0333444200e+01   5.8052284000e+01    0.2168236    0.1245477  32.02  0.001048871    1.942    0.485
       215 -11.0003     12.6114     48.0668   9.1977590834e+01   6.6074454603e+01    0.5825022     0.181767 -41.82  0.001951555    3.125    0.680
       216 -11.2526     20.8718     45.4729   8.7327898659e+01   6.5948958320e+01    0.5422987    0.3505343 -62.10  0.002213379    1.467    0.318
       217 -10.3315    142.9867    249.9677   9.0160898590e+01   6.8765663756e+00    0.1780058    0.1349181  38.99 0.0008864171    1.026    0.025
       218 -11.7369     26.0426     58.1086   8.8766025531e+01   6.2756484866e+01    0.8404413    0.6897082 -21.63  0.005382746    1.291    0.225
       219 -11.5459     26.0868     47.8535   8.5676881564e+01   6.4957332453e+01    0.2689076    0.1750083 -45.98 0.0003166122    1.295    0.228
       220  -9.7777    175.0217    247.1193   8.4230029147e+01   2.7410502554e+00    0.1804348    0.1586445   2.65  0.001420628    1.234    0.189
       221 -11.8104     60.8341     48.0244   7.1029784351e+01   6.0416391529e+01     1.087437    0.5731587 -52.28  0.004932463    2.027    0.507
       222 -10.2329     55.2958     50.9636   7.4282974847e+01   6.0699685494e+01    0.1997404     0.163561 -19.84 0.0005671864    1.235    0.191
       223 -11.1773     51.8672     48.4230   7.4724737533e+01   6.1704869970e+01    0.5042409    0.4000519 -10.91  0.002924891    1.367    0.268
       224 -11.1604     40.6072     56.9519   8.2282584908e+01   6.1442993923e+01    0.4549407    0.2770473  36.67  0.001103022    1.845    0.458
       225 -12.5378     44.3552     61.2701   8.2107822349e+01   6.0058206657e+01    0.7292102    0.4192046 -27.06  0.001328454    2.285    0.562
       226 -11.1399     52.0284     61.8044   7.9256331370e+01   5.8936422772e+01    0.3376805    0.2433579  45.98  0.001844956    1.605    0.377
       227 -11.5440    233.7809     61.1590   3.7404988719e+01   1.9434583519e+01    0.6837712    0.3730631  57.83  0.003371299    2.003    0.501
       228 -10.1030    159.1372     62.4730   4.8851663730e+01   3.6712561246e+01    0.5606875    0.2183813  47.48  0.001967831    2.707    0.631
       229 -11.8174    127.9193    241.7769   9.1965064430e+01   1.0156653991e+01    0.4254496    0.3332001  29.26  0.003047626    1.235    0.190
       230 -10.6303    108.9554     42.9959   5.3492264343e+01   5.1819077335e+01    0.5934501    0.4447275 -19.64   0.00291951    1.421    0.296
       231 -11.0827    113.9579     37.9641   5.0302497379e+01   5.1421694231e+01    0.3507034    0.3370849 -45.93 0.0003539286    1.084    0.077
       232  -9.2628    163.3795    243.6346   8.5821620400e+01   4.8306967529e+00    0.1612849    0.1186743  55.80 0.0009206529    1.594    0.373
       233  -9.9575     67.9725    240.4821   1.0281273531e+02   1.8398165039e+01    0.1675085   0.08722076  40.00 0.0009905332    1.571    0.363
       234 -11.9525    106.6807     32.2070   4.9886807949e+01   5.3928976475e+01    0.6558832    0.3923283  25.70  0.002819661    2.219    0.549
       235  -8.8078    221.4956    239.5111   7.5430875308e+01  -2.7546973361e+00    0.1094679   0.08271071  17.17 0.0008105411    1.013    0.013
       236 -10.9940    136.0683     57.5440   5.2064426210e+01   4.3124218085e+01    0.7519163    0.4555843   7.60  0.002633793    3.326    0.699
       237 -11.0368    145.8873     47.9232   4.6789894255e+01   4.2223394732e+01    0.9487942      0.42482 -19.80  0.002950704    3.212    0.689
       238 -10.0045    145.5728     39.7839   4.4115699210e+01   4.3463380695e+01    0.2345685    0.2099307 -80.02  0.001069314    1.172    0.147
       239 -11.1544    156.6709     53.7919   4.6613721913e+01   3.8670263102e+01    0.9186484    0.4635645 -42.60  0.003761582    1.964    0.491
       240 -11.3361    147.3522    238.3078   8.8034695050e+01   7.8641654488e+00    0.5093004     0.272994  57.38  0.002656971    2.504    0.601
       241 -11.7703    153.1490     36.0629   4.1496571236e+01   4.2056748109e+01    0.6177315     0.420996  13.87 0.0003542044    2.017    0.504
       242 -11.6035    159.7226     29.6673   3.8316416520e+01   4.1197668179e+01    0.3613234    0.3037131  44.18  0.001705161    1.246    0.197
       243  -9.9091    167.7498    237.9628   8.4331912424e+01   4.9470920505e+00    0.1269741   0.09763262 -36.69 0.0008857044    1.579    0.367
       244  -9.4050    238.4038     55.7667   3.5590684331e+01   1.9164299250e+01    0.1768394    0.1179819 -20.54 0.0003796725    1.564    0.361
       245  -9.3613    187.5263     55.0862   4.1822506017e+01   3.0874534096e+01    0.3076934    0.1645037  49.51  0.001323053    1.987    0.497
       246  -9.1412    233.4646    236.4832   7.3084047008e+01  -4.0018034165e+00     0.107881   0.08163629  14.14 0.0002135482    1.035    0.034
       247  -9.9112     66.8990     54.4237   7.1120537779e+01   5.8188562739e+01     0.353282    0.1882627 -51.20  0.001585561    1.910    0.477
       248  -9.6427      7.0528     54.4786   9.6165686517e+01   6.5055185189e+01    0.2447784    0.1210776 -52.60 0.0009862334    1.590    0.371
       249  -9.7193    211.7957     52.9642   3.7928422315e+01   2.5412731198e+01    0.2627358    0.2081894 -51.07  0.001462253    1.183    0.155
       250  -9.9429    201.4771     53.0201   3.9271245229e+01   2.7817000910e+01    0.4579985    0.2231386  58.28  0.001981963    2.090    0.522
       251 -10.0660    201.4276     48.7906   3.8120804569e+01   2.8402160831e+01    0.2864635    0.2512907 -34.35  0.001044915    1.108    0.098
       252 -10.8001    200.8165     45.6086   3.7325611542e+01   2.8970030649e+01    0.5374724    0.3067617  78.15  0.002201848    2.028    0.507
       253  -9.9168    230.5087     52.0921   3.5536650258e+01   2.1330567436e+01    0.2029868    0.1193341 -31.47  0.000518218    1.533    0.348
       254 -10.2319    245.0038     51.3022   3.3854856777e+01   1.8357437052e+01    0.1783798    0.1595913 -60.18 0.0007626028    1.096    0.088
       255 -10.3326    136.0784     50.4819   4.9687789765e+01   4.4246968232e+01    0.5543361    0.2263593  42.57  0.001910553    2.899    0.655
       256 -10.9857    175.0111     48.3434   4.1769858511e+01   3.4902921155e+01    0.5725636     0.301982  65.06   0.00178935    1.951    0.488
       257 -10.3242    240.3927     50.7745   3.4185680220e+01   1.9384457605e+01    0.2988808     0.228958  -6.67  0.001111883    1.568    0.362
       258  -9.5396     90.6074     47.9106   6.0635098668e+01   5.4983666106e+01    0.3110103    0.2324263 -66.63  0.001298591    1.801    0.445
       259  -9.6094      2.3552     49.0999   9.7046925084e+01   6.6519131121e+01    0.1978372    0.1696401  21.52  0.001007873    1.420    0.296
       260 -10.8790    137.2702     44.8566   4.7505506009e+01   4.4803853995e+01    0.7349441    0.2868764  45.62  0.002588931    2.763    0.638
       261  -9.3019    234.6577     44.6806   3.3282890532e+01   2.1371134580e+01    0.1284131    0.0992993  23.37 0.0007049645    1.719    0.418
       262 -10.9331    198.6590    233.1724   7.8298945216e+01   1.1045277623e+00    0.3595611    0.2452788  39.31  0.002422582    1.358    0.264
       263  -9.6614      6.4151     30.8935   8.9797811214e+01   7.0104734209e+01    0.6506802    0.3075156   1.97  0.003193346    2.961    0.662
       264 -10.3288      3.8025     39.1788   9.3758394303e+01   6.8564806702e+01    0.4869342     0.288483 -85.30  0.002514077    2.304    0.566
       265 -10.3297      5.9792     36.2347   9.1766959398e+01   6.9041480675e+01    0.4215655    0.2504996  23.11  0.002535746    1.961    0.490
       266  -9.3781    176.6321     43.3606   4.0021152060e+01   3.5182925281e+01    0.2311382      0.17842 -83.86  0.001179576    1.417    0.294
       267 -10.6649     94.0370     41.2089   5.6982699165e+01   5.5385224211e+01    0.6072066    0.2881607  48.44  0.002551741    2.104    0.525
       268 -10.6539    189.0142     39.7291   3.7202188881e+01   3.2594705354e+01    0.4413964    0.2098919 -20.39  0.001265095    2.505    0.601
       269 -11.0718     78.8564     34.3183   5.8941067693e+01   5.9586796589e+01    0.8869877    0.4808531 -41.46  0.003780684    1.858    0.462
       270  -9.8534     81.2917     30.6531   5.6563060245e+01   5.9662615062e+01    0.2770062    0.1995574 -50.89  0.001439865    1.642    0.391
       271 -11.1421     61.0870     35.8977   6.6044000216e+01   6.2578550762e+01    0.4771248    0.3370902 -26.59  0.001182544    1.377    0.274
       272  -9.7077     67.3638     31.9725   6.1959508381e+01   6.2133225578e+01     0.476958    0.3727571 -59.64  0.002345866    1.672    0.402
       273  -9.4250    231.2310     38.6790   3.2143648788e+01   2.2854685716e+01    0.2826796    0.1511129 -30.49  0.001385388    1.699    0.411
       274  -9.5396    217.1837     38.9022   3.3623788860e+01   2.5985390671e+01    0.3113463    0.1080213 -45.38  0.001178861    2.673    0.626
       275 -11.0652    176.7275     36.6926   3.7994835560e+01   3.6031421339e+01     0.432509    0.2869343 -30.90  0.002126268    1.488    0.328
       276  -9.6298    183.6703     38.0856   3.7442268900e+01   3.4123958914e+01    0.2253108     0.183207 -79.71 0.0005289721    1.269    0.212
       277  -9.9223    132.8592     36.7481   4.5573341573e+01   4.7040578549e+01     0.375199    0.2536024 -73.82  0.001677667    2.019    0.505
       278  -9.2232    206.4992     37.1110   3.4324766379e+01   2.8700902227e+01    0.2007573    0.1280974 -30.23 0.0006482013    1.502    0.334
       279  -9.2939     12.5806     37.0112   8.8629203824e+01   6.8403818726e+01    0.1799128    0.1028921 -60.91 0.0009989558    1.595    0.373
       280  -9.2631     94.0195     35.9347   5.4867707084e+01   5.6210791026e+01    0.2112802    0.1699581 -71.46 0.0007179194    1.641    0.391
       281  -9.6796    148.3602     33.6993   4.1539845239e+01   4.3571812575e+01    0.3672871    0.1624045 -30.01  0.001453677    2.239    0.553
       282 -10.3377    242.7998    232.2206   7.0990263798e+01  -4.7603950277e+00    0.2348741    0.2197155  47.51  0.001872305    1.875    0.467
       283 -10.2259    157.5193     20.3012   3.5572611717e+01   4.2839489404e+01    0.3762044    0.1764219  62.37  0.001598275    1.974    0.493
       284 -10.1737    247.4649    232.0179   7.0244581771e+01  -5.3298648076e+00    0.1900935    0.1670098 -14.77  0.001014053    1.523    0.343
       285  -9.3629     23.7808    231.8140   1.1025143346e+02   2.4892439982e+01    0.1525976    0.0872241  60.18 0.0006400526    1.317    0.241
       286 -10.6668    143.9609     25.0193   3.9314390937e+01   4.5750500500e+01    0.5274471    0.2782678  50.55  0.002227188    1.848    0.459
       287  -9.2751     15.3289    233.9947   1.1184215400e+02   2.5355990447e+01    0.1439007    0.1045194  75.93  0.001139378    1.147    0.128
       288 -10.6088    127.1790     16.5863   3.9231761512e+01   5.0909172630e+01    0.2866236    0.2001974  39.34 0.0007199656    1.471    0.320
       289 -10.2783    240.2297     32.6543   2.9864061514e+01   2.1621402545e+01    0.3360289    0.2772015 -66.36  0.001372805    1.143    0.125
       290 -10.1104    240.5983     26.3836   2.8342156839e+01   2.2260349391e+01    0.3003143     0.185789 -36.29 0.0007820405    1.391    0.281
       291 -10.5241    175.3244     31.1192   3.6497307807e+01   3.7076171075e+01    0.7816808    0.2103312  49.54  0.002372728    4.135    0.758
       292 -10.9474    189.0240     27.6300   3.3707134894e+01   3.4074413134e+01    0.5017005    0.3628479  30.11  0.001710927    1.750    0.429
       293  -9.8229    233.8131    223.7429   7.1088039820e+01  -2.6825770387e+00    0.2315169    0.1367351 -10.27  0.001442286    1.768    0.434
       294  -9.3043    209.3653    223.8004   7.5099949075e+01   7.1095949955e-01    0.1442575    0.0963455 -16.04 0.0003154599    1.586    0.369
       295 -12.3168     58.1641     30.0837   6.4646432630e+01   6.4046414031e+01    0.3847214    0.2745366  -6.57  0.001407782    1.594    0.372
       296 -11.7892     49.5791     30.3797   6.8330740681e+01   6.5374064448e+01    0.6330433    0.3115758  34.65  0.002267056    2.198    0.545
       297 -10.3651     13.9456     23.5425   8.2861597163e+01   7.0944304078e+01    0.2902511      0.21704 -52.93 0.0002931631    1.295    0.228
       298  -9.8779      5.5620     21.2417   8.6698266346e+01   7.2063550523e+01    0.3439791    0.1788871  12.65   0.00166722    2.260    0.558
       299  -9.0236    153.2899    219.3480   8.4497754589e+01   9.7492769710e+00    0.1175294   0.08760016   5.13 0.0007026256    1.663    0.399
       300 -10.2892    164.7216    212.2803   8.1334301074e+01   9.0327572903e+00     0.228564     0.180951  38.43 0.0006652024    1.110    0.099
       301  -8.4299      3.2954    213.2764   1.1313103466e+02   3.0223108305e+01     0.086271    0.0763279 -70.24 0.0001837674    1.529    0.346
       302  -9.6582    153.1033    207.3947   8.2836475586e+01   1.1637534939e+01    0.2155028    0.1866302 -63.66 0.0007612155    1.426    0.299
       303  -9.3248     61.4375    206.6872   1.0133591284e+02   2.5259491517e+01    0.1432414    0.1053052 -66.86 0.0009356739    1.491    0.329
       304  -9.5746    238.4895    204.5520   6.7220625690e+01  -1.1409184751e+00    0.2258219    0.1020359 -31.43  0.001215801    2.183    0.542
       305 -10.6883    198.7835     29.0187   3.2976003824e+01   3.1524759102e+01    0.4206843    0.3572832  35.11  0.001934833    1.385    0.278
       306 -12.1847      4.4931    184.2829   1.1155275461e+02   3.5806503051e+01    0.6962425    0.3652306  76.73  0.004249133    1.598    0.374
       307 -10.1653    230.5325     27.9092   2.9551154900e+01   2.4277204314e+01    0.4138417    0.1766701 -37.56  0.001903695    1.944    0.486
       308 -10.3041     86.6587     30.3157   5.4725020862e+01   5.8607426770e+01    0.3891606    0.2669842   3.15  0.001107841    1.837    0.456
       309  -9.5877     97.5604     26.3311   4.9876372844e+01   5.6797141459e+01    0.2567948    0.2253385 -58.99  0.001127596    1.322    0.244
       310 -10.0537    213.9832     24.0930   3.0084607192e+01   2.8473861922e+01    0.2985955    0.2636198 -56.89  0.001731308    1.011    0.011
       311  -8.9553    216.5170     20.4862   2.8914860421e+01   2.8284327661e+01    0.1311522    0.1165879 -59.71 -1.489647e-05    1.013    0.013
       312 -10.0555     85.9905     23.9632   5.2151982044e+01   5.9635994744e+01    0.2112054    0.1787495  39.68            0    1.149    0.130
       313 -11.0609      6.0497    198.5340   1.1195203694e+02   3.2805372384e+01    0.4290791    0.1481692 -72.71  0.002246396    2.590    0.614
       314  -9.0902    196.3168    204.6957   7.4345824052e+01   5.1440966843e+00    0.1094919    0.0951571  63.91 0.0004922885    1.625    0.384
       315 -10.4376    245.8388    200.8837   6.5444731230e+01  -1.7422364151e+00    0.1807958    0.1286266   6.05 0.0007673065    1.200    0.167
       316 -10.3086    234.0476    197.0482   6.6641109191e+01   3.9969986878e-01    0.2802197    0.2067524 -16.99  0.001092891    1.250    0.200
       317  -8.9849     83.5221    195.9571   9.5623955137e+01   2.4407777766e+01    0.1723761    0.1490788  71.05  0.000658775    1.056    0.053
       318  -9.4373    169.0643     23.8526   3.5101671489e+01   3.9509627793e+01    0.2567272    0.1823946  61.38  0.001146879    1.369    0.270
       319 -10.5382    246.5061    193.4984   6.4055786072e+01  -9.6934973635e-01    0.2289068    0.1011322 -30.58  0.001036578    2.141    0.533
       320  -9.2387    223.7460     22.0400   2.8678174053e+01   2.6457019162e+01    0.1800287    0.1566437 -60.20 0.0006371284    1.017    0.016
       321  -9.3160    150.8466     61.1562   5.0080734095e+01   3.8951527874e+01    0.2310467     0.206555   9.21 0.0006616365    1.245    0.197
       322  -9.9005    169.7999    191.2768   7.7051782736e+01   1.1475450099e+01    0.3296392    0.1604954  29.88  0.001470882    2.278    0.561
       323  -9.0233    147.0200     60.7695   5.0746316889e+01   3.9946898693e+01    0.2747894    0.1789526  66.89 0.0007319745    1.701    0.412
       324  -9.8696    239.7598    184.5472   6.3502398755e+01   1.1104364631e+00    0.2052708    0.1600005  -2.39 0.0006086837    1.084    0.077
       325  -9.5093     74.1742     19.5310   5.3854180508e+01   6.2659671853e+01    0.2484475    0.1868353  43.41 0.0008116168    1.309    0.236
       326  -9.7771    213.4508    184.4432   6.7826215776e+01   5.2308995327e+00    0.3208536    0.1887402  63.54  0.001290976    4.174    0.760
       327  -9.7838    250.4691    178.2754   6.0694528302e+01   3.0207768609e-01    0.3317497    0.1034091 -26.96  0.001306636    3.528    0.717
       328  -9.5780    211.3284     17.8038   2.8680295362e+01   2.9785372319e+01    0.3108319     0.153573 -20.86  0.001399305    2.230    0.552
       329 -10.4654     52.0383    173.5441   1.0018419590e+02   3.3208932061e+01    0.4904725     0.227901  88.36  0.002107243    2.850    0.649
       330  -9.6862     28.0254    175.9364   1.0590345167e+02   3.5368059817e+01    0.1840219    0.1486025  75.91 0.0005851986    1.016    0.015
       331  -9.3608    230.1242    175.5021   6.3367326545e+01   3.7773494043e+00    0.1717512    0.1123979  36.43 0.0004698702    1.493    0.330
       332  -9.7534    247.3169    174.0082   6.0375095803e+01   1.3048888691e+00    0.3543057    0.1366532  27.38  0.001351918    4.009    0.751
       333  -9.3620     79.9848     19.2667   5.1855780282e+01   6.1511470494e+01    0.1898596    0.1693655  30.86  0.001154674    1.076    0.071
       334  -8.6551    198.6159     17.7404   2.9863481269e+01   3.2828474094e+01    0.1357455   0.09501895  43.58 0.0004710615    1.679    0.405
       335  -9.9214     39.2120    173.4259   1.0314102779e+02   3.4722115972e+01    0.2656131    0.1624471  60.27  0.001425856    1.478    0.324
       336 -11.0274     35.3840    169.6717   1.0368266327e+02   3.5955770947e+01    0.3836648    0.2707947  75.50  0.002023266    1.238    0.192
       337  -8.9066    170.5445    171.9854   7.3489886940e+01   1.4550811135e+01    0.1868612    0.1306742 -38.97 0.0005861125    1.509    0.337
       338  -9.6366     74.0159     13.1588   5.0829054317e+01   6.3494039660e+01    0.2915993    0.1847333  83.86  0.001239407    3.211    0.689
       339 -10.4143      9.2889    155.2100   1.0867574397e+02   4.1628851095e+01    0.2978885    0.1648073  65.75  0.001526483    1.635    0.388
       340 -12.1241      9.5735    167.1927   1.0944092376e+02   3.8977231844e+01    0.6319603    0.3542294 -69.77  0.003112216    1.637    0.389
       341  -9.8782     13.6804    159.3187   1.0793078891e+02   4.0345856163e+01    0.2664341    0.1337385  61.81   0.00105016    1.848    0.459
       342  -9.8278     13.7139    156.3287   1.0769418520e+02   4.1006647537e+01    0.2251523    0.1406645  80.35 0.0002256771    1.379    0.275
       343  -9.1672    198.2436    168.0126   6.7432983368e+01   1.0237448465e+01    0.1807711    0.1618747  -4.55 0.0005625568    1.051    0.048
       344  -9.3734    187.3939    167.7866   6.9410282340e+01   1.2212164056e+01    0.1852286    0.1211289 -25.53 0.0006481404    1.667    0.400
       345  -8.8234    152.4281    166.5325   7.6193627387e+01   1.8815082416e+01    0.1344017    0.1269633  31.20 0.0001247407    1.009    0.009
       346 -10.5848     19.0031    164.7935   1.0709560150e+02   3.8661502565e+01    0.2817806    0.2436451 -19.93  0.001826078    1.703    0.413
       347 -10.4397     39.8053    162.1307   1.0189963477e+02   3.7140357430e+01    0.4055677    0.2159904  64.24   0.00131977    1.915    0.478
       348 -10.6800     28.2215    162.1698   1.0469539790e+02   3.8352471680e+01     0.368162    0.2165536 -61.33  0.002111676    1.700    0.412
       349 -10.0388    204.9690    162.9685   6.5224339913e+01   9.8263202623e+00    0.2393705     0.178363  29.07 0.0005528063    1.294    0.227
       350  -9.0440    156.4935    166.4738   7.5327240010e+01   1.8081478703e+01    0.1356868    0.1267103  29.14 0.0002129795    1.008    0.008
       351  -9.2999     78.9472    160.0261   9.2043689675e+01   3.2581555761e+01    0.2217754    0.1460197  71.25  0.001126852    1.694    0.410
       352  -9.3443    224.3607    157.7350   6.0841183008e+01   7.2132131949e+00    0.3012983     0.145696 -45.25  0.001353887    2.478    0.596
       353 -10.2475    105.0028    154.1531   8.4720419248e+01   2.9758162165e+01    0.3612525    0.2960413   1.02  0.001942035    1.664    0.399
       354  -9.2966     33.3322    154.6750   1.0272801502e+02   3.9512672859e+01    0.2096456    0.1817492 -78.43  0.001212015    1.158    0.136
       355 -10.7913     31.1632    151.8233   1.0298110325e+02   4.0383705093e+01    0.3006176    0.2362563 -69.62  0.001243799    1.235    0.190
       356 -11.8631     13.0389    138.6753   1.0638329240e+02   4.5063271245e+01    0.7230284    0.3967202  86.28   0.00396666    1.668    0.400
       357 -12.2230     22.7587    149.1145   1.0484009683e+02   4.1820256743e+01    0.5939592    0.3498608 -36.51  0.001710784    2.644    0.622
       358 -10.6938     15.9683    147.9491   1.0645107795e+02   4.2696280217e+01    0.2860247    0.2250458  67.45 0.0007822419    1.143    0.125
       359  -9.2292     74.5043    154.5244   9.2339399060e+01   3.4450667901e+01    0.2053216    0.1238128 -77.83 0.0009961481    1.801    0.445
       360 -10.1118     73.6619    147.3825   9.1467867681e+01   3.6188845633e+01    0.6730103    0.2074374 -48.02  0.002201803    4.103    0.756
       361 -10.7568      3.5183    153.1807   1.0992054279e+02   4.2538650955e+01    0.3601557    0.1878432  65.86  0.001924447    1.733    0.423
       362 -10.4987      3.4833    147.4772   1.0953319724e+02   4.3813049422e+01    0.2638693    0.1618681 -77.87 0.0008637748    1.355    0.262
       363 -12.2065      2.5799    142.0762   1.0936742185e+02   4.5096079634e+01    0.6303817    0.3451223  62.27  0.001021867    1.695    0.410
       364 -10.7987     63.4467    150.4325   9.4558851055e+01   3.6909168282e+01    0.4498214    0.2686914  17.13  0.002070519    2.586    0.613
       365  -9.2391    234.2015    150.6153   5.7805101426e+01   6.5453158861e+00    0.1819446    0.1093073  31.91 0.0009544598    1.751    0.429
       366 -10.7888     41.4579    149.0568   1.0005019283e+02   3.9919624584e+01    0.3036474    0.1995336  33.23 0.0003779927    1.657    0.397
       367 -10.7775     46.4981    146.4712   9.8425648544e+01   3.9940620915e+01    0.5046654    0.2279592 -67.81  0.002360422    2.006    0.502
