#   1 NUMBER                 Running object number                                     
#   2 MAG_AUTO               Kron-like elliptical aperture magnitude                    [mag]
#   3 X_IMAGE                Object position along x                                    [pixel]
#   4 Y_IMAGE                Object position along y                                    [pixel]
#   5 X_WORLD                Barycenter position along world x axis                     [deg]
#   6 Y_WORLD                Barycenter position along world y axis                     [deg]
#   7 A_WORLD                Profile RMS along major axis (world units)                 [deg]
#   8 B_WORLD                Profile RMS along minor axis (world units)                 [deg]
#   9 THETA_WORLD            Position angle (CCW/world-x)                               [deg]
#  10 FWHM_WORLD             FWHM assuming a gaussian core                              [deg]
#  11 ELONGATION             A_IMAGE/B_IMAGE                                           
#  12 ELLIPTICITY            1 - B_IMAGE/A_IMAGE                                       
         1 -13.0030    247.8275     55.1143   3.5413370994e+02   1.8539067598e+01     1.092334    0.3576455 -26.90  0.004478988    2.903    0.656
         2 -15.1663    244.0746     14.7156   3.4532867013e+02   2.3769101067e+01     2.109332     1.131687 -30.18   0.01218049    1.579    0.367
         3 -11.7110    210.0133     19.9518   3.4871803652e+02   3.0261578585e+01     0.396135    0.1343177 -31.22  0.001668181    2.412    0.585
         4 -11.9701    210.7674     14.3654   3.4722461734e+02   3.0687655308e+01    0.2962905    0.2053329  49.13  0.001689275    1.833    0.454
         5 -10.1520    150.1063     13.6611   3.5250773215e+02   4.5513124971e+01    0.2353582    0.1778275 -46.84 0.0005418464    1.260    0.207
         6 -12.9852    226.2240     22.6186   3.4823412821e+02   2.6500509468e+01    0.8131707    0.3790599 -20.16  0.003784902    2.415    0.586
         7 -11.5172    228.8473      7.9842   3.4457177027e+02   2.7476251454e+01    0.2955678    0.2141325 -19.33  0.001530227    1.519    0.341
         8 -13.0442    223.8143      3.1666   3.4367679995e+02   2.8990389657e+01     1.028929    0.4078155  87.10   0.00480492    2.717    0.632
         9 -11.0938     54.4647      9.8827   1.3447500690e+01   7.0007552894e+01    0.2387074    0.2101285  51.82 0.0003685502    1.162    0.139
        10 -11.4652    194.4952      8.6192   3.4682303142e+02   3.4975677922e+01    0.3698611    0.2237367  57.36  0.001378395    1.872    0.466
        11 -10.1055     47.1668      7.8634   1.5625349992e+01   7.1782561890e+01    0.1833372    0.1446698  13.19 0.0004122279    1.312    0.238
        12 -10.5508    173.0691      6.7003   3.4791850118e+02   4.0343647859e+01     0.226465    0.1889718 -28.71 0.0002062253    1.263    0.208
        13 -11.6559    117.0704      6.3450   3.5430172207e+02   5.4960265731e+01     0.300736    0.2275582  67.64 0.0003290274    1.223    0.182
        14 -11.2924     63.1827      7.1266   8.1028382357e+00   6.8434641363e+01    0.2306297    0.1631437  62.76 0.0005487287    1.443    0.307
        15 -12.3575    208.0044      5.7906   3.4519016442e+02   3.2163114489e+01    0.3692231    0.2592833  73.37  0.001682595    1.512    0.338
        16 -12.2226    204.5036      2.1832   3.4445618409e+02   3.3293609707e+01    0.3871443    0.3687286 -72.87  0.001894088    1.204    0.169
        17 -10.5005    187.4168      5.3197   3.4640204602e+02   3.6972042784e+01    0.2350426    0.1257405 -19.83  0.001088009    2.039    0.510
        18  -9.4391      2.3612      6.3070   4.8965000065e+01   7.8502681984e+01    0.1334625   0.07522514 -28.91 0.0007039755    1.736    0.424
        19 -10.3900     70.7908      2.8064   2.8617112444e+00   6.7121788469e+01    0.2517132    0.1182792  30.68 0.0009614123    2.880    0.653
        20 -10.0971     88.2616      1.3234   3.5740091150e+02   6.2930419299e+01    0.2264295    0.1166918  65.85 0.0002440688    1.761    0.432
        21 -10.0638    208.1465    104.1386   1.0061074230e+01   1.9262112747e+01    0.2812668     0.176617 -64.27  0.001286548    2.459    0.593
        22 -12.2558    235.3115    249.1100   3.1818708284e+01  -3.4267157687e+00    0.3729164    0.2006113  16.60  0.002706215    1.454    0.312
        23 -12.7113    211.8709    242.8068   3.4647418496e+01  -3.2763278916e-01    0.4007063    0.2884522  23.39  0.003137867    1.273    0.215
        24  -9.4487    169.4439     98.0343   1.5152643266e+01   2.8179001108e+01     0.198491     0.126909 -11.69 0.0004300789    2.368    0.578
        25 -12.4858    233.5246     35.6330   3.5081589216e+02   2.3560378897e+01    0.8211884    0.2979203  70.25  0.003696669    3.097    0.677
        26 -14.1207    237.6854     85.6148   1.9503395750e+00   1.6469508183e+01     1.470617    0.6982023 -27.61  0.007182828    1.902    0.474
        27 -12.4786    248.3562     83.7372   3.8252057526e-01   1.4863937486e+01    0.4776282    0.3440732  -4.98  0.002914858    1.648    0.393
        28 -13.4618    245.2212     65.2178   3.5661608368e+02   1.7766701611e+01     1.359321    0.2920924 -35.74  0.005148945    3.120    0.680
        29 -13.5288    234.8129     45.6461   3.5306416535e+02   2.2126459639e+01     1.380794    0.6019263  50.77  0.006449944    2.970    0.663
        30 -10.4669    179.4079    248.2255   4.0841623166e+01   2.7551616177e+00    0.1225765    0.1030102 -42.57 0.0009572705    1.731    0.422
        31 -13.3016    241.6439     50.9806   3.5372181629e+02   2.0176908278e+01    0.9123466    0.5785497  42.09  0.005178753    2.173    0.540
        32  -9.3859    127.5076     89.6318   2.2189762825e+01   3.9158344761e+01    0.1510369    0.1455136  70.77 0.0001160422    1.038    0.037
        33  -9.9620      5.9811     89.7556   6.6979354010e+01   5.8042061604e+01     0.156994    0.1150951  14.98 0.0004805302    1.565    0.361
        34  -9.8520     21.7913     87.7958   5.9855647267e+01   5.7465479793e+01    0.1986742     0.172818 -59.47 0.0005190856    1.113    0.102
        35  -9.4285     67.1725     83.7756   3.9834030109e+01   5.2766193095e+01    0.2014498    0.1700067 -33.80  0.000391039    1.296    0.229
        36  -9.3575    147.2194     79.0353   1.4423271653e+01   3.6652707883e+01     0.199035    0.1210178 -37.87 0.0003590706    1.612    0.380
        37 -10.1732     12.9703     78.9935   6.2488870123e+01   6.0435421235e+01     0.163613    0.1504688 -77.48  0.000614027    1.037    0.036
        38 -10.5719     39.1584     76.9783   4.9887049327e+01   5.8531249850e+01    0.2300704    0.2099136  33.10 0.0004422181    1.168    0.144
        39  -9.9663    177.6197     71.7177   6.6103476519e+00   3.0789830067e+01    0.2453132    0.1626542 -43.29 0.0004291222    1.397    0.284
        40 -10.0690     24.6002     69.9880   5.5203958703e+01   6.1859773190e+01    0.2214627    0.1883609 -24.40 0.0006999122    1.281    0.219
        41  -9.1049    203.4655     69.4459   2.2375125836e+00   2.5404996708e+01    0.1380616    0.1181594 -48.90 0.0001070307    1.065    0.061
        42  -9.5196    208.8461     66.8887   9.0651307775e-01   2.4631646604e+01    0.1808757    0.1384426 -55.10 0.0002879556    1.260    0.206
        43  -9.7723    154.2974     64.8111   8.6992604971e+00   3.7437432972e+01    0.5044886    0.0814139 -40.22  0.001253015    4.996    0.800
        44 -11.9071    117.1301     62.2622   1.6237593853e+01   4.6975414486e+01    0.5771146    0.4956967  12.77  0.001140233    1.413    0.292
        45 -10.2649    150.4968     60.3564   8.0436361557e+00   3.9102476230e+01      0.27912    0.2424903  -5.90  0.000885107    1.357    0.263
        46 -10.0164      1.4886     60.1189   6.5482558942e+01   6.5928282370e+01    0.2040653    0.1141485 -76.74  0.001024336    1.566    0.362
        47 -10.3567     76.6790     58.8859   2.8003920433e+01   5.6748697054e+01     0.529476    0.2152367  44.04   0.00185384    2.486    0.598
        48  -9.4550     82.4845     57.4889   2.5301595699e+01   5.5839214230e+01    0.2310096    0.1439224  35.45 0.0009014831    1.792    0.442
        49 -10.8103      6.3922     55.7943   6.2012501323e+01   6.6790944462e+01    0.3850791    0.2464367 -24.07  0.002041827    1.735    0.424
        50 -10.4461     48.1939     52.4733   3.8082217587e+01   6.3268957753e+01    0.2821171    0.2319358 -48.39 0.0008673792    1.161    0.139
        51 -11.2332     78.3689     48.1464   2.3124981823e+01   5.8583240868e+01    0.8868217    0.4515197  54.64     0.003519    2.174    0.540
        52 -10.4451     81.5213     41.4389   1.9106225077e+01   5.9147668432e+01    0.5135925    0.1323948  47.95  0.001510144    3.761    0.734
        53 -10.7067     16.0039     47.6275   5.4418260223e+01   6.8190978310e+01    0.1813683    0.1682739 -18.98 0.0005040407    1.122    0.109
        54 -10.1711     26.9379     46.7804   4.7577049220e+01   6.7378257571e+01    0.3126839    0.1813534  67.10  0.001272135    2.953    0.661
        55  -9.4794    133.6078     46.2207   6.7047272433e+00   4.5605063360e+01    0.2018441    0.1462188 -22.16  0.000942038    1.562    0.360
        56 -10.1976     49.9872     45.4936   3.4436733401e+01   6.4529243268e+01    0.2509923    0.1870189 -31.90 0.0006956477    1.406    0.289
        57  -9.3666    172.2865     44.6012   3.5957238417e+02   3.6096208737e+01    0.1591345   0.09431258 -57.72 0.0006996272    1.781    0.439
        58 -11.3115     60.8873     43.2497   2.8268856083e+01   6.3074370739e+01    0.2455928    0.2331405 -45.52 0.0002598517    1.063    0.059
        59 -12.6480    227.2785    242.9734   3.2221983907e+01  -2.0010777830e+00    0.3388378    0.2418381  -8.43  0.002757179    1.208    0.172
        60 -10.2434     91.1790     34.5594   1.2828774960e+01   5.8069587039e+01    0.2683133    0.2183629 -19.84 0.0008358668    1.347    0.258
        61  -9.7599    130.9611     32.9987   2.4385040893e+00   4.8214987916e+01    0.2300432    0.1633076 -66.30 0.0004993466    1.545    0.353
        62 -10.4403     12.5110     32.3622   5.1922745329e+01   7.2083167492e+01    0.1999048    0.1216939  16.62 0.0007455256    1.772    0.436
        63 -10.8985    216.1030     31.3897   3.5116082880e+02   2.7649634460e+01    0.3540786    0.1058103  66.94  0.001398942    3.404    0.706
        64 -10.2568     68.9402     26.9875   1.7046503522e+01   6.4387156908e+01    0.3547675    0.1495274  57.71 0.0008243173    2.766    0.638
        65 -11.6084      4.8961     26.7720   5.5682521535e+01   7.3889741080e+01    0.4469287    0.1815224  30.96  0.002029025    2.636    0.621
        66 -11.3467      6.9887     23.4837   5.2812789522e+01   7.4501817830e+01    0.3387215    0.1877753  33.54  0.001764638    2.009    0.502
        67  -9.2590    158.9855     26.4988   3.5570399824e+02   4.1775186905e+01    0.2003598    0.1350684  74.53 -2.781453e-05    1.459    0.315
        68  -9.4376     30.4804     24.5345   3.5857928513e+01   7.1827454822e+01    0.1314447    0.1210898 -20.17 0.0008092509    1.021    0.021
        69 -12.9445    239.1724    232.1425   2.8894359747e+01  -2.1484980958e+00    0.5414457    0.4112552 -45.91  0.003932177    2.588    0.614
        70 -13.1121    232.4145    237.0878   3.0618940070e+01  -1.9426706701e+00    0.5667318    0.4451056 -40.33  0.004407968    2.153    0.535
        71  -9.2269     49.6749     19.2706   2.1541078083e+01   6.9587990189e+01    0.1273279    0.1093019  89.26 0.0002444813    1.575    0.365
        72  -9.1557    186.3089     38.6951   3.5605242177e+02   3.3500268692e+01    0.1471656    0.0920002 -59.85 0.0004008734    1.609    0.379
        73 -10.0313     82.4186     21.7892   9.5648353918e+00   6.2070033486e+01    0.2812646     0.182317  78.72  0.001254539    1.994    0.499
        74 -12.6088    237.1884    237.8031   2.9992751279e+01  -2.5121455253e+00    0.2842427    0.2000736 -17.27  0.001779409    1.344    0.256
        75 -11.2271     67.5179     14.4127   1.0790126343e+01   6.6544779315e+01    0.3936264    0.1292633  56.57  0.001393969    2.940    0.660
        76  -9.5388    130.6887     13.6895   3.5514697796e+02   5.0620197695e+01    0.1455177     0.102967  38.60 0.0002018671    1.626    0.385
        77 -10.0832    138.7543    240.2351   4.7425236535e+01   8.7538434171e+00    0.1872957   0.07785238  24.13 0.0008850452    2.432    0.589
        78 -12.5828    225.7914    249.3318   3.3304185512e+01  -2.4828934495e+00    0.5239657    0.1468562  28.52  0.002626385    3.083    0.676
        79 -12.7542    244.7156    225.3955   2.7091101210e+01  -2.0418573644e+00    0.4340868    0.2777486   0.85  0.003295189    1.211    0.174
        80 -12.3338    246.2544    211.5267   2.4774723434e+01  -7.5457347395e-01    0.3700216    0.2422796 -24.66  0.002749481    1.407    0.289
        81 -10.3880    198.1991    204.5598   3.1418541829e+01   5.9117577889e+00     0.257517    0.2066144  41.94  0.001763133    1.590    0.371
        82 -10.1114    228.2855    202.9789   2.6158251636e+01   2.2840951184e+00     0.251321    0.1363021  40.53 0.0008362277    2.157    0.536
        83  -9.2575    172.7033    153.3131   2.7152700131e+01   1.7664992915e+01    0.1247001    0.1092868 -88.02 0.0001697384    1.601    0.375
        84 -12.2364    247.2684    118.6488   7.8782619441e+00   1.0468317684e+01    0.4914917    0.2795243 -40.62  0.002265892    1.601    0.375
        85 -10.5877    229.0939    118.9675   1.0332784376e+01   1.3337227930e+01    0.1888714    0.1740759  13.39 0.0004079513    1.189    0.159
        86 -10.3106    196.2192    113.1810   1.4059656157e+01   2.0120171179e+01    0.3229386    0.1615301 -42.91  0.001445808    1.910    0.476
        87 -10.3113     25.0382    111.5850   6.1870116634e+01   5.0909153838e+01    0.2382802    0.1834508 -70.51 0.0004342878    1.205    0.170
        88 -10.3520    198.5356    107.7917   1.2418657590e+01   2.0539474179e+01    0.2820878    0.2245463 -18.98   0.00159679    1.245    0.197
        89 -10.0946     85.9298    107.0697   3.9162440272e+01   4.3767698130e+01    0.2269418    0.2126677  71.77 0.0004244493    1.047    0.044
        90  -9.2654     15.6321    106.7099   6.4868482903e+01   5.2962291543e+01    0.1399756   0.09323673 -41.20 0.0007024705    1.710    0.415
