#   1 NUMBER                 Running object number                                     
#   2 MAG_AUTO               Kron-like elliptical aperture magnitude                    [mag]
#   3 X_IMAGE                Object position along x                                    [pixel]
#   4 Y_IMAGE                Object position along y                                    [pixel]
#   5 X_WORLD                Barycenter position along world x axis                     [deg]
#   6 Y_WORLD                Barycenter position along world y axis                     [deg]
#   7 A_WORLD                Profile RMS along major axis (world units)                 [deg]
#   8 B_WORLD                Profile RMS along minor axis (world units)                 [deg]
#   9 THETA_WORLD            Position angle (CCW/world-x)                               [deg]
#  10 FWHM_WORLD             FWHM assuming a gaussian core                              [deg]
#  11 ELONGATION             A_IMAGE/B_IMAGE                                           
#  12 ELLIPTICITY            1 - B_IMAGE/A_IMAGE                                       
         1 -15.0949      6.0530    145.3027   1.4323705598e+02   4.4249268972e+01     7.147134     0.964609 -72.96   0.01851242    7.401    0.865
         2 -13.5719    199.8556     28.9812   6.7276117732e+01   3.2077440967e+01     1.465422     1.181468  57.03  0.005948098    1.283    0.221
         3 -13.7156    216.5443      8.8308   6.0643677327e+01   3.0431222900e+01    0.9302427    0.7512561  70.16  0.003485591    1.225    0.184
         4 -11.9535     84.0980    151.7495   1.2490414251e+02   3.3865683379e+01    0.3090169    0.2449446 -49.63 0.0004465558    1.299    0.230
         5 -12.6933    228.7645    249.2750   1.1090786103e+02  -1.1143587470e+01    0.7160786    0.2805225  43.42  0.003352545    2.449    0.592
         6 -13.0451    247.5597    248.3876   1.0743407107e+02  -1.3802800143e+01     1.003094    0.7898048 -44.66  0.006772523    1.828    0.453
         7 -12.7084      9.4669    207.3681   1.4784946978e+02   3.0380602089e+01    0.6550111    0.5951843  16.61  0.003307824    1.812    0.448
         8 -14.5273      9.1749    244.6250   1.5017345053e+02   2.3044548066e+01     2.939354     1.340652  46.74   0.01880618    1.911    0.477
         9 -14.8035     32.4151    228.7334   1.4531738452e+02   2.3541286853e+01     1.091235     0.894145 -77.87   0.00807958    1.380    0.275
        10 -11.4974    157.0188    249.5214   1.2431807745e+02   6.4010966839e-01    0.4670499    0.1286179  45.99  0.001726329    3.100    0.677
        11 -11.7532    147.6302    249.0811   1.2604181605e+02   2.3178657292e+00    0.4128257    0.1835041  49.66  0.001930036    1.986    0.496
        12 -10.8114    126.9219    249.8882   1.3005890986e+02   5.6800255971e+00    0.2465273    0.1456085  48.95  0.001368026    1.386    0.278
        13 -12.8407     44.2869    215.2362   1.4205326533e+02   2.4879819838e+01    0.7724139    0.4756079  74.37  0.002797992    1.410    0.291
        14 -12.2726    172.4322    248.5417   1.2125261153e+02  -1.8418727364e+00    0.4717733    0.3037638  41.68  0.002706113    1.291    0.225
        15 -12.0052    112.6440    231.9679   1.3059645276e+02   1.1351550698e+01    0.4304837    0.1860787  45.85  0.001969164    1.975    0.494
        16 -11.5599     91.0162    228.0004   1.3435804991e+02   1.5640164517e+01    0.3472841    0.1549072  42.96  0.001642587    2.021    0.505
        17  -9.7362    173.6461    223.0008   1.1706791009e+02   2.1767178009e+00     0.299331    0.1247278  50.11  0.001188199    2.473    0.596
        18  -9.9273     79.5230    219.7145   1.3567810832e+02   1.9098818435e+01    0.2383672    0.1234561  59.45 0.0009622077    1.835    0.455
        19 -11.1449     58.5662    213.2055   1.3911029239e+02   2.3460767674e+01    0.4215858    0.1470949  56.94  0.001686783    3.118    0.679
        20  -8.7784    152.6282    213.2014   1.1975485663e+02   7.8803704733e+00     0.165528    0.1323145 -41.09  0.000293857    1.442    0.307
        21 -10.7349     55.0012    205.0043   1.3897395987e+02   2.5702082864e+01    0.3940508    0.1643618  54.22  0.001826516    2.297    0.565
        22 -12.0521     56.7040    199.4413   1.3803268349e+02   2.6698689643e+01    0.2828126    0.2304261 -84.63 0.0004777719    1.110    0.099
        23 -11.0131      6.9095    192.6856   1.4726844442e+02   3.3717681879e+01    0.2468776    0.1531926  64.05 0.0009940867    1.426    0.299
        24 -12.2612     63.5697    190.8073   1.3558743628e+02   2.7706060185e+01    0.2684969    0.2348049 -82.30 0.0004797485    1.151    0.131
        25 -13.2050     60.8598    175.8847   1.3428331302e+02   3.1503206024e+01    0.5203279    0.2757424 -47.87  0.001638916    2.263    0.558
        26 -10.9692     74.6415    177.5917   1.3137109040e+02   2.9172648211e+01    0.2484876    0.2133222 -88.42 0.0002924442    1.017    0.017
        27 -10.7519     66.1352    250.0577   1.4113082417e+02   1.5048322954e+01    0.2809503    0.1277521  50.94  0.000891433    1.761    0.432
        28 -12.1450     67.5408    143.4725   1.2767870720e+02   3.8282432562e+01    0.6522599    0.4155925  66.81   0.00237652    1.917    0.478
        29 -10.2786    108.1136    137.8051   1.1591856707e+02   3.3095176511e+01    0.4452005      0.30847 -19.31   0.00137672    2.307    0.566
        30 -10.7366     95.1763    134.9413   1.1871137648e+02   3.6068173421e+01    0.2620324    0.2234116 -43.05  0.000364754    1.217    0.178
        31  -9.2237    114.9492    130.0136   1.1237637300e+02   3.3627798824e+01    0.2455788    0.1909707 -12.78  0.001129569    1.785    0.440
        32  -9.0339    105.9323    124.0333   1.1337641686e+02   3.6717685859e+01    0.2075172    0.2004192 -57.74 0.0002968393    1.037    0.035
        33 -12.3116     82.8441    168.0175   1.2799108485e+02   3.0185049138e+01    0.8208134    0.6504402 -44.73  0.004501921    1.466    0.318
        34  -8.4813     68.2725    114.6616   1.2180739186e+02   4.4973861815e+01    0.1364681    0.1037321  89.78 0.0004601274    1.606    0.377
        35 -10.7332    159.1552     76.8617   8.7278251008e+01   3.4962856314e+01    0.2634026    0.2534892  88.87   0.00064194    1.028    0.027
        36 -11.1547     95.4937    152.9772   1.2224911319e+02   3.1718055523e+01     0.383586    0.3184876 -56.00 0.0008061785    1.181    0.153
        37  -9.8353     98.8665    148.7513   1.2057744371e+02   3.2149614018e+01    0.2386362     0.222855 -64.44 0.0005747534    1.079    0.073
        38 -11.9847     99.6425    247.9236   1.3491704320e+02   1.0460929251e+01    0.3783475    0.3181523  31.75  0.002490736    1.545    0.353
        39 -10.2804     81.7789    249.5990   1.3833010238e+02   1.2882420125e+01    0.1782009   0.08645031  52.81      0.00072    1.674    0.403
