#   1 NUMBER                 Running object number                                     
#   2 MAG_AUTO               Kron-like elliptical aperture magnitude                    [mag]
#   3 X_IMAGE                Object position along x                                    [pixel]
#   4 Y_IMAGE                Object position along y                                    [pixel]
#   5 X_WORLD                Barycenter position along world x axis                     [deg]
#   6 Y_WORLD                Barycenter position along world y axis                     [deg]
#   7 A_WORLD                Profile RMS along major axis (world units)                 [deg]
#   8 B_WORLD                Profile RMS along minor axis (world units)                 [deg]
#   9 THETA_WORLD            Position angle (CCW/world-x)                               [deg]
#  10 FWHM_WORLD             FWHM assuming a gaussian core                              [deg]
#  11 ELONGATION             A_IMAGE/B_IMAGE                                           
#  12 ELLIPTICITY            1 - B_IMAGE/A_IMAGE                                       
         1 -14.6248    162.2551     40.5859   8.1761501711e+01   3.9362690004e+01     1.375905     1.046787 -12.53  0.003966705    1.495    0.331
         2 -14.1852    175.4599      7.6342   6.8748027445e+01   3.9519360659e+01     1.002104    0.9522179 -89.34  0.003909327    1.046    0.044
         3 -12.1222    133.8787    247.6240   1.3101325767e+02   1.0648754542e+01    0.1574083    0.1351987  36.92  0.000396622    1.229    0.186
         4 -19.8016     75.2638    187.5340   1.3722695601e+02   2.8371981361e+01     13.89508     6.351741 -71.12    0.0691978    2.535    0.606
         5 -11.4712    139.6010    199.4946   1.2441895575e+02   1.6594309887e+01    0.4347529    0.1799459  43.93  0.002034969    1.986    0.496
         6 -10.2918    135.6718    196.3248   1.2481481456e+02   1.7726015882e+01    0.1941749    0.1406988  49.70  0.000581527    1.268    0.211
         7 -14.0675    167.1483    191.0890   1.1758374955e+02   1.3358127225e+01    0.6114378    0.4755182  65.95  0.003655492    1.810    0.447
         8 -13.9409    174.9396    193.6275   1.1644673310e+02   1.1707818204e+01    0.5852026    0.4130615 -47.76  0.002983955    1.880    0.468
         9 -13.1234    180.1287    192.5592   1.1527798236e+02   1.1003400282e+01    0.3893536    0.3395715 -74.26  0.001331477    1.816    0.449
        10 -13.8128    176.5023    188.4219   1.1531790106e+02   1.2179826440e+01     0.675864    0.3710591 -54.23  0.003255793    2.995    0.666
        11 -11.6491    153.2837    194.2402   1.2085961079e+02   1.5185013069e+01    0.2147908    0.1501777  38.71 0.0003473739    1.155    0.134
        12 -14.2774    206.9290    179.6517   1.0814601377e+02   8.2907679427e+00    0.7728318    0.6354493  16.13  0.004243786    1.039    0.037
        13 -13.4342    196.7112    172.3778   1.0871006315e+02   1.0974572542e+01    0.6448854    0.3712162 -42.23  0.002861165    2.118    0.528
        14 -10.0887    150.9206    246.4062   1.2779939908e+02   8.4639496234e+00    0.1415413    0.1238439  24.91  0.000542399    1.265    0.209
        15 -11.8084     31.5689    183.3176   1.4703415469e+02   3.4372973337e+01     0.655465    0.1451697  37.46  0.002848528    2.872    0.652
        16 -11.0503     25.8999    184.9796   1.4841534398e+02   3.4604611501e+01    0.1793284    0.1288195  65.83 0.0003435362    1.099    0.090
        17 -10.7793     28.2661    179.3174   1.4758154726e+02   3.5504609634e+01    0.2541277    0.1845585  16.92  0.001521181    1.783    0.439
        18 -13.4888    162.8419    201.9051   1.2005280116e+02   1.2507965668e+01    0.6816428    0.3716736 -60.32  0.002553318    3.500    0.714
        19  -9.7798    137.5470    243.0010   1.2988601800e+02   1.0732244624e+01    0.1692355    0.1277837 -16.41  0.001031203    1.916    0.478
        20 -11.8811      4.4639    178.6843   1.5301394066e+02   3.7741093868e+01    0.2860156    0.2336624  40.81  0.001800677    1.300    0.231
        21 -13.5887    177.6045    172.2927   1.1237504689e+02   1.4337955706e+01    0.5781823    0.3987715 -27.63  0.003265099    1.642    0.391
        22 -12.8972    148.2157    173.1199   1.1864858800e+02   1.9437272118e+01    0.3664743    0.2667568  56.92  0.001385444    1.504    0.335
        23 -13.4227    144.1699    168.4546   1.1876175079e+02   2.0957583600e+01    0.5646335    0.3194006  44.22  0.002029223    1.535    0.349
        24 -10.7527     14.0000    240.7666   1.5274814635e+02   2.5865554890e+01    0.1860117   0.04924217 -83.97 0.0009487315    4.048    0.753
        25 -10.0576    126.6107    237.6877   1.3139992760e+02   1.2950089707e+01    0.1160355    0.1003096  59.69  0.000772187    1.331    0.249
        26 -12.9525    138.8551    172.3043   1.2058090533e+02   2.1227561172e+01     0.495623    0.3736863 -86.66  0.002361903    1.944    0.486
        27 -11.8616    123.7887    166.6668   1.2313827951e+02   2.4882180581e+01    0.4553301    0.2257354  56.29  0.001755661    2.467    0.595
        28 -11.4115    201.9967    165.7225   1.0650797048e+02   1.0964651444e+01    0.2101006    0.1888038 -61.54  0.001325474    1.647    0.393
        29 -10.7176     25.2390    165.1071   1.4752145610e+02   3.8735074928e+01    0.1879135    0.1479726  44.74 0.0006797093    1.206    0.171
        30 -11.2608    223.8589    163.7722   1.0231099430e+02   7.4768610049e+00    0.2128379    0.1673124 -23.89 0.0004543933    1.331    0.249
        31 -10.9947     13.5082    233.1454   1.5265042821e+02   2.7127002524e+01    0.1324046   0.08837952  55.91 0.0003187187    1.027    0.027
        32 -11.2198     28.9309    227.8407   1.4960060381e+02   2.6514428774e+01    0.1497935    0.1226238  70.07 0.0003823751    1.262    0.207
        33 -10.6626    237.5021    159.4744   9.9277814916e+01   5.7562118796e+00    0.1228821   0.09943545   7.60 0.0001467811    1.015    0.015
        34 -12.1452    164.5242    158.6470   1.1257589422e+02   1.8880995074e+01    0.2854563    0.1565496  43.60  0.001350064    1.622    0.383
        35 -10.8268     22.8506    156.1028   1.4760092921e+02   4.0887248804e+01    0.1975333    0.1502971  47.83 0.0005717046    1.183    0.155
        36 -15.0223    143.3836    143.6633   1.1440346605e+02   2.5602731974e+01     1.121302    0.7986131  65.94  0.005461684    1.756    0.431
        37 -13.9195    135.9674    127.3970   1.1280186309e+02   3.0242072552e+01     2.488025    0.3182443 -48.91  0.004491819   11.378    0.912
        38 -14.2196    134.2464    145.6008   1.1696237850e+02   2.7003423154e+01     1.237265     0.405786 -53.33  0.004086086    3.911    0.744
        39 -11.9664    174.4362    148.6927   1.0855412058e+02   1.8619711717e+01    0.2998875    0.2697671  78.66  0.001185024    1.439    0.305
        40 -11.7534     25.0161    225.9198   1.5028071702e+02   2.7223661789e+01     0.210926    0.1268448 -75.28   0.00104932    1.940    0.485
        41 -10.5330    219.3978    224.2258   1.1309112762e+02   1.3763459784e+00    0.1230592   0.09898413 -24.71 0.0004305225    1.616    0.381
        42 -10.4151      1.7240    139.9823   1.5240050602e+02   4.6083359520e+01    0.1620685    0.1342276 -87.01 0.0005300154    1.195    0.163
        43 -11.2949      7.1566    138.4319   1.5084990756e+02   4.6059059348e+01     0.240017    0.2112186  38.99 0.0009237336    1.283    0.220
        44  -9.5697     19.6742    223.1238   1.5121268690e+02   2.8210912893e+01    0.1169679    0.1045089  83.32 0.0009960083    1.426    0.299
        45 -10.7339      7.7656    220.9316   1.5342703589e+02   2.9673528935e+01    0.1002028   0.06915396  76.65 0.0002873102    1.302    0.232
        46 -12.2501    160.7464    128.1649   1.0711759436e+02   2.4921511227e+01    0.3371293    0.3112067 -65.56   0.00189495    1.259    0.205
        47  -9.9868    218.2661    218.6466   1.1246708732e+02   2.0966838018e+00   0.09237176   0.08355539  36.39 0.0003138687    1.625    0.385
        48 -10.8777     23.7729    214.2674   1.5010858370e+02   2.9345008250e+01    0.2446446    0.1271364 -64.81  0.001540561    2.420    0.587
        49 -12.2309    168.8721    202.6439   1.1898227184e+02   1.1440843096e+01    0.2692022    0.1813209  46.30 0.0002168196    1.429    0.300
        50 -13.3452    154.5083    187.6860   1.1962691466e+02   1.5989066675e+01    0.4289704    0.3578833   4.69  0.002733853    1.321    0.243
        51 -10.5902    205.6240    110.1051   9.3964058646e+01   1.8279129301e+01    0.2670716    0.1940008  38.24   0.00071023    1.357    0.263
        52 -13.1458    157.5005    201.8231   1.2109854958e+02   1.3375654497e+01    0.5432609    0.3351658 -67.03  0.002727214    3.150    0.683
        53 -10.4937    157.1149    105.8586   1.0256361023e+02   2.9794557115e+01    0.3867468    0.2422407  72.34  0.001494469    2.499    0.600
        54 -13.0049     11.7556    206.0086   1.5225587359e+02   3.1938538738e+01    0.4304056    0.2537365  23.55  0.002274039    1.961    0.490
        55 -11.3519    125.1614    246.0820   1.3246857831e+02   1.2030412753e+01    0.3336625    0.1324549 -53.30  0.001859903    3.507    0.715
        56 -11.0574    139.1567    249.8190   1.3026697691e+02   9.6586782005e+00    0.2596877    0.1324359  42.72  0.001491789    1.447    0.309
        57 -10.7278     13.5036     59.9427   1.4150751718e+02   6.4391887086e+01    0.1747728    0.1646091 -75.95 0.0004750868    1.097    0.088
        58 -14.1500    150.9919     55.3063   8.8938409241e+01   4.0208778064e+01      1.09979    0.8903455  11.49    0.0010439    1.484    0.326
        59 -10.0566    159.9730    248.7458   1.2643237410e+02   6.9484797195e+00     0.151787    0.1028491  34.21 0.0002233192    1.034    0.032
        60 -12.5970    165.8851     32.4074   7.8374885228e+01   3.9444683030e+01    0.4038442    0.3599676 -11.78  0.000847792    1.220    0.181
