#   1 NUMBER                 Running object number                                     
#   2 MAG_AUTO               Kron-like elliptical aperture magnitude                    [mag]
#   3 X_IMAGE                Object position along x                                    [pixel]
#   4 Y_IMAGE                Object position along y                                    [pixel]
#   5 X_WORLD                Barycenter position along world x axis                     [deg]
#   6 Y_WORLD                Barycenter position along world y axis                     [deg]
#   7 A_WORLD                Profile RMS along major axis (world units)                 [deg]
#   8 B_WORLD                Profile RMS along minor axis (world units)                 [deg]
#   9 THETA_WORLD            Position angle (CCW/world-x)                               [deg]
#  10 FWHM_WORLD             FWHM assuming a gaussian core                              [deg]
#  11 ELONGATION             A_IMAGE/B_IMAGE                                           
#  12 ELLIPTICITY            1 - B_IMAGE/A_IMAGE                                       
         1  -9.8208    141.7892     20.0541   2.9027076431e+02   6.7179045406e+00   0.02507568   0.01132941 -47.33  0.001920322    2.238    0.553
         2 -10.3264    241.5098     18.3083   2.8912400254e+02   6.1594016271e+00    0.0197736   0.01478704  12.21  0.001232261    1.483    0.326
         3  -9.7279    201.8784     11.9891   2.8953743551e+02   6.4625222603e+00   0.01397776   0.01134622  -5.99  0.001597452    1.399    0.285
         4  -8.9258    218.6000     10.8115   2.8933991897e+02   6.3789792082e+00  0.008963756  0.006311842 -76.95 0.0005363921    1.557    0.358
         5  -9.4517    229.0987      9.1992   2.8921072415e+02   6.3365558217e+00   0.01169349  0.009311472 -58.45 0.0006776082    1.221    0.181
         6  -8.8784    139.3303      6.3766   2.9021703633e+02   6.8899388112e+00   0.01389191  0.006594713 -50.42 0.0008512619    2.036    0.509
         7 -10.0025    211.5995      8.1668   2.8940381477e+02   6.4501385690e+00   0.01666888   0.01080984 -75.62  0.001254127    1.720    0.419
         8  -7.7285    111.3122      8.6473   2.9055041128e+02   7.0258603601e+00  0.006991622   0.00492268  66.34 0.0007045156    1.727    0.421
         9  -8.7963    109.1346      2.8331   2.9054052066e+02   7.1055294842e+00     0.010079  0.008926418  65.94 0.0009276725    1.200    0.167
        10  -8.4681    240.3069      2.6453   2.8904388722e+02   6.3469299783e+00   0.00697004  0.004930489  67.05 0.0004381781    1.719    0.418
        11 -10.4998    124.0048    206.0115   2.9158154486e+02   4.6718525463e+00  0.009192563  0.009017509 -67.54            0    1.008    0.008
        12 -10.2925    248.9108    249.1206   2.9041738186e+02   3.4517103160e+00   0.02469488   0.01555276 -52.03  0.002543703    1.535    0.348
        13  -9.1935    241.0377    250.5487   2.9051528953e+02   3.4807544813e+00   0.01596365  0.008432676  23.23 0.0008673851    2.023    0.506
        14  -8.7998    248.4577    233.4655   2.9032939403e+02   3.6351636179e+00   0.01235589   0.00758276 -50.17 0.0007608459    1.589    0.371
        15 -10.2508    243.6062    244.6034   2.9045075862e+02   3.5345744954e+00   0.02547651   0.01628045 -29.22  0.001734447    1.923    0.480
        16 -10.0073    249.0946    238.9903   2.9035503318e+02   3.5676605676e+00   0.02444065   0.01267987 -55.10   0.00176919    1.822    0.451
        17  -9.7034    233.7262    250.5654   2.9059843591e+02   3.5228464038e+00   0.01814784  0.006715353  24.63  0.001384181    2.934    0.659
        18  -9.9871    212.9924    249.6801   2.9082874136e+02   3.6529565184e+00   0.01997435   0.01375619  53.35  0.002083858    1.615    0.381
        19  -9.3108    200.3601    249.5518   2.9097154492e+02   3.7274555810e+00   0.01799485   0.01135796  -0.95  0.001696689    2.167    0.539
        20  -8.4229    196.9837    205.0000   2.9074505644e+02   4.2618892985e+00   0.01075701  0.003750406  27.00 0.0005847267    2.927    0.658
        21  -9.2438    232.5695    195.6822   2.9028498809e+02   4.1636258012e+00    0.0167113   0.01092304  62.47  0.001649683    1.907    0.475
        22  -8.3975    216.3145    195.4963   2.9046867183e+02   4.2598739569e+00   0.01194585  0.005907981 -62.71  0.001071878    1.980    0.495
        23  -8.2011    210.0284    195.7330   2.9054155847e+02   4.2935192139e+00   0.00837894  0.005720124  28.19 0.0004840731    1.486    0.327
        24  -8.7250    237.7267    189.9542   2.9019225207e+02   4.1999375171e+00  0.009232537  0.008835512 -72.69  0.001154559    1.038    0.037
        25  -9.2491    247.8504    194.0372   2.9010152983e+02   4.0941364266e+00   0.01159332  0.009622548  29.12 0.0007570627    1.224    0.183
        26  -8.7586    236.1886    182.1674   2.9016334057e+02   4.2988043294e+00  0.009410024  0.007617105  61.12 0.0008347389    1.353    0.261
        27  -8.6725    139.8667    180.3228   2.9124828474e+02   4.8773412950e+00   0.01105601  0.007845436  48.34  0.001181236    1.495    0.331
        28  -8.7250    249.7879    178.2587   2.8998548482e+02   4.2651713232e+00  0.009321363   0.00736712 -32.17 0.0006184555    1.362    0.266
        29  -9.0774    134.5070    152.4762   2.9114367975e+02   5.2302774801e+00  0.006506116  0.006347379 -49.84 -2.149699e-06    1.012    0.012
        30  -8.1562    118.4659    152.4687   2.9132640335e+02   5.3230127361e+00  0.006517764  0.006315115 -45.74 0.0002149675    1.023    0.022
        31  -8.4931     16.3412    151.6750   2.9248609470e+02   5.9204707237e+00  0.007038286  0.004874461  62.80 0.0007051126    1.731    0.422
        32  -8.9078    241.0672    149.2989   2.8991192054e+02   4.6502143925e+00   0.01147251  0.009292799 -64.72   0.00068444    1.218    0.179
        33  -8.6385    214.6045    150.1783   2.9021811083e+02   4.7934127698e+00  0.009796031  0.005648717 -51.42 0.0006812832    1.675    0.403
        34  -9.1076    235.9724    146.8959   2.8995551225e+02   4.7075044303e+00   0.01499093  0.007710571  43.17  0.001368242    2.031    0.508
        35 -10.6471    248.0920    143.7802   2.8979913470e+02   4.6732209771e+00   0.02145259   0.01756807  -7.74  0.002474189    1.381    0.276
        36  -8.6650    113.3484    135.3064   2.9128260946e+02   5.5509967727e+00  0.006991515  0.004880803 -26.61 0.0004025935    1.702    0.413
        37  -8.9860     96.9702    135.7733   2.9147209796e+02   5.6401304982e+00   0.00889295  0.005462356  25.99 0.0008812135    1.672    0.402
        38  -8.4193    226.4838    134.5286   2.8998964228e+02   4.9053571060e+00  0.006530993  0.006313889 -42.94 0.0002108976    1.029    0.028
        39  -8.8482    121.5477    134.0039   2.9118140065e+02   5.5187051295e+00  0.009972936  0.006293242 -61.40 0.0004320328    1.540    0.351
        40  -8.7766    212.7388    133.0086   2.9013694187e+02   5.0025803418e+00  0.008789902  0.005599811 -62.99 0.0008882135    1.541    0.351
        41  -9.3443    205.3195    131.4500   2.9021207198e+02   5.0635752950e+00    0.0119389  0.005966818 -63.31  0.001074575    1.974    0.494
        42  -8.7926    235.6675    130.1511   2.8985907076e+02   4.9026703695e+00   0.01128764  0.008458078  38.43 0.0005035882    1.348    0.258
        43  -8.3659    138.2950    128.3435   2.9095683415e+02   5.4873705158e+00  0.006986811   0.00479557 -32.15 0.0004596783    1.664    0.399
        44  -8.5692    200.4382    126.4449   2.9023777090e+02   5.1496788056e+00   0.01539792  0.006103671 -60.81  0.001256603    2.394    0.582
        45  -8.7628    117.4851    125.4694   2.9117689703e+02   5.6408342170e+00  0.006476658  0.006368465 -73.17 0.0001776636    1.013    0.013
        46  -9.3601    212.0786    123.7305   2.9008910097e+02   5.1135826988e+00  0.009283312  0.008567207  25.10 0.0005520229    1.107    0.097
        47  -7.9321    240.3145    123.6638   2.8976750267e+02   4.9506369274e+00  0.006943429  0.004931683  65.47 0.0007046892    1.692    0.409
        48  -8.7541    171.6175    122.1526   2.9054031640e+02   5.3661694626e+00   0.01021808  0.005471234 -51.03  0.000954626    1.804    0.446
        49  -8.6809    160.6572    122.7011   2.9066842899e+02   5.4232598664e+00    0.0069235  0.004898142 -26.26  0.000670683    1.671    0.402
        50  -9.0118    232.3062    121.0591   2.8984303097e+02   5.0271642720e+00  0.009629197  0.008205486 -65.12  0.001135521    1.158    0.136
        51  -8.1787     78.3342    121.6665   2.9160069991e+02   5.9107255325e+00  0.007039576  0.004891547  63.75 -0.0006700263    1.735    0.424
        52  -9.4703    192.3234    118.4492   2.9028244885e+02   5.2890613233e+00   0.01422869   0.01186286  47.90  0.000953036    1.241    0.194
        53  -8.1849    204.3362    116.7094   2.9013531999e+02   5.2395556686e+00  0.006863582  0.004878846  60.74 0.0003515448    1.638    0.389
        54  -8.8694    179.1365    115.8635   2.9041717897e+02   5.3953065392e+00  0.009386309  0.007679235 -22.32  0.001069854    1.353    0.261
        55  -8.7642    220.2931    114.6259   2.8994129306e+02   5.1711223068e+00   0.01057033  0.007451863  64.82 0.0007087133    1.706    0.414
        56  -9.8264    153.6580    114.6298   2.9070005593e+02   5.5570267917e+00   0.01448246   0.01050534  63.07  0.001243636    1.611    0.379
        57  -9.0897    108.5183    114.4646   2.9121359966e+02   5.8198303418e+00   0.01284043    0.0049924 -51.19  0.001034493    2.435    0.589
        58  -8.6318    209.7449    114.5345   2.9006078105e+02   5.2333301028e+00   0.00933702  0.005874985  41.07 0.0007776259    1.617    0.382
        59  -8.2028    241.4628    112.4933   2.8968774679e+02   5.0729598461e+00  0.006497134  0.006342157 -87.60 0.0001768921    1.032    0.031
        60  -8.9170     25.7543    111.5589   2.9214056529e+02   6.3303440898e+00    0.0125559    0.0089874  -8.30  0.001305365    1.739    0.425
        61  -8.8854    190.4947    108.5082   2.9024395782e+02   5.4144945319e+00  0.006548039  0.006309385 -42.19 -0.0001501788    1.033    0.032
        62  -8.3772    236.9781    107.5098   2.8970899231e+02   5.1565206034e+00   0.01003111  0.006585185  22.53  0.001028725    1.605    0.377
        63  -9.6140    197.2287    106.9105   2.9015775076e+02   5.3939314110e+00  0.009992664  0.008838897  78.74 0.0005338485    1.210    0.173
        64  -8.4904    214.1382    105.1282   2.8995463294e+02   5.3164965191e+00  0.008866927  0.007648915  73.10 0.0004380881    1.258    0.205
        65  -8.8469    139.6774    105.6748   2.9080599547e+02   5.7413721538e+00  0.006998145  0.004848944 -29.28 0.0003542639    1.685    0.407
        66  -9.1060    119.5034    104.9600   2.9103172312e+02   5.8662410778e+00  0.009945773  0.006331264 -61.65  0.000642369    1.529    0.346
        67  -9.1350    228.7748    104.4167   2.8978383663e+02   5.2398254544e+00   0.01227152  0.005999901  32.67 0.0006633674    2.002    0.501
        68 -10.0985    150.9887    103.6451   2.9066497681e+02   5.6994016720e+00   0.01981657  0.009605005  53.56   0.00160841    2.760    0.638
        69  -8.6094    247.0962    102.7966   2.8956576676e+02   5.1522175999e+00  0.009993592  0.008624784  69.95 0.0005623495    1.254    0.202
        70 -10.4653    130.7548    102.4525   2.9088849841e+02   5.8301959972e+00   0.01401725   0.01158179  19.91  0.001637244    1.260    0.206
        71  -7.7929    108.6632    106.7024   2.9116571623e+02   5.9087167379e+00  0.006892359  0.004898437 -26.53 0.0004173553    1.654    0.396
        72  -8.6006    112.0076    102.0095   2.9109961886e+02   5.9436420057e+00  0.007944535  0.007817114  21.87  0.001003247    1.037    0.036
        73  -8.6701    181.8012    104.3851   2.9031835383e+02   5.5124828001e+00  0.009087135   0.00638028  11.44 0.0009454019    1.625    0.385
        74  -9.6867    205.1317     98.3072   2.9001642230e+02   5.4474880431e+00   0.01340238   0.01074186 -43.28   0.00154035    1.258    0.205
        75  -9.2435    171.8407     96.2659   2.9038336295e+02   5.6639595960e+00   0.01127195  0.006323344  65.14 0.0006796033    2.701    0.630
        76  -7.8836    218.4315     95.4648   2.8984806644e+02   5.4031878407e+00  0.006472229  0.006309491 -79.04  0.000182588    1.025    0.025
        77  -9.9653    150.6765     92.7750   2.9060370126e+02   5.8267991515e+00   0.01171525   0.01053579  37.97 0.0005789538    1.129    0.114
        78  -8.8379    174.4318     89.2486   2.9031196240e+02   5.7300105518e+00  0.008883282  0.006353781 -79.49 0.0004761328    1.556    0.357
        79  -8.6741    227.5149     87.9930   2.8970006604e+02   5.4367554667e+00   0.00934223  0.005654666  82.86 0.0008092409    2.476    0.596
        80  -9.1936    207.0879     87.6818   2.8993069956e+02   5.5588424522e+00  0.009327112  0.008407112  28.08  0.000407666    1.130    0.115
        81  -8.6582    164.3863     88.1579   2.9041991019e+02   5.8007825203e+00  0.009296956  0.006274071 -78.42 0.0006872337    1.675    0.403
        82  -9.4297    218.0172     86.1351   2.8979705184e+02   5.5133091626e+00   0.01392634   0.00661164 -55.23  0.001246911    1.976    0.494
        83  -9.1871    108.2074     86.1963   2.9104872337e+02   6.1483356633e+00   0.01170192  0.006190349 -29.03 0.0009467626    2.793    0.642
        84  -8.3397    185.3277     85.3109   2.9016433371e+02   5.7123633676e+00  0.009967693  0.006236409 -46.93 0.0006996474    1.599    0.375
        85  -9.0780    186.3331     82.0097   2.9013316961e+02   5.7446601375e+00   0.01720868  0.009241933  87.70  0.001303401    3.369    0.703
        86  -9.9029    172.2147     84.3452   2.9030795241e+02   5.7994866232e+00    0.0131828  0.009329652  60.56 0.0009228211    1.647    0.393
        87  -9.8039    104.1992     83.1980   2.9107657447e+02   6.2061292223e+00    0.0117047  0.007089462  63.41  0.001069212    2.218    0.549
        88  -7.8241    232.5012     82.4654   2.8961030098e+02   5.4716246897e+00  0.006583221  0.006253976 -36.62 6.174974e-05    1.059    0.056
        89  -8.6984    196.0735     82.4989   2.9002515509e+02   5.6825523267e+00  0.009600221  0.006459073  28.33  0.000464658    1.506    0.336
        90  -8.9740     73.4812     81.4964   2.9141695823e+02   6.4030561943e+00  0.006485372  0.006364038 -68.98  0.000810361    1.010    0.010
        91  -7.9475    244.7301     80.6793   2.8946050959e+02   5.4212445883e+00  0.006752051  0.004804482 -33.28 0.0002262165    1.565    0.361
        92  -8.5632    140.5385     84.4808   2.9066978696e+02   5.9812728714e+00   0.00650524  0.006328322  85.83 0.0001905402    1.041    0.040
        93  -8.3744    240.1027     77.0704   2.8949157355e+02   5.4897630727e+00  0.009366861  0.007248583  -6.48 0.0007217477    1.517    0.341
        94  -8.9997    190.1890     77.1359   2.9006014083e+02   5.7785908471e+00  0.009294466  0.007632637  72.08 0.0004783816    1.360    0.265
        95  -9.1850    158.1454     76.7253   2.9042279693e+02   5.9689654671e+00   0.01273354   0.01229652  65.46  0.001610511    1.058    0.055
        96 -10.9134    138.1982     75.1965   2.9064107652e+02   6.1020600221e+00   0.02263772   0.01351132  13.57  0.002162274    2.007    0.502
        97  -9.9888     62.9841     75.4624   2.9150084173e+02   6.5332980109e+00   0.01305858   0.00944829  89.55  0.001375547    1.649    0.393
        98  -8.6471    208.0528     74.3292   2.8983994440e+02   5.7074079163e+00   0.01034025  0.008069677  -7.33 0.0005656971    1.496    0.332
        99 -10.1990     81.2901     71.4303   2.9126785413e+02   6.4743335497e+00   0.01769148   0.01010874  75.73  0.001448994    2.914    0.657
       100  -8.9786    230.7572     71.8078   2.8956644326e+02   5.6047570859e+00  0.009105399  0.007550289  70.33 0.0005276079    1.336    0.251
       101  -8.8673    170.5848     71.3706   2.9024905580e+02   5.9587658741e+00   0.01302325  0.006547263 -69.52  0.001058823    2.182    0.542
       102  -9.0532    127.3267     72.6667   2.9074995971e+02   6.1941571729e+00  0.006997323  0.004908215  64.28 0.0007051486    1.715    0.417
       103  -8.8559    107.1770     71.8388   2.9097487530e+02   6.3201725370e+00  0.009180689  0.007712186 -20.64 0.0007620332    1.304    0.233
       104  -9.6065    188.4914     70.0803   2.9003733023e+02   5.8698959947e+00    0.0119138   0.01145026 -76.83  0.001501904    1.039    0.038
       105  -9.9373    216.3935     69.2897   2.8971487132e+02   5.7171890000e+00    0.0251556   0.01239692  32.33  0.002309629    1.990    0.497
       106  -9.0488    239.2919     68.3895   2.8944889898e+02   5.5946504624e+00   0.01201679  0.008612242 -61.50 0.0006765499    1.361    0.265
       107 -10.2044     43.8298     68.6213   2.9167880879e+02   6.7226837005e+00   0.01529583   0.01222918   2.37  0.001429363    1.406    0.289
       108  -8.9979    234.4922     67.4565   2.8949792972e+02   5.6332887317e+00  0.006536238   0.00629116 -38.86 9.540493e-05    1.040    0.038
       109  -7.8877    177.3075     67.3176   2.9014824300e+02   5.9666140047e+00  0.006890598   0.00485852 -29.82 0.0006750761    1.633    0.388
       110  -8.7512    156.9701     69.9338   2.9039564779e+02   6.0542061476e+00   0.01091464  0.007742636  65.86  0.001130813    1.699    0.412
       111  -9.4785    202.5062     61.9327   2.8982901814e+02   5.8826798247e+00   0.01457394  0.008425581  33.23  0.001434332    1.714    0.416
       112  -8.9439    174.3764     59.4128   2.9013441944e+02   6.0748638235e+00   0.01104521  0.009905259  64.90 0.0006837502    1.176    0.150
       113  -8.9065    231.3571     59.0346   2.8948324522e+02   5.7486753978e+00  0.009481465  0.008645098 -69.78 0.0004931024    1.090    0.083
       114  -9.5821     73.1893     59.6293   2.9128999061e+02   6.6573997477e+00  0.009251737  0.006333323  11.25 0.0008178522    1.684    0.406
       115  -8.9324    139.6095     55.6113   2.9050807361e+02   6.3200870418e+00   0.01393911  0.003955255 -49.79 0.0009559877    3.365    0.703
       116  -8.7850    132.5093     58.4459   2.9060597897e+02   6.3284325437e+00  0.006508636  0.006306323 -39.27  0.000205415    1.031    0.030
       117  -9.0250    155.5588     54.3472   2.9031865342e+02   6.2423568054e+00   0.02009195  0.009985332  45.46  0.001786456    2.187    0.543
       118  -8.1775    118.6674     55.6886   2.9074742447e+02   6.4403184921e+00  0.006955527  0.004874553 -27.76 0.0006292903    1.676    0.403
       119  -8.6802     90.6766     55.6699   2.9106674690e+02   6.6022346736e+00  0.007026672  0.004834658 -29.49 0.0007049875    1.699    0.411
       120  -9.5392    234.1649     52.6935   2.8941336903e+02   5.8055304608e+00   0.01360636  0.009933376 -19.47  0.001442835    1.652    0.395
       121  -9.2221    149.5221     52.4815   2.9037634052e+02   6.2988497096e+00   0.01117241   0.01089562 -47.72 0.0005911656    1.015    0.015
       122  -8.6506    105.8502     52.3401   2.9087369595e+02   6.5530633049e+00   0.01084654  0.007894139  48.70  0.001175145    1.455    0.313
       123 -10.1584    194.9146     48.6237   2.8983592778e+02   6.0803227374e+00   0.01863282   0.01109023 -70.78  0.001812429    1.804    0.446
       124  -9.0549    221.2001     44.5188   2.8951203664e+02   5.9751333208e+00   0.01478467  0.009083747 -31.51  0.001409942    1.997    0.499
       125  -8.7254    190.0658     44.4994   2.8986650899e+02   6.1560442278e+00  0.009695725  0.006522408  25.57 0.0004926841    1.529    0.346
       126  -8.8623    132.3036     43.9364   2.9052168574e+02   6.4971584114e+00  0.009344202  0.008431112 -58.83 0.0005016797    1.083    0.077
       127  -8.5754    184.0049     43.1386   2.8992743324e+02   6.2068966261e+00   0.01149437  0.006806432  52.52  0.001086852    1.965    0.491
       128  -9.2971    104.6348     39.8242   2.9081286536e+02   6.7046108561e+00   0.01403972  0.009704729  80.27  0.001415535    1.855    0.461
       129  -9.4604      5.0187     39.4413   2.9194849218e+02   7.2829931924e+00   0.02288582  0.006356359 -54.34  0.001638469    3.121    0.680
       130  -9.6704    174.5435     40.4546   2.9001921414e+02   6.2927264399e+00   0.01522319   0.00765336  37.02  0.001400014    1.961    0.490
       131  -9.5236     94.6871     38.5977   2.9091910173e+02   6.7762348176e+00   0.01833257   0.01150519 -44.49  0.001859508    1.631    0.387
       132  -8.1209     68.4768     40.4913   2.9122969016e+02   6.9056232316e+00  0.006509954  0.006330818 -48.70  8.20007e-05    1.015    0.015
       133  -9.4875    248.5537     38.1386   2.8916256710e+02   5.8898076233e+00   0.01203915   0.01077173   2.64 0.0006000307    1.190    0.159
       134  -9.4518    242.4056     38.0345   2.8923189258e+02   5.9267420958e+00   0.01079226  0.009219842   0.56 0.0004723257    1.279    0.218
       135  -8.7939    204.6813     38.6799   2.8966521214e+02   6.1383945664e+00  0.006945929  0.004860034 -29.13 0.0007042562    1.664    0.399
       136  -9.0564    229.7308     37.1088   2.8937059678e+02   6.0110656898e+00    0.0136795  0.009351528  18.63 0.0007030715    1.584    0.369
       137  -8.9207    218.2300     34.4461   2.8948559250e+02   6.1085773234e+00   0.01156409  0.008935029 -65.62  0.000574561    1.285    0.222
       138  -7.9414    149.4836     35.5528   2.9027563640e+02   6.4944931673e+00  0.006483704  0.006328307  78.57 0.0001550936    1.040    0.039
       139  -9.5407    111.8716     34.8136   2.9070034810e+02   6.7206368289e+00   0.01638741  0.008842701  55.33   0.00131549    2.390    0.582
       140  -8.5338    160.4019     34.2421   2.9014329322e+02   6.4463779919e+00  0.008764714  0.006316035 -76.59 0.0006089548    1.503    0.335
       141  -9.1876    164.3889     32.7227   2.9008875083e+02   6.4408090858e+00   0.01477235   0.01092176  17.01   0.00105335    1.457    0.313
       142  -8.8491    105.1088     34.3077   2.9077451975e+02   6.7655622283e+00   0.01093289  0.008632628  -7.01  0.001220022    1.464    0.317
       143  -8.4503    194.1880     30.1991   2.8973402079e+02   6.2971298389e+00  0.009269892  0.007674211  65.07 0.0006792925    1.324    0.245
       144  -8.9412    170.5371     29.9403   2.9000202076e+02   6.4372822956e+00   0.01008183  0.006317924 -61.80 0.0004519073    1.556    0.357
       145 -10.7122    223.2396     23.4959   2.8936302322e+02   6.2057702142e+00   0.02075347   0.01302953  18.70  0.002085808    1.756    0.431
       146  -8.9119    119.4790    248.0150   2.9188227710e+02   4.2121816931e+00  0.009841315  0.004618836 -41.53 0.0005458509    2.441    0.590
       147  -9.0754    206.3879     20.3145   2.8953589332e+02   6.3403320318e+00   0.01379878  0.009656337 -57.11  0.001101955    1.379    0.275
       148  -8.2781    191.2845     21.6578   2.8971600496e+02   6.4125058156e+00  0.006795375  0.004965161  68.65 0.0007016566    1.638    0.390
       149  -8.5249    249.7836     22.2074   2.8905320762e+02   6.0663447483e+00  0.009543018  0.007655574 -26.53  0.001077846    1.374    0.272
       150  -9.9726    234.3517    243.9935   2.9055225249e+02   3.5951517922e+00   0.02129274   0.01446462 -22.22  0.001754378    1.846    0.458
       151  -8.5767     75.6684     16.3183   2.9100329822e+02   7.1432184473e+00   0.00695287  0.004896509  62.99 0.0007047919    1.690    0.408
       152  -8.8542     63.9295     15.5076   2.9113257046e+02   7.2202872647e+00   0.01032329  0.006455136  27.79  0.001043085    1.622    0.383
       153  -8.7874    131.3900     13.7352   2.9035164489e+02   6.8510126473e+00  0.009449783  0.005755066 -52.29 0.0009248069    1.584    0.369
       154  -8.5433    219.4094    244.7294   2.9072639597e+02   3.6730625581e+00  0.009765486  0.005726367 -51.84 0.0008203303    1.645    0.392
       155  -8.3545    175.9579     13.0042   2.8983892042e+02   6.6012303001e+00  0.007750832  0.007708185 -51.21 0.0005122547    1.015    0.014
       156  -8.8614    192.9920    244.7639   2.9102685452e+02   3.8253719629e+00   0.00900652  0.005522474  26.67 0.0008931828    1.667    0.400
       157  -8.7851    246.4710     10.5026   2.8902080299e+02   6.2205272776e+00  0.006480878  0.006354253 -76.49 0.0006466532    1.017    0.016
       158  -9.9047    242.0908    237.0029   2.9042276054e+02   3.6311409994e+00   0.02086387   0.01132962 -38.37  0.001346766    2.140    0.533
       159  -8.4620    195.4835    239.4894   2.9096719014e+02   3.8719351077e+00  0.006509262  0.006345073  85.43 6.678436e-06    1.039    0.037
       160  -7.9897    168.6645    216.3191   2.9113449661e+02   4.2947649867e+00  0.006987248  0.004893113  62.84 0.0007049207    1.702    0.412
       161  -8.9473     87.1433     15.7959   2.9086910904e+02   7.0830156204e+00   0.00938083  0.007538339 -34.25 0.0007342858    1.316    0.240
       162  -8.8355    185.7352    213.3418   2.9092260933e+02   4.2305164401e+00   0.01215135  0.008023191 -76.04 0.0008389176    1.682    0.405
       163  -8.3783    214.4995    210.5305   2.9057879536e+02   4.0966455389e+00  0.006557093   0.00628966 -39.29 0.0001228677    1.042    0.041
