#   1 NUMBER                 Running object number                                     
#   2 MAG_AUTO               Kron-like elliptical aperture magnitude                    [mag]
#   3 X_IMAGE                Object position along x                                    [pixel]
#   4 Y_IMAGE                Object position along y                                    [pixel]
#   5 X_WORLD                Barycenter position along world x axis                     [deg]
#   6 Y_WORLD                Barycenter position along world y axis                     [deg]
#   7 A_WORLD                Profile RMS along major axis (world units)                 [deg]
#   8 B_WORLD                Profile RMS along minor axis (world units)                 [deg]
#   9 THETA_WORLD            Position angle (CCW/world-x)                               [deg]
#  10 FWHM_WORLD             FWHM assuming a gaussian core                              [deg]
#  11 ELONGATION             A_IMAGE/B_IMAGE                                           
#  12 ELLIPTICITY            1 - B_IMAGE/A_IMAGE                                       
         1 -13.3576    214.6521     26.1684   1.9561913136e+01   2.8846400243e+01    0.8098391    0.6548432 -38.11   0.00524082    1.129    0.115
         2 -10.8021     71.4911      7.4773   3.2483135979e+01   6.6478047152e+01    0.1377668    0.1305569  61.18 9.382262e-05    1.019    0.018
         3 -11.7276     58.0018      4.2845   3.4898394826e+01   7.0101904065e+01    0.2028972    0.1761039  54.03  0.001188655    1.086    0.079
         4 -11.1166     53.0862    231.4542   9.3890237937e+01   1.9603640920e+01    0.2718206    0.1379714 -65.55  0.001316844    2.332    0.571
         5 -12.8519    249.1481    246.3600   5.8712299430e+01  -3.9575268467e+00    0.5847433    0.3126929   2.30  0.004393146    1.514    0.340
         6 -13.4572    248.8222    235.5020   5.7264935799e+01  -2.8861427598e+00    0.8738114    0.3120034 -21.77  0.004852768    2.841    0.648
         7 -15.6066    121.3650    235.9614   7.9598932913e+01   1.0954259178e+01     4.612329     3.872872 -72.66    0.0331986    1.665    0.399
         8 -19.0305     21.3788    125.7619   9.4501929988e+01   4.7383901208e+01     18.78844      3.12981 -78.74     0.042819    6.904    0.855
         9 -11.3167     88.3706    220.0921   8.5064684661e+01   1.7643194202e+01    0.3864169    0.2478108  25.36   0.00226262    1.384    0.277
        10  -9.8549    190.6603    215.3043   6.3542038813e+01   5.4989393216e+00    0.1876627   0.09853757 -40.38   0.00109428    2.073    0.518
        11  -8.3073     54.0633    205.2606   9.1830849650e+01   2.4600530540e+01    0.4993375   0.09610929  48.67  0.001451229    5.367    0.814
        12  -9.8195    210.9495    198.6869   5.7494867721e+01   5.2484985259e+00    0.1546551    0.1195899   6.83 0.0004638559    1.100    0.091
        13 -12.5713     82.9880    196.2206   8.3842214525e+01   2.2950259755e+01    0.3626564    0.2614693 -62.32 0.0009878807    1.565    0.361
        14 -15.8663     68.7993    143.7453   8.0829076396e+01   3.7022213127e+01     2.692111     2.049604  61.11   0.01228364    1.321    0.243
        15 -11.9069     47.5854    229.8081   9.5009652500e+01   2.0485248655e+01    0.3006471    0.2104075 -88.80  0.001981251    1.621    0.383
        16 -11.4804      3.1263    192.8271   1.0382999278e+02   3.2201944867e+01    0.3205592    0.1762731  -9.72   0.00149836    3.207    0.688
        17 -11.6860     55.4870    236.5374   9.3682505575e+01   1.8432967599e+01    0.1977542    0.1350894  84.11  0.001293544    1.697    0.411
        18 -11.8079     74.5993    183.1543   8.4488774743e+01   2.6840039838e+01     0.460861    0.4311432  39.77  0.002899396    1.079    0.073
        19 -10.2155     50.9692    185.9485   9.1020605667e+01   2.9134353622e+01     0.210071     0.145612  51.15 0.0006013694    1.263    0.208
        20 -10.8298     51.7748    180.7608   9.0335093737e+01   3.0224719505e+01    0.3316469    0.1767215 -87.60 0.0007381866    2.172    0.540
        21 -13.0210     97.4937    177.0208   7.7742308199e+01   2.4987591398e+01    0.7223299    0.4457687 -88.40 0.0009161204    2.547    0.607
        22 -12.7460     87.3882    171.2973   7.9573390365e+01   2.7719491196e+01     1.492201    0.8303329  16.26  0.006273938    2.380    0.580
        23 -11.5626     87.8372    162.8217   7.8210554720e+01   2.9586051985e+01     0.264123    0.2364858  57.20 0.0006077859    1.078    0.073
        24 -11.9348     91.6539    160.3336   7.6774280438e+01   2.9581939145e+01    0.4287939    0.2833401  76.77  0.001071974    2.081    0.520
        25 -11.6605    101.4951    163.0433   7.4557915690e+01   2.7440102845e+01    0.4132195    0.2218138 -64.98  0.001202535    2.219    0.549
        26 -11.6507     97.2527    162.1470   7.5543162511e+01   2.8303418451e+01    0.3395573    0.2450156  45.12 0.0003192978    1.321    0.243
        27 -11.8166     59.3503    181.2151   8.8332707385e+01   2.9215135870e+01      0.43354    0.2922816   0.43  0.001826905    2.088    0.521
        28 -11.3541    173.3852    177.6423   6.0651026856e+01   1.3354758827e+01     0.398067    0.3050202 -50.97  0.002276652    1.621    0.383
        29 -11.5827    145.7765    178.8864   6.6560689866e+01   1.7294406136e+01    0.2281917    0.1899525 -69.92   0.00102737    1.624    0.384
        30 -11.1786     59.6354    229.7264   9.2323796798e+01   1.9214091567e+01    0.2007531    0.1374154 -44.75  0.001240511    1.959    0.490
        31 -10.3277     37.4548    176.2848   9.3879792226e+01   3.2865049257e+01    0.2746173     0.168298  27.99  0.001419987    1.558    0.358
        32 -12.3621    104.2414    172.5153   7.5347393140e+01   2.4947259429e+01    0.3256827    0.2869005  49.65  0.001043009    1.115    0.103
        33 -10.2963     46.3786    173.5193   9.1151286633e+01   3.2542993369e+01    0.2503708    0.2087668 -44.14  0.001456797    1.450    0.310
        34 -13.0520    111.6245    168.4611   7.2830578873e+01   2.4671388348e+01    0.5908951    0.3777032  79.65  0.002457956    2.826    0.646
        35 -11.0838    178.7243    167.5501   5.7791596892e+01   1.4206297337e+01    0.3156153    0.1998411  30.38  0.001728342    1.564    0.361
        36 -11.0559     52.5546    169.1911   8.8977710223e+01   3.2856620459e+01    0.4394082      0.26752 -76.84  0.001672466    1.712    0.416
        37  -9.5344    191.4075    232.2391   6.5824625308e+01   3.2518443575e+00    0.1196442   0.09634738 -26.59 0.0002578045    1.441    0.306
        38 -10.3413     59.9693    164.0241   8.6268960386e+01   3.3185442263e+01    0.2263661    0.1897917  57.91 0.0006805311    1.091    0.084
        39  -9.6245    167.4152    156.2212   5.7839623297e+01   1.7932317531e+01    0.1769761    0.1237939 -48.71 0.0004530116    1.566    0.361
        40 -11.2040    111.9209    150.4337   6.9586393446e+01   2.8548026418e+01    0.3765879    0.2444493  68.36  0.001597066    2.288    0.563
        41 -10.8311    102.2315    151.8707   7.2446792364e+01   2.9845224477e+01    0.2186258    0.1918909  69.80 0.0006890724    1.216    0.178
        42 -11.1658    134.1150    148.6309   6.3653126497e+01   2.5086367943e+01    0.4076497     0.214311 -51.54 0.0009739564    2.012    0.503
        43 -11.2755    133.5658    143.7804   6.2796367164e+01   2.6189443930e+01    0.4027716    0.2187297 -55.54   0.00169982    2.096    0.523
        44 -10.3784    154.7969    146.6593   5.8542868630e+01   2.1835180974e+01    0.3627488     0.223686 -71.43  0.001354687    3.567    0.720
        45 -11.5893    108.7862    145.3869   6.9459598120e+01   3.0220213206e+01    0.2979041     0.284825  34.59 0.0006594129    1.024    0.023
        46 -12.2614    106.3745    131.6004   6.7318689343e+01   3.3829013925e+01    0.5664213    0.4097967 -66.24  0.002430632    1.529    0.346
        47 -11.7691     96.2897    131.4224   7.0190518965e+01   3.5675245434e+01    0.2861927     0.263205  17.62 0.0008656312    1.172    0.147
        48 -11.5711     86.3080    129.8300   7.2883932682e+01   3.7786030594e+01    0.4151874    0.2837748 -22.53  0.001347484    2.155    0.536
        49 -11.6452    133.9111    128.0935   5.9291023282e+01   2.9423128921e+01    0.3895697    0.3660204  41.36  0.002126511    1.083    0.077
        50 -10.4183    115.0475    125.9100   6.3656525927e+01   3.3527265864e+01    0.2366797    0.1866551  -9.22 0.0007496567    1.641    0.390
        51 -10.4216    102.5483    120.9664   6.6054471669e+01   3.7046999790e+01    0.2664056    0.2150883  17.50 0.0007074633    1.458    0.314
        52 -10.3888    109.3246    115.8741   6.2882576344e+01   3.6943294664e+01    0.2700379    0.2016478  52.75 0.0007012864    1.394    0.282
        53 -12.2309     65.8459    115.6375   7.6772106816e+01   4.4753825377e+01    0.3880402    0.2573206  55.87  0.001120503    1.612    0.379
        54 -10.3570     53.6651    241.1922   9.4356984333e+01   1.7806310457e+01    0.1373318     0.110951 -43.11 0.0009692949    1.681    0.405
        55 -10.0852     99.0895    108.3810   6.4040910244e+01   4.0718998075e+01     0.218911    0.1924161  51.63 0.0008582536    1.144    0.126
        56 -11.7597    112.6811     99.7477   5.7730703062e+01   3.9952821772e+01    0.4943337    0.2988306  71.97  0.001755532    2.821    0.646
        57  -9.7317     77.3192    101.6912   6.9513908096e+01   4.6465396444e+01    0.1616641     0.119311  74.49 0.0004917596    1.640    0.390
        58  -9.3330     77.3021     97.6690   6.8481171560e+01   4.7488333532e+01    0.1618316    0.1204789  78.91 0.0005909031    1.651    0.394
        59  -9.6105    106.6321     95.3050   5.8230365326e+01   4.2239637538e+01    0.1644219    0.1232775  84.39 0.0007035091    1.748    0.428
        60 -11.0294    130.5972     92.1980   5.0858819051e+01   3.7670401541e+01    0.4527039    0.2974267 -88.24  0.001712261    2.643    0.622
        61 -11.5623     52.8507     84.9632   7.4714827293e+01   5.4861704591e+01    0.6472969    0.2530903  41.21  0.002285512    2.579    0.612
        62  -9.7696     92.9439     85.4494   5.9580709992e+01   4.7397036617e+01    0.2264421    0.1337504  66.44 0.0008080934    2.516    0.603
        63 -11.4509     76.4114     80.8958   6.3989320049e+01   5.1815371758e+01    0.3108642    0.2415498  56.23 0.0003711744    1.360    0.264
        64 -10.2430    111.9888     74.1567   5.0153937179e+01   4.5640837461e+01     0.260302    0.1869696  22.44  0.001100436    1.964    0.491
        65 -12.4335    173.2910     65.6950   3.4701977242e+01   3.2671068913e+01     0.378976    0.3177257 -53.74 0.0007726118    1.099    0.090
        66 -13.3863    189.7977     52.5219   2.8792626461e+01   3.0895590590e+01    0.9614518    0.8135746  17.32  0.003802359    1.535    0.349
        67 -11.9735    195.6153     46.7782   2.6581253458e+01   3.0391749159e+01    0.3774313    0.3140075  21.67  0.001265464    1.597    0.374
        68 -10.2431     94.4156    243.3458   8.5896270674e+01   1.2961665814e+01    0.1630476    0.1087455 -52.61 0.0009451265    1.885    0.470
        69 -10.6678     60.7654     21.5725   4.4776277341e+01   6.7235649729e+01    0.1987371    0.1365115  66.26 0.0009491622    1.659    0.397
        70 -10.6426     61.4420    241.9349   9.2745125505e+01   1.6857631896e+01    0.1381053   0.09420507 -42.36 0.0008749908    2.039    0.510
