#   1 NUMBER                 Running object number                                     
#   2 MAG_AUTO               Kron-like elliptical aperture magnitude                    [mag]
#   3 X_IMAGE                Object position along x                                    [pixel]
#   4 Y_IMAGE                Object position along y                                    [pixel]
#   5 X_WORLD                Barycenter position along world x axis                     [deg]
#   6 Y_WORLD                Barycenter position along world y axis                     [deg]
#   7 A_WORLD                Profile RMS along major axis (world units)                 [deg]
#   8 B_WORLD                Profile RMS along minor axis (world units)                 [deg]
#   9 THETA_WORLD            Position angle (CCW/world-x)                               [deg]
#  10 FWHM_WORLD             FWHM assuming a gaussian core                              [deg]
#  11 ELONGATION             A_IMAGE/B_IMAGE                                           
#  12 ELLIPTICITY            1 - B_IMAGE/A_IMAGE                                       
         1 -12.9563     67.0182    129.7854   9.8090239561e+01   4.0829825668e+01     4.203438     2.239493  82.01   0.01111122    6.355    0.843
         2 -13.3961    202.1232     48.9571   4.3796352934e+01   2.8956384541e+01     1.731975     1.188355  40.56  0.009045399    1.800    0.444
         3 -13.7549    217.5157     34.8089   3.8574804483e+01   2.7395545308e+01     1.002625    0.7641983  78.17  0.004740368    1.277    0.217
         4 -13.5416    224.2751     28.1699   3.6393550328e+01   2.6754229362e+01    0.8364972    0.6103367  57.84  0.001487336    1.518    0.341
         5 -13.7629    241.2124     12.7323   3.1708794793e+01   2.5024323095e+01    0.7352279    0.5389877 -64.38  0.002632366    1.120    0.108
         6 -10.7579      2.0000     12.9573   9.1017788890e+01   7.2043804330e+01    0.2970526   0.05249485 -49.40  0.001050113    4.923    0.797
         7  -9.6081     49.1954    236.8915   1.1621089323e+02   1.8216781630e+01    0.2286396    0.1663438 -21.42    0.0013221    2.496    0.599
         8 -15.3404      4.9980    176.7687   1.2080764850e+02   3.5620523609e+01     7.762998     1.075047 -73.55   0.02408788    5.106    0.804
         9 -12.9541     87.0262    224.5579   1.0727190317e+02   1.5854305614e+01     1.204901    0.3278818  44.00  0.004459832    3.213    0.689
        10 -14.0588      9.7286    207.1875   1.2189532650e+02   2.8452654507e+01    0.9248868    0.8462211  48.98  0.003650317    1.321    0.243
        11 -14.6879     77.8378    248.2191   1.1158165608e+02   1.2499315462e+01     8.063512      2.94061  23.82   0.01773073    7.263    0.862
        12 -11.4608     44.7506    218.0874   1.1556270786e+02   2.2573242734e+01    0.5198334    0.3276261  41.06  0.002697767    1.488    0.328
        13 -15.1236     33.6512    196.1189   1.1601308143e+02   2.8600890392e+01     3.117851     1.623597  64.20   0.01237103    2.001    0.500
        14  -8.8864     30.3620    232.1362   1.1949705705e+02   2.1257659965e+01    0.1610828   0.08973636  86.56 0.0006908259    1.711    0.415
        15 -13.1803     85.1157    231.7070   1.0846669073e+02   1.4684983247e+01      1.54797    0.8797145  78.64  0.002010396    2.501    0.600
        16  -9.8646     23.2624    223.9805   1.2031765597e+02   2.3642995387e+01    0.2965426    0.1359552  64.03  0.001556298    2.091    0.522
        17  -9.0359    109.5629    201.4803   9.9194343010e+01   1.7376314266e+01    0.1359028    0.1277772  55.21 0.0001014904    1.020    0.020
        18 -10.1322    192.2666    193.6099   7.9355150221e+01   5.0977538518e+00    0.5485133    0.2814213 -62.25  0.001479577    7.085    0.859
        19  -9.2326     57.0907    194.0807   1.1048479080e+02   2.6421070316e+01    0.2097176    0.1357575  69.24 0.0005571803    1.624    0.384
        20  -8.6254     80.3675    182.7316   1.0343213319e+02   2.5997140639e+01    0.1455722   0.09782071  63.08 0.0006994127    1.660    0.398
        21 -11.8091     53.6104    179.7910   1.0963683801e+02   3.0182715730e+01    0.4162279     0.284318 -31.83  0.001659908    2.021    0.505
        22 -11.9634     59.7947    173.9028   1.0734486752e+02   3.0843201917e+01    0.3308596     0.261524 -43.14 0.0006919936    1.416    0.294
        23 -10.9823    101.7629    171.5466   9.6246022857e+01   2.5402606007e+01    0.7618437    0.2112358  45.87   0.00218405    4.288    0.767
        24 -12.5451     60.0964    247.7470   1.1497179115e+02   1.4826850564e+01    0.5287476    0.4679298  40.51   0.00180954    1.260    0.206
        25 -13.8034     67.8532    144.1448   1.0055461393e+02   3.7140828326e+01     2.023793     1.099898  80.16  0.002485028    3.945    0.747
        26 -13.4196     57.1357    160.4093   1.0614765227e+02   3.4463414036e+01    0.5347566    0.3152809 -40.87  0.001794388    1.986    0.497
        27 -11.0683     28.3350    155.8202   1.1315914027e+02   3.8655856463e+01    0.3064181    0.1549849 -49.32  0.001468542    2.007    0.502
        28  -8.3075    151.6282    151.3233   7.9615311515e+01   2.1064973266e+01    0.1572849     0.124148  82.31 0.0007032347    1.811    0.448
        29  -8.7585    122.5477    151.0236   8.6849942911e+01   2.6668718269e+01    0.2172304    0.1483447 -52.82 0.0004268725    1.462    0.316
        30 -11.7196     35.3568    159.2474   1.1173704934e+02   3.7148502473e+01    0.6419892    0.3265217  72.05  0.002455461    2.670    0.625
        31 -11.9390     22.9574    147.7369   1.1363161278e+02   4.1107695181e+01    0.3739812    0.2363957  44.36  0.001719832    1.718    0.418
        32  -9.8847    134.0000    147.0759   8.3028786822e+01   2.5434446363e+01    0.5412623    0.1128721 -50.88   0.00126425    5.430    0.816
        33 -10.5394     94.1773    143.4952   9.2956768263e+01   3.3400776470e+01    0.3437744    0.3098838 -46.44 0.0008672443    1.072    0.067
        34  -9.5968     97.8025    139.8046   9.1164694010e+01   3.3703647260e+01    0.3415232    0.2399761   1.62  0.001483292    2.024    0.506
        35 -12.1106     81.9817    141.7292   9.6057978280e+01   3.5739553870e+01    0.3201568       0.2727 -52.56 0.0003794775    1.105    0.095
        36 -10.7425    106.5961    131.3955   8.6809480058e+01   3.4210293064e+01    0.3787625    0.3522161  10.34  0.001043507    1.123    0.110
        37 -11.4450     70.8698    163.8753   1.0302402013e+02   3.1848560789e+01    0.3204341    0.2619751 -62.68 0.0004335139    1.151    0.131
        38  -9.9761     94.1972    127.7686   8.9541362523e+01   3.7225994265e+01    0.2881387    0.2194911 -32.79 0.0007491863    1.377    0.274
        39 -10.3051    239.4123    127.1873   5.6629843904e+01   8.7359916276e+00    0.1971485    0.1111575 -44.78 0.0003903325    1.628    0.386
        40  -9.8401    114.6830    125.1690   8.3054444561e+01   3.4193744444e+01    0.2992822    0.2049861   5.20  0.001217745    2.149    0.535
        41 -10.5552     49.4684    123.0107   1.0216512612e+02   4.4672902708e+01    0.2607185    0.1860585  50.32  0.001085219    1.629    0.386
        42  -9.7771    104.9578    120.0198   8.4552601234e+01   3.7197260869e+01    0.2208817    0.2096806 -28.00  0.001180794    1.016    0.016
        43  -9.6130     23.6716    116.9836   1.0920682887e+02   4.8618689819e+01    0.1908352     0.143703 -63.97 0.0003649185    1.105    0.095
        44  -9.2579    167.8788    112.7966   6.6499483975e+01   2.5859446114e+01    0.2995985     0.198363 -64.11  0.001230335    2.079    0.519
        45 -10.1065    204.9541    110.6718   5.8588789102e+01   1.8316112973e+01    0.3687564    0.2551738  35.83  0.001282305    1.667    0.400
        46 -12.4035      1.8651     88.1224   1.1179645414e+02   5.6891279064e+01      1.18328     0.153726 -68.51  0.003226309    6.022    0.834
        47  -9.9128     43.0228     89.2893   9.7100985101e+01   5.3491946549e+01    0.1833454    0.1703154 -10.79 0.0009490128    1.143    0.125
        48 -13.1434     77.9845    157.0813   1.0000050726e+02   3.2529412887e+01     1.403364    0.8199016  63.78  0.001143689    2.382    0.580
        49  -8.9397    111.4725     84.9854   7.2988839740e+01   4.3645041461e+01    0.2050991    0.1322077 -64.65 0.0005846775    2.382    0.580
        50 -10.6553    162.3706     83.2914   5.9767615972e+01   3.2734276310e+01    0.3036476     0.239455 -22.33  0.001041878    1.368    0.269
        51  -9.5033     54.4408     74.9600   8.8988334087e+01   5.5343283685e+01    0.2683791    0.1670769  63.85  0.001042747    3.600    0.722
        52 -10.6640     13.4081     60.2693   1.0140375779e+02   6.2453869190e+01    0.2178461    0.1804847 -49.34 0.0004241392    1.146    0.128
        53 -11.9058    167.1509    223.0301   8.9836000463e+01   3.9355560481e+00    0.3965316    0.3387982  83.45  0.002157976    1.745    0.427
        54 -12.9496     23.0772    207.1841   1.1918041486e+02   2.7211144993e+01    0.3958998    0.2874701 -47.73 0.0008387903    1.759    0.432
        55 -10.3565     59.9140    232.3558   1.1370667097e+02   1.7831985137e+01    0.2460591    0.1948444  75.71 0.0007432849    1.141    0.124
        56  -9.0166     25.0745     50.7752   9.3515515306e+01   6.3491491720e+01    0.1666062     0.136248 -18.66 0.0004088179    1.085    0.078
        57  -8.6317     94.5465     46.5103   6.5245946353e+01   5.3916681519e+01    0.1385867     0.126722  11.05  7.34369e-05    1.038    0.036
        58 -13.7243      7.5766    239.5292   1.2410472813e+02   2.2071700466e+01     2.129198     1.225071  74.89   0.01423674    1.427    0.299
        59  -9.7027    127.2452     34.8293   5.2558768533e+01   4.8397877523e+01    0.2331249    0.1945055 -65.22  0.000525261    1.448    0.309
        60  -9.0426    129.9152     29.5221   5.0217991022e+01   4.8417612732e+01    0.2016161    0.1241507  57.65 0.0003033508    1.491    0.329
        61  -9.8416     19.9257    238.1108   1.2181765975e+02   2.1151896242e+01    0.1763459      0.12785  55.31 0.0003499407    1.167    0.143
        62 -10.2485    189.6485     15.0752   3.6871133013e+01   3.5907465689e+01    0.1718984    0.1570413 -57.34  0.001144032    1.135    0.119
