#   1 NUMBER                 Running object number                                     
#   2 MAG_AUTO               Kron-like elliptical aperture magnitude                    [mag]
#   3 X_IMAGE                Object position along x                                    [pixel]
#   4 Y_IMAGE                Object position along y                                    [pixel]
#   5 X_WORLD                Barycenter position along world x axis                     [deg]
#   6 Y_WORLD                Barycenter position along world y axis                     [deg]
#   7 A_WORLD                Profile RMS along major axis (world units)                 [deg]
#   8 B_WORLD                Profile RMS along minor axis (world units)                 [deg]
#   9 THETA_WORLD            Position angle (CCW/world-x)                               [deg]
#  10 FWHM_WORLD             FWHM assuming a gaussian core                              [deg]
#  11 ELONGATION             A_IMAGE/B_IMAGE                                           
#  12 ELLIPTICITY            1 - B_IMAGE/A_IMAGE                                       
         1 -15.8411    190.1554     10.7443   3.5559925701e+02   3.5243370382e+01     2.810444    0.8985872 -52.63   0.01091207    2.879    0.653
         2 -13.7803      4.5516      4.2632   5.6788467485e+01   7.9153399795e+01    0.5396063    0.3678713 -37.53  0.003038688    1.281    0.219
         3 -14.3295      9.7280     23.7939   6.1513913881e+01   7.4714442916e+01    0.7952379    0.3329701 -39.54  0.003546347    2.206    0.547
         4 -14.0524      2.5927     19.2949   6.6194408173e+01   7.6125801289e+01     1.091178    0.3066516 -67.97   0.00408633    3.480    0.713
         5 -15.4494     35.4978     20.5033   3.9430372057e+01   7.2367915162e+01     1.519989    0.9239402  37.38  0.007693747    1.589    0.371
         6 -16.1986    212.0709     21.9429   3.5683665559e+02   2.9045161693e+01      2.68349    0.7537895 -45.11   0.01089917    2.705    0.630
         7 -14.6605     54.0458    228.3678   7.3650280214e+01   2.0283891495e+01    0.7434374    0.3826239  16.47  0.003625552    2.300    0.565
         8 -11.9717    198.9026    249.3538   4.5260472987e+01  -1.0071521591e+00    0.1673971    0.1374988  -1.43  0.001271843    1.312    0.238
         9 -12.9994    177.6228    250.1431   4.9260393791e+01   1.3436985207e+00    0.3655962    0.1087019  31.93  0.001700079    2.586    0.613
        10 -15.2324     80.4265    248.1174   6.9126884954e+01   1.3647065294e+01     1.959012    0.2833753  32.14  0.006680236    3.974    0.748
        11 -14.9907     58.4766    246.0017   7.3775812079e+01   1.6560299428e+01    0.9880022    0.3696418  38.78  0.005047278    1.825    0.452
        12 -14.8341     53.3605    242.1872   7.4670275883e+01   1.7805733062e+01    0.8284102    0.3609216  44.40  0.003739938    1.697    0.411
        13 -14.0344      4.2151    248.1350   8.5382927545e+01   2.1594610421e+01    0.5268028    0.2946185  43.73  0.002364132    1.219    0.180
        14 -12.3191      2.7709    229.3504   8.5299729155e+01   2.5175505973e+01    0.4386095   0.09047025  53.91   0.00188385    3.058    0.673
        15 -12.9937    231.3324    225.9982   3.6403442707e+01  -1.9185562725e+00    0.3671073    0.1940358   4.32  0.002223669    1.873    0.466
        16 -13.9942    165.9509    225.1230   4.8190660356e+01   6.1749779337e+00     0.583326     0.326195  20.92  0.003247019    1.561    0.359
        17 -13.2905    186.4783    221.4706   4.3622385307e+01   3.9921762625e+00     0.335542    0.1886211  28.35  0.001799051    1.484    0.326
        18 -15.4811     35.9713    211.8706   7.6948745072e+01   2.5561715656e+01     1.360865    0.6515014  67.40  0.005524151    2.160    0.537
        19 -16.2493    176.3914    202.7818   4.2707682854e+01   8.0749040745e+00     1.592351    0.9756093  -6.90  0.008329193    1.957    0.489
        20 -14.6483    162.6165    198.8763   4.4933184580e+01   1.0714141231e+01     1.556135    0.9234252   4.65  0.007413499    2.200    0.546
        21 -16.0006    178.9991    183.6906   3.8953720402e+01   1.0702715263e+01    0.8104476    0.7391589 -41.21  0.004728191    1.386    0.279
        22 -16.1181    188.5961    178.9994   3.6207339412e+01   9.9740763547e+00     1.053657    0.8393351 -10.76  0.004655643    1.143    0.125
        23 -12.4300    113.1655    206.8231   5.7374378340e+01   1.6696751938e+01    0.1878398    0.1486781   7.61  0.001087871    1.337    0.252
        24 -15.5289    186.8506    206.9744   4.1315752104e+01   5.9835421007e+00     0.668407    0.4261042  27.65  0.002876329    1.358    0.264
        25 -14.9192    202.7409    196.6288   3.6631643609e+01   5.2887707968e+00    0.9520093    0.5216051  -9.58   0.00476246    2.289    0.563
        26 -13.4990    235.0638    193.4155   3.0600502559e+01   1.5409141343e+00     0.540719    0.3950002  -7.85  0.003842018    1.059    0.055
        27 -13.7384     75.7311    193.5069   6.5237474430e+01   2.4725552656e+01    0.7963296    0.3144837  43.51  0.003285112    2.158    0.537
        28 -15.3384     82.6136    181.2487   6.1923907047e+01   2.6473627427e+01     1.058049    0.6880847  44.16  0.004087846    1.359    0.264
        29 -14.4033     73.5102    173.7099   6.3519997888e+01   2.9506663460e+01    0.6589931    0.5843119  37.73  0.002742082    1.060    0.056
        30 -12.7714    243.5072    178.4549   2.6727761994e+01   2.3865439025e+00    0.3475974    0.2150032   2.25  0.002163884    1.632    0.387
        31 -15.6494    166.0122    171.2840   3.9411524711e+01   1.4903335884e+01      1.44033    0.6370515 -35.88  0.006005286    2.473    0.596
        32 -13.0147    226.2078    175.6275   2.8908944530e+01   5.0075426655e+00    0.3652188    0.2854125  -6.59  0.002334072    1.028    0.027
        33 -12.6265     49.8810    174.5805   7.0439598979e+01   3.2373252678e+01    0.4563829    0.2351016  47.06  0.002017073    1.709    0.415
        34 -11.8535      5.9685    171.6875   8.2838896616e+01   3.7318881096e+01    0.1866569    0.1477613  45.99  0.001065214    1.118    0.106
        35 -14.5023    195.1204    164.9697   3.2334246606e+01   1.1179416408e+01    0.6535659    0.3790231 -49.97  0.003174445    2.253    0.556
        36 -13.9945    249.5388    160.2880   2.2600039025e+01   3.9402735607e+00    0.9197798     0.201704 -36.04  0.003547755    3.779    0.735
        37 -15.3567     76.8903    158.5608   6.0451066140e+01   3.2642684890e+01     1.928446    0.9417008  44.34  0.007231693    1.891    0.471
        38 -14.5486     60.5303    152.9872   6.4737608464e+01   3.6355008388e+01    0.7269512    0.4774843  68.02  0.002925496    1.672    0.402
        39 -14.3630     59.6311    144.9370   6.3913749694e+01   3.8530218701e+01    0.6619557     0.557601 -74.01  0.002731596    1.216    0.177
        40 -12.5684     29.5903    161.8040   7.5350022618e+01   3.7707462574e+01    0.3193989    0.2518256 -77.79  0.001678146    1.284    0.221
        41 -12.9141     19.6095    160.6930   7.8304815428e+01   3.8900704940e+01    0.3371701    0.2406093  83.65  0.001883602    1.310    0.237
        42 -14.2552     49.8044    143.8046   6.7023830559e+01   4.0090963893e+01    0.8764911    0.5127339 -74.98  0.003949647    1.762    0.432
        43 -14.8399    159.3667    139.9673   3.4537457159e+01   2.1930103963e+01    0.9835957    0.5380872 -38.20  0.004276904    1.872    0.466
        44 -14.6870     16.7444    139.1894   7.7738161412e+01   4.4616563722e+01    0.8107438    0.5388194  63.45  0.002760788    1.400    0.286
        45 -14.9141    231.8903    135.8420   2.0425620219e+01   9.7658755948e+00    0.6916068    0.5964694  53.93  0.004671653    1.527    0.345
        46 -13.6187    106.9693    136.9810   4.7507642492e+01   3.2777876049e+01    0.5384932     0.477202 -21.32  0.002721269    1.265    0.209
        47 -14.5404    214.0444    132.0585   2.2362361651e+01   1.3225246856e+01    0.4124161    0.3847656 -28.99  0.002493149    1.161    0.139
        48 -13.5602    201.7230    130.8701   2.4152204176e+01   1.5566873809e+01    0.4368033     0.291508  19.50   0.00222239    1.839    0.456
        49 -13.7506     27.2673    123.3682   7.2518060431e+01   4.7924545318e+01    0.5780116    0.3083535 -64.70  0.002603696    1.765    0.433
        50 -14.2614     20.1578    115.8270   7.4411991671e+01   5.0547057826e+01    0.9221125    0.3412463 -70.08  0.003570729    2.393    0.582
        51 -14.5697      4.5471    106.1355   7.9748048750e+01   5.4135715375e+01     1.017919    0.3749292 -65.58  0.004140928    2.337    0.572
        52 -13.9746    174.0080    103.2058   2.2747266618e+01   2.5790672367e+01    0.5740628    0.3978571 -35.97  0.002778608    1.398    0.285
        53 -13.2782    169.4086    102.6792   2.3515851844e+01   2.6888512169e+01    0.6662527    0.4021074 -46.94  0.002985038    1.674    0.403
        54 -15.6116    199.8917     99.5693   1.7338178856e+01   2.0979277421e+01     0.950974    0.8135484 -32.89  0.005621745    1.070    0.065
        55 -14.4628     70.6116     94.5441   4.9971495604e+01   4.9963554322e+01      1.22203    0.8751788  57.98  0.005505304    1.560    0.359
        56 -14.5230     66.5753     84.2086   4.8776975555e+01   5.3253597259e+01    0.9883946    0.7206306 -64.15  0.004593806    1.462    0.316
        57 -12.0692    159.9886     93.4912   2.3025759381e+01   3.0686773910e+01    0.3127649    0.2317748 -39.48  0.001150481    1.327    0.247
        58 -13.7972     30.6459     79.3667   6.4155677821e+01   5.9424309263e+01     0.691795    0.4893151  70.70    0.0033644    1.667    0.400
        59 -15.1720    184.9529     70.0985   1.2235983200e+01   2.8856550806e+01    0.7209967    0.5340651 -45.47  0.003812882    1.252    0.201
        60 -12.7093    113.0000     72.5094   2.8337529995e+01   4.6020377551e+01    0.3509737   0.09125602 -41.11 0.0009410232    3.986    0.749
        61 -15.1053    164.0319     66.8787   1.4774085307e+01   3.4336743001e+01    0.7545232    0.6922567  18.84  0.003940299    1.275    0.216
        62 -13.5891     70.9652     56.5747   3.7547093938e+01   5.8822696555e+01    0.5657362      0.34483 -61.36  0.002309759    2.159    0.537
        63 -13.2993     11.2948     64.1979   7.1457039051e+01   6.4871877880e+01    0.5751006    0.2418902 -69.65  0.002428696    2.112    0.526
        64 -13.3769     43.8754     51.6648   4.9008137094e+01   6.4691960090e+01    0.3327736    0.2858144  15.12  0.001826816    1.158    0.136
        65 -14.0525    182.5780     45.2063   5.7904277315e+00   3.3013322673e+01    0.5572241    0.4144346  85.41  0.002894694    1.356    0.263
        66 -13.1979    224.8078    247.7347   4.0607156044e+01  -3.6079884207e+00    0.3960167    0.2083297  14.19  0.002020254    1.530    0.346
        67 -12.9195    159.0847     30.2157   4.4411901816e+00   4.0848599956e+01    0.3198648     0.176383  57.81   0.00144374    1.783    0.439
        68 -13.5304     16.3730     28.2226   5.7833488578e+01   7.3214695209e+01    0.3661921    0.2514956 -12.84  0.001999235    1.479    0.324
        69 -15.4578    185.0872    238.9275   4.6376731619e+01   1.8618330877e+00    0.9347496    0.5720903  37.84  0.005871574    1.744    0.427
        70 -15.2282    204.5289    230.7611   4.1665700934e+01   5.5924761573e-01     1.150255    0.6616226  -2.41  0.006971473    1.754    0.430
        71 -15.3496    201.9053    218.6616   4.0328106708e+01   2.4071190912e+00    0.7306323    0.4933271  29.61  0.004814971    1.407    0.289
        72 -15.6580     71.2672    226.1961   6.9457384645e+01   1.8658042758e+01     1.297382     0.777117  40.18  0.005606541    1.290    0.225
        73 -13.2863     79.5687     23.8356   1.9317989871e+01   6.2648081028e+01    0.4365123    0.1825992  52.14  0.001690543    2.105    0.525
