#   1 NUMBER                 Running object number                                     
#   2 MAG_AUTO               Kron-like elliptical aperture magnitude                    [mag]
#   3 X_IMAGE                Object position along x                                    [pixel]
#   4 Y_IMAGE                Object position along y                                    [pixel]
#   5 X_WORLD                Barycenter position along world x axis                     [deg]
#   6 Y_WORLD                Barycenter position along world y axis                     [deg]
#   7 A_WORLD                Profile RMS along major axis (world units)                 [deg]
#   8 B_WORLD                Profile RMS along minor axis (world units)                 [deg]
#   9 THETA_WORLD            Position angle (CCW/world-x)                               [deg]
#  10 FWHM_WORLD             FWHM assuming a gaussian core                              [deg]
#  11 ELONGATION             A_IMAGE/B_IMAGE                                           
#  12 ELLIPTICITY            1 - B_IMAGE/A_IMAGE                                       
         1 -12.4025    205.3443     25.1378   4.7854938582e+01   3.0451621616e+01      0.96683    0.7881656 -80.61  0.005250639    1.238    0.192
         2 -11.4300    198.0984     16.2802   4.6032237967e+01   3.3317410043e+01     0.730346    0.4036535  41.67  0.003151359    2.182    0.542
         3 -12.0762    195.1981     10.3793   4.4562509540e+01   3.4688058412e+01    0.8770726    0.7232289  43.70  0.004860212    1.332    0.249
         4 -10.2086     62.4579      8.3952   7.1537431956e+01   6.7152463132e+01    0.4401112    0.1980699 -12.32  0.001654863    3.336    0.700
         5  -8.8994    169.9082      7.8862   4.6664767280e+01   4.1606464722e+01     0.220496    0.1795374  37.43 0.0003588587    1.309    0.236
         6  -7.7797    137.0279      6.6633   5.1027229749e+01   5.0410980921e+01    0.1886062    0.1682391  53.70 0.0003604387    1.056    0.053
         7 -10.4532     58.1615      4.8927   7.1259450194e+01   6.8351347961e+01    0.4596828    0.1673532 -26.31  0.001909156    2.620    0.618
         8  -7.4583    191.2732    231.6631   9.8428777564e+01   1.6700982968e+00    0.1025897   0.08537158  60.08 0.0004234908    1.604    0.377
         9 -10.7895    135.4859    248.4899   1.1017760070e+02   7.8794884258e+00    0.6232018    0.2156191  43.98  0.002254064    2.161    0.537
        10 -17.9305     42.2263    237.4211   1.2526732671e+02   2.1882931955e+01     2.897554     2.002986  49.73   0.01253348    1.256    0.204
        11  -8.8639    108.5260    212.7817   1.1125212891e+02   1.7418913421e+01    0.3292951    0.1393068  55.93  0.001491846    2.534    0.605
        12  -7.3777    143.3094    208.3157   1.0395624253e+02   1.2683097038e+01    0.1188768    0.0930545  11.43  0.000703078    1.633    0.388
        13 -10.0642    123.9858    205.9934   1.0742193531e+02   1.6204456333e+01    0.1774967    0.1484511  52.14            0    1.003    0.003
        14  -9.4713     96.9521    190.0588   1.1091624339e+02   2.3372453119e+01    0.5237761    0.2463933 -76.33  0.002255891    3.011    0.668
        15  -9.4370     95.5146    201.0295   1.1249790876e+02   2.1483808880e+01    0.4118872    0.2304895  78.87  0.002028837    2.412    0.585
        16 -10.6823    100.5143    200.9385   1.1148217200e+02   2.0756776331e+01    0.6430726    0.3647731  86.13  0.003140409    2.529    0.605
        17  -9.2035     96.1931    196.4497   1.1183719212e+02   2.2249989270e+01    0.2737164    0.1428954  52.36 0.0008290067    1.705    0.414
        18  -9.9266      4.7666    197.5307   1.2983946441e+02   3.2877758081e+01    0.2739682    0.1322122 -81.89 0.0006651735    1.739    0.425
        19  -8.8289    234.7147    195.6762   8.5164667779e+01  -7.1653807882e-01    0.2088926    0.2001311  74.09  0.001156235    1.691    0.409
        20  -8.6679    222.9013    190.4738   8.6230968945e+01   1.8557334249e+00     0.210705    0.1728982  43.90 0.0004103254    1.410    0.291
        21  -8.6692    107.9204    189.8082   1.0858735185e+02   2.1724804812e+01     0.229508    0.1684287  79.79 0.0007951201    1.464    0.317
        22  -8.8708    130.4395    187.1459   1.0350276649e+02   1.8528892159e+01    0.3526561     0.226573 -85.28  0.001620677    2.397    0.583
        23 -10.2662    112.3338    247.9117   1.1410065577e+02   1.1267809313e+01    0.3372472    0.1755141 -52.22  0.001647918    2.558    0.609
        24  -8.5387    224.0305    185.8199   8.5175179135e+01   2.2821544984e+00    0.1749457    0.1567642  27.76 0.0004334183    1.243    0.195
        25  -9.0763     41.8691    182.9837   1.2173287295e+02   3.2104895610e+01    0.3142386    0.1338762  37.45  0.001634427    2.254    0.556
        26  -8.3364     29.6464    181.8374   1.2416132364e+02   3.3652194161e+01    0.1750062    0.1318276  38.87  0.000643971    1.512    0.339
        27  -7.5606     22.5759    182.7706   1.2565629500e+02   3.4166130230e+01   0.09331024   0.08477978 -39.45 0.0006875827    1.707    0.414
        28  -8.0772    224.2601    180.9654   8.4218473644e+01   2.8955529685e+00    0.1705238    0.1442941  -1.92 0.0002912207    1.083    0.077
        29  -7.8892     34.2333    181.2339   1.2317550402e+02   3.3299494932e+01    0.1697025     0.102054  65.75  0.001045689    1.392    0.282
        30  -8.0666    144.7045    178.9382   9.9214506916e+01   1.7553523866e+01    0.1691536    0.1667574  67.31 0.0003868307    1.096    0.087
        31  -9.9660    191.9643    177.5313   8.9455891384e+01   9.1325314575e+00    0.2561473    0.2064181  29.69 0.0004092589    1.115    0.103
        32 -11.1206    104.7967    173.5083   1.0700570264e+02   2.5475661329e+01    0.5536673    0.4121874 -51.48  0.003156464    1.503    0.335
        33  -9.7817     33.4555    173.4868   1.2274084607e+02   3.5010995711e+01    0.4067876    0.2020046  41.51  0.001660556    1.889    0.471
        34  -9.8019     28.2155    173.9885   1.2389175467e+02   3.5440460696e+01    0.1880163    0.1461626  63.50 0.0004290208    1.151    0.131
        35  -9.2131     24.3107    172.6758   1.2462066113e+02   3.6103722295e+01    0.2793025     0.160484  46.66  0.001334242    1.599    0.374
        36  -7.7544     22.7859    176.3706   1.2519456687e+02   3.5472509981e+01    0.5475494    0.2369839  59.08  0.002957721    2.019    0.505
        37  -8.4461    117.6684    168.0126   1.0328216727e+02   2.4459195167e+01    0.1886308    0.1676363 -70.01 0.0006083204    1.165    0.142
        38 -10.2497     35.5616    169.0368   1.2192117313e+02   3.5744570624e+01    0.3980903    0.2730389  15.83  0.002359787    2.285    0.562
        39 -10.5142     78.8177    165.2832   1.1175088670e+02   3.1194756486e+01    0.4526775    0.2571433  52.02  0.001313136    1.654    0.396
        40 -10.2195     78.5772    160.9741   1.1122942342e+02   3.2176065952e+01    0.4736303    0.2591773  34.80 0.0005029509    1.981    0.495
        41 -10.2239    108.8328    160.4893   1.0407011575e+02   2.7542398166e+01    0.5017982    0.2792016  66.53  0.001801016    2.483    0.597
        42 -10.6892    113.1160    158.2868   1.0270398287e+02   2.7280079398e+01    0.3864719     0.312124  49.07  0.002175627    1.178    0.151
        43 -10.6698     28.9715    150.2325   1.2175832466e+02   4.0574019744e+01    0.5798155    0.2954448  17.03  0.002155396    3.264    0.694
        44 -10.6473     56.4131    118.3289   1.1049004359e+02   4.5092897747e+01    0.4503639    0.3064089  33.88    0.0017013    1.681    0.405
        45 -11.9344     29.8465    142.4670   1.2079778971e+02   4.2261538974e+01     1.273929    0.5223761  15.45  0.004676152    5.524    0.819
        46 -12.4185     48.0256    131.6301   1.1484403384e+02   4.2898495726e+01     1.108144    0.4535033  43.25  0.005014957    2.444    0.591
        47 -12.5909     45.6572    122.3124   1.1416383860e+02   4.5386604511e+01     1.118508    0.7023453  46.68  0.006133981    1.673    0.402
        48 -10.7275     34.0795    156.6758   1.2115932490e+02   3.8616412769e+01    0.3656127    0.3237141  57.01  0.001634268    1.271    0.213
        49 -12.5377     43.1191    148.0721   1.1813349115e+02   3.9606104421e+01     1.092729    0.7398707 -62.20  0.004449739    1.444    0.307
        50  -8.3126     99.1860    156.0979   1.0562123667e+02   3.0094666508e+01     0.187806    0.1782489 -61.85 0.0003261803    1.183    0.155
        51  -8.3834    236.2852    213.3670   8.7972495318e+01  -3.0237560397e+00    0.1787294    0.1280282  -1.20 0.0005707404    1.268    0.211
        52  -9.2163    103.1042    151.0770   1.0384276140e+02   3.0553499990e+01    0.3200314    0.2501927  30.55  0.001093746    1.470    0.320
        53  -8.7317    105.7309    147.9474   1.0265597235e+02   3.0801644310e+01    0.3657032    0.2125257  58.07  0.001647496    1.906    0.475
        54 -10.2027     88.6413    149.9417   1.0717773895e+02   3.3142445563e+01    0.2862455    0.2425058 -40.54 0.0007836771    1.440    0.305
        55 -11.8298     68.4139    143.7589   1.1127309038e+02   3.7503386052e+01     1.239918    0.6257237  78.09  0.002135141    3.169    0.684
        56 -10.8269     68.6882    133.4928   1.0962068213e+02   3.9871897427e+01    0.7451005    0.4303957  57.56  0.003594513    1.877    0.467
        57 -10.6453     63.0372    130.4932   1.1065051957e+02   4.1338376359e+01    0.5834923    0.2275643  37.88  0.002447548    2.621    0.619
        58 -10.9798      3.9664    131.1955   1.2622379802e+02   4.6978954354e+01    0.5047577    0.2478358 -71.17  0.002886526    1.616    0.381
        59 -10.3479      7.3823    144.1171   1.2634964373e+02   4.3813804041e+01    0.3867983    0.2455665  27.65   0.00172257    1.966    0.491
        60  -8.7826     77.9587    142.7689   1.0870042515e+02   3.6390444401e+01    0.4651549    0.1513131  53.52  0.001423827    4.540    0.780
        61 -10.7522     23.5305    158.0884   1.2369242160e+02   3.9335844808e+01    0.6591091    0.3620692  21.33  0.003619134    2.610    0.617
        62  -8.3730    112.8875    137.1205   9.8831784251e+01   3.1953537644e+01    0.2396606    0.1939675  80.38  0.001250097    1.343    0.255
        63  -8.9181    134.2203    148.4774   9.5968216438e+01   2.5502938345e+01    0.4342783    0.1661602 -58.63   0.00138527    3.740    0.733
        64  -8.6226     26.4717    137.4588   1.2113395728e+02   4.3734936430e+01    0.1237598   0.09824915 -88.20 5.550927e-05    1.021    0.021
        65  -8.9557    101.7659    135.9899   1.0142123243e+02   3.4174316494e+01    0.2162436    0.1951799  51.46 0.0003442539    1.134    0.118
        66  -8.2370    212.3157    160.9576   8.2358988772e+01   7.9232042209e+00     0.176734    0.1519853  -8.72 0.0002440152    1.091    0.084
        67 -10.9700     11.6798    131.8920   1.2434521326e+02   4.6260971505e+01    0.3361883    0.2830451 -87.08  0.002421529    1.135    0.119
        68  -9.9271     30.5660    129.1384   1.1917314197e+02   4.5299673216e+01    0.3096164   0.09697551 -69.37  0.001283413    2.542    0.607
        69 -10.4721      5.2985    136.6003   1.2630177374e+02   4.5658540727e+01    0.4142165     0.215807 -50.82  0.002311776    2.274    0.560
        70  -9.3192      4.6353    112.9019   1.2449950093e+02   5.1155127834e+01    0.1763571    0.1549709 -57.18 0.0006077483    1.331    0.249
        71  -8.5261    156.9451    110.9981   8.1986581251e+01   2.8528824210e+01    0.2182899    0.2132296 -23.27  0.001167629    1.013    0.013
        72  -9.3191    244.8141    108.8058   6.5062493103e+01   9.4705746228e+00    0.1956781    0.1580922 -49.07   0.00108695    1.384    0.277
        73  -9.5471    213.2563    106.4714   6.9516522732e+01   1.6517316729e+01    0.2671964    0.2346111 -12.42 0.0002872254    1.093    0.085
        74  -7.9063    217.8495    102.8329   6.7803676333e+01   1.6090281994e+01    0.1950042    0.1716616 -63.25 0.0004189957    1.324    0.244
        75  -8.2314      3.7231     96.0023   1.2302571400e+02   5.5168999542e+01    0.1665167    0.1188851 -75.99 0.0002734752    1.063    0.059
        76  -7.4537    101.4196     88.5125   9.0247587402e+01   4.5152300201e+01    0.1508423    0.1394761 -48.34 0.0001507168    1.018    0.017
        77  -8.9466    235.5128     82.4879   5.9841572284e+01   1.5323348986e+01     0.144327    0.1290548 -21.69 -4.536075e-05    1.043    0.041
        78  -7.2885    134.4736     70.4317   7.5421101870e+01   4.1825793333e+01    0.1564471    0.1484858 -62.27 0.0002267051    1.099    0.090
        79  -9.8776    116.1476     67.3989   7.9289390481e+01   4.6598641277e+01     0.260065    0.2259239 -36.53 0.0002926245    1.099    0.090
        80  -8.5729    239.3223     61.3336   5.3857861388e+01   1.7504904291e+01    0.1423693    0.1064648  15.57 0.0006869115    1.705    0.413
        81 -10.3374    163.1899     58.3278   6.4889569755e+01   3.6833282768e+01    0.4016465    0.3734588 -52.27  0.001180186    1.085    0.078
        82  -9.1839    212.2749     58.2729   5.6567079003e+01   2.4329436818e+01    0.3599653    0.2454296 -19.72  0.001411454    1.535    0.349
        83 -12.3473    177.0653     43.8204   5.7586969549e+01   3.5424109545e+01     1.183468    0.9446236   7.97  0.005777628    1.475    0.322
        84 -11.1404    182.0129     36.7532   5.4515056666e+01   3.5087743940e+01    0.5195381    0.4023143  21.99  0.001399273    1.535    0.349
        85  -7.9110    167.4310    226.4811   1.0192688865e+02   6.0581969110e+00    0.1184431   0.09539217  35.56 8.816729e-05    1.013    0.013
        86  -9.6921     44.0971     22.5496   8.7021516165e+01   6.7906890566e+01    0.2617497     0.210252  49.47 0.0009373128    1.731    0.422
        87  -8.6052     49.0735     22.5456   8.4725963433e+01   6.7217627426e+01    0.1762615    0.1242465  32.35 0.0007523334    1.553    0.356
        88 -10.1567    109.1096    242.0692   1.1412392502e+02   1.2584791647e+01    0.2344239    0.2152606 -23.19  0.001359008    1.617    0.382
        89 -13.3688     35.7526    212.8743   1.2499879183e+02   2.6918216401e+01    0.4398244    0.3318531  26.36  0.001111205    1.884    0.469
        90  -9.8970    133.8900    230.8398   1.0854692089e+02   1.0642358227e+01    0.2635493    0.1624956 -37.59  0.001345438    2.374    0.579
        91  -9.3729     48.4027     14.2178   8.0736104075e+01   6.8656460401e+01    0.1810945    0.1071264 -41.11 0.0005969432    1.676    0.403
        92  -9.7978    140.6516    228.9814   1.0710087524e+02   9.8851212551e+00    0.2824185     0.181587   5.42  0.001373137    3.312    0.698
        93  -9.5361    185.5888    225.6112   9.8564807350e+01   3.3141110492e+00    0.4770731    0.1134962 -45.12  0.001734883    5.718    0.825
