#   1 NUMBER                 Running object number                                     
#   2 MAG_AUTO               Kron-like elliptical aperture magnitude                    [mag]
#   3 X_IMAGE                Object position along x                                    [pixel]
#   4 Y_IMAGE                Object position along y                                    [pixel]
#   5 X_WORLD                Barycenter position along world x axis                     [deg]
#   6 Y_WORLD                Barycenter position along world y axis                     [deg]
#   7 A_WORLD                Profile RMS along major axis (world units)                 [deg]
#   8 B_WORLD                Profile RMS along minor axis (world units)                 [deg]
#   9 THETA_WORLD            Position angle (CCW/world-x)                               [deg]
#  10 FWHM_WORLD             FWHM assuming a gaussian core                              [deg]
#  11 ELONGATION             A_IMAGE/B_IMAGE                                           
#  12 ELLIPTICITY            1 - B_IMAGE/A_IMAGE                                       
         1 -12.7329     91.1547     26.8086   3.5689905232e+01   5.6035989859e+01    0.3443326    0.2627428 -27.08 0.0005141512    1.624    0.384
         2 -11.4811     35.6265     12.0081   4.7506766786e+01   6.8868985698e+01     0.484147    0.2550143  57.92  0.002490307    2.191    0.544
         3 -10.8342     35.5056      8.1075   4.5765373064e+01   6.9295085126e+01    0.2288784    0.1425192  46.67 0.0003242372    1.296    0.228
         4 -11.7284     33.4861     22.9714   5.3352156104e+01   6.7956002591e+01     0.364527    0.3114709 -44.69 0.0006922212    1.530    0.347
         5 -10.9884     31.0124     15.2273   5.1068864138e+01   6.9319323293e+01     0.273394    0.1941786  49.37  0.001083402    1.401    0.286
         6  -9.9299     25.0831     14.5782   5.3684679999e+01   7.0381763718e+01     0.294373    0.1536223 -38.14  0.001633573    2.301    0.565
         7 -11.7368     91.0592     10.1331   3.0351595878e+01   5.7736790230e+01     0.216356    0.1657598  72.33 -0.0009232552    1.086    0.080
         8 -10.0412    135.9523     11.9825   2.4003839664e+01   4.7836732284e+01    0.2366413    0.1205304 -79.65  0.001229821    2.182    0.542
         9 -11.4748    125.9995     10.9349   2.4982044359e+01   5.0065314232e+01    0.1924427    0.1558848 -84.29  0.000289465    1.094    0.086
        10 -10.6634     52.5247     11.5004   4.0807092364e+01   6.5714600995e+01    0.2065795    0.1944775  18.37 3.611249e-05    1.214    0.176
        11 -11.9300     55.7705      9.4079   3.8890438905e+01   6.5264100377e+01    0.2749954     0.191589  67.92 0.0002429335    1.456    0.313
        12 -10.9219     43.5801     10.9948   4.3806482374e+01   6.7503079943e+01    0.3723474    0.2049734  25.25  0.001932629    2.273    0.560
        13 -11.3945     39.3580      3.4431   4.2042710689e+01   6.9023420193e+01    0.2784952    0.1859656  33.73 0.0005473134    1.345    0.257
        14 -11.9121     47.1519      4.7583   3.9780959977e+01   6.7403062015e+01    0.5551881    0.2237716  55.22   0.00254718    1.978    0.494
        15 -10.8319     49.4727      1.4248   3.7560270286e+01   6.7229059635e+01    0.1973695   0.09499244  60.87 3.975073e-05    1.802    0.445
        16 -10.6834    225.8709     11.1310   1.6583769448e+01   3.0825443676e+01    0.1586206   0.09172583 -66.43 0.0003384251    1.250    0.200
        17  -9.7593    100.9833     11.2096   2.8850704243e+01   5.5476266886e+01    0.1661609     0.124683  69.69            0    1.075    0.070
        18  -9.6298    176.8740      9.8567   1.9554415310e+01   3.9717855382e+01    0.1471503   0.09419917 -69.98 0.0002455421    1.264    0.209
        19 -10.9520    116.4830      9.1034   2.5791797774e+01   5.2291563037e+01    0.2135938    0.1904536 -80.47  0.001583038    1.175    0.149
        20 -11.1836     96.0313      9.7675   2.9294171953e+01   5.6687165299e+01     0.252511    0.2089082 -56.43 0.0005587155    1.368    0.269
        21  -9.7784     80.0293     10.2862   3.2724984241e+01   6.0108177832e+01    0.1724865    0.1251915  64.41 0.0003998678    1.118    0.106
        22  -9.5797    188.5313      9.5561   1.8622647529e+01   3.7534945379e+01    0.1064096   0.07894313 -77.67 5.909436e-05    1.026    0.026
        23 -10.2182     19.2861      9.4928   5.4301680196e+01   7.1899077493e+01    0.2894652   0.09620757  43.58 0.0007775683    2.588    0.614
        24 -10.1184      7.6877      8.2288   6.0588861596e+01   7.3733457312e+01    0.1603771    0.1559079 -65.57 0.0007568377    1.686    0.407
        25 -12.8948     29.6984      4.8614   4.6782252086e+01   7.0658254272e+01    0.3348942    0.2656959  28.77 0.0005279951    1.085    0.078
        26  -9.7043     14.1382      8.6610   5.6816786916e+01   7.2775858998e+01    0.1694134   0.08469856  30.09 0.0004180523    1.701    0.412
        27 -10.2456     61.8414      6.8027   3.6037380735e+01   6.4258013088e+01    0.1802663    0.1320833  42.97 0.0005114907    1.228    0.186
        28  -9.6051    111.6866      6.0940   2.5643555693e+01   5.3600274737e+01    0.1550384    0.1268725  81.53 0.0006114842    1.041    0.039
        29 -10.4766     66.0041      5.6526   3.4459989579e+01   6.3490956703e+01    0.1719128    0.1228384  61.61 0.0004342743    1.141    0.123
        30 -11.0688    193.9030      4.8802   1.7383394037e+01   3.7012439736e+01    0.1665279    0.1258371 -83.94 0.0003368242    1.127    0.112
        31 -10.3435    125.6509      5.1096   2.3509054314e+01   5.0671202976e+01    0.1482109     0.128455 -80.05 0.0005860703    1.161    0.139
        32 -10.6803     80.8522      5.0461   3.0735956093e+01   6.0385184936e+01    0.1967254    0.1520941  64.00 0.0003602495    1.026    0.025
        33  -9.4825     80.1704      1.5890   2.9685516804e+01   6.0811412301e+01    0.1658407    0.1221653  60.49 0.0005379889    1.091    0.084
        34 -10.6743     70.7403      5.0400   3.3032092831e+01   6.2545348507e+01    0.2037336    0.1330957  55.56 0.0001940682    1.213    0.176
        35 -11.8982     19.8722      2.6149   5.0486522158e+01   7.2553472947e+01     0.325025    0.1870179  21.34  0.001202641    1.832    0.454
        36 -11.2340    204.8745      2.6056   1.6309330647e+01   3.5268032520e+01    0.1783383    0.1224909 -68.21 0.0001280331    1.065    0.061
        37 -10.7411    148.5883      2.3772   2.0381916511e+01   4.6087100963e+01    0.1933003    0.1485022  83.64 0.0004530032    1.104    0.094
        38 -10.7492    245.3065      1.5584   1.4160232845e+01   2.8741078607e+01    0.1366651   0.08905702 -77.93  0.000440909    1.180    0.153
        39 -10.4142    210.7483      1.9758   1.5873537717e+01   3.4306144364e+01    0.1567477    0.1046718 -80.62 0.0002935113    1.133    0.117
        40  -9.2771    120.2766      2.7093   2.3546523740e+01   5.2032971925e+01    0.1128401   0.07249818 -74.94 0.0002313263    1.521    0.342
        41 -10.1791    224.8726      2.8595   1.5291135429e+01   3.1839883655e+01    0.1325503    0.1064885 -76.26 0.0004771749    1.285    0.222
        42  -9.5025      1.4268      2.4979   6.1781942702e+01   7.5251011549e+01    0.1152659   0.08469946  11.79 9.021028e-05    1.071    0.067
        43 -12.4297      1.6330    104.9036   9.3408633188e+01   5.5026200002e+01    0.4241007    0.2618185 -39.24 0.0005228465    1.496    0.331
        44  -9.5214    110.0255    250.7914   7.9692454411e+01   5.9079442063e+00    0.1756183   0.09499477  23.76  0.000440608    1.644    0.392
        45 -11.6109     24.3846    249.5639   1.0069755486e+02   1.5413384170e+01     0.374279    0.2361807  21.81   0.00201925    1.495    0.331
        46 -11.8047      3.8465    248.7542   1.0560280419e+02   1.7421705840e+01    0.5247939    0.2515324  39.95  0.002650046    1.725    0.420
        47 -12.5428      4.8776    242.2871   1.0502026506e+02   1.8806162105e+01    0.5958855    0.3086162  54.87  0.002729968    1.793    0.442
        48 -11.1823      2.8254    111.8607   9.3966305525e+01   5.3164409313e+01    0.2610729    0.2525188  -6.76 0.0002947896    1.098    0.089
        49 -10.5163     40.0000    113.4287   7.8794401468e+01   4.9269230128e+01    0.3313818    0.0832022 -60.95 0.0009400925    3.978    0.749
        50 -10.9427     25.5380    110.9650   8.4200814732e+01   5.1537647351e+01    0.5040023    0.2460442 -34.49  0.001972189    2.316    0.568
        51 -10.0511     51.9787    107.9787   7.2855162506e+01   4.8992288126e+01    0.1791911     0.168446   8.74  0.000344734    1.029    0.028
        52  -9.0461     95.2861    107.7317   5.7967639802e+01   4.1630102363e+01    0.1428563    0.1149953  76.58 0.0001960959    1.498    0.333
        53 -10.7768     89.3774    105.3290   5.9154905350e+01   4.3272784149e+01     0.266638    0.2572564  39.83 0.0004204881    1.014    0.014
        54 -10.1955     38.8312    104.8536   7.7370213431e+01   5.1547280598e+01    0.2168474    0.1870776 -21.37 0.0003699874    1.140    0.122
        55 -10.9220    108.9475    103.2642   5.3000077287e+01   3.9923529708e+01    0.2580273    0.2428603 -23.67 0.0001969154    1.162    0.139
        56 -10.4355    112.8062    102.1365   5.1705163588e+01   3.9387950747e+01    0.2107601     0.189421  87.86 0.0003146522    1.159    0.138
        57 -10.6697    103.8757    101.4278   5.3919334237e+01   4.1306279291e+01    0.2665007    0.2347742  -1.76 0.0006354436    1.355    0.262
        58 -10.5557     18.2911     94.1509   8.3895926759e+01   5.6425075875e+01    0.3364111    0.2423495  45.72  0.001723406    1.614    0.380
        59 -11.4486     20.8209     98.5460   8.3697777694e+01   5.5114093144e+01    0.4558417    0.3669961  35.55  0.002483128    1.328    0.247
        60 -11.1820     16.3701     98.1647   8.5611092126e+01   5.5621517809e+01    0.2771016    0.2313078 -52.23 0.0008272221    1.157    0.136
        61  -9.9008    217.9877     98.3481   3.2330134382e+01   2.0619492457e+01    0.1521874    0.1293647 -73.12 0.0004999279    1.143    0.125
        62  -9.6094    139.7066     98.3096   4.4531017933e+01   3.4740263501e+01    0.1391522    0.1032563 -81.89 0.0002199845    1.587    0.370
        63  -9.8076    107.4901     96.5153   5.1688982965e+01   4.1586456579e+01    0.2491553    0.1355413 -36.08  0.001025373    2.222    0.550
        64 -10.6709     37.9326     97.4891   7.6012968669e+01   5.3435614103e+01    0.2156096    0.1382023  24.54 0.0004245466    1.524    0.344
        65 -11.6531     66.7011     92.3192   6.3326499404e+01   5.0223915126e+01    0.4276578    0.2410216 -51.80  0.001107631    1.868    0.465
        66 -10.8653     93.5657     92.7238   5.4613268268e+01   4.5123518264e+01    0.3575063    0.2668666  29.85 0.0008436688    1.462    0.316
        67  -9.4080    125.4784     93.0085   4.6360310253e+01   3.8612602534e+01    0.1929384    0.1351864 -45.83  -4.7906e-05    1.442    0.306
        68 -11.3613     74.6231     92.9956   6.0722739091e+01   4.8669362682e+01    0.2551917    0.2014702  38.81 0.0003242384    1.213    0.176
        69 -10.1506    105.8370     91.8497   5.0928199436e+01   4.2842278428e+01    0.1973036    0.1679584 -88.95 0.0004858684    1.301    0.231
        70 -11.7171     58.0653     91.1531   6.6228739163e+01   5.1933418347e+01    0.3569333    0.2960815  12.57 0.0009997863    1.231    0.187
        71 -10.9581    145.7336     91.0346   4.1638184892e+01   3.4862469732e+01    0.2139113    0.1836126  68.55  0.000668444    1.153    0.133
        72  -9.4353      7.5811     91.1815   8.8252628247e+01   5.8041314478e+01    0.1885754    0.1092473 -47.93  0.000418239    1.544    0.352
        73  -9.3826      1.4935     89.5326   9.0825931810e+01   5.8854412704e+01     0.138648    0.1184781 -31.96 0.0001181758    1.033    0.032
        74 -13.6937     65.3305     82.0124   6.0939282868e+01   5.2621002204e+01    0.4871671    0.4723019  53.89 0.0008226114    1.104    0.094
        75 -12.4760     31.1292     87.3458   7.6458247784e+01   5.6646217103e+01    0.2579414    0.2377182 -10.11 0.0004298648    1.015    0.015
        76 -10.7656     92.0004     85.1808   5.3036085519e+01   4.6926410154e+01    0.2128052    0.1993496 -51.36 0.0002809572    1.121    0.108
        77  -9.9026     54.6912     84.9289   6.5822276934e+01   5.3824722812e+01    0.1826718    0.1733109 -28.67 0.0002237581    1.092    0.084
        78  -9.8768    124.7685     81.1998   4.3574013500e+01   4.0906113191e+01    0.1687093    0.1588562  20.46 0.0003315184    1.281    0.219
        79 -10.9101     11.5309     80.7400   8.4092443603e+01   6.0191238974e+01     0.304939    0.1840966  15.22  0.001520987    1.613    0.380
        80 -10.2735     47.8677     78.8340   6.6846205489e+01   5.6187932137e+01    0.3675463    0.2444514  12.94  0.001755652    1.709    0.415
        81  -9.7580     23.6107     78.0920   7.7541366265e+01   5.9598889115e+01    0.2608685    0.1388284 -69.42  0.001093934    2.582    0.613
        82 -10.2121    176.6796     76.7906   3.3405751264e+01   3.1170540506e+01    0.2310622    0.1825406 -80.60  0.001478987    1.168    0.144
        83 -10.9584     75.0145     76.7421   5.5996037511e+01   5.1869123140e+01    0.2087529    0.1968621 -49.84 0.0003056919    1.144    0.126
        84 -11.7860     10.7035     73.1147   8.2663669617e+01   6.1981180965e+01    0.5370863    0.3076982  42.75  0.001886618    2.125    0.529
        85 -11.9263      5.0310     73.1723   8.5612075821e+01   6.2427473643e+01    0.2659199    0.2256501  21.39 0.0002592369    1.243    0.196
        86 -10.7276      1.8179     70.2130   8.6606490044e+01   6.3317727715e+01    0.2399319    0.1713024 -45.42 0.0004142958    1.272    0.214
        87 -10.2019     41.4560     74.7847   6.8397196993e+01   5.7993976617e+01    0.2546769     0.162833  42.81 0.0007754608    1.635    0.388
        88 -10.4705     34.8348     73.4615   7.0973763820e+01   5.9203788139e+01    0.2242622    0.1835585 -38.67  2.48287e-05    1.235    0.190
        89  -9.0290    129.3313     71.3372   4.0114064774e+01   4.1614289544e+01    0.1299578    0.1061967  20.80 0.0007052052    1.737    0.424
        90  -9.3180    105.5349     71.6233   4.5575443810e+01   4.6605414244e+01    0.1376617    0.1218389  71.10 9.435542e-05    1.080    0.074
        91 -12.0840     81.1620     66.8695   5.1046149854e+01   5.2456103615e+01    0.2719934    0.2519062  -2.00 0.0002527182    1.200    0.167
        92  -9.1353    154.2601     67.3003   3.4663323595e+01   3.7059169697e+01    0.1096556    0.1017329  16.55 0.0001803015    1.510    0.338
        93 -11.8550     16.2188     65.0752   7.7640784564e+01   6.3181614684e+01    0.3874076    0.3118597  -8.35 0.0006493079    1.123    0.110
        94  -9.4606     59.4484     64.5886   5.7839193837e+01   5.7009890174e+01    0.1373238    0.1224935  27.46 2.602848e-05    1.023    0.023
        95  -9.2535    166.5095     64.4873   3.2204714668e+01   3.5016893373e+01    0.1239715    0.1054896 -77.78 0.0008104328    1.015    0.015
        96  -8.7023    128.5135     63.5418   3.8292745137e+01   4.3022170812e+01    0.1315779     0.117185  83.33 7.920095e-05    1.003    0.003
        97 -10.0250     86.6474     62.8486   4.8169143052e+01   5.2019112944e+01    0.2322417    0.1699287  39.67  0.000499894    1.337    0.252
        98 -10.1919     37.7069     59.8493   6.5409869323e+01   6.1478741609e+01    0.2896561    0.1861105  -7.86  0.001187589    2.072    0.517
        99  -9.9582     41.7682     58.7782   6.3217321301e+01   6.1052032385e+01    0.2469843    0.1840273 -25.29  0.001369128    1.448    0.309
       100 -11.7409     11.7117     59.7352   7.8486425841e+01   6.4730290962e+01    0.2647904     0.225915 -12.05 0.0004284445    1.018    0.018
       101 -10.4046     58.2398     58.9348   5.6459740130e+01   5.8223609047e+01    0.2246287     0.168707  39.51 0.0003382867    1.202    0.168
       102  -9.2998    121.0351     57.7927   3.8283965762e+01   4.5494715403e+01      0.16892   0.09644269  59.87 0.0003284503    1.614    0.380
       103 -12.0941    105.2177     52.0896   4.0132397896e+01   4.9745215053e+01    0.2940366    0.2300892 -77.27 0.0003187019    1.428    0.300
       104  -9.6908     99.5994     55.2604   4.2401661993e+01   5.0486887948e+01    0.1742561     0.130601 -24.78  0.000951385    1.699    0.411
       105  -9.6157     86.5331     54.5331   4.5654639218e+01   5.3362697212e+01     0.287296    0.1954561  45.09  0.001525248    1.358    0.263
       106 -10.9106     83.4735     51.2443   4.5499160718e+01   5.4496470789e+01    0.3616161    0.2476379  42.79  0.001518937    1.373    0.272
       107 -10.9574     78.2516     50.0277   4.6655911133e+01   5.5757133718e+01    0.2473105    0.1751029  51.87 0.0003434149    1.258    0.205
       108 -11.9623     77.8579     58.0720   4.9357417634e+01   5.4590529740e+01    0.2172457    0.2150643  27.29 0.0003131976    1.103    0.093
       109  -9.9995    182.1963     54.2278   2.8045316544e+01   3.3424204030e+01    0.1610113    0.1391868 -77.81 0.0004029988    1.127    0.112
       110  -9.0504     34.6534     54.7324   6.5112694704e+01   6.2869438147e+01      0.13543   0.09440124   1.54 0.0001575605    1.613    0.380
       111 -10.5310    115.0626     52.9694   3.8212647477e+01   4.7488983581e+01    0.2471567    0.1674579  59.04  0.000819547    1.332    0.249
       112 -12.5502     62.0948     49.6929   5.1902755601e+01   5.9017109685e+01    0.3006084    0.2746117 -59.21 0.0004913335    1.307    0.235
       113 -10.1422      3.6834     51.6290   8.0602107531e+01   6.7079277011e+01    0.2055459    0.1207838 -23.78 0.0008791144    1.659    0.397
       114 -10.2272    138.3160     50.1503   3.3152164017e+01   4.2878957693e+01    0.1940444    0.1546506  63.80 0.0004042837    1.211    0.174
       115  -9.3595    237.5363     49.4869   2.2114032563e+01   2.4502806819e+01    0.1035081   0.07544632 -63.17 0.0001406657    1.048    0.046
       116  -9.4074    155.8268     47.6145   2.9921404022e+01   3.9552368532e+01    0.1706428    0.1015871  81.86 0.0008093104    1.692    0.409
       117 -10.6821     17.1959     46.3602   7.1141679520e+01   6.6707657438e+01    0.2324967    0.1644227 -17.41 0.0006202596    1.406    0.289
       118  -9.7984    221.4989     44.9745   2.2566332378e+01   2.7637564306e+01    0.1512378   0.08324434 -48.13 0.0009967376    1.485    0.327
       119 -10.2799     27.6825     42.5187   6.4153542170e+01   6.5994970231e+01    0.2924265    0.1102145  34.86  0.001250499    2.339    0.572
       120  -9.6328      2.0554     45.5522   7.9685721698e+01   6.8394712612e+01    0.1916261    0.1085513  15.93  0.001029664    1.597    0.374
       121 -12.5005     85.7891     42.4203   4.2036364976e+01   5.5262309195e+01    0.3211475    0.2584128 -32.29 0.0004688039    1.457    0.314
       122 -11.6402    108.9126     40.9544   3.6117809389e+01   5.0463865218e+01    0.3998211    0.2474472  67.17   0.00147941    1.477    0.323
       123 -10.5005    103.7987     41.1843   3.7274014457e+01   5.1548072774e+01    0.2578334    0.1873069 -30.49 0.0009681922    1.677    0.404
       124 -11.2345     91.9193     40.8800   3.9959134480e+01   5.4158762705e+01    0.3444421    0.2361835 -48.14 0.0009957844    1.653    0.395
       125 -11.3897     38.3164     41.5841   5.8652421828e+01   6.4511390283e+01     0.298729    0.2663622  45.27   0.00193393    1.264    0.209
       126 -10.8467    183.8746     40.8964   2.5164431208e+01   3.4854839618e+01    0.2901877    0.1525837  85.08  0.001245109    1.951    0.487
       127 -10.9728    141.6154     41.0243   3.0391733980e+01   4.3383650044e+01    0.2271067    0.1526571  76.87 0.0004395979    1.342    0.255
       128 -10.8104    116.2725     39.3528   3.4208698420e+01   4.9062957435e+01    0.2906336    0.1808531 -57.42  0.001189035    1.782    0.439
       129 -10.1650     61.8285     40.9303   4.8924084480e+01   6.0367687749e+01    0.1879992    0.1544153  30.30  0.001149062    1.163    0.140
       130 -10.3754     19.1395     39.5059   6.7552631956e+01   6.7658994319e+01    0.2659715     0.198629  20.26  0.001639463    1.153    0.133
       131  -9.7735     81.2134     38.7963   4.2108610602e+01   5.6711459819e+01    0.1663162    0.1359012  34.72 0.0002394156    1.276    0.216
       132 -11.4050    121.6729     37.0157   3.2584774084e+01   4.8178015161e+01    0.2762423    0.2220193 -42.60 0.0009469024    1.403    0.287
       133 -11.3236     67.4674     35.8637   4.5216727758e+01   5.9936428919e+01    0.3270997    0.2027274  52.44 0.0003129877    1.402    0.287
       134 -10.1301    219.1983     36.0047   2.1190926272e+01   2.9127175422e+01    0.1729277    0.1026138 -66.02  0.001204573    1.326    0.246
       135  -9.9269    150.6939     36.0073   2.7928426309e+01   4.2097551835e+01    0.1591071    0.1331173 -76.32 0.0003601949    1.076    0.071
       136 -10.7643    112.6924     34.6174   3.3561963708e+01   5.0429457908e+01    0.2346075    0.1862551 -82.32 0.0002231288    1.261    0.207
       137 -10.0086     22.8203     34.8135   6.3708632926e+01   6.7925599801e+01    0.1787585    0.1438626   0.19 0.0004405307    1.149    0.130
       138 -10.4920      6.3547     34.6095   7.3203545092e+01   6.9972253742e+01    0.2157272    0.1760314  20.71 0.0005975186    1.223    0.182
       139 -10.0458     50.0489     33.4307   5.0519493247e+01   6.3645005003e+01    0.1726217    0.1578613  22.65 0.0003418126    1.105    0.095
       140 -10.7502    117.2718     30.9813   3.1710152907e+01   4.9859469331e+01    0.2937487    0.1770318 -41.32  0.001395404    1.816    0.449
       141  -9.1393     55.2648     32.7345   4.8267852141e+01   6.2753202815e+01    0.1126458   0.09471046  73.31 0.0006837501    1.459    0.315
       142 -10.2213     99.2581     30.6117   3.5089544956e+01   5.3839490124e+01    0.2253941     0.133123  54.63 0.0007941933    1.468    0.319
       143  -9.2564    161.5233    249.4550   6.7964194315e+01   5.0414631869e-01    0.1262816    0.1017836  -9.25  7.52823e-05    1.003    0.003
       144 -12.5031     11.0208     29.8291   6.8437179261e+01   7.0242311626e+01     0.293678    0.1926283  31.03 0.0009794878    1.421    0.296
       145  -9.8437    153.7252     29.7601   2.6104044555e+01   4.2210241649e+01    0.2161051    0.1171839  62.91  0.001233617    1.708    0.414
       146 -10.3905    135.8456     29.0591   2.8271369591e+01   4.6059239206e+01    0.1767711    0.1450065 -88.76 0.0003750615    1.033    0.032
       147 -10.6422     80.5545     27.7087   3.8572473036e+01   5.8212927028e+01    0.2575149    0.2070182  12.00  0.001604132    1.598    0.374
       148  -9.6774     40.4182     29.7063   5.3039066206e+01   6.5882149835e+01    0.2425012    0.0965369  43.07  0.001090303    2.129    0.530
       149 -12.3042    216.9463     25.6778   1.9567318749e+01   3.0719412745e+01    0.2229528    0.1453902 -84.16 0.0003274099    1.281    0.219
       150 -12.0058    213.0218     23.9333   1.9532129085e+01   3.1588286810e+01    0.2280393    0.1349267 -66.54 0.0002910464    1.306    0.234
       151  -9.9496      2.4185     27.0862   7.2772900764e+01   7.1628804954e+01    0.2529017    0.1186185  -9.87  0.001034081    3.405    0.706
       152 -10.6437    182.9992     25.5538   2.2178413409e+01   3.6858382330e+01    0.1845551    0.1377349 -56.83 0.0001682281    1.231    0.187
       153 -10.4809     31.6403    248.1908   9.8814709741e+01   1.5027988809e+01     0.274083    0.1776249 -42.26 0.0009935492    1.846    0.458
       154 -11.5608     18.5008    247.9966   1.0203350436e+02   1.6311450800e+01       0.3376    0.1972628  -9.97  0.001385421    2.482    0.597
       155  -9.9996    229.9241    247.6567   5.5085902231e+01  -5.4467694802e+00     0.146394    0.1079142 -14.70 0.0004495142    1.099    0.090
       156 -10.8798     34.0088     17.4955   5.0703022315e+01   6.8538372838e+01    0.4547632    0.1584929  43.86  0.002041506    2.337    0.572
       157  -9.9597    188.3523    247.6790   6.2363373512e+01  -1.8548053249e+00     0.102902   0.09434635  48.04 0.0007047586    1.749    0.428
       158 -11.6523    131.4942     21.6122   2.6998148392e+01   4.7813761409e+01    0.2707672    0.2456003   7.41 0.0006846866    1.594    0.373
       159  -9.4544     59.3824     25.0832   4.3900161684e+01   6.2894777922e+01     0.188096   0.09065565 -56.23 0.0007020956    4.552    0.780
       160  -9.6911     42.4661     25.0708   5.0258064175e+01   6.6120263327e+01    0.2063039    0.1336573  12.98  0.001110296    1.976    0.494
       161 -10.3781     40.8640     21.8285   4.9575015076e+01   6.6808114553e+01     0.173787    0.1607032  56.41 0.0003533902    1.293    0.226
       162  -9.7957     52.8799     23.6644   4.5617606496e+01   6.4339056623e+01     0.176798    0.1339128  47.58 0.0005356173    1.113    0.102
       163 -11.5907    100.6033     21.6784   3.2096452472e+01   5.4532399473e+01    0.3177219    0.2496785 -68.40  0.001140265    1.379    0.275
       164  -9.8008    103.4132     17.5661   3.0329050094e+01   5.4337675439e+01    0.2183191    0.1379691  48.64 0.0001220311    1.586    0.370
       165  -9.7038     47.7891     23.2227   4.7349973765e+01   6.5363783874e+01    0.1653001    0.1233591  28.26 0.0004605913    1.273    0.214
       166  -9.7517     21.5574     22.0267   5.8973651847e+01   6.9978794727e+01    0.2029536    0.1390635  17.04  0.001241219    1.342    0.255
       167  -9.5650    224.7185     21.3423   1.8332570444e+01   2.9908847546e+01    0.1086556   0.05244325 -63.82 0.0007011641    1.632    0.387
       168 -10.6864    163.3241     20.2692   2.2934015505e+01   4.1309107115e+01     0.204513     0.165315  85.57 0.0009969489    1.135    0.119
       169  -9.5413     64.3322     21.3011   4.0874675783e+01   6.2321095061e+01    0.1275868   0.08163921  33.64 0.0007033863    1.652    0.395
       170  -9.2175     26.6041     21.7150   5.6169764742e+01   6.9245137527e+01    0.1295023   0.08013723  16.27 0.0006912231    1.769    0.435
       171 -10.2450     15.3966     21.2451   6.2108940379e+01   7.0966972244e+01    0.2068696    0.1827626 -26.76  0.001034223    1.360    0.265
       172 -10.5885     14.3642     16.0340   6.0304370555e+01   7.1818846335e+01    0.2181798    0.1681001  32.76 0.0006536864    1.246    0.197
       173  -9.5128    197.5364     19.5243   1.9841176635e+01   3.4821175291e+01    0.1067809   0.08009781 -74.58 0.0001369845    1.034    0.033
       174 -10.1156     70.3120     18.1526   3.7963436321e+01   6.1415346025e+01    0.2100342    0.1394008  51.99 0.0008951665    1.232    0.189
       175 -10.1227     44.5245     18.4514   4.6646683237e+01   6.6529411806e+01    0.2683074   0.09936236  48.63 0.0008676812    2.204    0.546
       176 -10.4818    147.9438     16.6879   2.3751553518e+01   4.4842220710e+01    0.1822127    0.1372666 -65.92 0.0002100869    1.215    0.177
       177 -10.4215    214.5098     16.1778   1.8090063259e+01   3.2190152136e+01    0.1690012    0.1125027 -84.75 0.0005010702    1.225    0.183
       178  -9.7391    131.2943    247.6625   7.4321294453e+01   4.1155217639e+00    0.1220617    0.1002137  53.48 0.0005570395    1.649    0.393
       179  -9.3252    178.6988     15.7339   2.0585885052e+01   3.8759673834e+01   0.09472375   0.07648796  63.64 0.0001877807    1.522    0.343
       180 -10.1965    153.6275     12.7238   2.2239676815e+01   4.4067861041e+01     0.231727    0.1275727  70.78 0.0009128402    1.551    0.355
       181  -9.6359    116.4909    247.5083   7.7740418267e+01   5.8301234206e+00    0.1332677    0.1161748   7.07  0.000810329    1.034    0.033
       182  -9.9210    147.7604    243.3861   7.0040226643e+01   3.0941818234e+00    0.1827971    0.1098707  10.07 0.0008233545    1.641    0.391
       183 -10.4883     37.4872    241.6310   9.6839270216e+01   1.5947121489e+01    0.3959775    0.1316369  48.44  0.001419475    3.185    0.686
       184  -9.2868    117.6894    238.7171   7.6284451393e+01   7.4870943638e+00    0.1385572   0.09430231 -14.78 0.0002370005    1.569    0.363
       185 -10.8706      6.1985    113.1180   9.2732227627e+01   5.2619108480e+01    0.3797742    0.1601369 -46.36  0.001532251    2.134    0.531
       186 -10.4165     31.0981    232.9957   9.7786944548e+01   1.8613595836e+01    0.4922338    0.1341049  25.80  0.001734716    3.054    0.673
       187 -10.8505     55.8414    231.1674   9.1106387833e+01   1.6461067828e+01    0.3458882    0.2406467  -5.68  0.001719993    1.692    0.409
       188 -10.5797      7.5744    228.7491   1.0357578892e+02   2.1777153494e+01    0.2426683    0.1588547  83.63  0.001288604    1.540    0.351
       189 -11.7146      2.7250    221.3236   1.0438305864e+02   2.3986774259e+01    0.5323552    0.2304578  77.84  0.002159016    2.670    0.626
       190  -9.3779     16.4954    213.4500   1.0015809813e+02   2.4811013315e+01    0.1357138    0.1275693  59.08 0.0003645601    1.016    0.015
       191  -9.2923    210.4367    215.5454   5.3503470995e+01   1.4128683607e+00    0.1206563   0.09132972 -26.35 0.0001588616    1.029    0.028
       192  -9.8581    237.6363    186.6495   4.4701532025e+01   3.4697714500e+00    0.1714049     0.103576 -25.89 0.0007404714    1.619    0.382
       193  -9.0402    164.3046     10.6221   2.0766305052e+01   4.2112715496e+01    0.1212969   0.06327163 -67.20 0.0002714044    1.774    0.436
       194  -9.8048      1.4589    170.0770   1.0109332635e+02   3.7511972413e+01    0.2198966    0.1300729 -74.88 0.0005849563    1.570    0.363
       195  -9.3290    229.5061    165.5230   4.2435338004e+01   7.8827854965e+00    0.1175579    0.0904096 -41.83 0.0008101181    1.021    0.021
       196  -9.7179    212.9290    155.1618   4.3079478510e+01   1.1753920384e+01     0.180516    0.1414033 -56.53 0.0006926914    1.249    0.199
       197 -10.8379      7.0551    154.0026   9.7685260699e+01   4.1534053931e+01    0.2222308    0.2073638 -78.83 0.0005588139    1.032    0.031
       198 -10.9089     23.8110    148.0038   9.1025499972e+01   4.1815505738e+01    0.4177229    0.2327401 -41.46  0.001735864    1.849    0.459
       199 -11.7701      3.8441    145.4350   9.7886799303e+01   4.4104313209e+01    0.3808722    0.3586675  77.56  0.001779672    1.095    0.087
       200  -9.5668    206.5272    145.4846   4.2336123221e+01   1.4359093092e+01    0.1246178    0.1016364 -46.58 0.0001821177    1.006    0.006
       201  -9.9470     32.0789    141.0601   8.6983421074e+01   4.2896339809e+01    0.2243596    0.1827645 -34.61            0    1.233    0.189
       202  -9.6797     54.2249    140.0029   7.8813880249e+01   4.0511461196e+01    0.2036507    0.1944523 -33.51 0.0002988619    1.026    0.025
       203 -10.3857     69.0586    135.9716   7.2893475766e+01   3.9420043840e+01    0.2283897    0.2162548 -28.12 0.0003468512    1.049    0.047
       204 -10.0877      2.1888    130.8470   9.6803555658e+01   4.8174072051e+01    0.2027793    0.1464237 -44.82 0.0002699549    1.297    0.229
       205  -9.5491     70.4913    130.5030   7.1254160848e+01   4.0588819036e+01    0.1539183    0.1471655 -16.18 -8.10044e-05    1.042    0.040
       206  -9.8824     43.7429    129.9531   8.0700059736e+01   4.4534276580e+01    0.2012284    0.1895957 -74.87  0.000186132    1.114    0.103
       207  -9.9941     25.6634    128.6651   8.7370688121e+01   4.6893932384e+01    0.1644286    0.1008215 -32.95 0.0004787864    1.745    0.427
       208 -11.1343    246.7156    127.3979   3.4028293226e+01   1.2003581345e+01    0.1512851    0.1428484  20.05 0.0009061296    1.495    0.331
       209 -10.6132     74.9533    126.4864   6.8872528064e+01   4.0873337019e+01    0.2667772    0.2091344 -45.25  0.001297974    1.277    0.217
       210  -9.0009    126.6859    129.2869   5.4554065061e+01   3.0947178539e+01    0.1449477    0.1144876  83.58 0.0002506365    1.584    0.369
       211 -13.2600     83.1338    119.7525   6.4647351427e+01   4.1114234734e+01      0.41138    0.3781175  -4.85 0.0005993671    1.147    0.128
       212 -10.6104     25.0335    120.7019   8.6237477378e+01   4.9066679945e+01    0.4141239    0.2151108  25.88  0.001426616    1.905    0.475
       213 -11.8134     12.0569    119.8112   9.1348591406e+01   5.0440554699e+01    0.8189704    0.3227621 -25.18  0.002596973    3.812    0.738
       214 -10.0453     74.9490    121.9602   6.7849787780e+01   4.1984080741e+01    0.2232711    0.2195978  32.88 0.0003266794    1.030    0.029
       215 -10.6718     27.0630    116.9786   8.4731300238e+01   4.9834531688e+01    0.2152195    0.2009297 -28.63 0.0003317807    1.009    0.009
       216 -10.8270     69.5340    115.3987   6.8173354210e+01   4.4468551373e+01    0.3401358    0.2477124  37.97 9.588459e-05    1.353    0.261
