#   1 NUMBER                 Running object number                                     
#   2 MAG_AUTO               Kron-like elliptical aperture magnitude                    [mag]
#   3 X_IMAGE                Object position along x                                    [pixel]
#   4 Y_IMAGE                Object position along y                                    [pixel]
#   5 X_WORLD                Barycenter position along world x axis                     [deg]
#   6 Y_WORLD                Barycenter position along world y axis                     [deg]
#   7 A_WORLD                Profile RMS along major axis (world units)                 [deg]
#   8 B_WORLD                Profile RMS along minor axis (world units)                 [deg]
#   9 THETA_WORLD            Position angle (CCW/world-x)                               [deg]
#  10 FWHM_WORLD             FWHM assuming a gaussian core                              [deg]
#  11 ELONGATION             A_IMAGE/B_IMAGE                                           
#  12 ELLIPTICITY            1 - B_IMAGE/A_IMAGE                                       
         1 -10.2155      9.0681     32.0160   1.2649763468e+02   6.7568238294e+01    0.4020785    0.1908992 -67.85  0.001368958    2.940    0.660
         2  -9.5634     74.9821     16.7070   9.3852792861e+01   6.1932247229e+01     0.241116    0.2321001 -56.16 0.0008088287    1.446    0.309
         3  -8.2620    146.1124     14.3149   7.5518170133e+01   4.6539417951e+01    0.2174507     0.181537  17.93 0.0003884778    1.228    0.186
         4  -9.6290     80.2193     12.6030   9.0326857260e+01   6.1466670442e+01    0.4155113    0.2481023 -48.48  0.001993489    2.504    0.601
         5 -10.2092     50.3243     11.7140   1.0035865272e+02   6.6571953399e+01    0.2811246    0.2414969 -43.27 0.0006846781    1.587    0.370
         6  -8.2196    130.3825     12.2340   7.7690455765e+01   5.0611810023e+01     0.183681    0.1249435 -30.86 0.0002141894    1.544    0.353
         7  -8.1378     92.9924      9.9788   8.5451085761e+01   5.9237317850e+01    0.1638243    0.1397161   8.15 0.0006655777    1.041    0.039
         8  -8.2780     77.4911      7.5035   8.8811549936e+01   6.2546559330e+01    0.1930658    0.1084984 -32.51 0.0007721462    1.821    0.451
         9  -8.8588     75.4399      3.7314   8.7655840801e+01   6.3323035098e+01    0.2514135     0.115312 -21.20 0.0008591519    2.091    0.522
        10  -7.8173     28.3180      9.6549   1.0871368403e+02   6.9671619755e+01    0.1019097   0.08864998 -50.87 0.0007048907    1.723    0.420
        11  -7.6613    109.7758      8.0038   8.0408608330e+01   5.5820654346e+01    0.1696619     0.106496 -17.71  0.000409381    1.609    0.379
        12  -9.2154     40.4051      7.7421   1.0244407696e+02   6.8473638091e+01    0.2215508    0.1945233  66.25  0.001014477    2.095    0.523
        13  -9.5347     14.1791      3.6750   1.1256510075e+02   7.1976883961e+01    0.4759874    0.1791699 -32.43  0.002425233    2.281    0.562
        14  -7.6598     18.4737      2.5032   1.0982469978e+02   7.1737030338e+01    0.1336287    0.1019105  27.26 -1.093901e-05    1.619    0.382
        15  -7.4720    125.6937      5.6814   7.6104327384e+01   5.2346066638e+01    0.1464971   0.09024906  31.35 0.0004286165    1.633    0.388
        16 -10.5366     59.9276      2.9381   9.2403352125e+01   6.6142642919e+01     0.284686    0.2016983  18.77 0.0002955658    1.265    0.209
        17  -8.9193    105.9985      3.6955   7.9474250495e+01   5.7058997854e+01    0.2593333    0.1639968  20.82   0.00133345    1.615    0.381
        18  -7.4339    155.4947      7.4523   7.1596960578e+01   4.4824066588e+01    0.1403731    0.1256276  48.04  0.000104232    1.041    0.040
        19  -7.6513     51.7005      3.3133   9.5632048696e+01   6.7413197354e+01    0.1064245   0.09163719 -39.95 0.0002559034    1.607    0.378
        20  -7.6360      3.2947      3.3197   1.1803436770e+02   7.2923514426e+01    0.1137896   0.06015312 -25.87 0.0002352453    1.611    0.379
        21  -8.2875     67.7696      1.8214   8.9164472390e+01   6.4913819400e+01    0.1522044    0.1399095 -14.26 0.0002426932    1.308    0.236
        22  -7.9694    115.9606      1.4854   7.6391450276e+01   5.4990366889e+01    0.2020641    0.1219754  59.09 0.0007211143    1.551    0.355
        23  -8.0323     87.7840      1.5734   8.3078383810e+01   6.1122432723e+01    0.1597262    0.1225425  63.32 0.0005052938    1.559    0.359
        24  -8.4752     40.3933      1.5152   9.9240050191e+01   6.9268276793e+01    0.3692485     0.101731  39.27  0.001538627    3.731    0.732
        25  -8.5262    170.5134    233.4719   1.2451119908e+02   4.7606829467e+00    0.2671271    0.1168885 -40.11  0.001349473    2.932    0.659
        26  -9.9213    249.1052    249.1755   1.1374790305e+02  -9.1554248072e+00    0.3841159     0.208772 -14.45  0.002448591    2.042    0.510
        27  -9.1319    226.3730    250.2098   1.1749949869e+02  -5.9752530345e+00    0.1907091    0.1108505  31.11 0.0005533585    1.318    0.241
        28 -10.5519    218.6076    248.6962   1.1853532756e+02  -4.6619299238e+00    0.3874483    0.2890046  31.91  0.002844088    1.079    0.073
        29  -9.3905    219.4192    244.2614   1.1776143669e+02  -4.3183051252e+00    0.1811338    0.1600513  27.40 0.0006911776    1.277    0.217
        30  -9.2700    212.0798    249.9464   1.1977417095e+02  -3.8067484242e+00    0.3028021    0.1573734  50.66  0.001707188    2.134    0.531
        31  -9.9599    212.2971    246.3170   1.1922544301e+02  -3.4507845374e+00    0.2443977    0.1670086  10.55  0.001087616    1.540    0.351
        32  -9.5128    202.5583    249.1326   1.2122096054e+02  -2.2632102200e+00    0.3006322    0.1512875  32.31  0.001617383    1.689    0.408
        33  -9.8052    192.7826    248.2469   1.2271728084e+02  -6.4887147508e-01    0.2691891    0.1884478  33.75 0.0008757673    1.112    0.101
        34  -8.9526    180.3638    249.4793   1.2494674188e+02   1.1435369153e+00    0.2805995    0.1668526  22.96  0.001651186    1.963    0.491
        35  -8.5195    187.5411    250.4942   1.2388512189e+02  -9.4590326441e-02    0.1873118    0.1201638  44.71 0.0007776787    1.282    0.220
        36  -8.5518    184.4517    249.4725   1.2426487444e+02   5.0630788087e-01     0.220508    0.1558062  41.07 0.0007757464    1.109    0.098
        37  -9.2920    186.9983    245.1862   1.2327213044e+02   6.1834127429e-01    0.2632942    0.1663587 -26.12  0.001496877    2.102    0.524
        38  -9.2697    174.9509    250.0798   1.2592598623e+02   1.9157772379e+00    0.2177461     0.124324  37.73  0.001351549    1.387    0.279
        39  -9.8126    164.7188    246.1739   1.2715604541e+02   4.0112840514e+00    0.2245258    0.1636304  28.53 0.0003590833    1.349    0.259
        40  -8.7013    153.0449    250.5104   1.2963848253e+02   5.2680151597e+00    0.1743514   0.08726211  42.14 0.0005600885    1.546    0.353
        41 -10.3400    156.8490    245.8216   1.2844454886e+02   5.2944828600e+00    0.3690451    0.2591629  21.06  0.001516014    1.743    0.426
        42  -7.4553     78.2816    238.3088   1.4094868033e+02   1.8008827367e+01    0.0871787   0.08427073  36.33 0.0003502986    1.563    0.360
        43  -9.5209    171.2675    246.0238   1.2603103537e+02   2.9982573089e+00    0.2331675    0.1623478   7.48  0.001186664    2.052    0.513
        44  -8.3679    194.9101    236.8967   1.2078378605e+02   3.6087977963e-01    0.1795279    0.1307275  20.61 0.0006370888    1.326    0.246
        45  -7.6039    209.4017    235.8022   1.1817222235e+02  -1.8234211699e+00    0.1459766     0.101587  -9.78 0.0005749162    1.682    0.406
        46  -8.6163    178.6705    235.3543   1.2335251444e+02   3.1815459303e+00     0.225684    0.1428841  18.90 0.0008850429    1.978    0.495
        47  -8.7901    159.7883    235.7590   1.2668365982e+02   6.1904946723e+00    0.2697944     0.153908  29.27  0.001487765    1.942    0.485
        48  -9.2946    244.0094    234.9805   1.1235653048e+02  -7.0547108710e+00    0.1741723    0.1283307  18.67 0.0004251786    1.032    0.031
        49  -7.9976    204.4368    234.7560   1.1885421158e+02  -9.1004709094e-01    0.1462808    0.1037663  -9.43 0.0009390937    1.670    0.401
        50  -8.2373    248.9609    233.0419   1.1125534356e+02  -7.5893220647e+00    0.1798592    0.1051505  15.46 0.0005095812    1.608    0.378
        51  -7.7799    153.4377    232.6925   1.2739995834e+02   7.6492321592e+00    0.1368796    0.1137093 -26.91 0.0009410673    1.580    0.367
        52  -7.3619     99.7036    233.6794   1.3690688764e+02   1.5790060514e+01   0.09633602   0.08724491  16.91 0.0003315167    1.616    0.381
        53 -10.8900    239.9849    230.2510   1.1224831708e+02  -5.9651441617e+00    0.3913113     0.268954  35.87  0.002644251    1.279    0.218
        54  -7.5497    246.3082    230.3107   1.1123739934e+02  -6.9209917266e+00    0.1183371   0.06996393  14.85 0.0002765482    1.620    0.383
        55  -8.1961    249.5110    229.5141   1.1059476635e+02  -7.3149477513e+00    0.1794832     0.109192  15.24  0.001025914    1.496    0.331
        56  -7.8440    208.2983    229.3591   1.1738363715e+02  -8.8807148689e-01    0.1215117   0.07867419  14.02 0.0003375298    1.709    0.415
        57  -7.6523    203.2604    229.3451   1.1824241543e+02  -6.8646669207e-02    0.1162613   0.07961949  12.59 0.0003743513    1.597    0.374
        58  -7.9272    152.1422    227.8204   1.2699684480e+02   8.5674371391e+00    0.1622966    0.1239919  29.61 0.0004875065    1.340    0.254
        59  -7.5455    108.6879    227.6192   1.3471608710e+02   1.5451852601e+01    0.1041552   0.09033604   1.72 0.0001089693    1.803    0.445
        60  -8.5506    248.9851    223.4849   1.0968070465e+02  -6.6141478363e+00    0.2138285    0.1225342  16.11  0.001248544    1.706    0.414
        61  -7.8937    184.6767    226.1659   1.2099373328e+02   3.4028989899e+00    0.1501138    0.1075813 -22.63  0.000548761    1.735    0.424
        62  -8.0274    212.1593    224.9631   1.1603974936e+02  -9.8602793770e-01    0.1964093    0.1217576   5.17    0.0010779    2.081    0.519
        63  -7.9300    167.9564    224.9837   1.2378688731e+02   6.3590733935e+00    0.1790674    0.1328411  14.52 0.0006428239    1.642    0.391
        64  -8.1716    127.0956    224.8992   1.3111970623e+02   1.3055442638e+01    0.1722043     0.139649  15.87   0.00112092    1.695    0.410
        65  -7.9023    218.3557    224.2775   1.1487587962e+02  -1.9098111233e+00    0.1243538   0.07607987  19.64 0.0003377592    1.653    0.395
        66  -7.8241    206.6234    222.1984   1.1655390271e+02   2.6311849716e-01    0.1518908     0.107029 -14.01 0.0008972284    1.639    0.390
        67  -7.7385    147.4682    221.4686   1.2699603219e+02   1.0292364706e+01    0.1215003    0.1007985  44.28 0.0002167891    1.045    0.043
        68  -7.6073     92.5230    221.4365   1.3694602648e+02   1.8856560184e+01    0.1145657    0.0923751  62.14 5.870163e-05    1.036    0.035
        69  -8.5170      8.5217    221.0464   1.5112126377e+02   2.8902999226e+01    0.1457961   0.07529049 -86.23  0.001027703    1.581    0.368
        70  -8.0236    194.5344    218.9695   1.1815906652e+02   2.7048577079e+00    0.1603336   0.09980641  -5.60  0.000808729    2.466    0.594
        71  -7.2434    140.5295    219.4772   1.2799746382e+02   1.1747914036e+01    0.1212524    0.1016581  45.24 2.814951e-05    1.066    0.062
        72  -7.6922    225.6656    218.7012   1.1272706517e+02  -2.4341915301e+00    0.1253078   0.07754192  16.80   0.00070324    1.652    0.395
        73  -7.6844    170.7669    217.4324   1.2218655588e+02   6.9707753345e+00     0.170439    0.1003153  34.28 0.0004026086    1.570    0.363
        74  -7.7421    150.7189    216.6373   1.2574069018e+02   1.0496855002e+01     0.173488    0.1333327  12.89 0.0006014677    1.715    0.417
        75  -9.4480    244.1631    215.5574   1.0911618341e+02  -5.0185136149e+00    0.2110063    0.1527551 -41.43  0.001334555    1.947    0.486
        76  -8.2646    204.4532    215.7745   1.1589994544e+02   1.4457341437e+00    0.2169545    0.1325749  15.76  0.001145021    1.990    0.497
        77  -7.7908    248.7762    215.1984   1.0830265410e+02  -5.6946543327e+00    0.1675145    0.1102738  14.81  0.000556565    1.342    0.255
        78  -7.2412    144.2989    215.3021   1.2674167824e+02   1.1784960474e+01    0.1150724   0.09179718  16.26 0.0002251104    1.583    0.368
        79  -8.3464    187.3181    210.3311   1.1807666711e+02   5.1337130815e+00    0.2665605    0.1751683  -1.57  0.001379827    2.254    0.556
        80  -8.4029    170.5182    210.5734   1.2119330754e+02   8.0300078357e+00    0.2212487    0.1725035 -18.55 0.0009074556    1.602    0.376
        81  -8.0564    100.0816    210.9155   1.3443315452e+02   1.9585230461e+01    0.1700468    0.1480965   2.02  0.001126312    1.781    0.439
        82  -7.9116    247.4974    210.5176   1.0769287373e+02  -4.9768914662e+00    0.1229402   0.09264357  14.61 4.352024e-05    1.064    0.060
        83  -7.6493    107.8748    209.3362   1.3278722211e+02   1.8679870926e+01     0.166832     0.101291  36.06 0.0005473761    1.733    0.423
        84  -7.4051     78.0090    209.2046   1.3834613320e+02   2.3058382321e+01    0.1470613   0.07985924  44.04 0.0004371719    1.656    0.396
        85  -7.7528    163.3945    207.7283   1.2208019348e+02   9.7097086972e+00     0.156037    0.1197104 -27.62 0.0009345923    1.614    0.381
        86  -7.9772    146.8537    208.4083   1.2529286550e+02   1.2464683739e+01     0.168856    0.1054985  34.71  0.000141225    1.580    0.367
        87  -8.0332    248.0214    205.9911   1.0680220763e+02  -4.5460061512e+00    0.1984478    0.1205057  11.54 0.0008432668    1.685    0.406
        88  -8.3326     11.7097    205.9951   1.4981775998e+02   3.1288323915e+01     0.153963    0.1028555  82.36  0.001182986    1.107    0.097
        89  -7.3175    149.3790    204.2868   1.2420768423e+02   1.2705845419e+01    0.1268934   0.09405419  17.94 0.0003899547    1.730    0.422
        90  -7.3740    139.6864    204.6865   1.2611881787e+02   1.4306335598e+01    0.1196218   0.09657254  12.13 0.0003379328    1.638    0.389
        91  -7.8234     87.8025    204.3702   1.3600626036e+02   2.2573511437e+01     0.159529    0.1043155  35.91 0.0005558879    1.691    0.409
        92  -7.6030    175.4985    202.4372   1.1897308910e+02   8.3881595231e+00     0.128978    0.1100042  37.44 0.0001431346    1.009    0.009
        93  -8.0187     97.7819    202.3625   1.3387173732e+02   2.1476766935e+01    0.1675292    0.1053241  37.16 0.0009502126    1.667    0.400
        94  -8.7329    250.4024    198.3208   1.0501543784e+02  -4.0368117314e+00      0.29397    0.1391189 -19.78  0.001437703    2.340    0.573
        95  -7.5554    135.2801    200.3334   1.2633928212e+02   1.5803164619e+01    0.1174589   0.09887798   3.66 0.0001649638    1.610    0.379
        96  -7.7869    161.6205    198.5422   1.2097216496e+02   1.1489110567e+01    0.2323245    0.1124762 -30.86 0.0009412918    3.386    0.705
        97  -8.3230    243.4929    197.3830   1.0597994413e+02  -2.7996630864e+00    0.2456337    0.1535245 -10.95  0.001390113    1.661    0.398
        98  -8.4618    230.6337    197.9610   1.0825636887e+02  -7.1664431562e-01    0.2421432    0.1416088  27.47 0.0006343169    1.599    0.375
        99  -8.2684    150.9566    198.3022   1.2299065385e+02   1.3426950190e+01    0.1871608     0.146438  42.85 0.0004523366    1.127    0.113
       100  -7.5673    224.7661    195.9621   1.0890232796e+02   5.5005323561e-01    0.1534398    0.1010896 -26.74 0.0008376182    1.588    0.370
       101  -7.5809     79.8032    196.4007   1.3665558865e+02   2.5205769161e+01    0.1556507    0.1088552  33.21 0.0006274584    1.712    0.416
       102  -8.1772    203.0415    194.9827   1.1259235764e+02   4.5353454773e+00    0.2163048    0.1425433  15.20  0.001130682    1.764    0.433
       103  -7.5836    180.5189    195.4886   1.1686226313e+02   8.5544668267e+00    0.1323673    0.1128615  27.73 5.556065e-05    1.079    0.073
       104  -7.8567    237.4006    192.2442   1.0604234371e+02  -1.1425018890e+00    0.1556959    0.1136876 -31.36 0.0005508394    1.494    0.330
       105  -7.5205    232.3379    190.2905   1.0653627158e+02  -2.1652942661e-02    0.1333432   0.08543383  14.84 0.0003469349    1.641    0.391
       106  -7.9560    224.2203    189.9660   1.0788191474e+02   1.4432076731e+00    0.2012877     0.124032  22.33  0.001049093    1.664    0.399
       107  -7.4878    191.5298    189.4993   1.1372976020e+02   7.4528793219e+00    0.1340965    0.1144982  23.88 -5.128187e-05    1.066    0.062
       108  -8.2875    243.8038    187.4567   1.0405567485e+02  -1.6244835234e+00    0.2083162    0.1485384   4.29 0.0006321606    1.329    0.248
       109  -7.8339    172.8368    188.1284   1.1705200897e+02   1.1144962486e+01    0.1826587    0.1482204  12.39 0.0006321837    1.376    0.273
       110  -8.1013    238.5068    184.4973   1.0437410689e+02  -3.3693542686e-01    0.2083708    0.1127952 -17.36 0.0008123043    2.087    0.521
       111  -8.6754    230.4059    184.8723   1.0583329540e+02   1.0336723450e+00     0.234136    0.1597755  31.30 0.0003810108    1.310    0.237
       112  -8.8483    249.7744    182.6879   1.0214289904e+02  -2.0339055698e+00    0.2647578    0.1701986   5.49 0.0006711747    1.626    0.385
       113  -7.6696    211.6921    181.6821   1.0853535028e+02   4.8776046499e+00    0.1370608   0.09422946  11.77 0.0003161104    1.635    0.388
       114  -7.9280    182.8232    180.1522   1.1366590447e+02   1.0568110004e+01     0.184886      0.14969  12.42 0.0004033751    1.326    0.246
       115  -8.2618    242.0708    177.6750   1.0243165855e+02  -6.4748012123e-02    0.2155019    0.1643506 -29.58 0.0008255892    1.376    0.273
       116  -7.5981    190.2821    176.2947   1.1149274339e+02   9.7629070963e+00    0.1343163    0.1000806  11.25  0.000235451    1.537    0.350
       117  -7.8782    182.6927    173.7090   1.1246327887e+02   1.1656832532e+01    0.1373972    0.1022124  13.11   0.00025636    1.578    0.366
       118  -7.3698    250.6616    172.2817   9.9924763279e+01  -8.5622593927e-01    0.1109796    0.1049264 -75.62  0.000364817    1.624    0.384
       119  -9.4878    246.1568    167.2007   9.9626211802e+01   6.0706612423e-01    0.2645124    0.1858177  27.25  0.000474202    1.331    0.249
       120  -8.0397    237.3732    167.2138   1.0110278483e+02   2.1929614319e+00    0.1824604    0.1436307  11.90 0.0004800544    1.163    0.140
       121  -7.7595    160.3049    163.3467   1.1496053609e+02   1.7873588200e+01    0.1419498    0.1098072   3.61 0.0007041569    1.694    0.410
       122  -7.0450    234.3298    162.3267   1.0060356915e+02   3.4447481091e+00    0.1428456   0.09447967  10.73  0.000705089    1.706    0.414
       123  -7.4766    105.6719    151.6671   1.2477485551e+02   3.0344272115e+01    0.1332145     0.108977 -16.76 0.0007051726    1.717    0.418
       124  -7.4947    202.6611    150.6933   1.0382048289e+02   1.1483269786e+01    0.1493561    0.1057905  12.99 0.0005255329    1.680    0.405
       125  -7.1668    143.0000    147.9954   1.1558203895e+02   2.4246594683e+01    0.2284142   0.08163912 -46.76 0.0007938086    2.883    0.653
       126  -7.2253     85.5128    147.4934   1.2875378629e+02   3.4457213266e+01     0.131014    0.1199311 -81.10 0.0002166873    1.055    0.052
       127  -8.1943     65.6709    142.1255   1.3261179109e+02   3.8424464156e+01    0.2144797    0.1453284 -88.46  0.001175645    1.542    0.351
       128  -7.2994    131.6749    141.3241   1.1675090907e+02   2.7815160186e+01    0.1478189    0.1120332  84.39 0.0007048376    1.688    0.408
       129  -7.5494    248.0000    134.9690   9.2343506949e+01   4.7711759730e+00    0.2304441   0.07157765 -31.90 0.0008084914    2.985    0.665
       130  -7.7960    241.4924    132.4589   9.2817893077e+01   6.4167742915e+00     0.260018    0.1263775 -19.79  0.001033632    2.448    0.591
       131  -8.1874    231.8025    128.8172   9.3576978196e+01   8.9345661658e+00    0.2524114    0.1432955  14.67 0.0009536196    2.906    0.656
       132  -7.3204    173.6611    128.6675   1.0455371760e+02   2.1577342765e+01    0.1575176    0.1168828   9.30 0.0007051776    1.745    0.427
       133  -7.3352    128.0000    125.0169   1.1401663165e+02   3.1937346579e+01    0.2273333   0.08200557 -47.16 0.0003164769    2.739    0.635
       134  -8.5108    240.5641    122.1830   9.0578809867e+01   8.1364154005e+00     0.374934     0.212827  -9.79  0.001552774    2.377    0.579
       135  -8.2904    248.0316    116.9338   8.8174170973e+01   7.3920254243e+00    0.3186442    0.1814016  -5.65  0.001301408    2.541    0.606
       136  -8.2387    218.6892    113.9460   9.2237583132e+01   1.4093708296e+01    0.2122926    0.1893566 -22.18  0.001163732    1.063    0.060
       137  -8.6637    209.9914    111.3109   9.3116490717e+01   1.6474272372e+01    0.3785087       0.2517 -18.38  0.001460981    1.662    0.398
       138  -8.7051    241.4809    106.1589   8.6600485811e+01   1.0349880361e+01    0.4429502     0.228649  -9.79  0.001571372    3.246    0.692
       139  -7.9765    249.5248    106.9714   8.5587926306e+01   8.5460323848e+00    0.2020312    0.1156969  -5.54 0.0008099776    2.550    0.608
       140  -8.4302    190.1889    106.1741   9.5507171599e+01   2.1914627313e+01    0.3393783    0.1213255 -29.47  0.001016222    3.456    0.711
       141  -8.6223     11.3167    105.6357   1.4117602126e+02   5.2011975601e+01    0.1830768    0.1164729  75.59  0.001118336    1.715    0.417
       142  -9.6072      3.9474    105.9159   1.4318629312e+02   5.2438749540e+01    0.2812045     0.158803  55.77  0.001026004    2.060    0.515
       143  -8.0538    212.3926    102.7649   9.0511132183e+01   1.7333553673e+01     0.215793     0.138439 -19.55 0.0009447852    1.715    0.417
       144  -7.7410    204.6847    103.6486   9.2113881641e+01   1.8969086406e+01    0.1587851    0.1150268  11.53 0.0007046659    1.732    0.423
       145  -7.6153    229.3042    101.3498   8.7320121953e+01   1.3729621571e+01    0.1513816    0.1090485  10.12 0.0003781235    1.700    0.412
       146  -7.8043    188.0000     99.9686   9.4287754651e+01   2.3516736306e+01    0.2518029    0.0856125 -35.23  0.000691794    2.891    0.654
       147  -7.9519    242.1856     97.0173   8.4259926274e+01   1.1562532270e+01     0.239365    0.1443682 -51.75  0.001071789    1.964    0.491
       148  -9.7388      5.8295     95.0702   1.4125102783e+02   5.4686170975e+01    0.2538329    0.2046185 -32.18  0.001855402    1.497    0.332
       149  -9.6707      3.4679     91.1559   1.4137616227e+02   5.5680080767e+01     0.308784    0.1518473  85.73   0.00155694    2.546    0.607
       150  -7.7998    248.4106     91.7323   8.2067547779e+01   1.1000955825e+01    0.2002563    0.1263173 -19.27 0.0009480964    1.630    0.387
       151  -8.6350     23.0425     91.8239   1.3571580834e+02   5.4184289678e+01     0.174556      0.14119 -87.27 0.0004879026    1.246    0.197
       152  -7.9783    242.7700     91.3973   8.2788148053e+01   1.2266453359e+01    0.1972806    0.1268906  42.80 0.0009492488    1.690    0.408
       153  -7.7486    177.3234     91.3065   9.4039593065e+01   2.7587620433e+01    0.1591381     0.119331  15.85 0.0004173222    1.644    0.392
       154  -7.4181    179.3212     83.6698   9.1477551169e+01   2.8429194954e+01    0.1590785    0.1203692 -68.95 0.0007048941    1.694    0.410
       155  -8.1086    158.4198     80.7488   9.4981133228e+01   3.4002925448e+01       0.2218     0.147832 -21.76 0.0008462513    1.694    0.410
       156  -8.9350      2.9588     81.2560   1.4004148492e+02   5.7850234732e+01    0.1510456    0.1252467 -63.09  0.000420449    1.111    0.100
       157  -8.6612    184.3135     77.3569   8.8698518225e+01   2.8260835728e+01    0.2650094    0.2260838  18.81 0.0007208487    1.275    0.216
       158  -7.9105    195.3287     80.3220   8.7511194643e+01   2.5064355360e+01    0.1592253    0.1165018  18.69 0.0004736381    1.692    0.409
       159  -7.3524    211.6709     74.6633   8.3174024565e+01   2.1964954026e+01    0.1562642    0.1132526  19.00 0.0007051978    1.730    0.422
       160  -7.8255     36.1428     67.8260   1.2636138251e+02   5.8239326146e+01    0.1751443    0.1206791 -39.86  0.000512571    1.300    0.231
       161  -7.8664    194.9734     59.5107   8.1633700150e+01   2.8374642306e+01    0.2235118    0.1464638  59.00  0.000719669    1.536    0.349
       162  -9.0603      1.4377     57.9429   1.3630967417e+02   6.2865538502e+01    0.3469706    0.0926582 -67.03  0.001431281    3.153    0.683
       163  -9.0562     32.9471     57.5750   1.2473184778e+02   6.0665289311e+01    0.2193889    0.1551625 -46.88 0.0003963644    1.128    0.113
       164  -8.5729     95.0328     52.7202   1.0206242036e+02   5.2814766546e+01     0.226634    0.1802674 -43.70  0.000493509    1.292    0.226
       165  -8.2923     44.2737     51.8279   1.1884032053e+02   6.0645137328e+01    0.1773794    0.1673285  19.03  0.000258876    1.278    0.217
       166  -9.1917     95.7160     45.3143   9.9147905930e+01   5.3932953071e+01    0.3252082     0.245562 -20.45  0.001269808    1.273    0.214
       167  -7.2424     74.2453     45.3787   1.0596407274e+02   5.7732376120e+01    0.1384516   0.09311384 -15.30 0.0006941835    1.639    0.390
       168  -9.2202      3.9401     44.8385   1.3233157337e+02   6.5395659537e+01    0.2109621    0.1219741  27.50  0.001342886    2.204    0.546
       169  -7.4195    115.7676     43.9880   9.3055395011e+01   5.0012606078e+01    0.1809532    0.1158753 -29.63 0.0003600917    1.523    0.344
       170  -7.4637     54.4845     44.4183   1.1254641269e+02   6.0799987917e+01    0.1273727    0.1080455 -27.46 0.0001560728    1.030    0.030
       171  -8.6905     21.1037     40.1648   1.2405993329e+02   6.5138782366e+01    0.1975099    0.1352767 -47.82 0.0004521932    1.160    0.138
       172  -7.9577     76.9107     40.1346   1.0307747132e+02   5.8179702684e+01    0.1819137    0.1425539   3.37 0.0004037986    1.297    0.229
       173  -9.6363     52.0098     38.4430   1.1124603365e+02   6.2191731469e+01    0.2238171    0.1565223 -36.76 0.0004813333    1.217    0.178
       174  -7.7418     41.4212     39.3163   1.1563496646e+02   6.3325338194e+01    0.1743701    0.1051086 -52.28 0.0009549393    1.667    0.400
       175  -7.8214     92.2980     36.6778   9.6852958763e+01   5.5949015386e+01    0.1900986    0.1237159 -20.78 0.0003023763    1.527    0.345
       176  -8.3039     94.9128     33.8027   9.4935509851e+01   5.5866523879e+01    0.2092297    0.1646078   8.09  0.000422028    1.266    0.210
       177  -8.0474     73.3604     36.8901   1.0299093366e+02   5.9299787546e+01    0.2641902    0.1094537 -43.50  0.001095314    2.459    0.593
       178  -7.7204     25.8648     38.0000   1.2139971606e+02   6.5142470817e+01    0.1669666   0.06688055  25.82 0.0004215109    2.972    0.664
       179  -7.4715    124.7643     34.6343   8.7351554211e+01   4.9332264690e+01    0.1461476    0.1042735  10.32 0.0003543287    1.597    0.374
       180  -8.9142      4.7700     33.9148   1.2894752766e+02   6.7478654888e+01    0.2532941    0.1214886   1.64  0.001385229    2.869    0.651
       181  -7.1349     58.6940     33.3120   1.0673643232e+02   6.2146324140e+01    0.1150654    0.1005406 -62.31 0.0004272627    1.618    0.382
       182  -8.4034    144.4006    248.4703   1.3085388563e+02   6.8740461592e+00    0.2392441    0.1573768 -11.55  0.001236481    3.631    0.725
       183  -7.9315    162.3622     27.7017   7.7277170131e+01   4.0967892553e+01    0.1940793    0.1378488  -8.67 0.0006175172    1.583    0.368
       184  -9.2013    144.0389     25.4378   7.9847049496e+01   4.5854350220e+01    0.2521938    0.2058346 -16.72  0.000599122    1.259    0.206
       185  -9.1371     91.4700     25.0846   9.2386038299e+01   5.7755196874e+01    0.2336658    0.1865702  38.68 0.0003959838    1.248    0.199
       186  -7.5483    172.3355     24.6524   7.4658630869e+01   3.8756409274e+01    0.1548201    0.1047074 -62.31  0.000704814    1.776    0.437
       187  -9.1475     21.7404     32.0536   1.2104911892e+02   6.6601735782e+01    0.1644137    0.1172031 -38.24 0.0001912002    1.075    0.070
       188  -9.4342     84.7254     21.5574   9.2912646324e+01   5.9519302987e+01    0.2406695    0.2073456  -7.82 0.0004461516    1.065    0.061
       189  -7.8265     59.5158     22.5798   1.0188387965e+02   6.3691955750e+01    0.1276798    0.1039607  -7.77 0.0001860176    1.034    0.033
       190  -7.9102    137.4553     21.5738   7.9754475323e+01   4.7915651556e+01    0.1421533     0.129507  33.45 6.201393e-05    1.020    0.019
       191  -8.1529     64.1998     21.0185   9.9486209556e+01   6.3185245140e+01     0.197808    0.1433503 -52.40  0.001092532    2.001    0.500
       192  -7.9196     19.1466     20.6325   1.1783238082e+02   6.8837113704e+01    0.2104827    0.1269678 -10.42  0.001272021    1.829    0.453
       193  -7.8223     16.0008     18.9485   1.1859380359e+02   6.9390764347e+01    0.1355845    0.1033473 -27.62 0.0003038356    1.043    0.041
       194  -7.4640     11.9730     20.7652   1.2119343289e+02   6.9398939959e+01    0.1220791   0.08799077   7.49 0.0003271226    1.537    0.349
       195  -8.1719    161.6629     18.8157   7.4445572792e+01   4.2137514401e+01    0.2190357    0.1692522  16.52  0.000783396    1.438    0.305
       196  -7.5788    151.6382     18.1415   7.5891889074e+01   4.4758289220e+01    0.1859228    0.1318132  -0.70 0.0002750459    1.599    0.375
       197  -9.9825      4.1282    248.2112   1.5295219558e+02   2.4821272095e+01    0.2103404    0.1652688  43.59  0.001911305    1.698    0.411
       198  -8.3460     95.5889     17.4967   8.8000301324e+01   5.7871750647e+01    0.1957554    0.1116539  39.24 8.634412e-05    1.667    0.400
       199  -7.4026     27.7440     17.6793   1.1268640496e+02   6.8503676758e+01    0.1188956    0.0710311 -21.91 0.0001857323    1.542    0.351
       200  -7.3256    174.2574     16.3150   7.1726309249e+01   3.9159380005e+01    0.1410622    0.1019201  30.62 0.0002049271    1.533    0.348
       201 -10.1430    176.6635    243.9221   1.2484753314e+02   2.4090652985e+00    0.3299581    0.2075207  20.06  0.001860881    1.961    0.490
       202  -9.6986    238.2004    246.7541   1.1510133325e+02  -7.3688016373e+00    0.2361373    0.1179984  16.36  0.001069057    2.395    0.583
       203  -9.5220    206.2802    245.4029   1.2008701997e+02  -2.4236000591e+00    0.1814639    0.1281998  -8.02  0.001142832    1.683    0.406
       204  -8.0458    151.1206     12.8185   7.4136497987e+01   4.5428175154e+01     0.197151    0.1850698 -77.78 0.0003684555    1.159    0.137
       205  -8.2656     64.7815    246.5593   1.4376941156e+02   1.8429271013e+01    0.1916336   0.08790528  38.63  0.001134399    2.180    0.541
       206  -9.6115    232.8518    243.7626   1.1550785422e+02  -6.2871042523e+00    0.2585347    0.1205137 -13.16  0.001248075    3.432    0.709
       207  -7.2702     15.6789     10.7434   1.1519644056e+02   7.0761256926e+01    0.1122216   0.06752522 -18.44 0.0006934684    1.543    0.352
       208  -7.5764    136.4885    245.5549   1.3186173417e+02   8.4937440061e+00     0.113484   0.08823116  46.87 0.0002355826    1.052    0.049
       209  -9.6211    224.7776    246.1929   1.1717237556e+02  -5.3300534733e+00    0.2222175    0.1237208  30.21  0.001128897    1.435    0.303
       210  -9.1841    242.4599    243.4765   1.1392838859e+02  -7.6690499984e+00    0.1122945   0.08235335  21.63 0.0001240752    1.005    0.005
       211  -7.5533    113.5443    242.9380   1.3546424030e+02   1.2330220107e+01    0.1286131   0.09501587 -28.30 0.0008077019    2.457    0.593
       212  -7.8866    146.5065    242.1011   1.2976159423e+02   7.4239583643e+00     0.134197     0.115165 -55.24 0.0003908102    1.476    0.322
       213  -9.2929    187.1340    239.4517   1.2246725114e+02   1.2953911418e+00    0.2864572    0.1915866  -7.74  0.001046453    2.147    0.534
       214  -9.4855    184.0569    235.3050   1.2241625197e+02   2.3126904889e+00    0.2895224     0.149181  34.22  0.001086684    1.715    0.417
       215  -9.7518    189.0384    234.7269   1.2147745711e+02   1.5772243616e+00    0.3036143    0.2428746  75.59  0.001939272    1.882    0.469
       216  -9.2097    188.5247    230.4913   1.2095551413e+02   2.1997112202e+00    0.2418728    0.1529335  33.89  0.000727792    1.329    0.248
       217  -8.6813    169.0277    241.4944   1.2583093315e+02   3.9355847517e+00    0.2690218   0.09026217  38.62  0.001196088    2.580    0.612
       218  -7.9214    206.3397    240.3076   1.1934795425e+02  -1.8579895740e+00    0.1191396   0.07384107  19.53 0.0004815716    1.684    0.406
       219  -8.3507    201.6540    240.1363   1.2010827729e+02  -1.0996309520e+00    0.2207752    0.1175741  24.36 0.0007503416    2.071    0.517
       220  -8.2955    153.8160    240.4068   1.2830295052e+02   6.5052997065e+00    0.1656429   0.08988075  35.87 0.0004361198    1.674    0.403
       221  -9.4876    248.0829    238.2928   1.1223153424e+02  -7.9798783250e+00    0.2370746    0.1288861 -14.02  0.001433391    2.041    0.510
       222  -8.6267    150.6471    244.6871   1.2936117109e+02   6.4189120657e+00    0.1635958    0.1225163  17.77 0.0007721007    1.713    0.416
       223  -8.6377    197.7431    250.4460   1.2219268823e+02  -1.6679126730e+00    0.2113215   0.08611698  38.33   0.00088635    1.912    0.477
