#   1 NUMBER                 Running object number                                     
#   2 MAG_AUTO               Kron-like elliptical aperture magnitude                    [mag]
#   3 X_IMAGE                Object position along x                                    [pixel]
#   4 Y_IMAGE                Object position along y                                    [pixel]
#   5 X_WORLD                Barycenter position along world x axis                     [deg]
#   6 Y_WORLD                Barycenter position along world y axis                     [deg]
#   7 A_WORLD                Profile RMS along major axis (world units)                 [deg]
#   8 B_WORLD                Profile RMS along minor axis (world units)                 [deg]
#   9 THETA_WORLD            Position angle (CCW/world-x)                               [deg]
#  10 FWHM_WORLD             FWHM assuming a gaussian core                              [deg]
#  11 ELONGATION             A_IMAGE/B_IMAGE                                           
#  12 ELLIPTICITY            1 - B_IMAGE/A_IMAGE                                       
         1 -11.2297    180.8318     27.1770   4.9899592333e+01   3.6740442269e+01     1.459988     1.089342   4.56  0.007295916    1.744    0.427
         2 -14.2974    230.3211     59.3473   5.1921603361e+01   1.9956539585e+01     9.755459    0.7869516 -40.41   0.02294856    6.220    0.839
         3 -12.9317    182.6216     83.2903   6.6158270493e+01   2.7680372870e+01     5.850913    0.7794555 -39.32  0.008991104    6.067    0.835
         4 -12.6152    178.4191     61.9046   6.0745080098e+01   3.2417720118e+01     2.170602     1.138991  81.14   0.00702551    3.448    0.710
         5 -12.9976    138.0159     40.0751   6.1967515447e+01   4.5999334775e+01      3.40444     1.258542  59.16   0.01182638    2.742    0.635
         6 -12.0218    204.5635     19.2294   4.4572311280e+01   3.1613059373e+01     1.108036    0.6792691  75.66    0.0044478    1.564    0.361
         7  -8.1250    167.5399     14.6425   4.7995462194e+01   4.1600828281e+01    0.2981001    0.1438752  -7.89 0.0007909854    3.204    0.688
         8 -13.0828    238.7634     11.1873   3.9263178190e+01   2.4282934116e+01     2.479902    0.3567039  61.13  0.007655014    5.180    0.807
         9  -9.4470    134.9729     11.6118   5.2383429992e+01   5.0184714596e+01     0.265084    0.2013097 -16.81 0.0006407488    1.431    0.301
        10  -8.4711    226.5644      8.2807   3.9593238776e+01   2.7451640564e+01    0.2430132    0.1040089 -37.08  0.001104389    2.095    0.523
        11  -9.2680    184.3099      3.4244   4.2466662139e+01   3.8406927231e+01    0.3909567    0.2067881 -84.92  0.001709405    2.174    0.540
        12  -8.6926    225.0198      1.3869   3.8058835103e+01   2.8542450169e+01    0.1684822    0.1114195  82.89 9.741694e-05    1.385    0.278
        13  -9.1681    218.1913    186.9461   8.3806991268e+01   1.3359873032e+00    0.1827297    0.1746146  -1.79 0.0003191737    1.206    0.171
        14 -10.1326    186.0828    183.2262   8.9350057437e+01   7.8936812710e+00     0.236308    0.2280998   9.38   0.00029595    1.089    0.082
        15 -12.9396     40.8355    169.5665   1.1968008506e+02   3.4800238620e+01    0.9902664    0.8114195  86.23  0.003478008    1.037    0.036
        16  -7.7649    138.4516    183.6154   9.9539053030e+01   1.6852682935e+01    0.1391439    0.1257052  47.35 0.0001040029    1.041    0.039
        17  -8.0558    244.5100    182.4991   7.8204642472e+01  -2.5432381270e+00    0.1309548    0.1093883   0.81 0.0008106137    1.001    0.001
        18  -9.2161    235.3612    179.4778   7.9201863240e+01  -5.4869394251e-01    0.2264602    0.2195335   2.02 0.0004933984    1.290    0.225
        19  -8.9805     71.2150    180.1323   1.1406412661e+02   2.8634826811e+01    0.1751013    0.1587803 -86.51 0.0004133368    1.163    0.140
        20  -8.5412    206.5355    167.0581   8.2016187018e+01   6.7651870000e+00     0.202955    0.1746886  27.57 8.815804e-05    1.103    0.094
        21  -8.1507     71.5842    164.5699   1.1197153475e+02   3.2105951499e+01    0.1323982    0.1154081  89.01 0.0002172255    1.032    0.031
        22 -10.5437     56.4584    162.1814   1.1524923645e+02   3.4654623150e+01    0.5712864    0.4301153  42.12  0.003426314    1.422    0.297
        23 -10.3180    234.9879    156.7928   7.4543052095e+01   3.0330424908e+00    0.3346169    0.2368686  49.90  0.001752566    1.620    0.383
        24  -8.8514      4.3111    153.3464   1.2641033391e+02   4.1840022256e+01    0.1145523   0.07176118 -56.27 0.0004931715    1.709    0.415
        25 -11.2527    248.0845     72.8225   5.2961612727e+01   1.3923956387e+01    0.5063291    0.3331483 -42.08 0.0005775873    1.331    0.248
        26  -8.4145     82.3155    249.3179   1.1875065637e+02   1.3580499238e+01   0.09511252   0.08750169  20.07 0.0004311505    1.652    0.395
        27 -10.2640    118.5701    244.0745   1.1177126407e+02   9.1609267976e+00    0.2127447     0.173381  57.64 0.0003442213    1.063    0.059
        28 -11.7685    237.5109     43.0065   4.6989849515e+01   2.0612386590e+01    0.5833575    0.4052273  53.95  0.001534547    1.610    0.379
        29 -10.6276    180.1001    143.1676   8.2176287392e+01   1.6645734920e+01       0.5638    0.3839023 -86.24  0.001261004    2.816    0.645
        30  -9.4264    155.4911    137.4978   8.6377754362e+01   2.3134368927e+01    0.3225103      0.19181  65.70  0.001199611    2.480    0.597
        31  -8.4428    121.1431    229.8563   1.0969905113e+02   1.1133645574e+01    0.1563102    0.1369573  31.34 0.0003947127    1.302    0.232
        32  -8.5824    230.1763    219.7829   8.7629299096e+01  -5.3021578493e+00    0.1704722    0.1462762  19.83 0.0006718627    1.175    0.149
        33  -8.4899    157.1765    112.4813   7.9776333335e+01   2.8074198137e+01    0.2638877    0.1852889 -48.67 0.0006500522    1.439    0.305
        34  -9.1374     22.3337    112.9907   1.1764956443e+02   4.9796880881e+01    0.2145916    0.1722044  88.35 0.0004581136    1.176    0.150
        35 -10.3862    167.9354    113.5653   7.7583964745e+01   2.5364550110e+01    0.4192195    0.3461949 -47.40 0.0007448993    1.211    0.174
        36 -10.3590    214.3206    109.8611   6.7283161419e+01   1.5328182247e+01    0.3708794    0.2758265  68.86  0.001773575    1.633    0.387
        37  -8.9617    134.6622    107.8419   8.4102113469e+01   3.4120935312e+01    0.4340915    0.1422869 -47.77  0.001311662    3.095    0.677
        38  -9.4205     19.7160    107.5368   1.1763955080e+02   5.1283328177e+01    0.2477239    0.1654163 -88.73 0.0006637368    1.432    0.302
        39 -10.8013    199.1259     99.6016   6.7432124332e+01   2.0696965288e+01    0.5033716    0.4397122 -75.85  0.001762527    1.287    0.223
        40  -9.6408    151.2894     98.0570   7.7246531119e+01   3.2437376174e+01    0.3736917    0.3220476  -1.82 0.0008754731    1.343    0.255
        41  -8.9457    136.4099     95.0882   8.0112028120e+01   3.6474074766e+01    0.2790399    0.2253792  59.62 0.0007034353    1.332    0.249
        42  -9.1746     14.1812     93.6618   1.1725603587e+02   5.4908702971e+01    0.1775815    0.1290754 -74.44 0.0008600854    1.144    0.126
        43  -9.6129    161.3482     91.3334   7.2976719981e+01   3.1392880345e+01     0.347101    0.2781524  19.88   0.00107029    1.491    0.329
        44 -10.6656    164.5147     89.5088   7.1740291217e+01   3.0979589312e+01    0.4398907    0.3841373  62.38  0.001289728    1.189    0.159
        45  -7.8933     97.1886     92.3728   9.0340261897e+01   4.5107260182e+01    0.1489306    0.1032823 -32.38 0.0002942662    1.563    0.360
        46 -10.0311    145.3905     87.4754   7.5623976276e+01   3.5968182847e+01    0.3388997    0.2941813 -40.49 0.0006572024    1.136    0.120
        47  -8.0933      1.2778    131.0001   1.2529933528e+02   4.7100166268e+01    0.1495924   0.08012896 -77.80 0.0002891035    1.413    0.293
        48 -11.2785    161.7769     79.9596   6.9551869130e+01   3.3462360251e+01    0.4645803    0.3182487 -20.50   0.00111154    1.745    0.427
        49  -7.9067    210.6841     79.6942   6.0102932039e+01   2.1417261761e+01    0.1496578    0.1176074  17.02  0.000702691    1.626    0.385
        50 -10.5299    189.0414     73.7934   6.2238527797e+01   2.7745751950e+01    0.3154713    0.2953164 -34.85 0.0004182594    1.067    0.063
        51 -10.0983    112.5515     71.7763   7.9508921333e+01   4.6453834077e+01    0.2480309    0.2386415  21.30  0.000262606    1.056    0.053
        52  -8.5937    151.1674     70.8378   6.9165932772e+01   3.7750014787e+01    0.2379036    0.2166189 -77.68  0.001214176    1.198    0.165
        53 -10.6314      6.2142    208.6027   1.2941881353e+02   3.0039430814e+01    0.2488996     0.177505  37.02  0.001847688    1.705    0.414
        54 -10.7385    200.1087     66.5783   5.8281251765e+01   2.6170803475e+01    0.4044316    0.2783698  45.53 0.0008841163    1.572    0.364
        55 -11.1034    206.2795     62.9295   5.6286457488e+01   2.5214920379e+01    0.4828467     0.337823  54.71  0.002162101    1.471    0.320
        56 -11.1677     11.4908    205.9823   1.2834449277e+02   3.0061750673e+01    0.3570983    0.1948226  54.55  0.002363838    1.503    0.335
        57  -9.5218     66.3254    144.3106   1.1031166931e+02   3.7591980882e+01    0.3678504    0.2223394 -86.92  0.001287091    1.865    0.464
        58  -8.3919    222.9660    145.0148   7.4094981205e+01   7.3066941129e+00    0.1705456    0.1556094  19.45  0.000462263    1.091    0.083
        59  -9.7895    216.2223     60.6960   5.4198387072e+01   2.3118233445e+01    0.3811679    0.1966669 -30.66  0.001277314    1.938    0.484
        60  -8.9941    194.2489     58.4493   5.6961364424e+01   2.8932372349e+01    0.2899635    0.2025738 -59.34 0.0008411104    1.557    0.358
        61  -9.6354     12.0936     55.8635   1.1065847843e+02   6.3480770905e+01    0.2801701    0.1469905 -72.72  0.001046411    2.022    0.506
        62  -9.1552    192.0624    144.1187   7.9881917134e+01   1.3891626431e+01    0.2232604    0.2149167  -1.84 0.0004755497    1.014    0.013
        63  -9.3525    161.2419    128.2755   8.2840405141e+01   2.3831914998e+01    0.4032535    0.1797531 -51.30  0.001387604    2.542    0.607
        64  -9.9046    214.5188    119.8503   6.9720601822e+01   1.3500914183e+01    0.4401761    0.1435273 -35.38   0.00141575    2.998    0.666
        65  -8.1976    201.8769     34.8341   4.9173351732e+01   3.0373186895e+01    0.1863292    0.1482495 -65.71  0.000270131    1.239    0.193
        66  -8.7646    248.7953     33.6859   4.3611504896e+01   1.9288814131e+01    0.2770991    0.1462716 -43.37 0.0009417412    1.620    0.383
        67 -10.6196    103.3954     29.2601   6.6647051150e+01   5.5539939498e+01    0.5275854    0.2267743 -39.55  0.002127477    2.505    0.601
        68  -8.3520    161.3087    118.6396   8.0411551726e+01   2.5839773768e+01    0.1638046    0.1254781 -79.57 0.0007040804    1.738    0.425
        69 -10.0353    163.0549     28.8700   5.3241634946e+01   4.1136903612e+01    0.4287102    0.1653755  52.88  0.001600193    2.363    0.577
        70  -8.6636    152.0011    116.0895   8.1951262358e+01   2.8487463626e+01    0.2242178    0.2202484 -59.55            0    1.014    0.014
        71 -11.7645    206.2689    111.9556   6.9280994827e+01   1.6775973337e+01    0.7856493    0.5075307  58.41   0.00138772    1.730    0.422
        72  -9.2086    228.7139    202.0527   8.4737313345e+01  -2.6928462147e+00    0.2621062    0.2318967 -81.11   0.00124196    1.931    0.482
        73  -8.8466    216.7567    196.6098   8.5915231055e+01   1.1716938932e-01    0.1939863    0.1730742   3.60 0.0006936464    1.086    0.079
        74  -8.5004    142.4833     14.2279   5.1930184790e+01   4.8047865006e+01    0.1945009    0.1394226 -21.11  0.001006886    1.515    0.340
        75 -10.4335    248.0577    194.4108   7.9911353839e+01  -4.7712619568e+00    0.2208053    0.1888658   6.28 0.0002919693    1.109    0.098
        76 -13.7362     26.3325    179.0045   1.2367035169e+02   3.4233130349e+01     1.327617      1.08401  10.03  0.008995835    1.925    0.481
        77  -9.0501    217.8531    191.9581   8.4834277705e+01   6.2732434139e-01    0.1962228    0.1689633  10.81 0.0004037513    1.006    0.006
        78  -9.9912     69.5084    145.0086   1.0959946352e+02   3.6993290263e+01    0.6691708     0.354587  74.42  0.002626847    2.931    0.659
