#   1 NUMBER                 Running object number                                     
#   2 MAG_AUTO               Kron-like elliptical aperture magnitude                    [mag]
#   3 X_IMAGE                Object position along x                                    [pixel]
#   4 Y_IMAGE                Object position along y                                    [pixel]
#   5 X_WORLD                Barycenter position along world x axis                     [deg]
#   6 Y_WORLD                Barycenter position along world y axis                     [deg]
#   7 A_WORLD                Profile RMS along major axis (world units)                 [deg]
#   8 B_WORLD                Profile RMS along minor axis (world units)                 [deg]
#   9 THETA_WORLD            Position angle (CCW/world-x)                               [deg]
#  10 FWHM_WORLD             FWHM assuming a gaussian core                              [deg]
#  11 ELONGATION             A_IMAGE/B_IMAGE                                           
#  12 ELLIPTICITY            1 - B_IMAGE/A_IMAGE                                       
         1 -13.4722      2.9969     10.5934   8.9900131960e+01   7.4842192175e+01     0.717124     0.392262 -51.74  0.004111766    1.974    0.493
         2 -15.3962      6.2047     69.2776   1.0716156096e+02   6.2574224000e+01     1.571342    0.8288741 -68.36   0.00650679    1.750    0.429
         3 -14.1665      6.7086     44.8576   1.0083368102e+02   6.8028901499e+01      1.80296     1.039208 -26.61  0.009877956    1.608    0.378
         4 -13.2522      8.0375      2.6142   8.1703476876e+01   7.5621481157e+01    0.5157872    0.3691026  38.12  0.002902225    1.861    0.463
         5 -15.9008     11.7412     22.9117   8.9662662322e+01   7.1962433287e+01     1.864922    0.9565132 -20.79  0.009210625    2.091    0.522
         6 -14.5174     23.0381     13.6031   7.7834735021e+01   7.2248040738e+01     1.149493    0.4161993  37.28  0.005149859    2.769    0.639
         7 -14.2994    166.1239     28.7595   4.1107362368e+01   3.9884513097e+01    0.9918895    0.7952145  78.99  0.004503898    1.148    0.129
         8 -13.1918    132.1000     32.7803   4.7738476893e+01   4.7592968765e+01    0.7975277    0.4900303 -38.48  0.003709702    1.708    0.415
         9 -13.9404    122.1075     37.2197   5.1264380211e+01   4.9440579940e+01    0.9968902    0.4771858  41.46  0.002608916    2.332    0.571
        10 -14.6159    147.0292     29.6780   4.4150826630e+01   4.4347885668e+01     1.295897    0.8475277  61.80  0.003580372    1.400    0.286
        11 -13.0518    138.3065     22.1092   4.3209615675e+01   4.7310474675e+01    0.8521929    0.3070793  66.03  0.002648513    2.500    0.600
        12 -13.1168    119.7365     26.4819   4.8064707568e+01   5.1323822564e+01     1.100219    0.6181694  24.79  0.004620952    2.742    0.635
        13 -13.0347     44.1783     32.2439   7.5437962260e+01   6.6346618179e+01    0.6629727    0.5652514  20.87  0.003382262    1.133    0.117
        14 -13.3890    188.4475     25.5090   3.7625337585e+01   3.5103020012e+01      1.27692    0.4174842 -56.94  0.004283973    4.372    0.771
        15 -13.2123    187.6326     12.9255   3.4594478967e+01   3.6638445603e+01    0.9389253    0.4117192 -40.15   0.00468971    2.068    0.516
        16 -12.3435     47.7570     20.6436   6.8241269239e+01   6.7504118133e+01     0.612463    0.2726094  39.28  0.002847922    2.050    0.512
        17 -15.1952     98.8574     11.5716   4.7041718490e+01   5.7837285083e+01     1.410699    0.7715455  61.84   0.00514073    1.606    0.377
        18 -12.2454     70.1067     16.3539   5.7186024881e+01   6.3757343166e+01    0.3642698    0.3176763  89.77  0.001528765    1.549    0.354
        19 -13.2757    219.0081     15.8991   3.2716943491e+01   2.9603241151e+01    0.3017692    0.2798111  60.58  0.001944067    1.390    0.281
        20 -13.0650    214.8995     10.2960   3.1802194890e+01   3.1032599123e+01    0.4050247    0.2595553 -47.27  0.001250246    1.349    0.259
        21 -11.7373     46.6000     13.0340   6.4899701432e+01   6.8692393924e+01      0.25524    0.2515594 -86.12  0.001757374    1.452    0.311
        22 -13.9620     41.7699      4.5451   6.2525333458e+01   7.0524073480e+01    0.7004562    0.5024554  15.38  0.003611269    1.270    0.212
        23 -12.5297     85.2612     14.3449   5.1605100350e+01   6.0687548832e+01    0.3893202    0.3309222  -8.19  0.001715285    1.282    0.220
        24 -11.0887     75.6075     11.1298   5.2996952955e+01   6.3138639174e+01    0.2656502    0.1704558  73.73  0.001340047    2.011    0.503
        25 -11.4152    153.0571      8.7188   3.7080132498e+01   4.5081113046e+01    0.2002749    0.1840919 -52.83  0.000781162    1.177    0.151
        26 -11.5278     59.9367     16.6866   6.1078878561e+01   6.5770281006e+01    0.3006444    0.2627267 -70.24  0.001843929    1.681    0.405
        27 -11.1459    120.2277      3.5987   3.9987114991e+01   5.3433536915e+01     0.196081    0.1469686  63.86 0.0005681788    1.141    0.124
        28 -10.8905    117.2673      1.4047   3.9693367684e+01   5.4319552977e+01    0.2375231    0.1172828  74.13 0.0007210318    1.868    0.465
        29 -10.5036     67.4977      4.4336   5.2385857254e+01   6.5507244091e+01    0.1278834    0.1062476  38.94 0.0002283389    1.011    0.011
        30 -11.5129     61.2975      1.5723   5.3018600046e+01   6.7055314063e+01    0.3227322    0.1287523  56.78  0.001450771    2.257    0.557
        31 -12.4193    224.4712      4.8353   3.0021981304e+01   2.9645190874e+01    0.2630013    0.2131692  44.42  0.001144155    1.761    0.432
        32 -11.5757     81.7353      1.4088   4.6891175942e+01   6.2647354786e+01    0.4250757    0.1003477  61.22  0.001492286    3.414    0.707
        33 -13.6465     72.9929    153.2718   9.7864526583e+01   3.4523040139e+01    0.7981224    0.5687364  22.14  0.002751148    1.514    0.339
        34 -12.8678     52.2394    248.1420   1.1380498502e+02   1.5630491774e+01    0.7262139    0.3727811  19.47  0.003687323    2.315    0.568
        35 -12.9751      2.8893    248.1396   1.2380389402e+02   2.0554558490e+01    0.4987198    0.2950568  86.43  0.003284591    1.584    0.369
        36 -13.7669      9.3976    245.9678   1.2245194800e+02   2.0391458432e+01    0.7598346    0.3525351  58.59  0.003651582    1.775    0.437
        37 -11.2454    188.9809    156.2596   6.8865242252e+01   1.3715339347e+01    0.1780818     0.119828  38.11  0.000892722    1.563    0.360
        38 -12.4199    246.6037    150.2291   5.7791082464e+01   5.5514333510e+00    0.3620205    0.2809325 -55.82  0.002280686    1.639    0.390
        39 -11.2793    103.0116    150.4883   8.8511717868e+01   3.0503888115e+01    0.3130587    0.2019944 -37.74  0.001364401    1.708    0.414
        40 -12.3860      7.4371    146.1557   1.1700764099e+02   4.3214688092e+01    0.6223818    0.3442562 -56.85  0.003166232    1.687    0.407
        41 -12.4907     59.3082    148.4922   1.0126216292e+02   3.7591317349e+01    0.3177102    0.2616407 -87.61  0.001381278    1.258    0.205
        42 -11.7822    109.7225    154.1493   8.7355538597e+01   2.8474573919e+01    0.3588827    0.2524508 -81.62  0.001551888    2.005    0.501
        43 -11.4221    148.4110    141.2098   7.4474456160e+01   2.4247275288e+01    0.2196915    0.1428208 -55.26 0.0009584644    1.717    0.418
        44 -10.4980     62.9896    138.6891   9.8439794026e+01   3.9633242387e+01    0.1958172    0.1937717  26.19  0.001115584    1.051    0.048
        45 -12.4815     45.2676    134.2111   1.0348278115e+02   4.2974331205e+01    0.4464716    0.3609318 -70.06  0.002411953    1.173    0.147
        46 -11.7484    246.4910    137.4955   5.5322816058e+01   7.5353552131e+00    0.2014754    0.1113356  31.40  0.001040726    2.401    0.583
        47 -11.8645    133.2213    126.6859   7.4879373828e+01   3.0410137797e+01    0.4834046    0.1898749 -36.42  0.001497033    3.249    0.692
        48 -14.0208    108.9175    121.3341   8.0306930491e+01   3.6409042680e+01     1.402661      1.10281   8.04  0.006598852    1.524    0.344
        49 -14.6885    106.3439    105.9079   7.7110949275e+01   4.0456429477e+01     2.013632     1.466032 -29.50  0.009241067    1.523    0.343
        50 -13.4040     84.3237    115.2492   8.6498314752e+01   4.2316293926e+01     1.244367    0.7373003  42.63    0.0050338    1.745    0.427
        51 -13.4716     95.4705    110.6259   8.1727910408e+01   4.1449824539e+01     1.016754    0.8042747  59.47  0.004884123    1.465    0.317
        52 -13.5976     28.9187    119.4493   1.0677456181e+02   4.8455329817e+01     1.434809    0.6107728 -52.03  0.005972777    2.089    0.521
        53 -12.1145      4.2750    119.9087   1.1549779011e+02   5.0102585757e+01    0.5373713    0.2610407  16.46  0.002144878    2.345    0.574
        54 -11.9658     34.6020     86.9335   9.8296349303e+01   5.6138504240e+01    0.2947147    0.2385126 -21.25 0.0007887238    1.241    0.194
        55 -13.1271     49.2673     96.6135   9.4624971697e+01   5.2105916461e+01    0.8221732    0.6953954 -44.70  0.004148197    1.098    0.089
        56 -12.2367     42.7105     91.1435   9.5932857427e+01   5.4232723916e+01    0.4573733    0.3288627 -79.72 0.0008969941    1.694    0.410
        57 -15.0813     26.0883     93.5191   1.0328315385e+02   5.5313347535e+01     1.676445       1.2389   9.95  0.009182467    1.483    0.326
        58 -14.5647     10.6837    103.3288   1.1110373710e+02   5.3959799392e+01     1.159333    0.8055925 -56.02  0.005839562    1.241    0.194
        59 -13.7326      2.2303     97.1284   1.1352759174e+02   5.5978297713e+01     1.191753    0.2899698 -74.47  0.003758126    3.739    0.733
        60 -10.4465     58.7924    125.3853   9.7348993629e+01   4.3616708139e+01    0.1893222      0.14304  11.15 0.0004965924    1.506    0.336
        61 -12.3321    248.4265    114.2932   5.0448596234e+01   1.0802585946e+01    0.1980446    0.1532816 -81.04  0.001221355    1.802    0.445
        62 -12.1680    121.0801    112.3968   7.4556667280e+01   3.6037175017e+01    0.3657115    0.2645063  61.03  0.001194249    1.666    0.400
        63 -11.8961     63.0679    111.3689   9.2900351559e+01   4.6595421443e+01    0.4446633    0.2478854  47.43   0.00184398    2.074    0.518
        64 -10.6330     46.3324    110.3183   9.8777100208e+01   4.9024536881e+01     0.154719    0.1021166 -30.88 0.0007048117    1.692    0.409
        65 -14.4084     18.0455    110.8076   1.0941728807e+02   5.1561851760e+01     1.144733    0.7355098 -19.80  0.005701993    1.837    0.456
        66 -12.0402    136.6942    103.3752   6.8026067683e+01   3.4673611837e+01    0.4397372    0.2833556  54.26  0.001514823    1.677    0.404
        67 -12.1518    128.9251    102.4256   6.9769817904e+01   3.6542648371e+01    0.5323473    0.2631782  56.86  0.001888755    2.623    0.619
        68 -12.7630    119.8887    102.4288   7.2224360580e+01   3.8458401200e+01    0.4685693    0.3020355  37.74  0.001387439    1.595    0.373
        69 -11.4306    163.6709     98.4900   6.0560778228e+01   2.9740261144e+01    0.2517559    0.2249487 -32.14 0.0004421387    1.113    0.101
        70 -12.3037     61.1488     97.5741   9.0287175785e+01   5.0271703795e+01    0.4416956    0.3350867 -87.59  0.001523109    1.756    0.430
        71 -11.6178    129.2472     96.7288   6.8114695749e+01   3.7651207009e+01     0.283113    0.1953952  50.51  0.001286635    1.482    0.325
        72 -12.5407    135.8199     95.2047   6.6011945449e+01   3.6518193737e+01    0.4282239     0.299394  48.23  0.001737909    1.440    0.306
        73 -11.3141     90.1646     87.7604   7.7122354863e+01   4.7639515486e+01    0.4738027     0.190194  49.28   0.00156475    3.026    0.670
        74 -12.6805    188.0599     84.5483   5.2497169985e+01   2.6893390882e+01    0.4639904    0.2322829  41.50  0.001921318    2.533    0.605
        75 -13.8740    163.7742     71.6622   5.3376802851e+01   3.4430402856e+01     1.261775    0.8642179  57.87   0.00628296    1.470    0.320
        76 -13.2999    161.6719     80.0579   5.6068694675e+01   3.3502403967e+01     0.765007     0.493032  22.21  0.002880643    2.532    0.605
        77 -14.4450    169.5347     76.9382   5.3743404257e+01   3.2245724298e+01     1.117802    0.5557785  53.45  0.003393794    2.036    0.509
        78 -12.4245     31.4399     63.2472   9.3402202405e+01   6.1972844331e+01     0.591954    0.3369937 -64.10  0.002783497    2.008    0.502
        79 -12.3598     44.6586     79.9567   9.2236143871e+01   5.6669745329e+01    0.8217122    0.6661322  48.22  0.004486393    1.452    0.312
        80 -12.6404     40.3917     68.3464   9.0760254226e+01   5.9832109556e+01    0.8175565    0.2723053  30.66    0.0030478    2.975    0.664
        81 -13.2833     65.9840     49.0413   7.2817060975e+01   5.9831370885e+01     1.024411    0.6383945 -32.07  0.004394513    1.654    0.395
        82 -13.4332     87.1484     65.3998   7.0971068833e+01   5.2792904742e+01     1.014354    0.6254259  11.05  0.003920099    2.727    0.633
        83 -13.2146     91.4296     58.1669   6.7008684135e+01   5.3233988001e+01    0.5241435    0.4900714 -20.10   0.00231809    1.090    0.083
        84 -13.9841     53.6005     68.5008   8.4974551789e+01   5.8036575655e+01     1.269514    0.8899057 -13.25  0.006269558    1.642    0.391
        85 -13.0397     54.1362     81.8442   8.8805648832e+01   5.4987293599e+01    0.6309955    0.4026614 -45.62  0.002365359    1.471    0.320
        86 -13.9758     61.0345     75.7624   8.4188923989e+01   5.5341266220e+01    0.7733898    0.5064199 -29.50  0.001499984    1.650    0.394
        87 -12.7253     70.8390     75.5039   8.0256568040e+01   5.3796848784e+01    0.5781659    0.3638907  19.55  0.002109251    1.886    0.470
        88 -12.3124     77.1181     73.3973   7.7222011802e+01   5.3129596096e+01     0.629813     0.345711 -26.04  0.002419811    2.541    0.606
        89 -12.7171    135.5997     79.9998   6.1721503254e+01   3.9482233224e+01    0.6846845    0.3794892  53.19  0.002263141    1.818    0.450
        90 -11.8716    114.2124     80.0464   6.7321578117e+01   4.4271583037e+01    0.4233354    0.3183634 -59.57   0.00135252    1.552    0.355
        91 -12.8644     28.2119    246.2182   1.1868120439e+02   1.8550797381e+01     0.424795    0.3195708  55.58  0.002981952    1.059    0.056
        92 -13.3126     97.5508    239.3849   1.0315900909e+02   1.1759576428e+01    0.6701042    0.3479904  38.92  0.003468709    1.609    0.378
        93 -13.6602     91.2999    231.6832   1.0372698393e+02   1.4057829800e+01    0.5248404     0.323414  75.86  0.002586063    2.383    0.580
        94 -11.9180     17.6083     40.6732   9.3203306201e+01   6.8070906958e+01    0.2245603    0.1848105 -22.41 0.0002132104    1.007    0.007
        95 -12.6919     24.4522    217.7290   1.1783593232e+02   2.4743792659e+01    0.6377784    0.3547106  44.25  0.003605907    1.518    0.341
        96 -13.6657     16.4373     30.9772   9.0159859690e+01   7.0055326647e+01    0.6070165    0.3231618  23.80  0.001243378    1.862    0.463
        97 -12.7716     14.0728    221.9741   1.2038112994e+02   2.4806276065e+01    0.4196741    0.3668666  54.25  0.001720376    1.128    0.113
        98 -13.6234     26.1537    226.6910   1.1800596240e+02   2.2675161972e+01    0.7707261    0.3784394 -56.17  0.004017496    2.399    0.583
        99 -10.4030     69.4832     80.4663   8.2322354572e+01   5.2948288390e+01    0.1475239    0.1373895 -12.13 0.0002677919    1.016    0.015
       100 -12.6896    213.1799     78.9902   4.7458070263e+01   2.2564269299e+01    0.3896431    0.1832235  59.67   0.00179787    2.358    0.576
       101 -11.9978     26.9386     74.9067   9.8735899941e+01   5.9754036463e+01    0.6524446    0.3269227 -69.84  0.002802879    2.318    0.569
       102 -13.1883    133.2261     66.9203   5.8359361370e+01   4.2339313641e+01    0.8721682    0.6889977   9.31  0.003590698    1.621    0.383
       103 -13.4934    199.4136     69.9331   4.7201426699e+01   2.6777947837e+01    0.5998886    0.3474071  53.26  0.002302852    1.869    0.465
       104 -13.0100     78.6137     60.7873   7.2365544841e+01   5.5338659875e+01    0.6909001    0.5741937 -50.94  0.003726627    1.351    0.260
       105 -12.9049     82.2604     54.5820   6.8808775316e+01   5.5746716643e+01    0.6063989    0.5158543   6.17  0.003305447    1.204    0.169
       106 -10.7706     99.6759     65.3569   6.6886758321e+01   5.0196760404e+01    0.2253593    0.1818343 -84.72 0.0009834812    1.699    0.411
       107 -13.5869    177.5264     57.3389   4.7206989109e+01   3.3479661752e+01     0.897962    0.5198691 -48.51   0.00308246    1.685    0.406
       108 -14.5582    119.9556     54.6783   5.7649771244e+01   4.7440704665e+01    0.8190688    0.6430656  36.83  0.003480814    1.308    0.236
       109 -11.5980     39.1583     60.5960   8.8884617505e+01   6.1668254367e+01    0.2935142    0.2297351  71.09  0.001534786    1.974    0.493
       110 -12.3806     24.6434     59.4330   9.5592293535e+01   6.3487662687e+01    0.5128037     0.274403 -45.33  0.001601436    1.621    0.383
       111 -11.5847     17.8737     55.4145   9.7862421213e+01   6.4957698848e+01    0.3456337    0.1793262 -61.06  0.001676589    1.900    0.474
       112  -9.9981     47.3011     56.5997   8.3724409618e+01   6.1421661910e+01    0.1331143    0.1111765  81.99 0.0001900854    1.828    0.453
       113 -13.9764    101.4247     50.4176   6.1155012216e+01   5.2357441715e+01    0.8356915    0.6086209  64.70   0.00155711    1.540    0.351
       114 -12.2692     99.4634     44.1875   5.9455158071e+01   5.3752254872e+01    0.4766872    0.2840668  55.89  0.001255115    1.650    0.394
       115 -11.8987     37.3266     52.4792   8.6989984156e+01   6.3581956392e+01    0.4064408    0.2447998 -16.61  0.001921858    1.988    0.497
       116 -10.6114     23.5528     50.2314   9.3249464534e+01   6.5564385457e+01    0.1791608     0.103851 -40.94 0.0003312162    1.515    0.340
       117 -12.1542    135.9375     50.0895   5.2521779468e+01   4.4347394883e+01    0.4610794    0.2809328  34.77  0.001785993    2.048    0.512
       118 -11.9405    153.9012     46.6783   4.8072767500e+01   4.0526156339e+01    0.3714752    0.1958484  57.65  0.001687217    1.791    0.442
       119 -13.0140    159.0211     43.6807   4.6351380705e+01   3.9711579911e+01    0.5213814    0.3388992  57.71  0.002075662    1.481    0.325
       120 -13.4743    217.5650     42.1068   3.8589627597e+01   2.6837158907e+01     0.903823    0.3310609  62.96  0.003982602    2.756    0.637
       121 -13.0774    205.2169     40.4926   3.9474726470e+01   2.9621851722e+01     1.179512    0.4859152 -86.68  0.003577275    5.931    0.831
       122 -10.6537     50.5271     44.0080   7.7452062766e+01   6.3342151301e+01    0.1843859    0.1270847 -37.91 0.0001444485    1.436    0.304
       123 -13.3160     20.5107    224.9565   1.1913889258e+02   2.3582869714e+01    0.5332024    0.3944681 -36.09   0.00298577    1.921    0.480
       124 -12.3787    110.0114     42.3596   5.5925835856e+01   5.1602580970e+01    0.5049766     0.192956  54.50  0.001764024    2.397    0.583
       125 -13.2031     65.2677    223.3507   1.0887805210e+02   1.9063314181e+01     1.142426    0.6232022  42.67  0.005948794    1.573    0.364
       126 -13.7829     64.1287    214.6275   1.0830015400e+02   2.1064791157e+01    0.8491272    0.4438084  36.68   0.00422526    1.659    0.397
       127 -12.4315    113.8574     38.2697   5.3520670625e+01   5.1264166318e+01    0.3385035     0.326153  17.18  0.001106117    1.090    0.083
       128 -12.1911     94.4967    218.4785   1.0146118120e+02   1.6286723140e+01    0.2692917    0.1722744  39.39  0.001289498    1.378    0.274
       129 -12.7428     59.4829    212.9830   1.0925602019e+02   2.1987174427e+01    0.3351938    0.1976136 -62.29  0.001142698    1.791    0.442
       130 -11.8066    249.1534    216.5079   6.9367815043e+01  -4.4040296402e+00    0.1778436    0.1417652 -24.42   0.00129916    1.338    0.253
       131 -10.6950     55.4958     41.0031   7.3985021115e+01   6.3056152938e+01    0.1856265    0.1282463 -34.75 0.0003667853    1.449    0.310
       132 -12.1667    104.9960     35.4447   5.4707473042e+01   5.3713962693e+01    0.4806935    0.2884535  -7.05  0.001461569    2.478    0.597
       133 -12.5566     75.5310     37.1114   6.4373211600e+01   5.9935497273e+01    0.4282711    0.2502903  48.52  0.001336143    1.642    0.391
       134 -11.6540     70.4746     36.4820   6.5967552028e+01   6.1038329825e+01    0.2795666    0.2438726  -9.58 0.0007760698    1.139    0.122
       135 -12.1811    241.6904     36.2709   3.5253791799e+01   2.2845145245e+01    0.3729745    0.1961796  74.60   0.00181823    2.040    0.510
       136 -11.8658    237.2428    214.2344   7.0936976153e+01  -2.7414550968e+00    0.1760435   0.08514106 -44.25 0.0008977753    2.471    0.595
       137 -12.1241      4.1715    211.6612   1.2204600661e+02   2.7871095253e+01    0.4426368     0.177532  82.44  0.002069047    2.523    0.604
       138 -12.3055     72.4720    207.7442   1.0553987677e+02   2.1526388747e+01    0.4442317     0.334049 -88.85  0.002322746    1.469    0.319
       139 -12.9962     55.3234     27.1965   6.7985267528e+01   6.5253645862e+01    0.5900901    0.3129399  47.77  0.002389658    1.951    0.487
       140 -11.9002     63.5531     25.1511   6.3654192938e+01   6.3998390046e+01    0.5100433    0.2579417  24.94  0.002112829    2.669    0.625
       141 -10.9110     97.9223     26.7371   5.3245860791e+01   5.6442463853e+01    0.3226236    0.2378547 -68.17  0.001671951    1.843    0.457
       142 -11.1384     88.6129     26.2210   5.5622976580e+01   5.8612875202e+01    0.2449736    0.1254824 -33.51  0.001038565    2.102    0.524
       143 -11.7028     30.2830     26.0239   7.9841128666e+01   6.9359437897e+01      0.35631    0.2107427  11.78  0.001850062    1.828    0.453
       144 -11.1027     36.1353     23.9460   7.5653387490e+01   6.8877377336e+01    0.2929906    0.1765109 -35.58  0.001600389    1.647    0.393
       145 -12.9918    216.1003     28.2928   3.5652846617e+01   2.8815885483e+01    0.3428195    0.1361913 -42.31  0.001672721    2.083    0.520
       146 -12.0151     41.1505    206.6453   1.1311618463e+02   2.5488307509e+01    0.2241123    0.1630152  80.28  0.001308905    1.344    0.256
       147 -11.6647    223.3572     20.9655   3.3478341090e+01   2.8171397237e+01    0.2217292    0.1614766  72.38  0.001428294    1.431    0.301
       148 -12.0336     57.4121    203.0429   1.0877737065e+02   2.4456946543e+01    0.5223864    0.2583447  87.32  0.002141578    2.877    0.652
       149 -13.1324     40.2601    195.1637   1.1233660207e+02   2.8224021520e+01    0.4706511    0.2369864  84.56   0.00208062    2.388    0.581
       150 -12.4034     36.7570    195.0695   1.1321473471e+02   2.8615179728e+01     0.329939    0.2011152 -79.73  0.001709045    1.620    0.383
       151 -12.8405     15.5153    196.5164   1.1858182151e+02   3.0305870629e+01    0.4880939    0.4316281  79.75  0.002355898    1.074    0.069
       152 -13.6724     29.7080    169.5329   1.1272773050e+02   3.5506389028e+01     1.124108    0.9830769  37.54  0.006907566    1.190    0.159
       153 -13.2137     22.2197    181.2867   1.1579883132e+02   3.3310355993e+01    0.7423044    0.3720829 -58.68  0.003558147    1.980    0.495
       154 -15.2075      7.8751    183.7669   1.1965706849e+02   3.3918621902e+01     1.412409     1.125706 -86.77  0.009090171    1.128    0.114
       155 -10.7598    200.6697    192.3098   7.3638595624e+01   5.4286755126e+00    0.1151496    0.1076239  83.56 0.0005576583    1.667    0.400
       156 -11.7390     49.0842    182.1964   1.0872879722e+02   3.0346900340e+01    0.3393829     0.195803 -65.61  0.001654186    1.691    0.409
       157 -12.3639    248.2103    197.3058   6.6236936418e+01  -1.6613465343e+00    0.4179451    0.2368134 -40.43  0.002458997    1.759    0.431
       158 -12.5064     85.0912    180.1576   9.8687270096e+01   2.6159877064e+01     0.356275    0.2468223 -88.74  0.001685855    1.815    0.449
       159 -12.4558    124.2379    167.0213   8.5984685909e+01   2.2976811055e+01    0.6009772    0.4193256 -70.31  0.002732633    1.870    0.465
       160 -11.1371      1.7832    159.1073   1.1964396888e+02   4.0339394469e+01    0.3148745    0.1551562 -84.24  0.001417705    1.810    0.447
       161 -15.0711     15.4558    175.3962   1.1712041830e+02   3.5323314218e+01      2.16762     1.016651  62.30  0.009870268    2.233    0.552
       162 -12.4393     76.8512    156.8665   9.7321794786e+01   3.3063415680e+01    0.4457617    0.3766308  16.64  0.001181132    1.272    0.214
