#   1 NUMBER                 Running object number                                     
#   2 MAG_AUTO               Kron-like elliptical aperture magnitude                    [mag]
#   3 X_IMAGE                Object position along x                                    [pixel]
#   4 Y_IMAGE                Object position along y                                    [pixel]
#   5 X_WORLD                Barycenter position along world x axis                     [deg]
#   6 Y_WORLD                Barycenter position along world y axis                     [deg]
#   7 A_WORLD                Profile RMS along major axis (world units)                 [deg]
#   8 B_WORLD                Profile RMS along minor axis (world units)                 [deg]
#   9 THETA_WORLD            Position angle (CCW/world-x)                               [deg]
#  10 FWHM_WORLD             FWHM assuming a gaussian core                              [deg]
#  11 ELONGATION             A_IMAGE/B_IMAGE                                           
#  12 ELLIPTICITY            1 - B_IMAGE/A_IMAGE                                       
         1 -13.8963     16.2329     47.2994   6.8013117741e+01   6.5410461577e+01     1.456548    0.9930714 -23.79  0.009226582    1.258    0.205
         2 -13.5511    227.4933     41.5349   9.8705386462e+00   2.4082941873e+01    0.8396926    0.6554186  43.93  0.005022207    1.692    0.409
         3 -11.2716    250.3734     19.0846   3.2099897916e+00   2.2132778859e+01     0.419485    0.1205453 -36.75  0.001837976    3.021    0.669
         4 -12.4868     60.0649      3.0018   2.9858724337e+01   6.6188946836e+01    0.3351861    0.2243312  44.46  0.002088181    1.359    0.264
         5 -10.8897    142.1310    216.1542   6.5216658316e+01   8.7343435776e+00    0.2053386    0.1823361  12.22 0.0004485958    1.157    0.136
         6 -15.4621    123.3402    238.4315   7.2557474363e+01   7.5144960481e+00     3.994742     1.879149  40.47   0.01676357    1.797    0.443
         7 -12.0598     66.2664    244.3852   8.5055424008e+01   1.4714359857e+01    0.6916466    0.3619129  60.14  0.003326899    1.821    0.451
         8 -10.1850     42.8175    249.8950   9.0014621928e+01   1.6594547284e+01    0.2962063    0.1518124  54.11   0.00172271    1.575    0.365
         9  99.0000     37.6592    246.3098   9.0735820914e+01   1.7895320411e+01    0.4919123    0.3317223  51.18  0.003184349    1.226    0.184
        10  -9.7035     24.8280    250.6814   9.3355814285e+01   1.8495076533e+01    0.1669295   0.07081017  46.63  0.000935459    1.830    0.454
        11 -13.8297     81.9179    139.8208   6.6981881800e+01   3.6723561365e+01     1.802756     0.659989 -50.80  0.005584013    2.533    0.605
        12 -14.9495     69.2089    146.1001   7.1894491775e+01   3.7015160999e+01     4.798953     2.670949  81.81   0.01691987    3.325    0.699
        13 -13.1314     59.0124    147.9711   7.5155850763e+01   3.7900668719e+01    0.5770949    0.5099791  38.78 0.0008308022    1.225    0.184
        14 -16.0984      6.7285    143.1213   8.9137855697e+01   4.4148470525e+01     5.223654     2.021895 -69.00   0.02435781    1.989    0.497
        15 -10.0469     61.7998    213.8497   8.3084891205e+01   2.1674588948e+01     0.263969    0.1811773  88.17  0.001445999    1.441    0.306
        16 -10.4779    130.8394    206.8638   6.6302807934e+01   1.2564518601e+01    0.2035449    0.1909346   1.83 0.0004150075    1.146    0.127
        17 -10.0184     83.2305    206.7450   7.7404123160e+01   2.0271845473e+01    0.2368181    0.1978096  81.97 0.0008292316    1.157    0.136
        18 -11.1198     32.3939    196.3548   8.7946276744e+01   2.9156735471e+01    0.9934536    0.4313433  81.79  0.004067863    2.962    0.662
        19 -11.9527     26.9540    186.4655   8.8291685393e+01   3.2022233172e+01    0.4949761    0.3843725 -26.78  0.001450388    1.866    0.464
        20 -12.1092     25.9514    178.4529   8.7779005260e+01   3.4019314857e+01    0.8420439    0.3971756  70.19  0.003733237    2.501    0.600
        21 -11.0235    127.8012    196.5389   6.5312765658e+01   1.5310138249e+01    0.2499364    0.2026464 -56.76 0.0005892977    1.314    0.239
        22 -12.0321    105.7205    195.1098   7.0404789572e+01   1.9398152390e+01    0.3151226    0.2901105 -54.07  0.001080911    1.162    0.139
        23 -14.2720      3.5960    167.8652   9.2156390349e+01   3.8444105692e+01     1.426597    0.6636203 -88.85  0.006471484    1.949    0.487
        24 -11.6767    211.4058    189.0810   4.5364214643e+01   1.8354239471e+00    0.4125093    0.1235686 -38.34  0.001403841    3.296    0.697
        25 -10.4269     99.0090    181.0114   6.9816379626e+01   2.3796882838e+01    0.2191945    0.2118519  67.08 0.0005957925    1.038    0.037
        26 -11.7987     39.1608    177.8807   8.4519501698e+01   3.2795832775e+01    0.5778783    0.4320853 -88.68  0.002770906    1.195    0.163
        27  -9.8641    172.5166    177.4821   5.1236186964e+01   1.1117952974e+01    0.1486726    0.1406675   4.98  0.000181956    1.012    0.012
        28 -10.8044    248.0000    166.0113   3.4011565553e+01  -2.0633696540e-01    0.2422701     0.160708 -39.86 0.0004726877    1.372    0.271
        29 -10.9342    246.5493    162.4878   3.3535092110e+01   6.1722594716e-01    0.2585495     0.165158 -36.61 0.0007339581    1.355    0.262
        30 -10.7550     56.6271    164.4755   7.8348574652e+01   3.4051978643e+01    0.3977696     0.260927 -23.99  0.001805319    2.349    0.574
        31 -11.5814     61.3102    160.0780   7.6435163128e+01   3.4554563711e+01     0.447016    0.3002465  38.94  0.002264447    1.543    0.352
        32  -9.4990    142.4430    161.5401   5.5033848690e+01   2.0470168652e+01    0.1522696    0.1505836  57.84 0.0004383822    1.040    0.039
        33 -11.3643    134.5708    148.6790   5.4225445431e+01   2.5014738026e+01    0.5073851    0.1949654 -53.95  0.001609201    2.925    0.658
        34 -15.5136      6.8300    207.4887   9.4214124161e+01   2.9158712548e+01     1.497112     0.837738  67.19  0.007937683    1.537    0.349
        35 -16.0321      7.1954    191.2505   9.3080301736e+01   3.2739077958e+01     6.594715     1.744299  62.65   0.01853788    7.139    0.860
        36 -11.2757     90.7617    143.5886   6.5172590693e+01   3.4362347435e+01    0.3762482    0.2310857 -89.71  0.001381373    2.785    0.641
        37 -11.0714     95.8182    135.8304   6.2056385119e+01   3.5434809302e+01    0.3124759    0.2331988 -61.22  0.001248894    1.347    0.258
        38 -10.8688     99.0004    133.6670   6.0644007396e+01   3.5410870998e+01    0.3103881    0.1994466  15.06  0.001244621    2.200    0.545
        39 -12.1758    106.7765    129.0770   5.7316578568e+01   3.5113029066e+01    0.6723315    0.4099051 -29.25  0.002632011    2.166    0.538
        40 -11.0960    164.0178    124.5885   4.1154216118e+01   2.4168054745e+01     0.314559    0.2185026 -58.14 0.0008626128    1.638    0.389
        41 -10.7706     95.0431    122.5090   5.9222947659e+01   3.8829551808e+01    0.3600511    0.2600501  -3.79 0.0009363227    1.926    0.481
        42 -10.5969    115.0444    122.4915   5.3326863933e+01   3.5091070209e+01    0.2424183     0.156006  39.02  0.001031013    1.586    0.370
        43 -10.3987    105.1049    116.9412   5.4820815583e+01   3.8321073490e+01    0.2338012    0.2237209 -27.60 0.0004058614    1.026    0.025
        44 -11.7886     68.3504    115.5184   6.5971607160e+01   4.4776800455e+01    0.2894834    0.2543301  65.43  0.001580304    1.305    0.234
        45 -10.7107    156.3894    112.5385   3.9859775263e+01   2.8429393544e+01    0.4506548    0.1978566 -56.16  0.001351942    3.446    0.710
        46 -15.8449      5.8444    244.4764   9.6385907278e+01   2.1644476244e+01     1.121187    0.7926092  74.19  0.008106122    1.052    0.050
        47  -9.8479    205.2318    110.2273   2.9114386515e+01   1.7911439176e+01    0.2097234    0.1989814 -16.66 0.0009085874    1.112    0.101
        48 -12.0838     65.4245    103.9274   6.4203738484e+01   4.7976962418e+01    0.4523612    0.2738587  39.11  0.001917108    1.799    0.444
        49 -11.6586    136.4438    109.2165   4.3963739726e+01   3.3607326798e+01    0.5838028    0.3502045 -75.37  0.001786118    3.882    0.742
        50 -11.9960     52.9812     96.2408   6.6639527123e+01   5.1404397272e+01    0.3320115    0.2533997  -8.09  0.001781118    1.469    0.319
        51 -15.2582      4.8625    225.0325   9.5592930482e+01   2.5619273857e+01     1.089772    0.6436553  59.56  0.005211834    1.371    0.270
        52 -11.0794     41.0284     87.6711   6.8885660873e+01   5.4724697161e+01    0.2604615    0.1968531  47.22   0.00081878    1.653    0.395
        53 -12.2837      2.4329     79.4685   8.1750635510e+01   5.9457339183e+01    0.7425703    0.1829741 -62.73  0.003005129    2.778    0.640
        54 -10.9682     81.4062    249.7601   8.2526903850e+01   1.1621440784e+01    0.3689153    0.2093239  52.70  0.001636129    1.513    0.339
        55 -11.4035    203.7831     57.7472   1.6535607480e+01   2.7129160701e+01    0.3171616     0.287618  46.82 0.0009132834    1.280    0.218
        56 -12.8515    213.6235     51.4958   1.3729765543e+01   2.5784256042e+01    0.7928554    0.6230534  49.18  0.003994532    1.486    0.327
        57 -12.1538     71.6305    240.6962   8.3641911976e+01   1.4721516366e+01     1.081637      0.43922  66.56  0.003395184    4.352    0.770
        58 -12.4263     13.3948     60.3379   7.3042303156e+01   6.2996938823e+01    0.3733877    0.2948799 -56.37  0.001049993    1.241    0.195
        59 -10.8287     73.3543    250.0874   8.4155585457e+01   1.2665373132e+01    0.3473771    0.2012627  42.96  0.001783379    1.434    0.303
        60  -9.6388     60.4940     21.0269   3.7902737242e+01   6.4204781627e+01    0.1724681    0.1143726 -23.00  0.000396824    1.493    0.330
        61 -13.9933      8.0178     59.6153   7.5193146767e+01   6.3471130194e+01     1.139728     0.487382 -43.52  0.005890418    1.790    0.441
