#   1 NUMBER                 Running object number                                     
#   2 MAG_AUTO               Kron-like elliptical aperture magnitude                    [mag]
#   3 X_IMAGE                Object position along x                                    [pixel]
#   4 Y_IMAGE                Object position along y                                    [pixel]
#   5 X_WORLD                Barycenter position along world x axis                     [deg]
#   6 Y_WORLD                Barycenter position along world y axis                     [deg]
#   7 A_WORLD                Profile RMS along major axis (world units)                 [deg]
#   8 B_WORLD                Profile RMS along minor axis (world units)                 [deg]
#   9 THETA_WORLD            Position angle (CCW/world-x)                               [deg]
#  10 FWHM_WORLD             FWHM assuming a gaussian core                              [deg]
#  11 ELONGATION             A_IMAGE/B_IMAGE                                           
#  12 ELLIPTICITY            1 - B_IMAGE/A_IMAGE                                       
         1 -10.6990     94.1007     75.2832   6.9047224694e+01   4.9466639387e+01     1.467255    0.7997565 -54.64  0.005999505    2.326    0.570
         2 -12.8322     42.5017     45.6090   7.8244518806e+01   6.2983142193e+01    0.9255701    0.6701132  44.13  0.001392101    1.858    0.462
         3 -12.1461    125.2890     27.8156   4.4670101328e+01   5.0188723699e+01    0.6231707    0.4775768  46.90   0.00179957    1.176    0.150
         4 -12.5416    117.7527     44.1056   5.1883940098e+01   4.9818395405e+01     1.068059    0.7804272  59.67  0.004114843    1.394    0.283
         5 -12.5332    119.8379     37.4076   4.9118922293e+01   5.0256784775e+01    0.7978527    0.5727291 -64.07   0.00238485    1.920    0.479
         6 -11.3250    105.9088     20.5704   4.6648196381e+01   5.5333391028e+01    0.4680668    0.4000682 -59.81   0.00180671    1.480    0.324
         7 -12.4649    113.9547     25.2004   4.6347369402e+01   5.3054019871e+01    0.9831271    0.3073536  47.16  0.002001628    2.783    0.641
         8 -11.3649    165.4432     17.6103   3.4552434293e+01   4.1836443963e+01    0.8943354    0.5545601  25.23  0.004334359    2.478    0.597
         9 -12.4598    163.9803     27.6711   3.7536969330e+01   4.1074961048e+01     0.522384    0.3742261  38.40 0.0007799803    1.610    0.379
        10 -11.3457     79.4151     35.3497   5.9977663628e+01   5.8911737246e+01    0.7908317    0.4873938 -28.59  0.004175122    1.660    0.398
        11 -10.5444    124.0414     21.0974   4.2706344843e+01   5.1215023238e+01    0.8305669    0.5438249 -85.25   0.00402674    2.242    0.554
        12 -10.9172    153.4664     25.3420   3.8554345399e+01   4.3846229228e+01     1.211457     0.382544  45.75  0.004125836    3.719    0.731
        13 -10.9568    145.8374     23.8012   3.9396258902e+01   4.5829553562e+01      1.19066    0.4836348  38.74  0.004318469    3.525    0.716
        14 -10.5633    147.8484     16.3938   3.6848143519e+01   4.6130864783e+01    0.6545062    0.2754547  38.13  0.002498294    3.388    0.705
        15 -11.6020    135.9343     23.1101   4.0988491305e+01   4.8240000452e+01     1.285281     0.889943 -68.04  0.006726093    1.853    0.460
        16 -12.0961    134.5644     15.1173   3.8723279488e+01   4.9381591503e+01      1.85452    0.7201779  75.95  0.006238772    4.054    0.753
        17 -10.4297     47.2044     19.2256   6.5549860671e+01   6.6412646750e+01     0.321941    0.2093885 -18.96   0.00138183    1.443    0.307
        18 -11.8084     27.2818     27.9775   7.8480779202e+01   6.7647103767e+01    0.5478579    0.3913203 -12.54  0.001988067    1.168    0.144
        19 -11.9586     36.0911     17.7189   6.9853830694e+01   6.8136101072e+01    0.7196535    0.3902049 -31.44  0.004149869    1.722    0.419
        20 -12.0650     20.1800     22.1251   7.9619686354e+01   6.9275060372e+01    0.6640099    0.2260168 -41.01  0.002994279    2.507    0.601
        21 -12.8172     16.5357     12.7330   7.7428419135e+01   7.1024594954e+01    0.6764812    0.4063043 -22.59  0.002945238    1.386    0.279
        22 -11.1501    188.9470     27.4845   3.4011496714e+01   3.5202556787e+01    0.3345413     0.326772 -15.50   0.00129307    1.264    0.209
        23 -11.8523     48.4924     12.9984   6.2188075685e+01   6.6989776117e+01    0.6720618    0.2899813  42.05  0.003372205    2.223    0.550
        24 -10.9696     90.9485     21.3581   5.0936623643e+01   5.8408268984e+01    0.5931505    0.3398747 -23.45    0.0030891    1.897    0.473
        25 -11.6447     85.8753     14.4115   4.9670492048e+01   6.0170454552e+01    0.5358685    0.3319608  -8.13  0.001867033    1.849    0.459
        26 -10.4802     84.5974      8.6553   4.7718764531e+01   6.0981430611e+01     0.314717    0.2221678 -12.67 0.0009516703    1.525    0.344
        27 -10.1388     88.7503      7.6012   4.6150665177e+01   6.0231502199e+01    0.2940457    0.2141562  14.84  0.000991273    1.397    0.284
        28  -9.9348     78.2232      7.4041   4.9061231504e+01   6.2359767173e+01     0.266877    0.1402427  54.44 0.0008225519    1.788    0.441
        29 -11.1273     74.9831      3.5630   4.8411890046e+01   6.3330128318e+01    0.7911865    0.3706668  59.92  0.003802105    2.380    0.580
        30 -10.9696    178.7938     21.0010   3.3660738709e+01   3.8320626604e+01    0.5389217    0.2422424  46.33  0.001931909    2.652    0.623
        31 -11.8993     68.3280     18.1733   5.6852701120e+01   6.3103259681e+01    0.5053349    0.4299701  40.49  0.003149032    1.270    0.213
        32 -12.1683    237.3543     15.8745   2.6571069195e+01   2.5913987472e+01    0.4903287    0.3301284  67.22  0.003063992    1.536    0.349
        33 -10.6127    183.8483      5.5222   2.9175406564e+01   3.8737768213e+01    0.3946234    0.2411463 -46.11  0.001712437    1.652    0.395
        34 -11.7080    192.1361      8.9149   2.9126913216e+01   3.6504021371e+01    0.8177024    0.5161079  -9.01  0.003410029    2.500    0.600
        35  -9.9212    187.7794      3.3336   2.8239378952e+01   3.8044483345e+01    0.3913971      0.17225 -66.39  0.001542748    2.880    0.653
        36 -11.5746    227.8634     15.4226   2.7251271451e+01   2.7937112274e+01    0.4463821    0.2731489 -83.18  0.001352096    1.514    0.339
        37 -12.2238    104.8825     12.7692   4.4056938132e+01   5.6338240058e+01    0.4766527    0.3438413 -20.11  0.001412774    1.551    0.355
        38  -9.7658     74.0399     13.0849   5.2760485334e+01   6.2609267993e+01    0.2989494    0.2110095  88.49  0.001431044    3.238    0.691
        39 -10.3776    232.5585      7.4845   2.5263080162e+01   2.7833412067e+01    0.2717337    0.1827191 -85.17  0.001002481    1.269    0.212
        40 -11.9430    247.4682      5.9925   2.3921413381e+01   2.4986843286e+01    0.5913451    0.4275985   3.53  0.003465339    2.943    0.660
        41 -11.3080    236.3028      4.6733   2.4434456906e+01   2.7365652360e+01    0.4893039    0.2136046 -75.79  0.002388504    2.499    0.600
        42 -11.0773    242.1642      3.5466   2.3812594369e+01   2.6302083139e+01     0.387799    0.1817305  74.33  0.002202007    1.958    0.489
        43 -11.5523    211.4842     10.3585   2.7594990704e+01   3.2019333991e+01    0.4790994    0.3402715   4.00  0.002687565    2.505    0.601
        44  -9.3150      5.4396      9.4625   8.2145172503e+01   7.2461022960e+01    0.2233916    0.1242989 -27.63 0.0008455197    1.425    0.298
        45  -9.4081     98.2061     11.6522   4.5266871263e+01   5.7882577672e+01    0.2111416    0.1791101  14.54   0.00136376    1.183    0.155
        46  -9.7952    168.6432      9.9137   3.2057482595e+01   4.1855231297e+01    0.3979948    0.1383071  54.48  0.001671433    2.583    0.613
        47 -10.3684    163.1999      8.1739   3.2288765780e+01   4.3300169093e+01    0.4904438    0.2366333 -15.62  0.002229888    2.994    0.666
        48  -9.9257     65.9313     10.4658   5.4360938413e+01   6.4367273310e+01    0.2680581    0.1698095  47.54  0.001256629    1.515    0.340
        49  -9.6758     63.0422      6.8609   5.3770933445e+01   6.5241843583e+01    0.2216508    0.1510717  36.41  0.001382676    1.232    0.188
        50  -9.5367    145.2307      9.6907   3.5275275022e+01   4.7392162838e+01    0.2145334    0.1429452  29.31 0.0006655672    1.843    0.458
        51  -9.5807      1.1250      7.4540   8.3772009668e+01   7.3076321864e+01    0.2297089   0.05408813 -47.10 0.0006295313    3.634    0.725
        52 -11.0795      2.5804      1.9724   8.0321116747e+01   7.3754151639e+01    0.2936764    0.1546327   3.44  0.001790314    1.799    0.444
        53  -9.4507    152.4526      1.3148   3.1807262949e+01   4.6429568702e+01    0.2144497   0.09972548  70.67 0.0006304398    1.847    0.459
        54  -9.4779    157.9762      6.9193   3.2635757744e+01   4.4644707723e+01    0.1863651    0.1510858  51.44 0.0004289988    1.239    0.193
        55 -10.2487    157.1174      1.9354   3.1369047200e+01   4.5285282663e+01    0.3146761    0.2457956 -74.77  0.001082415    1.298    0.230
        56  -9.3246    153.4113      7.0949   3.3312667415e+01   4.5702948905e+01    0.2356355    0.1415098  59.08  0.001090879    1.432    0.302
        57 -10.9405    176.8508      5.8588   3.0025986989e+01   4.0324357615e+01    0.3557181    0.1873337  80.24  0.001103674    1.771    0.435
        58 -10.5322    218.7449      3.2983   2.5469800118e+01   3.1180028499e+01    0.2742323    0.2501416 -76.75  0.001173274    1.222    0.182
        59 -10.0691    228.0000      2.9881   2.4699560568e+01   2.9255247498e+01    0.3031205    0.1679225 -22.80  0.001655382    2.534    0.605
        60 -10.9099    224.0136      2.1584   2.4827912862e+01   3.0176833706e+01    0.3057284    0.1905598  83.49  0.000787402    1.392    0.282
        61 -11.6854    134.8483      3.0489   3.4898383644e+01   5.0395497841e+01    0.5464787    0.2879753  76.75  0.002696842    1.923    0.480
        62 -10.4265    142.5820      3.7661   3.3916251653e+01   4.8534057340e+01    0.4633686    0.2229209  77.25  0.002154064    2.132    0.531
        63 -11.2239    114.5549      2.1811   3.8205494103e+01   5.5106501841e+01    0.7395843    0.2111623  65.77  0.002707775    3.357    0.702
        64 -10.1682     41.4248      3.9635   6.0918943183e+01   6.9061065687e+01    0.3393443    0.1779643  -4.51  0.001774669    2.295    0.564
        65 -12.2300     23.1423     11.2745   7.3255660046e+01   7.0547087609e+01    0.4739944    0.2831107  15.45  0.002167537    1.518    0.341
        66 -11.2451    205.4477      2.3048   2.6355558440e+01   3.4172043494e+01    0.4192584    0.2226927 -89.00  0.001233012    1.792    0.442
        67  -9.7004     13.2629      1.8686   7.3996726178e+01   7.2815787199e+01    0.3115376    0.1306219  20.40  0.001676156    2.373    0.579
        68 -10.8504    105.2944      1.8256   3.9972273760e+01   5.7189192303e+01    0.4431366    0.2900679 -87.23  0.001267284    2.222    0.550
        69 -10.5335     82.1611      1.3259   4.5398551115e+01   6.2101921070e+01    0.1932112   0.09438779  53.00 0.0003198942    1.712    0.416
        70  -8.8940     33.5469      1.4759   6.3255305726e+01   7.0450274970e+01    0.1172526   0.08576974   7.68 0.0002231087    1.055    0.052
        71 -10.3611     41.6305    149.0854   1.0259936285e+02   3.9508089819e+01    0.3045895    0.2039684  29.35 0.0007491526    1.679    0.404
        72 -10.1100    142.8112    249.8272   9.2248074584e+01   2.5814079657e+00    0.1760104    0.1365927  52.54  0.001073784    1.339    0.253
        73 -11.1680     48.4573    146.2220   1.0024884914e+02   3.9488317945e+01    0.5238292    0.4361095 -33.89  0.001283098    1.354    0.261
        74 -10.7985    249.1301    142.5206   5.1669882669e+01   4.3430340499e+00    0.4882013    0.2268253 -31.40  0.002135908    2.136    0.532
        75 -10.9847     33.4769    144.4122   1.0424561670e+02   4.1490967632e+01    0.4081646    0.2731047  54.00  0.001545152    1.640    0.390
        76  -9.0498    233.6946    143.3137   5.4329464847e+01   6.8537108380e+00    0.1332691    0.1043259 -65.54 0.0007024125    1.620    0.383
        77  -9.3121     59.0056    142.6600   9.6626372562e+01   3.9139905725e+01    0.1834041     0.177066  76.94 0.0004688386    1.093    0.085
        78  -8.6886    104.7070    142.3139   8.3359665837e+01   3.2318598024e+01    0.1537633     0.120206  80.14 0.0003895735    1.595    0.373
        79  -9.4814    132.7363    140.4012   7.5311730369e+01   2.7507533923e+01    0.2972586     0.193735 -59.66  0.001049003    1.704    0.413
        80 -11.7715     30.2406    133.5266   1.0365628625e+02   4.4503353704e+01    0.6472394    0.3715157 -87.29 0.0005087387    1.937    0.484
        81 -11.5307     22.6352    135.9998   1.0621861826e+02   4.4533909578e+01    0.5920581     0.471977  43.18  0.003642741    1.414    0.293
        82 -10.5039    217.1470    138.4019   5.6150732153e+01   1.0799084970e+01     0.341272    0.2518376 -45.35  0.001136579    1.274    0.215
        83 -10.0747    239.6509    146.8527   5.4083368945e+01   5.1882695376e+00    0.2115959     0.181399  11.17 0.0006961685    1.281    0.219
        84  -9.8774     80.1618    137.6169   8.9463001235e+01   3.7502784065e+01    0.3438081    0.2290552 -40.94  0.001592406    1.568    0.362
        85 -10.0255     40.1055    137.9536   1.0140536430e+02   4.2459157256e+01    0.3233674    0.1708882  41.74  0.001517378    2.063    0.515
        86  -9.4401     47.4873    134.9676   9.8737964099e+01   4.2429539976e+01    0.2829498    0.1900137 -72.71  0.001079962    1.412    0.292
        87  -9.5992     44.0501    133.6784   9.9557182882e+01   4.3123755037e+01    0.2267891    0.1727453 -80.18 0.0003906199    1.283    0.221
        88  -9.7890     38.5703    133.3481   1.0114903685e+02   4.3766559112e+01    0.2311788    0.2064375  77.38 0.0006695599    1.175    0.149
        89  -9.9877     61.1026    132.4960   9.4185263001e+01   4.1436963187e+01    0.3828184    0.2735381  -3.71  0.001758734    1.882    0.469
        90  -9.4325    103.8186    130.9248   8.1087133196e+01   3.5254979260e+01    0.2275212    0.2016757 -24.93 0.0003805726    1.194    0.163
        91  -9.4925     93.1277    129.8178   8.3964794954e+01   3.7376632131e+01    0.2427604    0.2121953  80.04  0.001249097    1.294    0.227
        92 -10.8415      9.3111    128.5561   1.0914278633e+02   4.7325228520e+01    0.4086929    0.2582494 -58.40  0.002357665    1.325    0.245
        93 -10.3811    240.4755    127.1317   4.9789805576e+01   8.5145550277e+00     0.342148    0.2329641 -59.60  0.001761046    1.709    0.415
        94  -9.9415     78.7845    128.4361   8.7977285993e+01   3.9998118413e+01    0.2546162    0.1996907 -26.41 0.0007342198    1.439    0.305
        95 -10.2672     22.9210    127.0322   1.0491158470e+02   4.6726474585e+01    0.1933414      0.16053 -66.28 0.0003066424    1.011    0.011
        96  -9.3466     53.4291    125.2737   9.5195298871e+01   4.4183010250e+01    0.2798164    0.1673499 -66.76  0.001226174    1.595    0.373
        97 -10.1105     49.6098    123.1772   9.6003134375e+01   4.5143356256e+01      0.29135    0.2452885  -6.26 0.0009183548    1.377    0.274
        98 -10.3056     48.7199    112.4411   9.4193856190e+01   4.7888493703e+01    0.5198346     0.223068 -47.16  0.002148819    2.108    0.526
        99 -10.3403     45.1680    120.1638   9.6853702813e+01   4.6375973807e+01    0.3471718    0.2822826  77.93  0.001208643    1.409    0.290
       100 -10.2445     43.6909    116.3622   9.6616459751e+01   4.7469122978e+01    0.2590615    0.2224693  74.42 0.0008744847    1.325    0.245
       101  -9.5964      2.1152    125.9539   1.1092540055e+02   4.8386814440e+01    0.1958489    0.1426122  84.19 0.0008826494    1.341    0.254
       102 -12.8681    104.0347    122.3303   7.8998540094e+01   3.7283104295e+01    0.3962538    0.3593479   3.21  0.000449264    1.188    0.158
       103  -8.9569     77.4549    123.4359   8.7303502066e+01   4.1432874248e+01    0.1464352    0.1381833 -58.15 6.232419e-06    1.031    0.030
       104  -9.3885     19.0593    122.4206   1.0542978985e+02   4.8153706612e+01    0.1996958    0.1452262 -69.29   0.00028065    1.150    0.131
       105  -9.3037     56.5662    122.2640   9.3624384444e+01   4.4556841677e+01    0.2021474    0.1177183 -50.53 0.0007847411    1.541    0.351
       106  -9.1898     71.3223    120.9135   8.8670183809e+01   4.2947075653e+01    0.2089803    0.1750124 -50.59  0.000514712    1.101    0.091
       107  -9.0052    221.4846    120.5190   5.1410269018e+01   1.3280419528e+01    0.1425177    0.1274356 -44.24 0.0001047822    1.025    0.024
       108  -9.0521     13.9141    118.9334   1.0652288721e+02   4.9364384752e+01    0.1507619      0.11997 -64.74 0.0003360162    1.027    0.026
       109 -12.4817      2.6640    111.8451   1.0906727757e+02   5.1737740062e+01    0.5443204    0.3562584  73.08  0.001039103    1.773    0.436
       110 -11.1996      3.9726    104.9415   1.0771948570e+02   5.3308083545e+01    0.3909494    0.3291329  39.54  0.001790859    1.451    0.311
       111  -9.3896     79.0771    114.6317   8.4786604264e+01   4.3332518344e+01    0.3078886     0.201361 -46.92  0.001436946    1.429    0.300
       112  -9.2112     67.4876    114.8143   8.8548795402e+01   4.4975339518e+01    0.3254415     0.206582  60.02  0.001417472    2.207    0.547
       113  -9.8260     66.4039    110.8229   8.7996741202e+01   4.6090723366e+01    0.3464507    0.2533742  22.66  0.001763355    1.514    0.339
       114 -10.4427     42.9939     94.6810   9.2321424023e+01   5.2745015728e+01    0.3522125    0.3277345 -25.00  0.001712084    1.100    0.091
       115 -12.0067      7.2911     89.1605   1.0411349072e+02   5.6816531278e+01     0.577804    0.4166321  24.19  0.001699915    1.675    0.403
       116 -12.0080      9.1209     97.1066   1.0480556502e+02   5.4873121839e+01    0.5117201    0.4596907  29.16  0.001137897    1.363    0.266
       117 -11.8693     35.9652     93.4203   9.4568889641e+01   5.3734169635e+01     0.651816    0.4685058 -11.81  0.002581457    1.569    0.363
       118 -11.8984     42.0382     85.7593   9.0539442640e+01   5.4889600384e+01    0.8500093    0.4997266  13.08  0.004203985    2.004    0.501
       119 -11.3721     27.7333     86.3501   9.6033217481e+01   5.6085883427e+01    0.9772741    0.5320013  14.21  0.004730605    2.150    0.535
       120 -11.0165     33.6502    103.7176   9.7531570357e+01   5.1514329057e+01    0.7846905    0.3141703  16.32  0.003144637    3.256    0.693
       121 -11.8543     17.1747    100.6841   1.0263574401e+02   5.3531607738e+01    0.3394283    0.2430542 -42.38 0.0005908122    1.269    0.212
       122 -11.4693     22.7324     95.0117   9.9655027314e+01   5.4474060948e+01    0.5098063     0.317309 -10.11  0.001428752    1.962    0.490
       123 -11.5920     18.1013     90.5792   1.0046399720e+02   5.5835135684e+01    0.4719343    0.2964607 -57.66  0.001281646    1.289    0.224
       124 -12.3966     24.6212    106.6288   1.0114279633e+02   5.1572260612e+01     1.011806    0.7054276 -66.23  0.005781632    1.248    0.199
       125 -11.3149     21.9079    114.3499   1.0332296147e+02   4.9912022941e+01    0.4893275    0.2717282  -1.86  0.002258556    2.519    0.603
       126 -11.3525     28.1410    113.1898   1.0111361742e+02   4.9700899019e+01    0.5054271    0.2763148   7.32  0.002267075    2.433    0.589
       127  -9.0082    126.4181    113.7897   7.0484125156e+01   3.4907140173e+01    0.2210654    0.1456894 -35.78 0.0009415479    1.596    0.374
       128  -8.9924     86.6977    114.2840   8.2299411831e+01   4.2206738746e+01    0.1450348     0.118114  77.39 0.0002281984    1.555    0.357
       129 -10.9584    108.2576    112.4782   7.5292009076e+01   3.8808484269e+01     0.432007    0.3309627 -78.15  0.001521199    1.713    0.416
       130 -10.7509    101.8840    109.2145   7.6343220567e+01   4.0752386177e+01     0.465991    0.3681175 -18.62   0.00158092    1.446    0.309
       131  -9.5771     94.0235    112.5260   7.9589773380e+01   4.1387732148e+01    0.2865435    0.2156345 -69.63  0.001014378    1.562    0.360
       132 -10.5552    170.6331    110.6809   5.8815769945e+01   2.5966261872e+01    0.4094323    0.2878731 -38.77  0.001449456    1.399    0.285
       133 -11.6967     79.4899    108.1269   8.3079544498e+01   4.4821213311e+01    0.7067105    0.3564269  29.43 0.0004142416    2.212    0.548
       134 -10.7960     88.9702    104.7313   7.9173209159e+01   4.4071870514e+01    0.4231144    0.3366758  -4.51 0.0003747726    1.468    0.319
       135  -9.9323     85.6523    103.7084   7.9966714474e+01   4.4863786808e+01    0.2680997    0.2047045 -16.97 0.0006655961    1.514    0.340
       136 -10.5201     15.9683    109.6042   1.0450021917e+02   5.1482821923e+01    0.2909498    0.2416496  55.64 0.0009580005    1.420    0.296
       137 -10.1663    121.1628    109.0143   7.0679271517e+01   3.7050187605e+01    0.4555921    0.2547884  31.08  0.001290736    2.121    0.528
       138 -11.3000    145.3565    100.2097   6.1922383034e+01   3.3751200694e+01    0.4320384    0.3264318 -31.02 0.0001907448    1.399    0.285
       139 -10.2246    143.4015    106.1896   6.4020087871e+01   3.2940750664e+01    0.3125746    0.2654465 -82.79  0.001343843    1.408    0.290
       140  -9.3144    139.9785    107.0000   6.5103236060e+01   3.3516718399e+01    0.2857945    0.1970948  32.45 0.0003443309    1.612    0.380
       141 -10.8336     49.2459     91.1104   8.9215298830e+01   5.2886053835e+01    0.5125104    0.3952692 -12.94  0.002855377    1.391    0.281
       142 -10.7198     49.9069    101.8297   9.1514026595e+01   5.0310559105e+01    0.5303931    0.3285117 -22.74  0.001806602    1.998    0.499
       143  -9.6906    181.4021    104.1686   5.4906776366e+01   2.4850645898e+01     0.221576    0.1345728 -50.62 0.0006158506    1.683    0.406
       144 -10.0460     57.1766    102.5412   8.9172217484e+01   4.9275646165e+01    0.2718144    0.1896985 -54.48  0.001161724    1.300    0.231
       145 -10.3802     65.3021     98.3623   8.5364079644e+01   4.9190357134e+01    0.6009781    0.1577225 -45.50  0.001849261    3.584    0.721
       146 -11.0181     68.5964     95.4109   8.3472129050e+01   4.9406493011e+01    0.4228267    0.3026347  39.18   0.00150484    1.527    0.345
       147 -10.3055    210.6331     97.7016   4.7974507486e+01   1.9638773000e+01    0.4865692    0.2850738  27.96  0.001891701    3.061    0.673
       148  -9.2934    120.5971    101.2020   6.8721218083e+01   3.8878550989e+01    0.2237326    0.1428283 -33.92 0.0009465641    1.680    0.405
       149 -11.4001     89.4377     89.8700   7.4946493540e+01   4.7311756226e+01    0.5359931    0.3113304 -35.95  0.001960399    1.779    0.438
       150 -10.3957     80.6381     98.5398   8.0238376898e+01   4.6865162554e+01    0.2873039    0.2389315 -14.95 0.0007295132    1.272    0.214
       151  -9.2188     77.6680     96.7099   8.0737006025e+01   4.7751002039e+01    0.2240233    0.1955586  -5.41 0.0005122522    1.184    0.155
       152 -11.2414     80.9128     92.9820   7.8636505082e+01   4.8070561103e+01    0.8617758    0.3825622  38.95  0.003396669    2.347    0.574
       153  -9.9807     52.5170     96.0104   8.9241721413e+01   5.1374639500e+01    0.3043783    0.1956054 -74.46  0.001416796    2.004    0.501
       154 -11.2095    124.6167     93.9143   6.5563578026e+01   3.9575639619e+01    0.6207993    0.3398201  42.82  0.002033872    1.839    0.456
       155 -11.1387    120.8346     87.8904   6.4872617528e+01   4.1606953256e+01    0.5727081    0.3703505 -48.70  0.002042001    1.613    0.380
       156 -10.5449    152.9555     91.8704   5.7822375110e+01   3.3698372482e+01    0.4815727    0.3288583  31.29  0.002127097    1.747    0.428
       157 -10.8672     98.5713     91.0011   7.2362310292e+01   4.5414315421e+01    0.3023057    0.2789668  15.59 0.0003950346    1.082    0.076
       158 -10.3133    184.0052     86.4535   4.9888835849e+01   2.7557609140e+01    0.6459789    0.2868562 -47.76  0.002455844    2.307    0.567
       159 -10.1124     66.4754     88.7649   8.2431597476e+01   5.1205942469e+01    0.3447582    0.2337729  -2.06  0.001123219    1.883    0.469
       160 -10.8624    104.5255     87.1536   6.9404485312e+01   4.5083952136e+01    0.3267277    0.2564158   0.11   0.00112876    1.507    0.336
       161 -11.7782    112.5032     83.1715   6.5846073748e+01   4.4290013661e+01    0.7220247    0.4812757  62.06  0.003156185    1.961    0.490
       162 -11.6093     75.3301     80.0526   7.6820156686e+01   5.1754972653e+01    0.7334291    0.6395623 -72.50   0.00245315    1.445    0.308
       163 -10.1161    165.5301     83.6710   5.2807781405e+01   3.2333301348e+01    0.3368011    0.2609122 -60.12  0.001146421    1.394    0.283
       164 -10.8603    142.8599     84.6008   5.8179813628e+01   3.7394991391e+01    0.4769324    0.2712771  40.99 0.0008385881    1.844    0.458
       165 -10.3648     66.9960     82.0720   8.0365201864e+01   5.2593052075e+01    0.3820736    0.2965708 -27.95  0.002070416    1.233    0.189
       166 -10.1676     60.5445     83.4172   8.3078567295e+01   5.3203215486e+01     0.277469    0.2341614 -63.44 0.0005888561    1.342    0.255
       167 -11.6374     53.2247     76.0123   8.3700741717e+01   5.5746245606e+01    0.6477157    0.3775255 -53.46  0.003173236    1.671    0.401
       168 -10.9776     58.3449     77.6917   8.2259647887e+01   5.4729963286e+01    0.3408896    0.2604651 -47.33 0.0008657427    1.242    0.195
       169  -9.3007    127.2644     83.3942   6.1799017004e+01   4.1110155523e+01    0.2110344    0.1435561  56.42 0.0008988502    1.598    0.374
       170 -10.7267     80.4454     83.3510   7.6037136372e+01   5.0233919631e+01    0.4472423    0.3198234 -31.48  0.002241263    1.388    0.279
       171  -8.9459      1.2234     80.0393   1.0474047447e+02   5.9181825525e+01    0.4322793   0.07682598 -65.63  0.000759975    3.856    0.741
       172 -11.3472      2.1466     71.4507   1.0276906062e+02   6.1037975702e+01    0.5393198    0.1866822 -65.25  0.002439347    2.373    0.579
       173 -12.7778      4.4919     62.0842   9.9808990791e+01   6.2934206707e+01    0.5924211    0.3485449 -23.92 0.0008707004    1.651    0.394
       174 -11.7206     10.2957     62.4268   9.7430047507e+01   6.2548288291e+01    0.3018807     0.222923 -34.78 0.0005560782    1.126    0.112
       175  -9.5584    103.3511     79.8272   6.7559563252e+01   4.6795911084e+01    0.2429073    0.1961131 -14.39 0.0007938624    1.339    0.253
       176 -10.4727    103.8282     75.0532   6.5936317665e+01   4.7629782009e+01    0.3957168    0.3338414 -49.90  0.002104622    1.284    0.221
       177  -9.8385    174.9978    247.0376   8.5285864290e+01  -1.8021410961e+00     0.267511    0.1939987  20.67   0.00161185    1.226    0.184
       178 -11.7448     85.4103     73.0922   7.1211601978e+01   5.1475458137e+01     0.592379    0.4738039  39.25  0.002373601    1.297    0.229
       179 -10.7845     79.6945     68.1650   7.1582865921e+01   5.3419177925e+01    0.5354971    0.3249498  50.53  0.002454646    2.049    0.512
       180 -10.3407     75.9610     63.5223   7.1364067662e+01   5.4923785308e+01    0.4581832    0.2947018 -31.48   0.00212144    1.536    0.349
       181 -12.6713     74.7247     53.6702   6.8415392239e+01   5.6894389759e+01    0.8466349    0.6786658  -5.06  0.001594368    1.210    0.174
       182 -11.0338     72.7713     47.1286   6.6757179364e+01   5.8316846805e+01    0.3020869    0.2607905 -61.80  0.001406635    1.629    0.386
       183 -11.8680     13.8217     74.1476   9.8696901957e+01   5.9818990902e+01    0.5984482        0.379 -74.38   0.00319577    1.754    0.430
       184 -10.0220     14.5890     67.6367   9.6890139173e+01   6.1181261169e+01    0.3960207     0.201579  16.30  0.002103546    2.211    0.548
       185  -9.9418    233.1148     77.6584   4.0085662244e+01   1.8307934580e+01    0.2722648    0.1992563 -55.83    0.0013486    1.231    0.188
       186 -12.2092    186.3447     70.6847   4.5410255698e+01   2.9714167446e+01    0.9422495    0.6564721 -38.37  0.004741423    1.431    0.301
       187  -9.3459    134.9092     77.5196   5.8082085154e+01   4.0518416864e+01    0.2308895    0.1460839  53.04  0.001021629    1.595    0.373
       188 -10.0944    126.9765     76.9551   5.9955741349e+01   4.2393376910e+01    0.2222487     0.214306  26.59 0.0003034688    1.011    0.011
       189  -9.3247     46.6052     75.8296   8.6184797662e+01   5.6576375227e+01    0.3477093    0.1406404 -38.43  0.001391966    2.485    0.598
       190  -9.7950     24.6834     74.1631   9.4375662820e+01   5.9049808478e+01     0.418901    0.2346047 -25.80   0.00214868    1.886    0.470
       191 -11.9989     40.9075     71.5614   8.7217579188e+01   5.8111257565e+01    0.4704104    0.3084169 -61.90  0.001568725    1.693    0.409
       192 -11.4299     35.0704     71.8496   8.9624914186e+01   5.8640218996e+01    0.6826777    0.2494361  26.84  0.002895746    2.908    0.656
       193 -10.1590    153.8230     72.4956   5.2193409995e+01   3.7048041090e+01    0.3619125    0.2141982  35.95  0.001254575    2.046    0.511
       194 -11.8121    123.1004     69.3474   5.8654783826e+01   4.4624350841e+01    0.5229358     0.454994 -12.41  0.001975236    1.220    0.180
       195  -9.4827    162.2175     71.0973   5.0033209367e+01   3.5311338940e+01    0.2784767    0.1904597  89.21  0.001217408    2.029    0.507
       196  -9.4216    172.0079     68.9627   4.7530298415e+01   3.3355858624e+01     0.303707    0.2090839 -42.48  0.001384719    1.446    0.309
       197 -10.2316    169.8631     63.5474   4.6458573187e+01   3.4736963797e+01    0.4500668    0.3209241 -77.20  0.001839012    1.733    0.423
       198 -11.2664    219.8607     66.7626   3.9383234877e+01   2.2798786959e+01    0.5281908     0.283567  63.40  0.002083408    1.948    0.487
       199  -9.6538    192.4744     65.8746   4.3168053079e+01   2.9066201442e+01    0.2604887    0.1889869  88.90 0.0009433319    1.549    0.354
       200 -10.7148     59.1025     63.1560   7.7494350241e+01   5.7579807091e+01    0.3985468    0.2883139 -42.77  0.001410064    1.326    0.246
       201  -9.8490     65.0186     61.2995   7.4624500340e+01   5.7074919206e+01    0.3852371    0.1989671 -47.65  0.001614226    1.982    0.496
       202 -11.8782     21.0962     64.8478   9.3482967075e+01   6.1318802324e+01    0.2518741    0.1791683 -49.73 0.0005536334    1.194    0.163
       203 -10.2830    200.1706     63.9931   4.1507602726e+01   2.7595636731e+01    0.4476328    0.2770573  88.74  0.002036803    2.088    0.521
       204 -10.1466    106.2854     64.0567   6.1679999655e+01   4.9142489637e+01    0.2926249    0.2741911  43.18  0.001679085    1.114    0.103
       205  -9.5604     84.1755     61.2750   6.7755079476e+01   5.3911600311e+01      0.26165    0.2481024 -67.47 0.0009095357    1.328    0.247
       206  -9.7497     96.7128     65.3527   6.5022373553e+01   5.0832068153e+01    0.2383771    0.2160446   3.06   0.00135583    1.046    0.044
       207 -11.5239     91.7031     62.7979   6.5773401877e+01   5.2250957778e+01    0.9110479    0.3814395  42.67  0.003605012    2.353    0.575
       208 -10.7746     87.8009     56.0803   6.4760607573e+01   5.4152420304e+01    0.6386058    0.2083813 -36.96  0.002243008    3.187    0.686
       209 -10.8717     91.6230     57.2398   6.3914815900e+01   5.3232891035e+01    0.4774144    0.3386241 -26.30  0.002471222    1.442    0.307
       210  -9.0279     52.1660     65.6567   8.0998550586e+01   5.8014248931e+01    0.1807905    0.1184685  13.78 0.0007170022    1.654    0.395
       211  -9.8372     67.5406     32.0195   6.2864182360e+01   6.1482125550e+01    0.4183671     0.361807 -54.45  0.002247407    1.656    0.396
       212  -9.9539     24.7198     39.1080   8.3948373176e+01   6.6023951897e+01    0.8107664    0.5646592  61.09  0.003748516    3.315    0.698
       213 -11.7716     27.0251     56.7735   8.8682924214e+01   6.2488527584e+01    0.9935787    0.6179119  -3.70  0.005555443    1.743    0.426
       214 -11.3477     26.0762     47.9389   8.6337530846e+01   6.4284910041e+01    0.2811314    0.1644009 -36.71  0.000399266    1.423    0.297
       215 -11.1843     20.4554     45.1659   8.8013057662e+01   6.5287567894e+01    0.4714596    0.3814408 -59.43  0.001969665    1.510    0.338
       216 -11.1596     61.0488     35.8998   6.6879000888e+01   6.1984787400e+01    0.4187865    0.2731011 -20.09  0.001359473    1.523    0.343
       217 -10.5547     59.8351     23.7182   6.2354898765e+01   6.3878891180e+01    0.3259711    0.1806476 -23.20   0.00138342    1.847    0.459
       218 -11.8398     60.1846     46.4465   7.1255573902e+01   6.0443688070e+01    0.9577309     0.531706 -42.52  0.004820811    1.826    0.452
       219 -11.3427     53.6189     49.2888   7.4914871357e+01   6.0900668955e+01    0.5049612    0.4024134  44.64   0.00300488    1.603    0.376
       220  -9.2722    163.3609    243.6255   8.7153935691e+01   5.0877663674e-01    0.1863797    0.1429192  56.20 0.0009936856    1.599    0.375
       221 -11.1152     40.4960     56.9930   8.2988275659e+01   6.1107494347e+01    0.4132679    0.2515209  23.72 0.0009538683    1.709    0.415
       222 -12.2967     58.1325     30.1037   6.5690206184e+01   6.3286528310e+01    0.3848953    0.2586686   1.34  0.001788042    1.546    0.353
       223 -11.8212     49.3609     30.2302   6.9341454945e+01   6.4577896430e+01    0.5855317    0.2735131  30.85  0.001837676    2.079    0.519
       224 -12.5232     44.4476     61.1733   8.2684881504e+01   5.9842464172e+01    0.7438656    0.3981301 -21.77  0.001398723    2.306    0.566
       225 -11.1366     52.0570     61.8127   7.9818037061e+01   5.8786481374e+01    0.3349595     0.226466  37.61  0.001816713    1.673    0.402
       226 -11.4136    234.6486     61.0516   3.6271474599e+01   2.0541310201e+01    0.4037482    0.3518302 -84.70  0.001339708    1.118    0.105
       227 -10.1221    159.2010     62.5189   4.8229346017e+01   3.7430230898e+01    0.5554482    0.1986673  47.19  0.001926164    2.881    0.653
       228 -11.6693    127.4137    241.9187   9.4418749554e+01   6.3256256263e+00    0.3952071    0.3612735  47.38  0.002210548    1.076    0.071
       229 -12.2273    119.4500     57.6078   5.5896789311e+01   4.7408278144e+01     1.541056      1.00316 -87.04  0.005841404    3.306    0.698
       230 -10.6679    108.8894     43.1321   5.3880996466e+01   5.1897960168e+01    0.4505625    0.2955922 -35.63  0.001959955    1.621    0.383
       231 -10.7797    113.9332     38.1137   5.0822267894e+01   5.1482493719e+01    0.2523102    0.2228105 -30.73 0.0003467147    1.229    0.186
       232 -10.0200     68.0013    240.4953   1.0662569082e+02   1.5132592355e+01    0.1854503    0.1077915  37.52 0.0009749262    1.578    0.366
       233  -8.7527    221.5122    239.5011   7.4999667037e+01  -7.3115367559e+00    0.1239218   0.09839633   3.79   0.00081057    1.001    0.001
       234 -11.2635    169.8194    238.1487   8.5003486512e+01   4.3937556977e-01    0.4232376     0.198125  43.38  0.001946767    2.100    0.524
       235 -11.9661    106.6669     32.2276   5.0645792767e+01   5.3825775108e+01    0.6042023    0.3463258  24.68  0.002726592    2.237    0.553
       236 -11.4852    148.1420    237.8304   8.9486570280e+01   3.8622281574e+00    0.5437238    0.2559979  39.46  0.002543477    1.849    0.459
       237  -9.5514    150.8356     61.1411   4.9554120408e+01   3.9629933737e+01    0.2522219    0.1955049  67.35 0.0006277353    1.319    0.242
       238  -9.2989    147.0039     60.7776   5.0269069325e+01   4.0590808666e+01    0.2035233    0.1720682  83.09 0.0006160027    1.296    0.229
       239  -9.6059    113.5308     60.5012   5.8442299046e+01   4.8223610386e+01    0.2964425    0.1417113 -35.96  0.001208979    2.171    0.539
       240 -10.7104    106.5471     58.4823   5.9763525031e+01   5.0036901938e+01    0.3282725    0.2837846  76.61  0.001120342    1.456    0.313
       241 -10.1206    135.1691     51.1915   4.9988483733e+01   4.4829469153e+01     0.304923    0.2145584 -60.73  0.001161397    1.792    0.442
       242 -11.0719    136.6191     56.8420   5.1408160963e+01   4.3636238036e+01    0.7602029    0.4538212  11.53  0.002732498    3.451    0.710
       243 -11.0582    145.9219     48.0182   4.6685890008e+01   4.2765807032e+01       0.8393    0.3909754 -21.28  0.003003526    3.198    0.687
       244 -10.0900    145.5600     39.7909   4.4275832320e+01   4.3973882190e+01    0.2667952    0.2073913 -49.55  0.001108222    1.396    0.283
       245 -10.1597    163.1179     43.7256   4.2172731097e+01   3.9262605569e+01    0.7230413    0.2225835  59.13  0.002559097    2.918    0.657
       246 -11.1293    156.7904     53.1754   4.6032281795e+01   3.9436276456e+01    0.9521643    0.5996471 -35.18  0.004299651    1.664    0.399
       247 -10.4804    155.7268     42.3778   4.3110927740e+01   4.1210510151e+01     0.677284    0.4518365   3.29  0.003097358    2.374    0.579
       248  -9.3876    233.2882    236.0140   7.2238640865e+01  -8.3810675977e+00    0.1730304    0.1338943 -10.35 0.0008303166    1.096    0.088
       249 -11.6772    153.2647     36.1253   4.1736422484e+01   4.2610756936e+01    0.5594751    0.3869177  17.95 0.0003691475    2.053    0.513
       250 -11.3203    159.7225     29.6666   3.8770700327e+01   4.1856809229e+01    0.3169644     0.244519  39.39 0.0005725035    1.428    0.300
       251 -10.9230    198.4091    232.8958   7.8363394219e+01  -3.0335388018e+00    0.3311929    0.3110093 -84.35   0.00216651    1.618    0.382
       252  -9.1634    238.4485     55.5321   3.4660886875e+01   2.0565897264e+01    0.1265555    0.1081503 -62.95  5.61307e-05    1.039    0.037
       253  -9.4150    187.4873     55.0877   4.1210339803e+01   3.1871860193e+01    0.2996034    0.1538412  50.54  0.001322018    2.026    0.506
       254  -9.8420     66.9148     54.4597   7.1561526873e+01   5.8031027293e+01    0.3232885    0.1866566 -46.46  0.001573239    1.851    0.460
       255  -9.4216      7.1080     54.3247   9.6783374611e+01   6.4401420739e+01    0.2230934    0.1164837 -47.90  0.001268653    1.452    0.311
       256  -8.8851     13.6832     54.2821   9.3841212935e+01   6.4011566393e+01    0.1034253   0.09372827  66.32   0.00023083    1.580    0.367
       257  -9.5782    201.4782     53.0180   3.8637808718e+01   2.8940146409e+01    0.2523104    0.1896779 -42.28  0.001158913    1.307    0.235
       258 -11.1914    201.6301     47.3083   3.7233334733e+01   2.9715096221e+01    0.6455199    0.3649464 -51.13  0.002877013    1.722    0.419
       259  -9.6092    230.4931     52.0732   3.4797926252e+01   2.2706289544e+01    0.1889059    0.1142236 -40.99 0.0004909059    1.522    0.343
       260  -9.2340    104.2319     53.1699   5.8647473002e+01   5.1380349743e+01    0.2465227    0.1469331  11.46 0.0009545519    2.847    0.649
       261 -10.0320    244.9714     51.3216   3.3094138749e+01   1.9846631237e+01    0.1749284    0.1454456 -80.11 0.0007972966    1.117    0.105
       262  -8.4129    220.3107     50.3368   3.5589987176e+01   2.5127282558e+01    0.1216768    0.1030386  24.33 0.0007044586    1.685    0.406
       263 -11.0169    174.8222     48.2364   4.1433875977e+01   3.5848035460e+01    0.5500648     0.306513  66.44  0.001932795    1.767    0.434
       264  -9.6432     90.3945     47.7878   6.0992373649e+01   5.5004239389e+01    0.2878752    0.2137323 -58.49 0.0009777076    1.905    0.475
       265 -10.9211     12.5827     48.0905   9.2572470125e+01   6.5308848854e+01    0.3623138    0.1674631 -33.70  0.001652965    1.887    0.470
       266  -9.5899      2.2174     48.7966   9.7554942159e+01   6.5766000237e+01    0.2328878     0.208006  84.55  0.001685393    1.574    0.365
       267 -10.2776    240.3903     50.7692   3.3449682116e+01   2.0845777821e+01      0.24815    0.2093911 -40.49  0.001025905    1.270    0.212
       268 -11.0387    137.4100     44.7155   4.7470132359e+01   4.5233018457e+01    0.7244025    0.2585852  44.28  0.002547979    2.992    0.666
       269  -9.4307    176.7566     43.7383   3.9920114779e+01   3.6009320849e+01    0.1969304    0.1496394 -80.57  0.001058836    1.388    0.280
       270  -9.8863      7.3738     30.9419   8.9619991655e+01   6.8834123878e+01    0.6881344    0.3117899  -7.49  0.003440329    2.651    0.623
       271 -10.3909      3.8209     39.1913   9.4083549720e+01   6.7542006934e+01    0.4057428    0.2968439 -74.53  0.002526533    1.904    0.475
       272 -10.3329      5.9555     36.2371   9.2107803510e+01   6.7968846651e+01    0.3138225    0.1506201  19.46  0.001777251    2.227    0.551
       273 -10.6326     93.2474     41.2181   5.7722876836e+01   5.5422064807e+01    0.5045161    0.2411494  41.06  0.002241063    1.962    0.490
       274  -9.0069     67.6454     41.7675   6.6636781648e+01   6.0025627388e+01    0.1723675    0.1171303 -42.18 0.0008351079    1.628    0.386
       275 -10.3330    188.9253     39.7146   3.7082212573e+01   3.3678420953e+01    0.3600556    0.2016852 -20.40  0.001294796    2.507    0.601
       276  -9.3887     15.2967    233.9973   1.1643864901e+02   2.2536094859e+01    0.1614058    0.1204814  84.01 0.0008951708    1.117    0.105
       277  -9.3784    231.3458     38.5962   3.1803807252e+01   2.4368279883e+01    0.2517421    0.1478378 -37.33  0.001377005    1.668    0.401
       278  -9.5447    217.4067     39.2352   3.3422473038e+01   2.7276575851e+01    0.1863921    0.1034588 -47.57 0.0008133458    1.641    0.391
       279 -11.0815    176.8713     36.5610   3.7996414010e+01   3.6925327973e+01    0.3910921    0.2993058 -40.05  0.002225695    1.364    0.267
       280  -9.6250    183.6476     38.1064   3.7413610396e+01   3.5125837158e+01    0.2123965    0.1662709  89.95 0.0006507727    1.235    0.191
       281  -9.9522    133.0386     36.8909   4.5945837466e+01   4.7294312795e+01    0.3548893    0.2251564 -67.06  0.001593149    2.370    0.578
       282  -9.1422    206.5131     37.0928   3.4185615951e+01   2.9979259983e+01     0.182362    0.1220698 -38.53 0.0007149421    1.506    0.336
       283  -9.4247     12.6460     36.8884   8.9006845771e+01   6.7410307858e+01    0.1547473    0.1007084 -58.23 0.0008591217    1.744    0.427
       284  -9.1928     94.1802     35.9044   5.5489996879e+01   5.5970428660e+01    0.1870563    0.1794518  78.26 0.0006860425    1.298    0.229
       285  -9.8660    148.3539     33.6440   4.1895925988e+01   4.4089120697e+01    0.3239855    0.1581299 -32.02  0.001192852    2.205    0.546
       286 -10.4029    243.0815    232.3306   6.9849419887e+01  -9.1272681534e+00    0.2849988     0.261336 -53.77  0.001975582    1.851    0.460
       287  -9.5837     23.7929    231.8398   1.1470285033e+02   2.2112972964e+01    0.1689756    0.1051228  64.29  0.000695049    1.327    0.246
       288 -10.4080    157.4140     20.4368   3.6515070939e+01   4.3443611684e+01     0.394598    0.2073469  58.43  0.001941721    1.659    0.397
       289 -10.0994    247.2922    231.8986   6.9032229843e+01  -9.5980215140e+00    0.2022775    0.1297651 -30.59 0.0008266354    1.446    0.308
       290  -9.2213    209.3592    223.7904   7.4660792251e+01  -3.2038449933e+00    0.1730202    0.1079378 -26.41 0.0003146974    1.599    0.375
       291 -10.6644    140.0221     28.5519   4.1908996896e+01   4.6669752250e+01    0.5005397    0.2401593 -21.94  0.002134704    2.618    0.618
       292 -10.0416    234.0100    223.4765   6.9946489486e+01  -6.6597874827e+00     0.180217    0.1095248  28.33 0.0009111625    1.567    0.362
       293  -9.3382     10.2230    218.0436   1.1648111045e+02   2.6342356492e+01     0.152162   0.07904922 -80.30 0.0007023969    1.654    0.396
       294 -10.1725    127.1712     16.5921   4.0585935119e+01   5.0954331382e+01    0.2582806    0.1896697  35.58 0.0007368589    1.382    0.276
       295 -10.3151    240.2710     32.9998   2.9784230639e+01   2.3245811443e+01    0.3060316    0.2188246 -87.23   0.00155208    1.291    0.225
       296 -10.6341     13.9283     23.5642   8.3454573824e+01   6.9601784904e+01    0.2559223    0.2308703  32.76 0.0003028558    1.661    0.398
       297 -10.4111    164.7174    212.2846   8.1906271537e+01   5.9146527026e+00    0.2557851    0.2229581  34.10 0.0006898304    1.105    0.095
       298  -9.8742      5.5809     21.2323   8.6999139811e+01   7.0610755145e+01    0.3608517    0.1496588  11.73  0.001761647    2.563    0.610
       299  -8.6981    199.3324    210.3355   7.4268587804e+01   5.8472675293e-01    0.1429993   0.09608929  -2.94 0.0007052177    1.735    0.424
       300  -9.8987    153.3008    207.6257   8.3636067504e+01   8.7564854466e+00    0.2942569    0.2286939  71.34  0.001051198    1.743    0.426
       301  -9.3281     61.2873    206.7063   1.0472889686e+02   2.3230728096e+01     0.162887    0.1508577 -47.11 0.0009495702    1.323    0.244
       302 -10.2787    237.5122    204.2531   6.5835261102e+01  -4.1960155395e+00    0.3134532    0.2606732  77.44  0.001775611    2.382    0.580
       303 -10.8188    198.7181     28.9175   3.3172325205e+01   3.2775922799e+01    0.3851406    0.3478744  41.79  0.001744528    1.372    0.271
       304 -10.6410    176.0706     30.6237   3.6542620954e+01   3.7851415978e+01     0.477525    0.1843399  51.30  0.001480493    2.598    0.615
       305 -11.1402      6.0393    198.9070   1.1614299576e+02   3.0891198560e+01    0.3727916    0.1597033 -67.21  0.001940959    2.036    0.509
       306 -11.3329    182.9496     25.7591   3.4342817068e+01   3.6805985993e+01     0.479837      0.36401  48.37  0.002257505    1.449    0.310
       307 -10.3154     86.6902     30.1493   5.5607783775e+01   5.8215931973e+01    0.3704768    0.2215289  17.72  0.001233779    2.073    0.518
       308  -9.3029     35.5905     31.5457   7.5981076547e+01   6.6160972685e+01    0.1962771    0.1035253  38.80 0.0008832495    2.273    0.560
       309 -10.0337    230.3816     27.7777   2.9607449801e+01   2.5947690400e+01     0.367771    0.1523263 -45.34  0.001795926    2.079    0.519
       310  -9.0967    196.3407    204.7198   7.3850946397e+01   2.0595105642e+00    0.1260894    0.1093731  65.73 0.0005286937    1.626    0.385
       311  -9.4454    250.3005     27.3593   2.7803926067e+01   2.1946696484e+01    0.1024356   0.09286276  26.23 0.0007036534    1.715    0.417
       312 -10.0751    240.6891     26.4108   2.8411470980e+01   2.3984006853e+01    0.2378928    0.1533699 -58.65 0.0006708488    1.309    0.236
       313  -9.7807     97.6038     26.3672   5.0959389900e+01   5.6461904880e+01     0.230634    0.2180759  89.35  0.001220105    1.321    0.243
       314 -10.0513    214.0637     23.8575   3.0332666869e+01   2.9935724727e+01    0.2793038    0.2315658 -70.97  0.001836332    1.045    0.043
       315  -9.0902    216.5162     20.4969   2.9349907500e+01   2.9791404525e+01    0.1237841     0.103186 -78.72 -2.234906e-05    1.016    0.016
       316  -9.7592     85.9885     23.9721   5.3425016052e+01   5.9107533128e+01    0.1900042    0.1562387  28.33 -0.003769674    1.048    0.045
       317 -10.2185     17.1284    203.4209   1.1412834056e+02   2.8888856152e+01    0.2828032   0.09366819 -61.35    0.0012525    2.793    0.642
       318 -10.2606    245.8279    200.8768   6.3734170837e+01  -4.8393789582e+00    0.1991902    0.1473137  -8.75 0.0006939798    1.202    0.168
       319  -8.9708      1.3085    200.3406   1.1720666264e+02   3.0967307358e+01    0.1121593   0.07729735 -55.70 0.0007043683    1.688    0.408
       320 -10.2987    233.9345    196.9640   6.5113877093e+01  -2.5020781213e+00    0.3242325    0.2295316 -30.19  0.001121514    1.260    0.206
       321  -9.4807     82.4856    196.2605   9.8505451102e+01   2.2742913679e+01     0.345144    0.2031587  21.11  0.001541731    2.235    0.553
       322 -10.4977    246.7054    193.1600   6.2130781565e+01  -3.7472066675e+00    0.3037148   0.09861587 -36.85   0.00121652    2.736    0.634
       323 -12.0878      4.5149    184.2591   1.1548499293e+02   3.4339245080e+01    0.6449438    0.3947628  80.96  0.003720172    1.406    0.289
       324  -9.4307    223.6929     22.1349   2.9030212486e+01   2.8047859623e+01    0.2134873    0.1409498  89.12 0.0008281383    1.393    0.282
       325  -9.8431    169.7606    191.2929   7.7009430491e+01   9.1757511081e+00    0.4008969    0.1694931  28.97  0.001393661    2.981    0.665
       326  -9.5657     74.3465     19.6062   5.5387330386e+01   6.1844027598e+01    0.2266895    0.1523479  41.84 0.0006461625    1.335    0.251
       327  -9.8691    239.7785    184.5526   6.1682845226e+01  -1.3286266935e+00     0.225667    0.1794593 -16.19 0.0006159958    1.085    0.078
       328  -9.2041    194.5290     19.4501   3.1385226885e+01   3.4837569266e+01    0.2163028    0.1090339  71.49 0.0006756507    1.800    0.444
       329  -9.8432    214.3447    185.0359   6.6477421967e+01   2.6284926247e+00    0.2152929    0.1094004 -58.83 0.0007044317    4.342    0.770
       330  -8.3254    173.2985    184.3112   7.4875175462e+01   9.9559568657e+00    0.1482161    0.1106525  -5.90 0.0004883184    1.601    0.375
       331  -9.9233    250.3923    178.2351   5.8634197816e+01  -1.8720587195e+00    0.4060411    0.1016182 -34.33  0.001273206    4.310    0.768
       332  -9.1117     79.8060     19.3829   5.3517695903e+01   6.0837370380e+01    0.1852472   0.09935288  39.68 0.0007156957    1.635    0.388
       333  -9.3573    211.4510     17.5721   2.9191082332e+01   3.1237383758e+01    0.2504001    0.1147857 -33.43  0.001232992    2.263    0.558
       334 -10.4025     51.9891    173.7067   1.0311753898e+02   3.2216870264e+01    0.5377688    0.2525355 -88.61  0.002020251    3.026    0.669
       335  -9.5418     28.0383    175.7171   1.0931631277e+02   3.4298083360e+01    0.1749161     0.156402  79.57 0.0006053445    1.100    0.091
       336  -9.4160    230.1247    175.5077   6.1616317253e+01   1.7276180726e+00    0.1826572    0.1307429  33.95 0.0004927221    1.494    0.331
       337  -9.8004    247.3635    173.9864   5.8308177228e+01  -7.1822312521e-01     0.372208    0.1724801  21.62  0.001360589    4.083    0.755
       338  -9.8097     39.2292    173.4292   1.0631242063e+02   3.3720021919e+01    0.3210012    0.1892628  57.56  0.001579855    1.761    0.432
       339 -10.9726     35.2497    169.5353   1.0687500167e+02   3.5086291225e+01    0.4000935    0.2757713 -79.90  0.002243504    1.282    0.220
       340  -8.9016    170.6236    171.8165   7.2957126951e+01   1.3041785741e+01    0.1997486    0.1403853 -52.93 0.0007402087    1.535    0.349
       341 -11.8138      9.7653    166.5586   1.1289194165e+02   3.8083762526e+01    0.5590529    0.3656884 -68.93    0.0027081    1.301    0.231
       342 -10.0628      6.2881     12.6190   8.3058691033e+01   7.1923619052e+01    0.3163362    0.1219595  21.68  0.001530187    2.558    0.609
       343 -10.8301     13.7385    158.3497   1.1115480348e+02   3.9751153392e+01    0.4366152    0.1953716 -69.84   0.00212916    1.801    0.445
       344  -9.3027    198.1622    167.8680   6.6201417862e+01   8.6867629371e+00    0.2086586    0.1990443 -45.64 0.0007483086    1.167    0.143
       345  -9.3062    187.5014    167.9880   6.8453246503e+01   1.0644815666e+01     0.227887    0.1398878 -41.78  0.001013941    1.577    0.366
       346  -8.8399    156.5066    166.4555   7.5106284100e+01   1.6894517473e+01    0.1506211    0.1456443  -0.45 0.0003811817    1.007    0.007
       347  -8.8997    152.4245    166.5280   7.6093016056e+01   1.7663167895e+01    0.1499259    0.1457132 -12.13  0.000122003    1.010    0.010
       348 -10.5523     19.0822    164.8692   1.1044769755e+02   3.7734000725e+01    0.3306181    0.2460455 -23.59  0.001945921    1.855    0.461
       349 -10.2179     39.3923    162.0107   1.0491647003e+02   3.6514842101e+01    0.4563453    0.2322883  66.10  0.001942936    2.529    0.605
       350 -10.0845    186.9168     15.2764   3.1232050056e+01   3.7045469901e+01    0.2840351    0.2007746  79.65  0.001150519    1.250    0.200
       351 -10.6380     28.3913    162.0936   1.0779479521e+02   3.7581433422e+01    0.4009783    0.1931873 -65.19   0.00193464    1.746    0.427
       352  -9.9773    204.9608    162.9597   6.3795367042e+01   8.3909004020e+00    0.2533263    0.2066514  23.80 0.0005549919    1.277    0.217
       353  -9.7403    208.3963    160.2375   6.2540995011e+01   8.2836256523e+00    0.3012115    0.1300575 -44.76  0.001175748    2.233    0.552
       354  -9.2989     78.9061    160.0005   9.3950941998e+01   3.2072021099e+01    0.2375998    0.1683097  74.07  0.001120837    1.683    0.406
       355  -9.9539    247.1602    158.6286   5.5272839633e+01   1.9043016909e+00    0.3027015    0.1290993 -49.08  0.001218885    2.701    0.630
       356  -9.2552    224.3394    157.4714   5.8957662373e+01   5.9369603510e+00    0.3664351    0.1668866 -46.35  0.001514401    2.180    0.541
       357 -10.4063      9.6052    155.3667   1.1191859637e+02   4.0786405900e+01    0.2569561    0.1669477 -87.56  0.001247797    1.331    0.248
       358 -10.4047    104.9277    154.2687   8.5766079141e+01   2.9345379479e+01    0.3932026    0.3198418 -27.08  0.001947245    1.414    0.293
       359  -9.2243     33.3373    154.6868   1.0561907598e+02   3.8942970580e+01    0.2122618    0.1882503 -28.00  0.001318073    1.359    0.264
       360 -10.7571     31.0364    151.9543   1.0590165713e+02   3.9841015398e+01    0.2913892    0.2475158 -50.29  0.001386562    1.237    0.192
       361 -12.1899     22.7700    149.1167   1.0780137517e+02   4.1279012409e+01    0.6441782    0.3231457 -37.79  0.001489836    2.611    0.617
       362 -10.8360     15.9313    147.8390   1.0949967698e+02   4.2144266259e+01    0.3432481    0.2716751 -80.31 0.0008213958    1.053    0.050
       363 -11.7387     12.8354    138.6443   1.0931952539e+02   4.4625291017e+01    0.7050385    0.4393361 -86.75  0.003892092    1.488    0.328
       364 -10.4698      3.3743    152.9638   1.1327843094e+02   4.1801692579e+01    0.3831641    0.2088337  80.73  0.002016571    1.815    0.449
       365 -10.3404      3.4808    147.4758   1.1275025985e+02   4.3114197076e+01    0.2069853    0.1824418 -56.99 0.0006325662    1.230    0.187
       366 -12.2653      2.5336    142.1843   1.1249595991e+02   4.4449412115e+01    0.6399751    0.3876017  67.77 0.0007333124    1.751    0.429
       367 -10.0619     73.3258    148.1839   9.3454378311e+01   3.5842504966e+01    0.7199668    0.1976581 -47.55  0.002121886    3.929    0.746
       368 -10.5022     63.4001    150.3815   9.6657856012e+01   3.6631793036e+01    0.4417076    0.2733943   8.97  0.001769258    2.390    0.582
       369  -9.5647    234.1224    150.3366   5.5738734266e+01   5.5211328051e+00    0.2164605    0.1692262  10.18  0.001197187    1.479    0.324
