#   1 NUMBER                 Running object number                                     
#   2 MAG_AUTO               Kron-like elliptical aperture magnitude                    [mag]
#   3 X_IMAGE                Object position along x                                    [pixel]
#   4 Y_IMAGE                Object position along y                                    [pixel]
#   5 X_WORLD                Barycenter position along world x axis                     [deg]
#   6 Y_WORLD                Barycenter position along world y axis                     [deg]
#   7 A_WORLD                Profile RMS along major axis (world units)                 [deg]
#   8 B_WORLD                Profile RMS along minor axis (world units)                 [deg]
#   9 THETA_WORLD            Position angle (CCW/world-x)                               [deg]
#  10 FWHM_WORLD             FWHM assuming a gaussian core                              [deg]
#  11 ELONGATION             A_IMAGE/B_IMAGE                                           
#  12 ELLIPTICITY            1 - B_IMAGE/A_IMAGE                                       
         1 -13.3849    185.0756     32.6577   6.3636697138e+01   3.4760772967e+01     1.084426    0.9995628  25.88  0.003454766    1.100    0.091
         2 -13.7720    191.4750     23.4812   5.9861693960e+01   3.4142401272e+01     1.109451    0.8699182   3.70  0.001313677    1.435    0.303
         3 -11.7171    208.5655      5.1471   5.2515695062e+01   3.1592037535e+01    0.6776146    0.2354836 -12.96  0.002274197    3.944    0.746
         4 -10.1513     59.3645      2.6778   8.3417897674e+01   6.8219101445e+01    0.1856397    0.1621479 -51.53  0.001126403    1.705    0.414
         5 -10.0248    217.7658    200.2944   9.8923294621e+01   3.1234391974e+00    0.2243706    0.1314093  36.72  0.001272702    1.474    0.321
         6 -10.6147    215.7229    248.7198   1.0670624589e+02  -1.9194005294e+00    0.2819464    0.1868775 -20.00  0.002037191    1.731    0.422
         7 -12.1327    207.8359    247.1308   1.0782733602e+02  -6.7366996056e-01    0.5812408    0.2882154  20.18  0.002419971    2.008    0.502
         8 -19.4627     19.3473    141.9402   1.3505972271e+02   4.2859626345e+01      17.4564     1.823456 -76.16   0.04166799    9.595    0.896
         9  -9.1370     53.3063    181.5663   1.3050534709e+02   3.1309757345e+01    0.1468411    0.1087503  24.01 0.0009422685    1.623    0.384
        10 -10.9405    197.6826    174.8559   9.8104196199e+01   9.9234826568e+00    0.4147925    0.2997823 -39.21  0.001901984    1.629    0.386
        11 -12.5513    131.7828    190.4431   1.1443368438e+02   1.8766325304e+01    0.5296738    0.3992867  42.26  0.001308659    1.137    0.120
        12 -15.5536     83.5068    248.7347   1.2990915564e+02   1.6140939826e+01     1.969546    0.2897699  39.00  0.007828384    4.029    0.752
        13 -11.7993    135.4536    171.4666   1.1068961700e+02   2.1567809286e+01    0.5023417    0.2261993  30.66  0.002033137    2.470    0.595
        14  -9.3757    203.1231    167.2784   9.5569393097e+01   1.0061908521e+01    0.2320407     0.185215 -65.35  0.001228005    2.171    0.539
        15 -11.0003    209.1994    182.3831   9.7303559174e+01   6.8502055827e+00     0.544937    0.3176308   7.57  0.002618453    2.147    0.534
        16 -10.5924    222.2275    195.7529   9.7328143241e+01   2.9719297873e+00    0.4561421    0.1850837  28.61  0.002012308    2.459    0.593
        17 -17.5833    119.9673    231.1294   1.2178258906e+02   1.3966940940e+01     6.860611     2.532951  41.54   0.03467404    2.041    0.510
        18 -12.1131     98.1082    156.7369   1.1712967417e+02   3.0567944795e+01    0.6395431    0.4282134 -28.59  0.003141188    2.193    0.544
        19 -10.0865    120.0426    156.2053   1.1169173324e+02   2.7150260697e+01    0.2389409    0.1822299 -75.87  0.001058231    1.607    0.378
        20 -10.8886    114.2174    152.1197   1.1240164470e+02   2.8962612996e+01    0.3726566    0.1751592 -65.51   0.00141824    3.092    0.677
        21 -12.3193    133.8017    144.9753   1.0625635891e+02   2.6977813763e+01     1.034538    0.3068015 -53.35  0.003105463    4.442    0.775
        22  -9.6049     99.4546    180.7448   1.2019527736e+02   2.5531125480e+01    0.2254073    0.1544778  40.85 0.0006280003    1.295    0.228
        23 -11.3010    144.0105    144.7621   1.0375263946e+02   2.5109029495e+01     0.371503    0.2963673  72.00  0.001595624    1.628    0.386
        24 -11.9427    108.6766    141.2179   1.1184129720e+02   3.2177425952e+01    0.5470006     0.328648 -35.44  0.002467168    2.123    0.529
        25 -11.4646     97.1236    141.7114   1.1492562280e+02   3.3931045615e+01    0.2597996    0.2462469  13.17 0.0004208249    1.159    0.137
        26 -10.0079     80.2397    139.9549   1.1907604912e+02   3.6801646848e+01    0.2837587    0.1373841  55.49  0.001178345    2.536    0.606
        27 -13.0975    117.3503    129.0236   1.0716234756e+02   3.3288613678e+01    0.8761955    0.5868353 -31.53  0.004090612    1.798    0.444
        28 -11.4988    135.1419    121.8605   1.0092380087e+02   3.1425269819e+01    0.5838341    0.2021678 -52.34  0.001787226    3.738    0.732
        29 -11.1521    104.6096    129.0189   1.1056988958e+02   3.5503207330e+01    0.5541078    0.3838904  83.13  0.002529556    2.116    0.527
        30 -10.7174    110.9462    119.8361   1.0690340457e+02   3.6424319078e+01    0.2692015    0.2420431 -50.72 0.0004239919    1.124    0.110
        31 -10.7707     67.9007    116.1014   1.1853648089e+02   4.3893448852e+01    0.3006953     0.174771 -56.29  0.001091709    1.596    0.373
        32  -9.9504    167.9317    112.6814   9.0686323235e+01   2.6313289158e+01     0.367495    0.2763787 -75.05  0.001402537    2.122    0.529
        33 -11.6649    119.7150    110.7145   1.0235665101e+02   3.6781945683e+01    0.4499336    0.2691585  58.61  0.001829882    2.219    0.549
        34 -12.0400     60.2610    108.4847   1.1947727097e+02   4.6615638901e+01    0.4063251    0.3247574 -58.51  0.002254817    1.152    0.132
        35 -10.3726    134.5624    104.2156   9.6683147894e+01   3.5168848678e+01    0.4723938    0.1485428 -44.83  0.001460895    3.254    0.693
        36 -11.0284     66.3402    104.5249   1.1683307609e+02   4.6796111019e+01    0.3101878    0.2429128  19.86  0.001637871    1.466    0.318
        37  -9.3858    205.3671    110.1715   8.2245860851e+01   1.8490966169e+01     0.253475    0.1894032  32.20 0.0006718352    1.311    0.237
        38 -11.4325    173.1575     72.0805   7.8125802642e+01   3.2212768511e+01       0.5895    0.3938469 -83.86   0.00134287    2.746    0.636
        39  -9.2167    106.9937     62.0095   9.1916123721e+01   4.9431914759e+01    0.1804936    0.1685595   1.48 0.0003288756    1.018    0.018
        40 -11.1858    163.6737     55.3909   7.4857348540e+01   3.7222425312e+01    0.8086132    0.1673081 -27.71  0.001780621    6.331    0.842
        41 -12.9010    173.6546     43.1601   6.8912359874e+01   3.6404393634e+01    0.8851032    0.7213609 -36.85 0.0008389799    1.255    0.203
        42 -10.9887     82.1919    179.6033   1.2392879260e+02   2.8168144148e+01    0.2735323    0.2374169 -17.73 0.0007511273    1.568    0.362
        43 -11.9111     85.9890    173.9944   1.2239944613e+02   2.8771861567e+01    0.4152511    0.3480794  -8.33   0.00256944    1.645    0.392
        44  -9.4291    216.5318     18.4791   5.5435466668e+01   2.8325312119e+01     0.132815    0.1295682 -62.68 4.494287e-05    1.026    0.026
        45 -12.0895    194.7365    194.4546   1.0221381405e+02   7.6346849182e+00    0.6880535      0.62227 -82.66  0.004176689    1.821    0.451
