#   1 NUMBER                 Running object number                                     
#   2 MAG_AUTO               Kron-like elliptical aperture magnitude                    [mag]
#   3 X_IMAGE                Object position along x                                    [pixel]
#   4 Y_IMAGE                Object position along y                                    [pixel]
#   5 X_WORLD                Barycenter position along world x axis                     [deg]
#   6 Y_WORLD                Barycenter position along world y axis                     [deg]
#   7 A_WORLD                Profile RMS along major axis (world units)                 [deg]
#   8 B_WORLD                Profile RMS along minor axis (world units)                 [deg]
#   9 THETA_WORLD            Position angle (CCW/world-x)                               [deg]
#  10 FWHM_WORLD             FWHM assuming a gaussian core                              [deg]
#  11 ELONGATION             A_IMAGE/B_IMAGE                                           
#  12 ELLIPTICITY            1 - B_IMAGE/A_IMAGE                                       
         1 -13.9749    224.6241      3.8368   3.8374699257e+01   2.8283158926e+01     2.216232    0.9865935  56.46  0.007302992    2.368    0.578
         2 -14.0664    182.1044     47.6053   5.5375178009e+01   3.3576016146e+01     1.993033     1.299521  24.72 0.0008481443    2.196    0.545
         3 -14.0290    193.1521     38.4043   5.0980205568e+01   3.2019255164e+01     1.344643     1.121998 -37.75  0.003352528    1.211    0.174
         4 -14.6260    201.4517     28.9361   4.7212886323e+01   3.1128356292e+01     1.698874     1.292874  37.70  0.001341962    1.574    0.365
         5 -10.3170    189.9168     14.8015   4.4695520361e+01   3.5694656570e+01    0.2305018     0.200476 -37.46 0.0006854703    1.218    0.179
         6 -13.0707     40.5856      6.5658   7.8122282419e+01   6.9545548856e+01     0.556101    0.3630944 -16.93  0.003490373    1.318    0.241
         7 -12.1919     59.5059      2.8377   6.8306110376e+01   6.7062228951e+01    0.4177917    0.1776175  40.08  0.002042087    2.141    0.533
         8 -10.6539     36.6826    224.0268   1.2468573679e+02   2.3937714271e+01    0.1556413    0.1242595  64.62 0.0003888987    1.174    0.148
         9 -19.1502     15.1748    163.9996   1.2454772892e+02   3.8656808848e+01     18.01078     5.874908 -81.69   0.07713848    2.841    0.648
        10 -12.1882    113.5466    208.0313   1.0817129319e+02   1.6343979311e+01    0.4468795    0.2907136  80.61  0.001680481    1.939    0.484
        11 -10.3496     43.0158    210.3360   1.2254429795e+02   2.5880449456e+01    0.4407969    0.2226049  86.72  0.001883346    1.938    0.484
        12  -9.7858     93.9756    249.9904   1.1650422280e+02   1.1815664694e+01    0.1729389     0.132673  53.92 0.0004317399    1.070    0.065
        13 -10.5185     28.8570    209.7687   1.2516272010e+02   2.7589067228e+01    0.1589246    0.1130697  67.65 0.0004092575    1.092    0.084
        14 -11.0926    185.0170    205.9879   9.3281681680e+01   4.2141096259e+00    0.3531015    0.2174744   5.86  0.001552385    2.659    0.624
        15 -10.6933     72.3004    202.4173   1.1602664817e+02   2.3745546495e+01    0.4018008    0.2274736  74.58  0.002077301    1.912    0.477
        16 -10.9123    152.7527    198.3254   9.8541484015e+01   1.1376686645e+01     0.437045    0.2580926 -57.57  0.002101279    2.057    0.514
        17 -10.7624     97.7791    200.5372   1.1049757091e+02   2.0364381358e+01    0.3336366    0.2268465  18.62 0.0008360954    2.312    0.567
        18  -9.9045     38.3366    199.0223   1.2256274890e+02   2.8733664070e+01    0.1754252     0.121935  65.51 0.0002108267    1.180    0.153
        19  -9.4552    159.6163    196.7249   9.6841911224e+01   1.0415298819e+01    0.1725166    0.1321362 -61.57 0.0003829984    1.572    0.364
        20  -9.1475    152.5477    211.5246   1.0067472084e+02   9.0424864434e+00    0.1324219    0.1145637  45.66 0.0001845604    1.027    0.026
        21 -10.0433     82.0410    195.1377   1.1317374354e+02   2.3875183495e+01    0.2147977    0.1981038  65.63 0.0008549704    1.183    0.155
        22 -12.6537     26.2782    195.5598   1.2466724762e+02   3.0762963172e+01    0.2135042    0.1606738  69.19 0.0005215232    1.095    0.087
        23 -13.6804     62.6664    188.7453   1.1659100000e+02   2.7944091250e+01    0.7821614     0.673463 -53.00  0.003844953    1.472    0.321
        24 -10.4253     95.7095    189.7171   1.0952892499e+02   2.2943641290e+01    0.3473351    0.2460968  37.25  0.001247142    1.470    0.320
        25 -10.3083     61.4091    219.3381   1.1978347274e+02   2.1819672829e+01    0.4444087    0.1896639  76.90  0.001850684    3.478    0.712
        26 -10.5720     42.9814    188.6225   1.2073656959e+02   3.0405192273e+01    0.2679359    0.1685063  46.48  0.001435423    1.510    0.338
        27 -10.0437    153.9865    185.2100   9.6031213267e+01   1.3627141174e+01    0.2456833    0.1872461 -72.26  0.001132612    1.659    0.397
        28 -13.9078     53.8126    202.2933   1.1976433068e+02   2.6210320719e+01     1.202909    0.5914028  68.79  0.002040306    2.114    0.527
        29 -11.3846    147.0447    183.4458   9.7223742620e+01   1.5281202794e+01    0.3523079    0.2503572  53.14  0.001106235    1.380    0.275
        30 -10.6963     99.4588    180.6185   1.0741056444e+02   2.4303117273e+01    0.2357806    0.2298234  47.48 0.0006150097    1.213    0.176
        31 -10.4146    204.4312    176.5035   8.3930223719e+01   5.5283421437e+00    0.3885914    0.2600494 -48.46  0.001932946    1.758    0.431
        32 -11.6405    141.4869    174.7635   9.6894313384e+01   1.8089568102e+01    0.4208758    0.2646045  60.40  0.001223191    1.854    0.461
        33 -12.2619     75.1839    174.5930   1.1211814504e+02   2.9357110253e+01    0.3778829     0.278829 -37.69  0.002048261    1.896    0.472
        34 -12.3372     79.0970    169.7894   1.1055364884e+02   2.9879330136e+01    0.3419494    0.2898445 -50.92 0.0008195534    1.366    0.268
        35 -10.5342     55.4606    174.4707   1.1659614389e+02   3.2026870662e+01    0.3414601    0.2050379  59.67  0.001853198    1.593    0.372
        36 -10.9669     45.8544    172.7179   1.1856169812e+02   3.3579913260e+01    0.3618799    0.2906498  51.62  0.001480743    1.278    0.217
        37 -15.7005     71.4629    148.7840   1.0929211111e+02   3.5877447335e+01     6.697837     3.185349  78.84    0.0187751    5.871    0.830
        38  -9.7045    160.8197    165.2357   9.0730557267e+01   1.6242053582e+01    0.2377117    0.1603336  85.65 0.0008730215    2.704    0.630
        39 -10.5272    236.5343    158.5031   7.4193811636e+01   2.4493142955e+00    0.2456261    0.1178352  33.83  0.001034776    2.333    0.571
        40 -10.8058    230.0096    165.9974   7.6945879935e+01   2.4583262088e+00    0.2017938    0.1740215 -70.03 0.0007942121    1.697    0.411
        41 -12.3442     93.1530    153.7231   1.0462111795e+02   3.1423603059e+01    0.6755098    0.4934248 -25.23  0.003251274    2.052    0.513
        42 -10.4322    187.9912    153.7528   8.2432980801e+01   1.2899292146e+01    0.2028989    0.1233993  44.03 0.0008937091    1.617    0.382
        43 -11.4634    133.8669    145.1035   9.2792073146e+01   2.5975716168e+01     1.228474    0.3178894 -54.85  0.002959932    5.649    0.823
        44 -10.9313    174.2817    148.5282   8.4187758208e+01   1.6809603345e+01    0.3684791    0.3251653 -56.66  0.001326989    1.227    0.185
        45 -10.7335    143.9681    145.9416   9.0536215961e+01   2.3736828119e+01    0.3977841    0.2107961 -60.56  0.001483449    2.442    0.590
        46  -9.2624    109.1121    147.1582   9.9384851020e+01   3.0224364587e+01     0.197279    0.1626944  78.90            0    1.284    0.221
        47  -9.9853     87.7134    145.4970   1.0455620742e+02   3.4234674189e+01    0.4275483    0.2398675 -76.84  0.001764421    2.222    0.550
        48 -11.2307    105.6432    139.0597   9.8653291303e+01   3.2736452693e+01    0.5500463    0.3504554 -30.09   0.00230347    2.284    0.562
        49 -12.3827     93.2657    139.3153   1.0195261411e+02   3.4805447504e+01    0.2818319    0.2502474 -48.64  0.000493261    1.185    0.156
        50 -10.8866    105.8633    130.6658   9.6820969690e+01   3.4670112712e+01    0.3843761    0.3091801 -65.71  0.001265969    1.229    0.187
        51 -10.9560    113.7140    129.8981   9.4563954904e+01   3.3393120499e+01    0.5293072    0.3368973  36.21  0.000847331    1.697    0.411
        52 -11.5914    119.2488    123.8273   9.1693823661e+01   3.3726273345e+01    0.7488771    0.3922145 -32.11  0.002624834    2.839    0.648
        53  -8.9129     99.9875    131.0550   9.8482134530e+01   3.5624174228e+01    0.1702934    0.1613328 -83.98 0.0003395669    1.018    0.018
        54 -11.1751    135.6328    127.7135   8.8395898385e+01   2.9501892214e+01    0.6762488    0.2049736 -50.45  0.001966324    3.526    0.716
        55 -10.5360    160.8626    127.9845   8.2370275985e+01   2.3962417255e+01    0.3795922    0.2328341 -43.58  0.001602679    1.627    0.385
        56 -11.0933    101.0567    125.9621   9.7086473689e+01   3.6641205426e+01     0.306839    0.2510758 -24.40 0.0008462562    1.490    0.329
        57  -9.8988     49.0097    217.1949   1.2194438661e+02   2.3801881145e+01    0.3490116    0.1960001  32.02  0.001867538    2.162    0.537
        58 -10.1651    109.2058    119.0132   9.3250171714e+01   3.6780628884e+01     0.229326    0.2140854  49.94 0.0002870234    1.109    0.099
        59 -10.5022    134.7956    112.5014   8.4790004018e+01   3.3058363536e+01      0.44369    0.1231126 -45.20  0.001250558    3.543    0.718
        60  -9.9188    167.5975    112.3998   7.6858082254e+01   2.5653071136e+01    0.3401566     0.243894 -73.66  0.001180415    1.960    0.490
        61 -11.7806    118.3868    110.2109   8.8537393887e+01   3.7007964189e+01    0.6075782    0.4274791  61.16  0.002724624    1.677    0.404
        62 -10.3084    205.4688    110.1357   6.8499273897e+01   1.7257439242e+01    0.3233883    0.2182569  40.74 0.0008650816    1.589    0.371
        63 -10.0179    134.5087    105.5493   8.3006596970e+01   3.4639691830e+01    0.3303475    0.1527392 -44.56  0.001158894    2.122    0.529
        64 -10.2535     66.5119    104.4479   1.0231520482e+02   4.7206137092e+01     0.295912    0.2073611   5.07  0.001441016    2.048    0.512
        65 -10.6619    169.7872    214.4082   9.7677054480e+01   5.5330003476e+00    0.1939136    0.1098149  33.08 0.0006591573    1.668    0.401
        66 -11.0221    131.0128    214.0042   1.0539929819e+02   1.2311580858e+01    0.1990636    0.1736199  56.73 0.0004791723    1.040    0.038
        67 -12.4592    107.4462    203.0755   1.0879016925e+02   1.8311489453e+01    0.5559038    0.5265786  43.86   0.00244591    1.222    0.182
        68 -11.6361     67.0790    204.6796   1.1732148551e+02   2.3994235700e+01    0.5838018    0.2391692 -50.51  0.002182798    3.451    0.710
        69  -9.5461    156.2487     80.9938   7.0594137753e+01   3.4567699861e+01    0.2226689    0.2046039 -37.14 0.0004833237    1.081    0.075
        70  -9.7161    184.4938     77.0346   6.3536910180e+01   2.8260890941e+01    0.2334829    0.1510232 -34.11 0.0006406165    1.536    0.349
        71  -9.7382     64.8469     70.1080   9.3829906204e+01   5.5214283920e+01    0.1913858    0.1787132 -57.66 0.0003185507    1.174    0.148
        72  -9.4676     43.5121    236.5231   1.2430391926e+02   2.0817556840e+01    0.1110112      0.08192  68.46 0.0004783415    1.029    0.028
        73 -11.8565     61.2119    234.4008   1.2104288619e+02   1.9009776612e+01    0.2100945     0.150871  76.23 0.0003765971    1.162    0.139
        74  -9.9513     36.0601    234.0479   1.2542894668e+02   2.2137388437e+01    0.1804097     0.125664  89.65 0.0003866215    1.265    0.209
        75 -11.2887     36.1922    229.8115   1.2514384596e+02   2.2904549026e+01    0.2704458    0.1169395  57.62   0.00108731    1.850    0.460
        76 -11.4100    155.3746     57.8604   6.3609883880e+01   3.8848072778e+01    0.4343126    0.3107285 -81.75  0.001003925    1.914    0.477
        77 -10.7660    158.2535     52.2342   6.1208982124e+01   3.9009136556e+01    0.2685115    0.2429003 -76.38 0.0003553534    1.180    0.153
        78 -13.2890    112.8476    197.3129   1.0686040071e+02   1.8581388890e+01    0.6097999     0.504525  41.54  0.003653717    1.202    0.168
        79  -9.3331     72.0437    230.8409   1.1878380409e+02   1.8227733456e+01    0.1525388    0.1183916  67.10 0.0004241436    1.021    0.020
        80 -10.2171     73.8817     12.5889   6.7958764040e+01   6.3430955087e+01    0.2828593    0.1266698  58.58  0.001141822    3.283    0.695
        81 -11.8472    105.8088    212.1470   1.1028090840e+02   1.6795440111e+01    0.5820156    0.3964112  16.01  0.002918566    2.470    0.595
