#   1 NUMBER                 Running object number                                     
#   2 MAG_AUTO               Kron-like elliptical aperture magnitude                    [mag]
#   3 X_IMAGE                Object position along x                                    [pixel]
#   4 Y_IMAGE                Object position along y                                    [pixel]
#   5 X_WORLD                Barycenter position along world x axis                     [deg]
#   6 Y_WORLD                Barycenter position along world y axis                     [deg]
#   7 A_WORLD                Profile RMS along major axis (world units)                 [deg]
#   8 B_WORLD                Profile RMS along minor axis (world units)                 [deg]
#   9 THETA_WORLD            Position angle (CCW/world-x)                               [deg]
#  10 FWHM_WORLD             FWHM assuming a gaussian core                              [deg]
#  11 ELONGATION             A_IMAGE/B_IMAGE                                           
#  12 ELLIPTICITY            1 - B_IMAGE/A_IMAGE                                       
         1 -14.4308    223.6437     61.6288   3.5879576389e+02   2.3884982155e+01     1.918966     1.226161  36.18   0.01050517    2.608    0.617
         2 -14.5294    244.0344     70.2195   3.5874872907e+02   1.9257778828e+01     1.741137    0.8785694 -31.59  0.009786258    1.760    0.432
         3 -13.7565    243.4574     46.3236   3.5395273811e+02   2.2394311214e+01     1.003393    0.7074865 -44.29  0.007064033    1.088    0.081
         4 -12.9732      2.8496     45.2482   6.1149972600e+01   7.0244464529e+01    0.5243688    0.2120727 -50.04  0.002315433    2.064    0.516
         5 -14.2499    189.1502     22.0814   3.5258211312e+02   3.5714337912e+01    0.7082118    0.3929423 -31.56  0.003840588    1.744    0.427
         6 -13.4545    176.0123     16.1064   3.5211459917e+02   3.9258758689e+01    0.3968576    0.2755152 -52.35  0.002390225    1.226    0.185
         7 -13.1033    167.6102     15.8123   3.5276759819e+02   4.1198990873e+01    0.3403311      0.24597  79.29  0.001171402    1.321    0.243
         8 -14.1425    199.8554     43.8915   3.5700549905e+02   3.0815506721e+01    0.7289978    0.4730591  72.78   0.00426231    1.654    0.395
         9 -13.6010    143.3227      3.9095   3.5149710964e+02   4.8118351108e+01    0.6633182    0.3375896  59.73  0.003294628    1.949    0.487
        10 -14.2015    153.1697      3.6790   3.5053525443e+02   4.5779550772e+01    0.6610649    0.4272405  67.93  0.003329092    1.505    0.336
        11 -14.1499    194.7233     34.7626   3.5526306750e+02   3.3032597803e+01    0.8349571     0.560272 -19.24  0.004666374    1.882    0.469
        12  99.0000    175.2221     45.5958   1.1520872578e-01   3.5842530251e+01     2.072198    0.4219283 -45.94  0.006383818    4.291    0.767
        13 -12.8918    162.6819      1.8237   3.4923692994e+02   4.3719172120e+01    0.2977949    0.1950656  81.96  0.001291028    1.393    0.282
        14 -12.8402      2.3465      4.2786   4.3727613032e+01   7.8944591359e+01    0.4737494    0.3156882 -14.08  0.002824712    1.488    0.328
        15 -11.3574     57.5816      6.2176   8.7439848760e+00   6.8902300718e+01    0.1761225    0.1246378  -2.35 0.0009558183    1.689    0.408
        16 -10.3641    223.0012      5.2383   3.4656851137e+02   3.0660910006e+01     0.139356   0.08317991  88.53  0.000892384    1.653    0.395
        17 -12.9215    204.2570     32.6610   3.5393252289e+02   3.1325043680e+01    0.9540928    0.3874016 -33.01  0.004558051    2.184    0.542
        18 -12.4792    248.0243    187.9925   2.0236747290e+01   2.3277216767e+00    0.3230132    0.2271441 -28.77  0.002308734    1.171    0.146
        19 -10.9238    212.4010    182.7057   2.4727274344e+01   7.1496915385e+00    0.2010094    0.1288991   5.45  0.001179218    1.738    0.425
        20 -11.8542    236.0620    180.8759   2.0747905293e+01   4.5983379018e+00    0.4008805    0.2011372 -24.41  0.002267625    1.844    0.458
        21 -12.4805    239.0399    171.4908   1.8705394081e+01   5.5737552597e+00    0.7700986    0.3994059  18.33  0.004159928    2.699    0.630
        22 -11.6402    135.1137    177.4917   3.9141034402e+01   1.9020693943e+01    0.2218954    0.2026113 -86.60  0.001268872    1.363    0.266
        23 -11.1585    112.3381    180.6899   4.5249545474e+01   2.1796095571e+01    0.1440662    0.1061011  61.38 0.0005986242    1.686    0.407
        24 -10.9129    205.4144    176.2547   2.4755543430e+01   9.0446450039e+00    0.1689761    0.1036551 -44.25 0.0009531436    1.637    0.389
        25 -12.0480    193.4069    172.6021   2.6186324565e+01   1.1267448123e+01    0.5128414     0.334675  17.61  0.002883005    1.698    0.411
        26 -13.1211    215.9989    161.0208   2.0252667431e+01   1.0027920287e+01    0.4512706    0.2164765 -40.10  0.002350977    1.783    0.439
        27 -12.4849    218.4279    156.6389   1.9059575334e+01   1.0380902044e+01    0.4257883     0.290094 -56.55  0.002442643    2.018    0.504
        28 -11.5882    125.0000    172.4937   4.0701323935e+01   2.1636502931e+01    0.3101379   0.07990091 -52.62 0.0009418369    3.992    0.750
        29 -12.2655    217.6008    170.7705   2.1780209488e+01   8.3107488375e+00    0.5581637    0.4640135 -63.08  0.003663451    1.847    0.459
        30 -11.4049    222.8193    165.9076   2.0093982031e+01   8.3782449298e+00    0.3295423    0.1647765 -42.18    0.0017837    1.803    0.445
        31 -12.4034    170.2395    161.9592   2.8582854888e+01   1.6581484653e+01    0.6544619     0.476236  10.75  0.003556836    1.550    0.355
        32 -11.9802     15.3820    161.0177   7.0971030269e+01   3.8669304641e+01    0.4030832    0.1817918  67.29  0.001636014    2.364    0.577
        33 -11.3282    226.0809    154.9379   1.7595510114e+01   9.6115425121e+00    0.3517457    0.1443881 -36.51  0.001734606    1.993    0.498
        34 -11.9987    184.4823    150.5158   2.3582037808e+01   1.6415959475e+01     0.372525    0.2541814   1.88  0.001902949    1.932    0.482
        35 -11.8106    187.6642    154.6758   2.3825245548e+01   1.5182138053e+01    0.2447475    0.1661965 -29.33  0.001060167    1.362    0.266
        36 -12.5730    176.5181    150.5870   2.5097420812e+01   1.7682566650e+01    0.4531659    0.2919667  38.79  0.002374459    1.675    0.403
        37 -12.7344    161.9858    149.8614   2.7869624339e+01   2.0228059613e+01    0.5240224    0.3541817 -65.40  0.002469702    2.100    0.524
        38 -10.4528     35.0743    151.9945   6.3830877193e+01   3.9250798228e+01    0.1707597     0.157841  64.75 0.0004203198    1.021    0.020
        39 -12.1695    198.7101    150.2942   2.1022279209e+01   1.4246431756e+01    0.5024754     0.316977  44.54  0.002774217    1.870    0.465
        40 -11.4046    226.7154    147.2623   1.6065612618e+01   1.0691352965e+01    0.3763731    0.1491623 -37.87  0.001817514    2.042    0.510
        41 -11.9451    222.4900    146.2284   1.6480810886e+01   1.1434850044e+01    0.1995272    0.1730897  24.92  0.001019595    1.344    0.256
        42 -10.3797    235.7401    145.9653   1.4565367225e+01   9.6721244908e+00    0.1581804   0.08142518 -35.77 0.0008826894    1.530    0.346
        43 -11.9689    217.2090    142.1104   1.6466460403e+01   1.2833078324e+01    0.3413397    0.2490881  51.91   0.00211418    1.807    0.446
        44 -14.1092    174.2813    136.5704   2.2613554617e+01   2.0657583689e+01     1.111288    0.5649668 -32.86  0.004847357    2.060    0.514
        45 -14.4876    167.7852    124.7648   2.1277846238e+01   2.4049672158e+01     1.812991     1.038616 -43.19  0.008519993    1.600    0.375
        46 -11.2968    204.6439    141.2971   1.8253965942e+01   1.4846300101e+01    0.2641083     0.201747 -64.53  0.001465556    1.781    0.438
        47 -12.6406    236.5980    103.1986   6.1566469184e+00   1.5846473426e+01     0.580274    0.3545327 -52.53  0.003461173    1.601    0.375
        48 -14.1945    246.0391    117.2123   7.8290610463e+00   1.2445968980e+01     1.100734    0.7745569 -30.09   0.00746206    1.175    0.149
        49 -11.2035    203.3413    121.9116   1.4460174908e+01   1.8278532477e+01    0.1996024    0.1846651 -81.97  0.001308593    1.310    0.237
        50 -12.3373    135.7625    115.6680   2.6088008885e+01   3.2086901734e+01    0.3956929    0.2721119 -67.59  0.001762484    1.838    0.456
        51 -13.1740    140.4992    117.0146   2.5295808160e+01   3.0857209607e+01    0.3519122    0.2826376 -50.45   0.00181208    1.206    0.171
        52 -13.5118     83.6763    111.1112   3.9897672764e+01   4.3275333368e+01    0.5443616    0.4832381 -75.28  0.002791739    1.161    0.138
        53 -14.0737    189.1318    128.5949   1.8199897888e+01   1.9539479879e+01     1.352825    0.9842616 -32.15   0.00763241    1.251    0.201
        54 -12.1407    219.4974    108.5094   9.3345876432e+00   1.7758996883e+01    0.6876039    0.2452568 -35.31  0.002932849    2.437    0.590
        55 -12.1784    223.3088    106.8551   8.4989620679e+00   1.7394394839e+01    0.4573052    0.3720153 -86.58  0.002987125    1.608    0.378
        56 -12.1598    199.4274    107.2454   1.1871741534e+01   2.1387596103e+01     1.045843    0.2208882 -46.52  0.002872233    5.451    0.817
        57 -11.3631    147.5029    111.9454   2.2467242012e+01   3.0494043286e+01    0.2259815    0.2038336  49.34  0.001243358    1.173    0.148
        58 -11.6493    211.7977    110.5150   1.0797657202e+01   1.8718051344e+01    0.3683197    0.2505651  24.75  0.002012067    2.116    0.528
        59 -13.8047    179.7738    121.1434   1.8210804867e+01   2.2522266710e+01     1.346204    0.9078289   4.62  0.006171813    2.433    0.589
        60 -10.1217    220.3012    137.3324   1.5076048436e+01   1.3133235706e+01    0.1237874   0.08521068 -12.61 0.0007034099    1.652    0.395
        61 -12.9428    165.8235    140.3152   2.5084311257e+01   2.1419650056e+01    0.5321453    0.3414303 -19.51  0.002455328    2.010    0.502
        62 -11.7060    210.8645    136.5043   1.6316274707e+01   1.4678212904e+01    0.3001039    0.1578652 -40.43  0.001556459    1.602    0.376
        63 -12.9808    142.8771    103.6993   2.1418377528e+01   3.3104222695e+01    0.4083566    0.2677799 -33.18  0.001865207    1.637    0.389
        64 -11.5909     19.9671    102.0336   6.3056224883e+01   5.4345512466e+01    0.2462956    0.1551848 -39.20   0.00109881    1.694    0.410
        65 -12.0844     13.2651    101.3215   6.5890710572e+01   5.5054598984e+01    0.3206331    0.2094871  68.35  0.001533052    1.661    0.398
        66 -12.0295    162.0061    100.9460   1.6740521495e+01   2.9678211357e+01    0.2246581    0.2087633 -54.26  0.001130297    1.024    0.024
        67 -14.0388    150.9129     91.6655   1.6548201520e+01   3.3741559045e+01    0.8005892    0.3415453 -43.26  0.003105697    2.183    0.542
        68 -11.2801    239.1540     88.4858   2.9099913958e+00   1.7547527507e+01     0.412507    0.3178164 -77.58  0.002700222    1.569    0.363
        69 -11.5804    203.4945     87.0136   6.7408179554e+00   2.3899133115e+01    0.7508552    0.1520343 -36.07  0.002272037    4.485    0.777
        70 -12.2489    200.5938     82.8031   6.1538603998e+00   2.5098747773e+01    0.2888328    0.2757197  -3.78  0.001923218    1.264    0.209
        71 -10.8113    183.5329    245.0692   3.9438816089e+01   1.3694633449e+00     0.172987    0.1207001  12.95 0.0006977291    1.159    0.137
        72 -11.1049    123.3142    242.6461   5.1068608244e+01   8.4226926459e+00    0.1184104   0.08377788  50.90 0.0007045519    1.736    0.424
        73 -10.7308    209.5043    238.4953   3.3989082446e+01  -3.8469773860e-01    0.1089865   0.08070013  -4.02 0.0008105783    1.020    0.020
        74 -11.1686    227.1196     73.3959   9.9586110576e-01   2.1654946144e+01    0.2572873    0.1407148 -43.28  0.001453936    1.426    0.299
        75 -13.0164    195.5984     64.3171   2.4036272296e+00   2.8864317117e+01    0.8485495    0.4765628 -43.04  0.004429061    1.494    0.331
        76 -10.9294     55.9947     54.4955   3.3317915412e+01   6.1566935572e+01    0.2018066    0.1220021  61.27 0.0008088966    2.415    0.586
        77 -13.8054    159.3141    234.1172   4.2571762055e+01   5.6074916985e+00     0.463174    0.3585715  58.90  0.002871281    2.171    0.539
        78 -12.2520     82.6028     31.2623   1.3099414749e+01   6.0027016800e+01    0.2467819    0.1915765 -19.50  0.001110676    1.487    0.328
        79 -13.7180    217.1818     48.7343   3.5653450023e+02   2.6783165267e+01     1.054331    0.7764292 -71.84  0.006877771    1.305    0.234
        80 -12.9066    194.9964    218.2081   3.3526312458e+01   3.9127659084e+00    0.6032939    0.2071906 -45.89  0.002701394    3.290    0.696
        81 -12.7211    201.3502    222.4345   3.3044640549e+01   2.6078590302e+00    0.2961624    0.1816528 -29.27  0.001670681    1.446    0.308
        82 -11.9823     59.4279     77.8830   3.9941062070e+01   5.5708609231e+01    0.3141057    0.2107339  13.15  0.001350659    1.969    0.492
        83 -10.5887    104.6641    225.3163   5.3210676115e+01   1.3717973853e+01    0.1307037   0.08715276  51.93 0.0007047884    1.696    0.410
        84 -11.6708     77.0141     47.6061   2.1932673269e+01   5.8664552824e+01    0.2555447     0.135859  50.41  0.001081277    1.821    0.451
        85 -10.5925     61.6748    234.3400   6.4115905987e+01   1.6989630371e+01    0.1346976   0.07560469  52.46 0.0007051276    1.728    0.421
        86 -12.2999    179.8342    221.6779   3.6831983026e+01   5.1328498182e+00    0.2362338   0.09553334  22.56  0.001090256    2.586    0.613
        87 -12.1206    136.6428    216.5148   4.4881236326e+01   1.1297226419e+01    0.4053256    0.2700441 -49.31  0.002325141    1.673    0.402
        88 -12.2315    232.5054    203.2148   2.4965991330e+01   1.9237333806e+00    0.5159966    0.2658207 -28.25  0.003183733    1.592    0.372
        89 -13.5785    237.6747    213.9895   2.5875380785e+01  -5.2792300437e-03    0.7254729     0.522061  25.63  0.005495896    1.604    0.376
        90 -13.3689    244.8387    206.7271   2.3694657842e+01   2.2021022660e-01    0.8013602    0.4344549 -28.16  0.005367775    1.430    0.301
        91 -11.4020    150.6279    205.0886   4.0182492780e+01   1.1507812032e+01     0.289088    0.2038375 -58.26  0.001620053    1.832    0.454
        92 -11.9370     82.4461    202.7156   5.5972378621e+01   2.1106473411e+01    0.2349531    0.1375594 -72.45  0.001125247    2.054    0.513
        93 -11.6016     94.3973    195.2066   5.1969889599e+01   2.1173227402e+01    0.1835254    0.1344432 -79.37 0.0009535174    1.680    0.405
