#   1 NUMBER                 Running object number                                     
#   2 MAG_AUTO               Kron-like elliptical aperture magnitude                    [mag]
#   3 X_IMAGE                Object position along x                                    [pixel]
#   4 Y_IMAGE                Object position along y                                    [pixel]
#   5 X_WORLD                Barycenter position along world x axis                     [deg]
#   6 Y_WORLD                Barycenter position along world y axis                     [deg]
#   7 A_WORLD                Profile RMS along major axis (world units)                 [deg]
#   8 B_WORLD                Profile RMS along minor axis (world units)                 [deg]
#   9 THETA_WORLD            Position angle (CCW/world-x)                               [deg]
#  10 FWHM_WORLD             FWHM assuming a gaussian core                              [deg]
#  11 ELONGATION             A_IMAGE/B_IMAGE                                           
#  12 ELLIPTICITY            1 - B_IMAGE/A_IMAGE                                       
         1 -14.7969    240.3195     69.2375   1.6791104932e+01   1.6762716092e+01     1.459957    0.8060238 -26.67   0.00727677    1.702    0.412
         2 -14.9145    233.3055     57.7704   1.4860831429e+01   1.9718053189e+01     1.352569     1.054908  24.17  0.007769284    1.629    0.386
         3 -15.2754     40.0483     46.7306   6.0955097815e+01   6.4062715347e+01     1.304755    0.6819164 -39.91  0.004973617    1.775    0.437
         4 -13.7952     48.3368     24.6493   4.7484037266e+01   6.7181036634e+01    0.8987399    0.5774615   6.53  0.004481657    1.884    0.469
         5 -13.7380    106.4285      4.2243   1.7143773675e+01   5.7421127576e+01     1.350233    0.4121847  56.18  0.004999654    2.562    0.610
         6 -13.3935     91.0959      2.6925   2.0095220037e+01   6.1309234991e+01     1.422038    0.3604866  62.22   0.00460522    3.647    0.726
         7 -14.7045     72.7509     14.6885   3.1842890307e+01   6.4152162633e+01     1.668906    0.5977306  48.60  0.006037082    2.534    0.605
         8 -14.6742     85.4642     11.5183   2.5979695859e+01   6.1738635548e+01     1.275792     0.851118  45.15  0.004918003    1.346    0.257
         9 -12.9218    124.0129     10.2190   1.6064330677e+01   5.2390660464e+01    0.5371953    0.3140132  75.60  0.001670767    1.795    0.443
        10 -12.8792    118.2919     10.0026   1.7096760268e+01   5.3882452323e+01    0.5850517    0.2455488  42.57  0.001402739    2.438    0.590
        11 -10.8681    138.0911      5.4945   1.1874026470e+01   4.9158898153e+01    0.2164239    0.1270837  68.97 0.0006951969    1.545    0.353
        12 -12.3250     73.7104      2.5403   2.5137886203e+01   6.5314553599e+01    0.4935123     0.394127 -41.86  0.001800627    1.521    0.343
        13 -13.4305    248.5439    105.1109   2.3963391675e+01   1.0280304510e+01    0.7228848    0.4738227   3.61  0.003749215    1.988    0.497
        14 -12.7467    249.0661     97.1694   2.2128223586e+01   1.1283911176e+01     0.526619    0.2772331 -35.11  0.002677949    1.603    0.376
        15 -11.9025    205.6565    123.5917   3.4879269657e+01   1.5636566979e+01    0.2858984    0.1682459 -36.04  0.001330586    1.608    0.378
        16 -12.6558    221.2139    119.6382   3.1291671156e+01   1.3225471188e+01    0.2914073    0.2446862 -38.19  0.001701639    1.213    0.176
        17 -13.7099    195.1580    112.2327   3.4088999061e+01   1.9678760744e+01    0.6880944    0.3643125 -34.22  0.002972272    1.812    0.448
        18 -11.9356    217.7461    112.4593   3.0193476355e+01   1.5010811591e+01      0.33702    0.2907638  85.34  0.001914591    1.558    0.358
        19 -12.5754    119.1048    103.3884   4.9449339578e+01   3.8008004643e+01    0.2980383    0.2577463  77.45  0.001481044    1.362    0.266
        20 -12.6151    134.4075     99.1862   4.4130114755e+01   3.5598095193e+01    0.7147958    0.3571381 -35.70  0.002680431    2.173    0.540
        21 -11.7319    200.8967     96.6755   2.9172587034e+01   2.1023229558e+01    0.4631113    0.1502527 -40.57    0.0015739    2.922    0.658
        22 -11.8915    204.8269     97.3134   2.8663714118e+01   2.0070361697e+01     0.212519    0.1749545 -36.97  0.001152113    1.155    0.134
        23 -11.8792    114.3185     97.0090   4.9079470720e+01   4.0392221767e+01    0.2272858    0.2064105 -42.71  0.001087593    1.105    0.095
        24 -10.6388     15.3086     97.6749   8.3292520376e+01   5.4190947928e+01    0.1321052   0.08737947  67.02 0.0007037419    1.652    0.395
        25 -11.9016    217.4985     93.5052   2.5684664312e+01   1.7979333160e+01    0.2854452    0.2553776 -44.96  0.001682334    1.134    0.118
        26 -13.0739    238.8170     89.4400   2.1693970575e+01   1.4283576606e+01    0.6030527    0.4477361  42.27  0.003486611    1.519    0.342
        27 -13.3966     31.7941     88.1245   7.5584034958e+01   5.5260904559e+01    0.6315914     0.284476  21.82  0.002776072    2.514    0.602
        28 -12.0579    249.9790     85.9859   1.9505174395e+01   1.2642288216e+01    0.2730114    0.1563392 -31.62  0.001009939    1.479    0.324
        29 -12.3527    223.7546     86.2173   2.2983352820e+01   1.7766099107e+01    0.5004966    0.2206051  62.01   0.00203292    2.832    0.647
        30 -12.9054      5.7513     83.8652   8.5030405267e+01   5.8132833365e+01    0.3082486    0.2631612 -84.81  0.002039766    1.105    0.095
        31 -13.3794    224.9052     50.3978   1.3995526128e+01   2.2476105255e+01    0.8104934    0.6239602  32.27  0.004567513    1.616    0.381
        32 -13.6975    249.0525     71.1992   1.6260265660e+01   1.4789678595e+01     1.139903    0.4560366 -22.07  0.004421478    3.086    0.676
        33 -13.1985    237.1926     79.0594   1.9475745148e+01   1.6051921132e+01    0.4438417    0.3570105 -28.67  0.001682787    1.110    0.099
        34 -11.0571    246.4846    183.0295   4.0245187194e+01   9.3695829452e-02     0.173316   0.08644271  -9.86 0.0008096551    2.491    0.599
        35 -12.6575    247.4404    144.6153   3.2586442202e+01   4.9926688582e+00    0.3213783    0.2907497  51.35  0.002153117    1.523    0.343
        36 -13.8630     19.5132     77.5964   7.8516882966e+01   5.8830946515e+01    0.5698935    0.3005283  20.76  0.002855347    2.143    0.533
        37 -10.8932    175.8788     79.0960   2.9013532127e+01   2.9646035521e+01    0.3411308    0.2230844 -71.16  0.001378265    2.354    0.575
        38 -10.8349    213.4012     83.7848   2.3895255705e+01   2.0319504739e+01    0.1989363    0.1281818 -21.62 0.0007406056    1.617    0.382
        39 -11.5416    210.7884     74.3113   2.1873934011e+01   2.2302517126e+01      0.33689    0.2237479  -3.55  0.001542866    2.059    0.514
        40 -11.1551    189.4269     69.3304   2.3863276823e+01   2.7972480813e+01    0.2654911    0.2161422  -1.71  0.001056199    1.421    0.297
        41 -12.2449     60.7824     69.0815   5.9207107863e+01   5.6373948376e+01    0.2948778    0.1872641 -36.09  0.001387122    1.605    0.377
        42 -11.6853    194.3092     68.6294   2.2878242519e+01   2.6923308172e+01    0.3304907    0.2299918 -63.79  0.001561547    1.730    0.422
        43 -11.7693      8.8845     63.3671   8.0466079587e+01   6.2908040901e+01    0.4024516    0.2140802 -56.71  0.002137219    1.500    0.333
        44 -10.1924    163.6966     71.6632   2.9258617095e+01   3.3836360014e+01    0.1568747    0.1182285  15.74 0.0007038357    1.667    0.400
        45 -10.8770     43.5193     62.4876   6.4498051611e+01   6.0172163136e+01    0.1379523    0.1228303 -37.82 6.013321e-05    1.004    0.004
        46 -12.2864     53.1346     60.8483   5.9783672331e+01   5.9308024133e+01    0.2127953    0.1991427  88.07  0.001252818    1.282    0.220
        47 -14.0499    225.7923     66.9845   1.7996945135e+01   2.0073795395e+01     1.033875    0.5929276 -47.19  0.005046668    1.691    0.409
        48 -10.2092    169.3358     60.3249   2.4768991622e+01   3.4259686068e+01    0.1568245    0.1141973  23.49 0.0006329595    1.717    0.417
        49 -10.9610    192.5034     58.4983   2.0365410731e+01   2.8843337006e+01      0.14212     0.136389 -50.14 -9.188553e-05    1.004    0.004
        50 -12.1988     47.7092    141.5831   7.8628396240e+01   4.0431082047e+01    0.3192308    0.1407702  24.03  0.001334327    2.621    0.618
        51 -12.5381    250.0362     51.9143   1.1767719846e+01   1.7057581126e+01    0.3626705    0.1658027 -30.72  0.001749864    1.889    0.471
        52 -11.8760     40.3159     81.2382   7.0774043383e+01   5.6106794688e+01    0.2276916    0.2079389  26.40  0.001379134    1.204    0.169
        53 -12.4966      2.6096     46.0312   7.9984575234e+01   6.7242448747e+01    0.3031913    0.2525122  82.37  0.001376035    1.404    0.288
        54 -13.8874     66.5162     41.9283   4.7024096851e+01   6.1076258109e+01    0.5445392    0.3770258 -29.79  0.002771603    1.420    0.296
        55 -13.4498     28.3982     80.8436   7.5502735028e+01   5.7344964391e+01    0.4274074    0.2328128  41.04  0.002073606    2.074    0.518
        56 -11.2922    184.0754     54.3466   2.0492255999e+01   3.1488225275e+01    0.3041193    0.2100506 -39.55  0.001484867    1.397    0.284
        57 -14.4462     53.2553     34.5132   4.9700533651e+01   6.4663329818e+01     0.874557    0.5966534  61.51  0.004101885    2.500    0.600
        58 -11.6396      3.2914    140.0772   9.1064820502e+01   4.4711083851e+01     0.229705    0.1764686  78.34  0.001515209    1.098    0.090
        59 -12.4602     44.1079     23.1110   4.8864611731e+01   6.8089464404e+01    0.4248838    0.2491143  -7.85  0.001492818    2.387    0.581
        60 -12.4154     78.1818     31.4638   3.7865274727e+01   6.0640527216e+01    0.2970149    0.2187858   6.59   0.00150492    1.518    0.341
        61 -11.8664    135.6296     22.6729   1.8593364367e+01   4.8061236877e+01    0.3567114    0.2772298  20.60  0.001318908    1.460    0.315
        62 -13.1834    234.1301    133.7551   3.2355085431e+01   8.7474052896e+00     0.490296    0.3165673  31.59  0.002655131    1.640    0.390
        63 -12.8541    237.5042    130.4995   3.1124547951e+01   8.6307355783e+00      0.33586    0.2484982  49.15  0.001774408    1.605    0.377
        64 -13.9669    238.2232    125.7962   2.9991756912e+01   9.1825576989e+00     1.269642    0.6668855   7.60  0.004386662    4.463    0.776
        65 -13.1487    222.7419    130.2552   3.3435807634e+01   1.1311918043e+01    0.4874663    0.3169454  61.38  0.002387975    2.222    0.550
        66 -11.2654    122.5907    126.7980   5.4310447842e+01   3.2164386017e+01    0.2132318    0.1468595 -60.10 0.0009514152    1.663    0.399
        67 -11.6640    242.9962    103.0138   2.4240083244e+01   1.1579417945e+01    0.2908365    0.2086237 -29.50  0.001313014    1.199    0.166
        68 -13.8429    248.6705    117.4093   2.6645197416e+01   8.5485708592e+00     1.165034    0.4314586 -27.41  0.004736073    2.623    0.619
