#   1 NUMBER                 Running object number                                     
#   2 MAG_AUTO               Kron-like elliptical aperture magnitude                    [mag]
#   3 X_IMAGE                Object position along x                                    [pixel]
#   4 Y_IMAGE                Object position along y                                    [pixel]
#   5 X_WORLD                Barycenter position along world x axis                     [deg]
#   6 Y_WORLD                Barycenter position along world y axis                     [deg]
#   7 A_WORLD                Profile RMS along major axis (world units)                 [deg]
#   8 B_WORLD                Profile RMS along minor axis (world units)                 [deg]
#   9 THETA_WORLD            Position angle (CCW/world-x)                               [deg]
#  10 FWHM_WORLD             FWHM assuming a gaussian core                              [deg]
#  11 ELONGATION             A_IMAGE/B_IMAGE                                           
#  12 ELLIPTICITY            1 - B_IMAGE/A_IMAGE                                       
         1 -12.7877    208.7130     49.4832   4.5313752004e-01   2.8895798188e+01    0.9991071    0.8601068 -51.46  0.005742835    1.262    0.208
         2 -12.9257    220.6367     39.8661   3.5756303871e+02   2.7976524342e+01    0.7318092     0.650882  82.84  0.002311708    1.394    0.283
         3 -11.2235    247.2969     19.8269   3.5226464375e+02   2.5832673287e+01    0.4553977    0.3461227 -70.35  0.003818887    1.172    0.147
         4 -11.3028    244.5038     14.9942   3.5156308232e+02   2.6810193457e+01    0.5456778    0.4023483  50.59  0.004105703    2.325    0.570
         5 -11.1100    119.2316      9.8299   6.9231324169e-01   5.3135194742e+01    0.5519468    0.3833748  53.65  0.003163828    1.537    0.350
         6  -9.6550      7.2212      8.7954   4.5045950007e+01   7.6694113175e+01    0.2796302   0.06535819  34.16  0.001040718    3.551    0.718
         7  -9.2341    171.8400      3.0212   3.5337113453e+02   4.1789254513e+01    0.2092825   0.08865694 -57.29  0.001080922    2.009    0.502
         8  -8.0832     79.5364    244.9125   6.1352970906e+01   1.2515939051e+01    0.1663633    0.1290763 -63.76  0.001018329    1.559    0.359
         9  -9.0170     75.4863    248.4272   6.2638345714e+01   1.2281283331e+01    0.3679163    0.1495322 -53.41  0.001690799    2.820    0.645
        10 -14.7853     33.9059    191.1691   6.8888864565e+01   2.9638832826e+01     8.602776     2.299656  51.02   0.01819254    4.256    0.765
        11 -14.6574     44.3792    181.9499   6.4870299472e+01   3.0853768621e+01     10.10576     4.425036  72.90   0.03326526    3.663    0.727
        12 -15.8413      6.4385    233.2690   7.8766686340e+01   2.2247909594e+01     7.308193     1.786444  16.81   0.02129891    4.567    0.781
        13  -9.4100     72.5228    203.4760   5.8976790153e+01   2.2207774562e+01    0.2647439    0.2134987  54.98 0.0005192272    1.247    0.198
        14  -8.7469     90.9082    200.7093   5.3645506499e+01   2.0457019189e+01    0.3567888     0.146173 -44.11  0.001338923    2.937    0.660
        15  -8.3852     83.5750    199.3194   5.5449554502e+01   2.1747655386e+01    0.2312239    0.1441493 -73.78 0.0008832923    1.940    0.484
        16  -9.1778    192.6958    194.0028   2.9817657018e+01   8.1315905369e+00    0.4876001    0.2922979 -71.94  0.001705427    6.396    0.844
        17  -8.9965     79.7856    191.3412   5.5489159604e+01   2.4116842202e+01    0.3328891    0.2681063 -35.39  0.001348429    1.399    0.285
        18  -9.6555     67.2231    191.4808   5.9092940867e+01   2.5725265827e+01    0.2477174    0.2238535  63.64  0.000334983    1.124    0.110
        19  -7.7031    125.3268    186.3191   4.2706253964e+01   1.8764827117e+01    0.1441887    0.1037326 -13.60 0.0003387819    1.681    0.405
        20  -9.4212    180.9788    179.4840   2.9577785585e+01   1.2127640104e+01    0.3978756    0.1728602 -50.82  0.001799666    2.410    0.585
        21  -8.9328    122.9674    173.9930   4.1269488987e+01   2.1788084037e+01     0.217379    0.2065478  14.46 0.0007523596    1.007    0.007
        22  -9.2227    103.8059    172.4503   4.6031746034e+01   2.5112046377e+01    0.2931621    0.2307318  66.00  0.001443169    1.483    0.326
        23 -10.9496     61.2717    167.5653   5.7892259962e+01   3.2495454965e+01     0.439404    0.3958826   4.91  0.001554133    1.193    0.162
        24 -11.0365     66.3285    163.2061   5.5681378128e+01   3.2937361577e+01    0.6411433    0.3676578  15.44 0.0008393252    2.035    0.509
        25 -10.5306    230.6168    167.2396   1.9498440888e+01   7.8501453511e+00    0.3753291    0.1589792 -45.35  0.002014416    2.030    0.507
        26  -9.6119    110.8106    167.3235   4.3281198325e+01   2.5202943118e+01    0.4528683    0.2228678 -48.96  0.001867473    2.086    0.521
        27 -11.5296     51.8454    106.5443   5.1003157016e+01   4.9803818780e+01      3.97123     1.708027 -70.94   0.00878882    3.003    0.667
        28 -11.8554     75.7563    155.5771   5.1522846997e+01   3.3538029651e+01     1.323207    0.7215704  66.63 0.0004864771    2.832    0.647
        29 -12.3964     63.3816    150.4550   5.4727810561e+01   3.6660986025e+01    0.9283109    0.5277708  32.89 0.0009924166    1.634    0.388
        30 -13.3068     69.3031    145.1708   5.1891225410e+01   3.7180104807e+01     2.613054     1.469054  72.22  0.009405936    2.798    0.643
        31 -10.2287    236.0148    163.4870   1.8155325751e+01   7.7858495984e+00    0.2554569    0.1109256 -30.50  0.001288668    2.477    0.596
        32  -9.5649    245.4058    161.2374   1.6576684229e+01   7.0489589596e+00    0.1551282   0.08123941 -46.32 0.0009561735    1.649    0.394
        33  -8.7250    106.2566    155.5297   4.2440135253e+01   2.8693717295e+01    0.3284623    0.2223668  85.39  0.001388227    2.220    0.549
        34  -8.5827     53.9448    155.8315   5.8682660572e+01   3.6516598906e+01    0.3010938    0.1773484  67.57  0.001027665    2.103    0.525
        35  -9.6316     39.9727    154.5279   6.3276230426e+01   3.8551331071e+01    0.6157972    0.2226228  43.17  0.001860879    2.591    0.614
        36 -10.1051    133.7728    145.4469   3.3366363306e+01   2.6242766129e+01      1.23055    0.2950905 -55.95  0.002854249    6.843    0.854
        37 -11.2834     83.7992    148.8718   4.7858412210e+01   3.3992823825e+01    0.7141712    0.5168311 -28.79   0.00327353    1.719    0.418
        38  -8.3926    144.7259    147.7729   3.1271358866e+01   2.3843936088e+01    0.1836212    0.1612154  80.88 0.0004734242    1.318    0.242
        39  -9.2618     47.0302    145.9371   5.9682846862e+01   4.0024450607e+01    0.2321423    0.2262559  66.79  0.001202456    1.038    0.037
        40 -14.9662      8.6306    208.8812   7.7229087503e+01   2.7609822982e+01     2.369913     1.892438  86.28   0.01435036    1.273    0.214
        41  -9.0197     28.4783    142.2661   6.5925291367e+01   4.3082912699e+01    0.3960937    0.2095802 -59.87   0.00168858    1.859    0.462
        42  -9.7733     42.2713    139.4498   6.0478475285e+01   4.2345936160e+01    0.5664572    0.2647771  48.83  0.002142626    2.244    0.554
        43  -9.8701     99.0177    136.8986   4.0951487964e+01   3.4381003608e+01    0.5465418    0.3654655  -3.93  0.002151467    2.549    0.608
        44 -11.0631     85.9900    135.8074   4.4731722312e+01   3.6903677713e+01    0.2955925    0.2935545 -20.05 0.0003663976    1.070    0.065
        45 -13.9568      5.3795    248.1103   7.9513299063e+01   1.9207582093e+01    0.5918249    0.4108022  42.72  0.002027081    1.108    0.098
        46  -9.6403     43.3413    130.5146   5.8745082885e+01   4.4623550223e+01    0.6890565    0.1668829  36.78   0.00207121    3.351    0.702
        47  -7.9908     96.2699    133.3228   4.1046982372e+01   3.5729533028e+01     0.149643    0.1190902 -21.25 0.0001818457    1.569    0.363
        48 -11.0825    244.0621    125.1110   1.0805226750e+01   1.2473766148e+01    0.5546924    0.1594109 -50.76  0.002153485    4.159    0.760
        49 -14.2848     12.2045    244.1052   7.7752562710e+01   1.9458556079e+01     0.900737    0.5008802  88.31   0.00498003    1.973    0.493
        50  -8.9849    109.4284    128.2237   3.6139829994e+01   3.4534205357e+01    0.2778952    0.2499388  34.35 0.0007766652    1.134    0.118
        51  -9.0126    136.4901    126.9971   2.8920010147e+01   2.9692046666e+01    0.3247116    0.1380455 -49.28  0.001249197    2.321    0.569
        52  -8.9766    134.6516    123.3334   2.8559907228e+01   3.0814598796e+01     0.316111    0.1895862 -68.44  0.001174071    2.273    0.560
        53  -9.4817     73.5710    126.7148   4.7037742400e+01   4.1263934547e+01    0.2945454    0.2550206  58.00 0.0005876595    1.148    0.129
        54  -9.8376     96.2588    124.4498   3.9179314930e+01   3.7864055180e+01    0.3114795    0.2661565   4.20 0.0008523272    1.409    0.290
        55  -9.7251     42.5597    120.7646   5.7456103166e+01   4.7331324088e+01    0.2770246    0.1960768  29.39 0.0004775001    1.364    0.267
        56  -9.8296     12.6260    120.9083   6.9700159062e+01   5.0264622681e+01    0.2802701    0.2601432  26.66   0.00161399    1.089    0.081
        57  -8.5148     85.1901    118.6431   4.1414996656e+01   4.1279087522e+01    0.3021733     0.206851  86.14  0.001263864    2.033    0.508
        58  -8.7423    106.2464    118.1060   3.4805924838e+01   3.7465618983e+01    0.2082178    0.2012151  -7.96 0.0004457647    1.151    0.131
        59  -8.6363    229.0568    113.5868   1.0529415565e+01   1.6247622322e+01    0.2104826    0.1226561 -52.42 0.0006736395    1.510    0.338
        60 -10.1055     34.0920    111.6799   5.9378645957e+01   5.0754867018e+01    0.5414974    0.2297901  42.84  0.001669992    2.355    0.575
        61  -8.8163     61.7646    111.9173   4.8247973143e+01   4.6929998918e+01    0.3065466    0.1754601  55.35  0.001050273    2.043    0.511
        62 -10.4964    237.2174    108.4312   8.6909518168e+00   1.5843206982e+01    0.3569587    0.1497751 -53.59  0.001690105    2.397    0.583
        63  -9.0190     64.8073    105.7925   4.5733153186e+01   4.7978759674e+01    0.3545386    0.1840358  29.15  0.001055152    1.990    0.497
        64 -10.0902     37.1945    102.4322   5.6353794807e+01   5.2821824912e+01    0.5431792    0.2703713  71.61  0.001735095    3.787    0.736
        65  -7.7850    103.0013     98.9763   3.1147655035e+01   4.2396371644e+01    0.1708423    0.1562006  59.82 0.0009111396    1.040    0.038
        66  -8.1114     72.4701     98.9938   4.1236040483e+01   4.8314356967e+01    0.2065913    0.1339403 -89.77 0.0007711154    2.365    0.577
        67  -9.3219     34.3866     96.5213   5.6435525991e+01   5.4683651289e+01    0.3706807     0.217763  42.95  0.001643574    1.708    0.414
        68 -10.8030     94.5630    165.7493   4.7521863463e+01   2.8133345751e+01     1.707326    0.3886513  31.63 0.0007785719    4.164    0.760
        69  -9.9038      2.0067     90.6249   7.0999600531e+01   5.8974468838e+01    0.3203053    0.1991656 -74.84  0.001425678    1.570    0.363
        70  -9.0134    245.1923     89.3763   4.5518279315e+00   1.7419775962e+01    0.1308766   0.09510681 -89.96 0.0006896766    1.637    0.389
        71  -7.9418    144.4536     89.3668   1.8527574949e+01   3.5583424197e+01    0.1377693     0.125369  87.96 0.0001030635    1.033    0.032
        72 -11.0642      3.3227     81.7687   6.9154649989e+01   6.1172763755e+01    0.7119333    0.3330387 -82.31  0.003004204    2.341    0.573
        73  -8.2796    187.8732     66.8379   6.3233726355e+00   3.0416748055e+01     0.166807    0.1536421 -64.43 0.0002668729    1.199    0.166
        74 -11.9548    197.9247     56.3838   2.9353948543e+00   2.9982484400e+01    0.6735646     0.549392 -78.48  0.001760671    1.100    0.091
        75 -10.4168    150.4889    227.2817   4.3017377315e+01   7.5101914075e+00    0.3104919    0.2082514  -8.64 0.0009670699    1.572    0.364
        76  -9.3951     95.5806    248.3593   5.7865821852e+01   1.0062972295e+01    0.3203455    0.1733598 -23.56  0.001469035    2.751    0.636
        77  -7.6709     32.3274     50.6598   4.5345964430e+01   6.5714421421e+01    0.1396196    0.1025783  61.04 0.0007051533    1.734    0.423
        78  -7.8798     97.4781     33.4833   1.2869781900e+01   5.5538884458e+01    0.1384611    0.1188727  73.70 9.616141e-05    1.004    0.004
        79  -7.9933     81.7738     31.8034   1.6549274121e+01   5.9436364700e+01    0.1804368    0.1440108  83.25 0.0003696824    1.296    0.229
        80  -8.1782    212.5388     25.8993   3.5542033530e+02   3.1131511054e+01    0.1560869   0.09258944 -42.05 0.0009986928    1.511    0.338
        81  -8.3673     51.1912    246.6396   6.8391858394e+01   1.5226807171e+01    0.1990785    0.1185783 -74.60  0.001080384    2.018    0.505
        82  -9.4489     48.0560    243.0658   6.8918153380e+01   1.6277678254e+01    0.2467906    0.1559396  37.27 0.0003165576    1.268    0.211
        83  -8.1143    141.5880     42.2209   6.8245343019e+00   4.3929228881e+01    0.1560238     0.129122 -32.12 0.0003039686    1.494    0.330
        84  -7.9088     97.1429     16.8405   6.9985556298e+00   5.7699416358e+01    0.1647159    0.1337841  54.85 0.0009923667    1.238    0.192
        85  -8.7127     13.2276     17.0167   4.4266748959e+01   7.4601638430e+01    0.1503608    0.1006259 -46.69 0.0007476941    1.640    0.390
        86  -7.8447    190.2855     15.6882   3.5488997391e+02   3.6609497798e+01    0.1228205   0.06498474 -63.77 0.0003465207    1.576    0.366
        87  -8.9738    141.0408    249.5403   4.7855575646e+01   4.8083803548e+00    0.1862808   0.09909684  23.86 0.0005914556    1.579    0.367
        88  -9.5264     72.1118    242.6884   6.2960541140e+01   1.3779588577e+01    0.3974039    0.1975022 -51.85  0.001802503    2.348    0.574
