#   1 NUMBER                 Running object number                                     
#   2 MAG_AUTO               Kron-like elliptical aperture magnitude                    [mag]
#   3 X_IMAGE                Object position along x                                    [pixel]
#   4 Y_IMAGE                Object position along y                                    [pixel]
#   5 X_WORLD                Barycenter position along world x axis                     [deg]
#   6 Y_WORLD                Barycenter position along world y axis                     [deg]
#   7 A_WORLD                Profile RMS along major axis (world units)                 [deg]
#   8 B_WORLD                Profile RMS along minor axis (world units)                 [deg]
#   9 THETA_WORLD            Position angle (CCW/world-x)                               [deg]
#  10 FWHM_WORLD             FWHM assuming a gaussian core                              [deg]
#  11 ELONGATION             A_IMAGE/B_IMAGE                                           
#  12 ELLIPTICITY            1 - B_IMAGE/A_IMAGE                                       
         1 -12.2357    172.6337     41.5352   6.8959720096e+01   3.6942675326e+01     1.431545     1.006957   5.63  0.005351391    1.705    0.414
         2 -11.9926    189.8877     12.6087   5.6615975966e+01   3.5798757689e+01     1.066721    0.9997001  -7.98  0.005160791    1.083    0.077
         3 -10.9326    192.3419      6.8183   5.4416500512e+01   3.5703892647e+01    0.6486003    0.3769281 -81.30  0.002518246    2.207    0.547
         4  -9.0911    120.0795      9.0761   6.7517539448e+01   5.4269091064e+01    0.3282581    0.3243214 -16.78  0.001212049    1.144    0.126
         5  -8.5923    167.7721    229.6233   1.1047727257e+02   9.1663569051e+00     0.149042    0.1481749 -24.76 0.0006440863    1.357    0.263
         6  -9.7772    138.0829    248.9293   1.1715301487e+02   1.1272383018e+01    0.3151623    0.2753557 -83.80  0.002825537    1.483    0.326
         7  -9.3034    133.6374    249.6371   1.1789604290e+02   1.1810203801e+01    0.1829729    0.1658322  61.39  0.001057129    1.309    0.236
         8 -13.6715     75.4939    248.3325   1.2657090782e+02   1.9536005176e+01    0.2870807     0.221726  75.14  0.001444723    1.244    0.196
         9 -18.2808     49.3478    239.7679   1.2996292959e+02   2.3705853966e+01     3.223388      2.59064  69.50   0.01272295    1.273    0.215
        10  -9.0075    162.8039    178.6181   1.0441429695e+02   1.6747569587e+01    0.3067001    0.2274766  76.96  0.001782022    1.821    0.451
        11 -10.1714    120.5998    203.0094   1.1538596827e+02   1.9969796076e+01    0.3311045    0.2169596  74.38  0.001981256    1.758    0.431
        12  -9.3462    204.9789    177.3335   9.6626700295e+01   9.3391433593e+00    0.2667724    0.2365691  34.17  0.001521254    1.132    0.117
        13  -8.0443    135.7740    175.7573   1.0909289255e+02   2.1865921897e+01    0.1665711    0.1262131  65.44 0.0004077324    1.321    0.243
        14 -10.0760    104.3794    172.8112   1.1481939814e+02   2.7384964654e+01    0.5004699    0.3528639  84.77  0.003111883    1.540    0.351
        15  -8.2624    120.9970    198.3293   1.1478228615e+02   2.0627036566e+01    0.1711143    0.1250854  61.28 0.0005498003    1.203    0.169
        16  -8.0863      2.2286    173.8115   1.3437276991e+02   3.8882506552e+01    0.1122916   0.09321576  88.42 0.0003267127    1.313    0.238
        17  -7.4573    158.6657    203.2345   1.0871520589e+02   1.3937118344e+01    0.1136327   0.07554763  59.11 0.0001811813    1.536    0.349
        18  -8.0653      8.0876    173.1994   1.3329919868e+02   3.8516196578e+01    0.1340174    0.1112302 -88.71 0.0007764018    1.315    0.240
        19  -8.7013    173.9024    200.6661   1.0571796578e+02   1.1756450032e+01    0.2554112    0.1816822 -63.03  0.000969132    2.076    0.518
        20  -8.3300    119.4204    170.1694   1.1148987657e+02   2.5503624365e+01    0.1524733    0.1115599 -79.83 0.0003849891    1.561    0.359
        21  -8.1002    171.4032    195.2182   1.0537084480e+02   1.2900357982e+01    0.1819576    0.1228514 -50.41 0.0007366215    1.897    0.473
        22  -9.1111    193.4136    166.3452   9.6713103753e+01   1.2924101612e+01    0.2590488    0.2517239 -14.61 0.0006420069    1.213    0.176
        23  -8.6734    190.9896    162.5001   9.6448237660e+01   1.3920980937e+01     0.285362    0.2039493  63.12   0.00142058    1.734    0.423
        24  -7.5356    161.3205    200.6970   1.0791097019e+02   1.3846675448e+01    0.1148041   0.08155448  65.54 0.0002880243    1.630    0.386
        25  -9.7093     24.5600    166.5674   1.2986816392e+02   3.8281515805e+01    0.2188319    0.1789334  -0.16  0.001646389    2.210    0.547
        26  -8.3129    119.8602    164.1820   1.1054242529e+02   2.6484194687e+01    0.1887456    0.1460786  66.11 0.0004561886    1.232    0.188
        27  -7.3055    125.6250    163.3097   1.0924651529e+02   2.5684019455e+01    0.1330025    0.0881367  70.68 0.0007030747    1.780    0.438
        28  -9.0877    249.3315    161.4698   8.6352222233e+01   3.2316756076e+00     0.210443    0.1911047  10.82  0.000227334    1.243    0.196
        29  -9.4182    134.9852    158.7032   1.0662415352e+02   2.4888367354e+01    0.4522385    0.2627798  75.40  0.001900424    3.154    0.683
        30 -10.1273    183.9213    214.0047   1.0587172708e+02   8.4526510157e+00    0.4518005    0.2602285 -50.03   0.00273284    2.481    0.597
        31  -9.3243     48.9066    156.1120   1.2419278658e+02   3.7802980999e+01    0.2199137    0.1971851 -24.20  0.001380784    1.750    0.428
        32  -8.1910     44.6820    159.3008   1.2535014781e+02   3.7646787843e+01    0.1808774     0.119596  48.89 0.0008495033    1.414    0.293
        33  -9.4808     42.8221    155.8015   1.2541715297e+02   3.8519101539e+01    0.2626733    0.1576974 -89.56   0.00155836    1.478    0.324
        34 -11.1399     24.6956    157.2442   1.2919914085e+02   4.0025228589e+01    0.4820949    0.2674999  50.02  0.001490842    1.605    0.377
        35  -9.3301     26.8619    151.7372   1.2835139101e+02   4.0886557358e+01    0.3133952    0.1549232  72.87  0.001862467    1.909    0.476
        36  -9.1774    189.7393    156.1041   9.5474854030e+01   1.5080869454e+01     0.317658       0.2991 -73.59  0.001848846    1.332    0.249
        37  -8.8472    146.0762    157.5172   1.0418444731e+02   2.3115890116e+01    0.2205236    0.1759196  83.22 0.0008950464    1.499    0.333
        38  -9.0242    250.0907    156.7007   8.5295356237e+01   3.6189469265e+00    0.2110916    0.1569421  -3.50 0.0003640814    1.240    0.194
        39  -8.1319    120.6124    157.0052   1.0930381720e+02   2.7648241538e+01    0.1973873    0.1479402  49.47 0.0005302918    1.202    0.168
        40  -9.8175     56.6542    156.5387   1.2263054760e+02   3.6841805470e+01    0.3458222   0.07908943  40.19  0.001440465    3.621    0.724
        41  -8.5020    171.5205    155.1198   9.8735132942e+01   1.8747679570e+01    0.2219845    0.1628439  44.23 0.0004412614    1.210    0.173
        42  -9.6606    191.7794    193.0271   1.0149591909e+02   9.6922476393e+00    0.4530626    0.2724431 -66.19  0.001975088    4.370    0.771
        43 -10.2269    134.7744    148.4918   1.0494056927e+02   2.6737428520e+01    0.7175755    0.3920228 -65.77  0.003214149    2.603    0.616
        44  -8.5283    250.1393    151.7057   8.4285387831e+01   4.1647687672e+00    0.1927137    0.1559692 -19.40 0.0003241794    1.290    0.225
        45 -10.1475    218.1878    150.0044   8.9176880007e+01   1.0386080737e+01    0.2361293    0.1938415  39.01 0.0003415465    1.151    0.131
        46  -9.4768    135.1702    195.4186   1.1187214675e+02   1.8864360428e+01    0.3725725     0.229987 -75.52  0.002102562    2.389    0.581
        47  -9.2532    144.7532    148.0981   1.0279278350e+02   2.4985791760e+01    0.3756128    0.2366502 -81.50   0.00156602    2.930    0.659
        48 -10.0319      7.7505    145.2818   1.3180729988e+02   4.3759118499e+01    0.2836338    0.1218155  69.23  0.001651513    2.135    0.532
        49 -10.4612     30.9053    142.9881   1.2678040791e+02   4.2231105373e+01    0.3895054    0.2744686  -5.82  0.002381936    2.883    0.653
        50 -10.0893    104.0491    137.7875   1.0978703389e+02   3.4008409744e+01    0.4032978    0.2565725  72.24  0.001747395    1.941    0.485
        51  -9.5142    174.9623    213.2623   1.0726240720e+02   9.9897087337e+00    0.2200778    0.1508374  58.04  0.001207764    1.545    0.353
        52  -9.4561    156.4402    192.1807   1.0759746583e+02   1.5855035394e+01    0.5122625    0.2890707 -73.36  0.002210883    4.182    0.761
        53  -9.8793      4.8170    139.5887   1.3205459281e+02   4.5089312021e+01    0.2088755    0.1127072 -68.86  0.001412308    1.648    0.393
        54  -9.5636     14.1917    152.3268   1.3095654737e+02   4.1884543507e+01    0.2315711    0.1585288  31.58  0.001720941    1.823    0.452
        55  -8.3270     26.6495    193.1059   1.3109224753e+02   3.3355730259e+01    0.1912074   0.09496726  69.14 0.0003826632    1.640    0.390
        56  -8.7158    121.1375    133.6876   1.0522143828e+02   3.1932447180e+01    0.2212189     0.155467  62.77 0.0006982299    1.502    0.334
        57  -8.9198    237.1386    131.9519   8.2177344440e+01   8.9755419288e+00    0.2081725    0.1704246  28.41  0.001237551    1.106    0.096
        58  -8.0448    165.5133    132.1538   9.5364306849e+01   2.3705004379e+01    0.1938261    0.1382109 -41.40 0.0005176321    1.505    0.336
        59 -11.3037     27.4511    127.9134   1.2615337763e+02   4.5604234137e+01    0.5377029    0.2802715  40.97  0.003043059    1.959    0.490
        60 -10.0782    188.4967    210.0014   1.0456150311e+02   8.1795874744e+00    0.3753353    0.1300955  39.63  0.001750223    2.379    0.580
        61  -7.4855    169.8160    127.6533   9.3513812366e+01   2.3582693701e+01    0.1915608     0.125104  55.58 0.0003052441    1.580    0.367
        62  -8.7565    107.4846    125.0478   1.0673720021e+02   3.5986743661e+01    0.2215344     0.198243  -0.30 0.0007717173    1.455    0.313
        63  -8.4884    125.8539    187.0818   1.1252087329e+02   2.1646393009e+01    0.1780717    0.1366131  67.93 0.0005151981    1.264    0.209
        64  -8.6029    119.4964    129.2408   1.0475304062e+02   3.3085851974e+01    0.2584947    0.1793235  45.32  0.001388361    1.395    0.283
        65  -9.9078      4.9671    120.7095   1.3071498587e+02   4.8852390870e+01    0.3264434     0.150167  21.13  0.001901828    3.066    0.674
        66  -8.5157    114.2523    187.5445   1.1474511169e+02   2.3374127177e+01    0.2164959   0.09262238  47.12 0.0006200132    1.943    0.485
        67  -7.8120    195.5850    184.5211   9.9474774096e+01   1.0104885166e+01    0.1216309    0.1021776  37.00 0.0001626439    1.064    0.060
        68  -9.8975     71.4295    115.8431   1.1389037617e+02   4.3321638869e+01    0.3694494    0.1683505 -66.75  0.001715619    2.166    0.538
        69  -9.6557      8.4112    115.8744   1.2952081594e+02   4.9604746626e+01    0.2275382    0.1274364  70.98 0.0005964883    1.650    0.394
        70  -9.9554      7.6168    111.9888   1.2937921059e+02   5.0463776516e+01    0.2955742    0.1696971  17.17  0.001849765    2.540    0.606
        71  -8.5312    168.6056    114.3380   9.0722037393e+01   2.6116192636e+01     0.279614    0.2123027  76.56  0.001038269    1.732    0.423
        72  -7.7349    113.4607    182.2149   1.1424158177e+02   2.4380628928e+01    0.1466892    0.1056235 -85.67 0.0007249292    1.569    0.363
        73 -10.1938     60.1429    109.8105   1.1578529891e+02   4.6035387818e+01    0.3349618    0.2373172  13.84  0.001906144    2.142    0.533
        74  -8.4742     90.2701    109.4499   1.0793961895e+02   4.1978999228e+01    0.2315308    0.1500448 -47.84 0.0006573359    1.575    0.365
        75  -8.7468     30.5942    107.7631   1.2316601583e+02   4.9555596153e+01    0.1637553   0.09200612 -82.57 0.0007850665    1.582    0.368
        76  -9.2988     65.5983    105.4977   1.1362323601e+02   4.6289623552e+01    0.2438913    0.1226935  36.73  0.001216419    2.183    0.542
        77  -7.4849     48.2626     93.6723   1.1629462368e+02   5.0879127943e+01    0.1215365   0.08375208  83.93 0.0002151416    1.566    0.361
        78  -7.0850     43.3369     93.6905   1.1768911364e+02   5.1387471854e+01    0.1236693   0.08213666  75.12 0.0005904553    1.682    0.405
        79  -8.4676     80.4797     92.4934   1.0699844644e+02   4.7056966508e+01    0.2334415    0.1130916  50.73  0.001030545    2.392    0.582
        80  -8.6007      2.6721     92.0637   1.2879095235e+02   5.4953922939e+01    0.1644954    0.1612099 -17.32 0.0008457005    1.411    0.292
        81  -7.9551      8.0232     90.4865   1.2715873020e+02   5.4962166357e+01    0.1328347    0.1114633  26.56 0.0008078979    1.566    0.361
        82  -8.6534    177.1242     85.9307   8.1650968537e+01   2.9004009653e+01    0.2148926    0.2038489  12.63  0.000287593    1.024    0.024
        83  -7.7464    140.0406     86.4991   8.9949558962e+01   3.7364458210e+01    0.2060468    0.1436036  47.21 -0.0004514055    1.437    0.304
        84  -9.7659    233.2687     76.5121   6.9330807319e+01   1.7024600619e+01     0.262715    0.2349168  -1.00 0.0002811296    1.046    0.044
        85  -8.7965      2.4313     76.5527   1.2715482540e+02   5.8261255991e+01    0.2213223    0.1152161  75.04 0.0009233172    2.113    0.527
        86  -8.4379    237.7098     72.5391   6.7643899840e+01   1.6511450049e+01    0.2558322    0.1287351  51.25 0.0009174865    1.984    0.496
        87  -8.4369    119.6500     69.4685   9.0114872631e+01   4.4886418010e+01    0.2362221    0.2106665 -47.18 0.0003821786    1.105    0.095
        88  -7.7527    235.6504     66.9908   6.6461500085e+01   1.7693990033e+01    0.2557114   0.07313975 -43.48 0.0007044792    4.556    0.781
        89 -11.4547    159.5433     57.0832   7.6657512086e+01   3.7963871291e+01    0.6484182    0.5201406 -24.40   0.00165034    1.248    0.199
        90  -8.2434    222.3498    179.4764   9.4061632196e+01   5.9792711450e+00    0.1845261    0.1122816 -28.22 0.0004260542    1.831    0.454
        91 -10.1827    177.3097     34.5834   6.5816187164e+01   3.6641755828e+01    0.4276994    0.3190401   5.98  0.001007491    1.513    0.339
        92  -9.0538    149.4203     49.9443   7.6486910625e+01   4.1573139594e+01    0.3302972    0.2190298  21.64  0.001006434    1.921    0.479
        93 -10.1700    131.7339     46.9343   7.9571546964e+01   4.6255225140e+01    0.2545933    0.2390647   1.10 0.0002529457    1.033    0.032
        94  -8.4079    142.8496     43.0888   7.5585335467e+01   4.4232344554e+01    0.2319887    0.1993872 -58.41 0.0005940617    1.325    0.245
        95  -9.2619    227.0316     28.0760   5.6765012519e+01   2.4445266011e+01    0.3801749      0.22168 -20.48  0.001056503    1.692    0.409
        96 -11.9622    244.5428    239.4155   9.9923839454e+01  -3.3088446363e+00    0.2107332    0.1527366  30.70  0.000241327    1.130    0.115
        97  -8.6086    185.8279    228.6032   1.0746251330e+02   6.4967088811e+00    0.2463005    0.1409459 -46.45  0.001365529    2.462    0.594
