#   1 NUMBER                 Running object number                                     
#   2 MAG_AUTO               Kron-like elliptical aperture magnitude                    [mag]
#   3 X_IMAGE                Object position along x                                    [pixel]
#   4 Y_IMAGE                Object position along y                                    [pixel]
#   5 X_WORLD                Barycenter position along world x axis                     [deg]
#   6 Y_WORLD                Barycenter position along world y axis                     [deg]
#   7 A_WORLD                Profile RMS along major axis (world units)                 [deg]
#   8 B_WORLD                Profile RMS along minor axis (world units)                 [deg]
#   9 THETA_WORLD            Position angle (CCW/world-x)                               [deg]
#  10 FWHM_WORLD             FWHM assuming a gaussian core                              [deg]
#  11 ELONGATION             A_IMAGE/B_IMAGE                                           
#  12 ELLIPTICITY            1 - B_IMAGE/A_IMAGE                                       
         1 -11.9556     46.4769     27.3090   3.7526759856e+01   6.7028306924e+01    0.5302887    0.2773378 -40.25  0.001994212    2.193    0.544
         2 -11.8223    135.5234     11.9532   1.0282048662e+01   4.8276991566e+01    0.2162402    0.1766566 -87.83 0.0003097808    1.017    0.017
         3 -10.6537     90.6693     11.8937   1.6938247129e+01   5.8820104360e+01    0.1996588    0.1926544 -73.65 0.0005317911    1.181    0.154
         4 -10.7072     92.0077      7.4106   1.4979254262e+01   5.8907523092e+01    0.5605529    0.2521257 -58.98  0.002363317    3.066    0.674
         5 -10.4598     85.2118     10.1771   1.7386734737e+01   6.0278908980e+01    0.1724213    0.1361005 -77.13 0.0004102937    1.331    0.248
         6  -9.2887     55.3209      8.7267   2.4765851704e+01   6.7367786686e+01     0.122004    0.0942307 -89.06 0.0002392543    1.572    0.364
         7 -10.7395     44.9550      7.7711   2.8143482799e+01   6.9740026455e+01    0.1891868    0.1723672  31.57  0.000330018    1.130    0.115
         8  -9.7665    107.6305      5.2435   1.1688502082e+01   5.5375633362e+01    0.1470013    0.1215742  -1.31  0.000306265    1.623    0.384
         9 -10.8121    215.2389      2.6982   2.4745281918e+00   3.3039031290e+01    0.1682761    0.1310893 -62.80 0.0002575953    1.117    0.105
        10  -9.6397    124.3353      2.2661   8.6642430562e+00   5.1711793100e+01    0.1191894   0.07952714  54.42 0.0002403163    1.587    0.370
        11  -9.5550     66.9299      1.2889   1.7760083002e+01   6.5358342379e+01    0.2059425   0.09123787  88.50 0.0007025556    4.202    0.762
        12 -11.2932     61.7309    240.8631   7.8469809993e+01   1.5148438982e+01    0.6233398    0.2930338  -0.71  0.002410514    3.229    0.690
        13 -10.4365    246.1064    250.0618   4.1957886601e+01  -3.9044673866e+00    0.1501648   0.09860664 -16.73 0.0004142033    1.015    0.014
        14 -10.8963    139.4985    248.6686   6.0945586976e+01   5.5476489050e+00    0.3069736    0.2053452 -54.98  0.001834061    1.948    0.487
        15  -9.6280     84.7627    250.6804   7.3717587058e+01   1.0865873702e+01    0.1821274   0.09186187  29.32 0.0002623688    1.611    0.379
        16 -11.0830     55.3780    249.4474   8.0756511979e+01   1.4040509332e+01    0.3339056    0.2307329  12.78  0.001268118    1.317    0.241
        17 -10.4767     60.2136    248.6167   7.9502348307e+01   1.3735736226e+01    0.2754056    0.1611366   7.68 0.0008586755    1.729    0.422
        18 -11.4769     64.0619    245.7214   7.8309287412e+01   1.3931488624e+01    0.2370569    0.1906296 -47.98 0.0003892375    1.433    0.302
        19 -12.4823     68.2579    247.5489   7.7433908106e+01   1.3148534541e+01    0.5212657     0.301249  33.70  0.001574581    1.457    0.314
        20 -12.2271     70.5109    243.9463   7.6552107666e+01   1.3634489779e+01    0.3785884    0.3054371  86.73 0.0009611901    1.594    0.373
        21 -13.6471     49.4335    219.0015   7.9755034014e+01   2.1124090800e+01     1.432264    0.8743971 -44.95  0.006491197    1.848    0.459
        22 -14.8540     10.3883    186.2588   8.8464783899e+01   3.2606723071e+01     2.814056     1.568771   7.58   0.01292541    1.939    0.484
        23 -14.0759     34.7566    227.7861   8.4394365308e+01   2.0554910395e+01     1.676077    0.6964213 -78.64  0.007139048    2.882    0.653
        24 -15.3884     21.1082    214.1389   8.7153838980e+01   2.4881965908e+01     3.847958     1.540767  76.99   0.01419046    3.517    0.716
        25 -13.8487      2.9505    207.5197   9.1794967628e+01   2.7856410429e+01     1.627566    0.5003229 -83.53  0.005982132    3.487    0.713
        26 -12.3028      9.6021    209.0087   9.0030842664e+01   2.7016456765e+01    0.2884177    0.2299639  40.95 0.0003236621    1.111    0.100
        27 -13.4144     10.4469    215.9745   9.0163601096e+01   2.5305124517e+01      0.66794    0.3434574  28.57  0.002197081    1.656    0.396
        28 -14.8082      2.2441    222.1621   9.2619397174e+01   2.4484977733e+01     2.061605    0.3052729 -80.63  0.005618438    7.068    0.859
        29 -15.1858     15.0614    227.2070   8.9520489070e+01   2.2373773909e+01     1.680406    0.6921617  58.64  0.007232798    2.575    0.612
        30 -15.1809      4.0915    249.1573   9.3181701043e+01   1.8526395382e+01     1.826917    0.5331596  13.70  0.006760594    3.820    0.738
        31 -14.9202     10.4401    239.9445   9.1291476039e+01   1.9959180343e+01    0.9867154    0.5692655   8.13  0.004322619    1.829    0.453
        32 -14.3235      6.5771    233.6381   9.1984929783e+01   2.1611245741e+01     0.511086    0.4674226  61.43  0.003509841    1.122    0.109
        33 -11.7176     56.6204    229.3801   7.8766523758e+01   1.8087248379e+01    0.4565217    0.2765878 -43.79  0.002330282    1.881    0.468
        34 -11.7484     62.4937    234.5129   7.7708146422e+01   1.6390043445e+01    0.4247589    0.2626051  49.79  0.002211055    1.710    0.415
        35 -11.3709     61.5108    230.0048   7.7545209757e+01   1.7450095576e+01    0.3255102    0.2514975 -72.20  0.001893557    1.525    0.344
        36  -9.5750    180.9780    240.0993   5.1382611924e+01   2.7981498507e+00    0.1333869    0.1006361 -12.52            0    1.046    0.044
        37 -10.6900    108.4860    240.0567   6.6890996322e+01   1.0354965166e+01    0.3026767    0.1700453  15.29  0.001086629    1.597    0.374
        38 -10.1980    149.5089    238.9849   5.7528761817e+01   6.1325025600e+00    0.1744884    0.1107256 -40.03 0.0007914825    1.578    0.366
        39 -11.4769    102.8648    236.2200   6.7778335902e+01   1.1701802381e+01    0.3844117    0.2294027 -77.33  0.001805874    2.868    0.651
        40 -12.5734     72.6089    231.7622   7.4843199944e+01   1.5908124021e+01    0.5448414    0.4099755 -50.64  0.001649561    1.483    0.326
        41 -10.1792    210.7248    235.7368   4.5462585474e+01   7.1732461742e-01    0.1353464    0.1126757 -19.82  0.001048629    1.348    0.258
        42 -10.1491     88.4698    236.4888   7.1336939805e+01   1.3228243949e+01    0.1328376    0.1118645  17.24 4.406021e-05    1.024    0.023
        43 -13.5844     36.2441    249.5084   8.5452781195e+01   1.5807044302e+01    0.8742642    0.3708451  28.05  0.001210904    1.821    0.451
        44 -10.4541    182.6104    232.2424   4.9947167165e+01   3.8448213679e+00    0.1950319    0.1728553  23.28 0.0009351836    1.525    0.344
        45  -9.7163    222.6484    232.6982   4.3081160461e+01   1.1737061927e-01    0.1141974   0.06150301 -13.63 0.0004090953    1.699    0.411
        46 -11.2762    194.9480    229.4170   4.7269095626e+01   3.0765090264e+00    0.2312937    0.1640787 -26.77 0.0004114535    1.188    0.158
        47 -10.5469    178.0912    228.6660   5.0281435889e+01   4.8597715904e+00    0.1691238    0.1265512  -4.52 0.0004539156    1.080    0.074
        48 -10.3863    139.2081    227.6945   5.8195798567e+01   9.2191631770e+00    0.3307824    0.2048829 -46.31  0.001836543    1.696    0.410
        49 -10.8259    231.1539    227.2903   4.0974475852e+01   1.3979241162e-01    0.2315363    0.1170746 -14.47  0.001407753    1.950    0.487
        50  -9.9417    166.0237    228.3212   5.2603479910e+01   6.1709296383e+00    0.1663857    0.1287102   3.70 0.0003363244    1.099    0.090
        51  -9.8465     80.1067    237.1960   7.3498044150e+01   1.3987853161e+01    0.2769367    0.1415206   0.26  0.001162043    2.574    0.612
        52 -11.4593     80.9717    225.8111   7.2051974105e+01   1.6248379452e+01    0.4010753    0.3033317 -17.49  0.002248591    1.409    0.290
        53 -10.9573     80.2642    221.6720   7.1767659735e+01   1.7211174134e+01    0.2131922    0.2018841 -63.25 0.0002201299    1.232    0.188
        54 -12.0865     77.4458    219.4988   7.2261937463e+01   1.8001091410e+01     0.401534    0.2297185  44.16   0.00153361    1.800    0.444
        55 -10.7499    105.9981    226.8019   6.5854522315e+01   1.3195810673e+01    0.2306647    0.1367008  -6.48  0.001084268    2.006    0.502
        56  -9.2351    182.4498    225.4879   4.8980400412e+01   4.9193596868e+00    0.1210608   0.09199162 -11.75  0.000248426    1.027    0.026
        57 -10.1965    173.5923    225.1884   5.0637458815e+01   5.8863710501e+00    0.1754909    0.1328207 -17.40 0.0005871744    1.087    0.080
        58 -12.1513    174.0462    220.0459   4.9773751058e+01   6.6832605739e+00    0.2737821      0.24126 -28.93 0.0005245701    1.320    0.242
        59 -11.2186    159.9519    223.1151   5.3074522729e+01   7.7063525327e+00    0.3283761    0.2836015   4.81   0.00222647    1.176    0.150
        60  -9.9203    116.4938    225.5050   6.3140181153e+01   1.2236083817e+01    0.1335845    0.1132071   6.51 0.0008105955    1.015    0.015
        61 -10.5685     91.8384    224.4686   6.9106054871e+01   1.5300199062e+01    0.2457472    0.1855984 -41.52 0.0007472669    1.410    0.291
        62 -10.6583     69.0745    224.6556   7.5034792600e+01   1.7804649423e+01    0.2276897    0.1911488  87.09  0.001337132    1.450    0.311
        63 -12.4371     57.8924    221.1062   7.7659859052e+01   1.9778755113e+01    0.5100774    0.3863446 -61.93  0.001710365    1.475    0.322
        64  -9.4125    211.7345    223.4006   4.3482748525e+01   2.3855218927e+00   0.09596258   0.08325943 -45.57 0.0001935473    1.731    0.422
        65 -11.8915    124.4281    221.9413   6.0768256356e+01   1.1997758393e+01    0.4543601    0.2500148  33.89  0.002172776    1.749    0.428
        66 -11.5366    120.9062    215.0108   6.0623644371e+01   1.3778004103e+01    0.3916937    0.2803271  88.70  0.001667604    2.603    0.616
        67 -10.0764     95.8353    223.1482   6.7929121639e+01   1.5113220323e+01     0.182101    0.1407778  -3.64            0    1.259    0.206
        68  -9.3483    207.7619    222.0453   4.3943272589e+01   2.9543602699e+00    0.1354437   0.07774924 -36.84 0.0003196473    1.493    0.330
        69 -10.8744    114.3380    221.9228   6.3177275157e+01   1.3192067697e+01    0.1853091     0.161196 -16.64 0.0008235608    1.117    0.104
        70  -9.5318    246.6488    221.2836   3.7831968513e+01  -3.2501617304e-01   0.08422206   0.07464149 -28.58 0.0006152973    1.656    0.396
        71 -10.3887    190.0101    220.2279   4.6783069881e+01   4.9761923471e+00    0.1414775   0.08641978  19.50            0    1.583    0.368
        72 -11.4726     62.3144    216.6812   7.6021434601e+01   2.0304255988e+01    0.3654327    0.2549466  49.28 0.0007567877    1.484    0.326
        73 -11.6264     66.8900    216.1394   7.4720398085e+01   1.9926714526e+01    0.4265824    0.3230804  89.80  0.001546598    1.646    0.392
        74 -12.3216    147.4391    216.4028   5.4729900777e+01   1.0323520005e+01    0.4741068    0.4084823  57.17 5.390419e-05    1.724    0.420
        75 -11.3485    141.5974    214.7952   5.5780006123e+01   1.1313984038e+01     0.792638    0.2894042 -59.67  0.002527945    5.409    0.815
        76 -11.5718    129.3234    216.8023   5.8886369956e+01   1.2406503780e+01    0.3266391    0.2084799 -11.07  0.001160739    1.707    0.414
        77 -10.6085    225.8223    216.4366   4.0181519346e+01   2.0966245743e+00    0.1732055    0.1450683 -25.79 0.0005579805    1.364    0.267
        78  -9.6039    161.8326    215.8520   5.1586714218e+01   8.7528211933e+00     0.151058    0.1393248   2.83 0.0002566066    1.276    0.217
        79 -11.0885    155.2510    213.4376   5.2592677563e+01   9.9426118328e+00    0.4380399     0.235208 -42.16   0.00227782    1.772    0.436
        80  -9.9603    138.4675    216.5122   5.6741729852e+01   1.1366022005e+01    0.1314925    0.1116555  -1.31 7.868644e-05    1.025    0.024
        81 -11.0306    107.9367    215.0160   6.3812175678e+01   1.5358142352e+01    0.2567742    0.1921926 -50.50  0.001035429    1.454    0.312
        82 -11.7396     84.2212    214.5276   6.9876264532e+01   1.8307853203e+01    0.7010456    0.2491027  32.16   0.00273084    2.365    0.577
        83 -10.9387     30.0606    200.0108   8.3594426347e+01   2.7510680915e+01    0.2211776    0.2020676 -83.75 0.0003530237    1.160    0.138
        84 -11.7028     37.3883    197.4811   8.1220409741e+01   2.7447810306e+01    0.4983805    0.2759851 -44.18  0.002232941    2.039    0.510
        85 -12.7734     34.6219    192.9615   8.1631616083e+01   2.8843720827e+01    0.7413902    0.3691562 -32.28   0.00289649    2.735    0.634
        86 -12.7374     41.8391    213.7228   8.1381906066e+01   2.3097543468e+01    0.8477328    0.4578548   3.53  0.003707569    2.196    0.545
        87 -11.9200     33.6563    206.4232   8.3077446378e+01   2.5613999005e+01    0.6363281    0.2462243  49.78  0.002414783    2.737    0.635
        88 -11.1293     36.2434    203.1398   8.2058629195e+01   2.6166533151e+01    0.2599415    0.2555541 -77.69 0.0003593961    1.104    0.095
        89  -9.7758     97.1609    211.4519   6.6078278424e+01   1.7424737352e+01    0.2551776    0.0936159 -55.23 0.0009847796    2.808    0.644
        90 -12.0063    228.9236    208.4585   3.8494526356e+01   2.9424348226e+00    0.4452395    0.2927354 -56.78  0.002263928    2.739    0.635
        91 -10.8265    230.0476    204.2117   3.7671493838e+01   3.4422414350e+00    0.2048765    0.1346401 -28.62 0.0003807248    1.138    0.121
        92  -9.8988    209.5116    211.4807   4.2034521798e+01   4.3575859064e+00    0.1143474   0.08759493 -18.46 1.562347e-05    1.041    0.039
        93 -10.1870    187.4129    210.7464   4.5789922737e+01   6.7627091847e+00    0.2211271    0.1055697 -46.89  0.001132083    2.145    0.534
        94 -11.5329     51.6648    209.2289   7.8218373103e+01   2.3160146218e+01     0.302053    0.2243102  26.88 0.0008806441    1.201    0.168
        95 -12.2911     57.0793    207.2984   7.6494718420e+01   2.3038797898e+01    0.7418385    0.3499102  56.32  0.002714802    2.836    0.647
        96 -11.1696     52.1682    204.1337   7.7562724751e+01   2.4318167550e+01    0.2989311    0.2159224  52.06 0.0008844521    1.426    0.299
        97  -9.6259    250.7852    210.0185   3.5604763950e+01   8.1772968799e-01    0.1351974   0.06158559 -37.20 0.0004016337    1.642    0.391
        98 -11.3092    159.7968    206.7649   5.0586122550e+01   1.0603355359e+01    0.3591554    0.2600726  42.50  0.001684215    1.770    0.435
        99 -10.1044     90.8432    209.9820   6.7541484571e+01   1.8514183157e+01    0.2029697    0.1693379 -18.56 0.0003833355    1.210    0.173
       100  -9.6109    123.6651    209.6906   5.9180070032e+01   1.4502350545e+01    0.1435403   0.09405101 -13.51 0.0007043026    1.677    0.404
       101 -10.9049    105.5231    208.5169   6.3515983185e+01   1.7018398989e+01    0.2393573    0.1803749  54.50 0.0006554298    1.677    0.404
       102 -10.5264    103.6913    205.6849   6.3584298736e+01   1.7854977543e+01    0.2185746    0.1852739 -10.78  0.000590892    1.133    0.117
       103 -11.5149    180.3895    207.1423   4.6533718690e+01   8.1341875319e+00    0.4039857     0.270958  44.00  0.002319025    2.127    0.530
       104 -10.8005    116.6891    204.3596   6.0088896578e+01   1.6478104093e+01    0.2562589    0.1647399 -46.61  0.000637768    1.586    0.370
       105 -10.6282    100.4603    195.4737   6.2937456597e+01   2.0516133871e+01    0.2930542    0.1984802  40.65 0.0008234111    1.519    0.341
       106 -11.5689     84.6046    198.8145   6.7736513836e+01   2.1798645803e+01     0.707202    0.4224561  71.22  0.002806077    2.952    0.661
       107 -11.5968     91.0315    199.6384   6.6086242266e+01   2.0799096191e+01     0.694527     0.375499 -28.52  0.002856234    2.399    0.583
       108 -12.0295     93.8744    193.5366   6.4430523868e+01   2.1822010055e+01     1.158319    0.4283721  22.30  0.004037288    2.859    0.650
       109 -10.5882     91.1608    189.1837   6.4531561296e+01   2.3186118239e+01     0.218867    0.2015238  22.59  0.000381332    1.059    0.056
       110 -10.3781     61.2448    204.0761   7.4964748248e+01   2.3342047622e+01    0.2901227      0.17687  32.53 0.0007897919    1.464    0.317
       111 -11.7022    145.6747    201.4415   5.2782039175e+01   1.3341160771e+01    0.3246469    0.2542746  40.46  0.001100653    1.513    0.339
       112 -11.3544     44.2464    200.8718   7.9526827450e+01   2.5931424995e+01    0.3382638     0.258457 -21.99 0.0007939445    1.478    0.324
       113 -11.1124     48.9970    199.9926   7.8054218817e+01   2.5654593017e+01    0.2890598    0.1984977 -50.50  0.001147609    1.556    0.357
       114 -10.8128    212.4688    200.0679   3.9749831936e+01   5.7872543886e+00    0.2298557    0.1806676 -56.22 0.0009953072    1.903    0.474
       115  -9.6722    137.0020    200.9968   5.4681866570e+01   1.4539784355e+01    0.1719458    0.1574017  37.78 0.0003755219    1.316    0.240
       116 -10.4613    138.0136    197.0500   5.3809082100e+01   1.5189917654e+01    0.2585167    0.1722519   1.57 0.0004718051    1.625    0.385
       117  -9.8172    134.5181    197.5119   5.4699046582e+01   1.5557933328e+01    0.1829179    0.1331013 -59.50 0.0009649307    1.686    0.407
       118 -10.0744    102.4923    201.0978   6.3233221546e+01   1.9005161866e+01     0.228488    0.1812741  42.08 0.0006413441    1.347    0.258
       119  -9.7672    166.9942    202.4746   4.8412040502e+01   1.0504579049e+01    0.1781709    0.1155555  23.77 0.0004073042    1.517    0.341
       120 -12.5411    173.3786    195.5327   4.5991595951e+01   1.0957577102e+01    0.3475905    0.2731595  35.11 0.0001796522    1.504    0.335
       121 -10.6961    202.0050    196.3262   4.0881648947e+01   7.4884242147e+00    0.2001067    0.1363108 -33.39  0.001289364    1.220    0.180
       122 -11.5259    122.4184    196.3037   5.7418120941e+01   1.7412187743e+01    0.3120896    0.2650116  61.24  0.001750507    1.562    0.360
       123 -11.1927    110.5205    195.9142   6.0361576617e+01   1.9083983245e+01    0.3009693    0.2351807 -23.42 -7.675572e-05    1.286    0.223
       124 -11.8214    192.0915    194.2006   4.2260049989e+01   8.9534637098e+00    0.3732134    0.2536504  17.12  0.001662768    1.511    0.338
       125  -9.5651    245.4660    194.4736   3.3971645599e+01   3.3797194287e+00    0.1068298   0.07619064 -26.00 4.764662e-05    1.022    0.021
       126  -9.9763    160.8062    193.1383   4.8136921185e+01   1.2969842130e+01    0.1859465    0.1355858 -12.27 0.0004753852    1.326    0.246
       127 -12.7609    117.7924    179.4910   5.5786840339e+01   2.1670276253e+01    0.7272665    0.3891957  50.66  0.002907008    2.610    0.617
       128 -11.2010    133.4047    190.6307   5.3826628385e+01   1.7103054252e+01     0.317919    0.2815881 -37.26  0.001608555    1.172    0.146
       129 -12.2519    126.8495    186.5106   5.4714216442e+01   1.8866175881e+01    0.4809332    0.2689203  32.36   0.00214336    1.732    0.423
       130 -12.1566    132.4077    185.6478   5.3218893032e+01   1.8268185938e+01    0.4128586    0.2577423 -33.43  0.001652793    1.619    0.382
       131 -10.3829     78.0924    190.5076   6.8431086028e+01   2.4572007968e+01    0.2490821    0.2165273 -57.40  0.001076701    1.237    0.192
       132 -10.7637     75.3771    185.1077   6.8462587466e+01   2.6222642783e+01    0.9434103    0.5677054 -52.36  0.003377868    1.702    0.412
       133 -11.4107     50.6562    189.9512   7.6481346486e+01   2.7960094297e+01    0.3331744    0.2377641  42.63  0.001022919    1.350    0.259
       134 -11.9700    110.2239    187.7668   5.9145066606e+01   2.0913632096e+01    0.4798155    0.3075714 -81.67  0.001911169    2.756    0.637
       135 -10.0269     97.0371    188.4802   6.2797949515e+01   2.2560344900e+01    0.2038849    0.1859334 -40.73 0.0004649552    1.144    0.126
       136 -10.0102    195.6309    187.2984   4.0477816391e+01   9.6816187118e+00     0.105418   0.09743749 -86.53 0.0007030921    1.734    0.423
       137 -11.0370    156.3591    186.0898   4.7868442070e+01   1.4880476034e+01    0.4634929    0.2572044  -8.03  0.001912571    2.871    0.652
       138 -12.0887    248.7537    185.3773   3.2120152068e+01   4.3313748012e+00    0.2198382    0.1544109 -18.86  0.000290519    1.188    0.159
       139 -10.2155     43.0570    186.3297   7.8402717061e+01   2.9685278814e+01    0.2067791     0.169145  29.39 0.0003697738    1.139    0.122
       140 -12.0199     33.8382    185.3536   8.1156064944e+01   3.0855186185e+01    0.4735152    0.2452978  43.46  0.002050375    1.849    0.459
       141  -9.8246    228.5317    185.5229   3.4932831365e+01   6.3089056646e+00    0.1125209   0.08409672 -26.07 0.0001555127    1.012    0.012
       142  -9.9793    163.9944    185.0024   4.6078919940e+01   1.4063875048e+01    0.1751302    0.1623103  79.71 0.0003618186    1.564    0.361
       143 -12.0789     94.4108    181.7980   6.2475967699e+01   2.4472980838e+01    0.5812943    0.3000341 -63.79  0.002368608    2.298    0.565
       144 -11.0209     54.4780    185.0565   7.4745606190e+01   2.8766825815e+01    0.2918321    0.2059421  15.53 0.0003489485    1.396    0.284
       145 -11.1904    191.4528    183.2408   4.0520372615e+01   1.0862710937e+01    0.3359987    0.1641488 -31.23  0.001679427    1.950    0.487
       146 -10.6965     65.4843    183.5867   7.1205556270e+01   2.7836850459e+01    0.3468399    0.2661775 -51.20  0.001544499    1.353    0.261
       147 -10.4114    142.4659    182.3168   5.0281929946e+01   1.7535813004e+01    0.2850376    0.1294272 -49.35  0.001213058    2.188    0.543
       148 -10.7639    232.3649    180.7358   3.3605453889e+01   6.6162831391e+00    0.2563201    0.1830601 -58.87 0.0008862549    2.166    0.538
       149 -11.7155    100.6169    180.5118   6.0539895673e+01   2.3903728219e+01    0.3260702     0.298399 -67.03  0.001825482    1.244    0.196
       150  -9.9564     49.5122    182.5782   7.5981455984e+01   2.9952912699e+01    0.1461772    0.1351433  31.68 0.0001187096    1.024    0.023
       151  -9.2688    198.3146    180.3059   3.8821961900e+01   1.0517211636e+01    0.1241229   0.08007404 -15.16  0.000310836    1.623    0.384
       152 -11.8093    137.0532    176.4401   5.0492760034e+01   1.9513805950e+01    0.4001636    0.3036501 -77.64  0.001252066    2.005    0.501
       153 -11.1390    131.0281    169.3278   5.0635558904e+01   2.1907898210e+01    0.3287059    0.2096349 -16.80  0.001469247    2.018    0.504
       154 -12.0457    126.3518    176.8085   5.3149788087e+01   2.1004456782e+01    0.4406136    0.3118193  20.63  0.001322426    1.409    0.290
       155 -11.5380    125.9741    172.0923   5.2393023768e+01   2.2077846883e+01    0.2830905    0.2706621  60.17 0.0004126322    1.245    0.197
       156 -11.3438    247.1998    175.9063   3.0825815229e+01   5.8017958833e+00    0.3369098    0.1919255 -15.70  0.001539902    1.984    0.496
       157 -10.4427    242.2609    175.5767   3.1417083690e+01   6.3446557627e+00    0.1323388    0.1031665  19.84 0.0006550539    1.538    0.350
       158 -10.6626     63.1974    176.8937   7.0991636975e+01   2.9803129130e+01    0.3453523    0.2313681  17.73 0.0008731426    1.479    0.324
       159 -11.8211    147.8776    174.9456   4.7737058095e+01   1.8242639384e+01    0.5243794    0.2786195  54.23   0.00201251    3.456    0.711
       160 -10.7803    154.2636    174.9130   4.6329469147e+01   1.7329685472e+01     0.255073    0.1668065 -28.11   0.00090929    1.530    0.346
       161 -11.2544     12.2373    174.9579   8.7099378344e+01   3.5413042169e+01    0.2959729    0.2290884 -70.04  0.000650647    1.299    0.230
       162 -12.5195     12.1014    167.7268   8.6588601625e+01   3.7345491655e+01    0.6066827    0.4612424 -73.19  0.003211865    1.306    0.234
       163 -11.1830     22.9266    168.3970   8.3039850570e+01   3.6305494897e+01    0.3668686    0.2555503  78.67 0.0008940334    1.548    0.354
       164 -11.7384     18.7395    167.8637   8.4388244293e+01   3.6797164263e+01     0.515325     0.307318 -16.00   0.00224835    2.071    0.517
       165  -9.2845    167.3053    174.3013   4.3501219349e+01   1.5607124265e+01    0.1340207   0.09187698 -14.07 0.0002399865    1.594    0.373
       166 -11.1587     79.1768    173.3194   6.5562485744e+01   2.8620354454e+01    0.2995107    0.2543225  51.44  0.001021623    1.262    0.207
       167  -9.6582    173.4502    173.5227   4.2146381789e+01   1.4903590246e+01    0.1306032    0.1102199 -21.27 4.679741e-05    1.019    0.018
       168  -9.7255    160.7968    173.5878   4.4702743533e+01   1.6655051899e+01    0.1626623    0.1238909  40.38 0.0001748778    1.503    0.335
       169 -12.5175     90.5240    171.7030   6.1932952469e+01   2.7426143628e+01    0.4511819    0.2975714 -47.72 0.0006725754    1.533    0.348
       170 -11.2812     46.1263    172.0259   7.5779594833e+01   3.3061847466e+01    0.5999928    0.2200333  16.64  0.001969343    3.064    0.674
       171 -11.1949     12.2012    161.3831   8.6036947843e+01   3.9045728172e+01    0.3766325    0.2536268  45.97  0.001431387    1.458    0.314
       172  -9.6963    191.3225    171.6957   3.8521534041e+01   1.2842712271e+01    0.1108834   0.09763482 -71.93  0.000703103    1.637    0.389
       173 -11.8887    153.0938    170.3059   4.5735381498e+01   1.8402961134e+01    0.3270897    0.2504646 -22.12  0.001831085    1.269    0.212
       174 -11.3298    152.2884    165.0033   4.4914875355e+01   1.9571331894e+01    0.3551768    0.2396435  54.74  0.001743425    2.069    0.517
       175 -11.6900    106.5525    175.7291   5.8108195084e+01   2.4152515557e+01    0.3109811    0.2423927  26.77 0.0007663472    1.230    0.187
       176 -11.1657    100.1371    170.9095   5.9043740297e+01   2.6214863625e+01    0.2221466    0.2021995  58.41 0.0003830538    1.249    0.199
       177 -10.5081     61.7447    170.6953   7.0570799974e+01   3.1569403563e+01    0.2710584    0.1758235  20.65 0.0009115482    1.511    0.338
       178 -10.3285    198.2041    170.3968   3.7111160531e+01   1.2178864815e+01    0.1908803    0.1547452  35.19  0.001268934    1.484    0.326
       179 -11.8959    122.9586    167.6767   5.2339107726e+01   2.3499165469e+01    0.4636192    0.2611555  16.86  0.001642627    2.198    0.545
       180 -10.3972    160.4310    168.2963   4.3802485530e+01   1.7721386826e+01    0.2521291    0.1158656 -41.49  0.001073131    2.003    0.501
       181 -12.0545     52.0776    167.6875   7.3271016148e+01   3.3524546505e+01    0.5279166    0.2715857  24.56  0.001613543    1.847    0.458
       182 -11.3322     30.8133    167.6832   8.0330858631e+01   3.5785324108e+01    0.3528478    0.2045019 -37.53  0.001307864    1.972    0.493
       183 -11.1392    100.0094    166.0569   5.8219231828e+01   2.7379219524e+01    0.2662341    0.2286864 -26.25 0.0003021378    1.172    0.147
       184 -10.9401    103.4955    164.5008   5.6953240886e+01   2.7215623086e+01    0.2653329    0.2180477  28.17  0.001377028    1.182    0.154
       185 -10.3656     72.1243    166.6189   6.6668667874e+01   3.1260707507e+01     0.253435    0.1684227 -53.97 0.0005892992    1.526    0.345
       186 -11.6798    111.6755    163.9328   5.4597534435e+01   2.6084131566e+01    0.4130117    0.2649756 -27.73 0.0009895455    1.821    0.451
       187 -11.6845     87.2640    165.3902   6.1818230943e+01   2.9434764112e+01    0.2539016    0.2155736   8.46 0.0007076188    1.177    0.151
       188 -11.3066     64.0802    164.6967   6.8928880195e+01   3.2820694000e+01    0.3183146     0.226203 -63.84 0.0004085197    1.473    0.321
       189 -11.2791     66.4671    160.4544   6.7487082861e+01   3.3603793175e+01    0.2854215    0.2186964  23.85  0.000558226    1.263    0.208
       190 -11.5512     69.8636    158.1492   6.6004752874e+01   3.3736781416e+01    0.2915837    0.2335563 -23.76 0.0008152889    1.354    0.261
       191 -10.7643     40.3657    168.4401   7.7232581898e+01   3.4628928781e+01    0.2729365     0.209801 -15.79  0.001196464    1.451    0.311
       192  -9.2220    211.9758    164.2162   3.3812808380e+01   1.1463551405e+01    0.1286295   0.09475548  31.00 0.0003601582    1.599    0.375
       193 -11.0333      1.8128    157.6221   8.9318085386e+01   4.0750844084e+01    0.5746757    0.1935248  84.78   0.00181294    3.791    0.736
       194 -11.6012      6.7345    161.3242   8.7899993016e+01   3.9441300440e+01     0.392752    0.3698404  63.73  0.001414785    1.024    0.024
       195 -10.2411      6.7055    158.2971   8.7679146410e+01   4.0261993389e+01    0.2484616    0.1834994  51.51 0.0002040762    1.340    0.254
       196  -9.6243    230.3548    162.6982   3.0890587755e+01   9.5148541685e+00    0.1023285   0.08167415 -60.31 0.0005880473    1.707    0.414
       197 -12.4612     84.5509    159.5932   6.1621094935e+01   3.1265209606e+01    0.4611335    0.2877479 -57.93  0.001527494    1.661    0.398
       198 -10.6968     51.2187    161.9603   7.2758814671e+01   3.5136849642e+01    0.2297653    0.1979298  56.12  0.000520972    1.208    0.172
       199 -11.2146    169.4542    159.8502   4.0387009935e+01   1.7996935976e+01    0.3759841    0.3017395  78.87  0.002076307    1.995    0.499
       200 -11.0816     46.3385    160.4698   7.4199024778e+01   3.6100179667e+01    0.3336805    0.2003955  53.88 0.0005714734    1.877    0.467
       201 -11.1694     40.5140    161.4932   7.6319993537e+01   3.6468474773e+01    0.3038635    0.1422999  22.33 0.0007243381    2.060    0.515
       202 -11.0482    105.5032    159.0293   5.5368411611e+01   2.8185504107e+01     0.312878    0.2413028  67.86 0.0007986021    1.724    0.420
       203 -11.5764     95.3372    159.1880   5.8311740340e+01   2.9733694073e+01    0.2872488    0.2421511  -2.74 0.0004017428    1.241    0.194
       204 -10.3446     24.0966    159.6700   8.1768114241e+01   3.8558081164e+01    0.2530836    0.1692452  40.24  0.001201304    1.454    0.312
       205  -9.2546    138.6521    159.2774   4.6892187401e+01   2.2847710034e+01    0.1352636    0.1123112  70.05 0.0002355957    1.636    0.389
       206  -9.5979    250.3993    157.7868   2.7504210766e+01   8.0214195785e+00    0.1499205   0.07510897 -33.08 0.0004615494    1.561    0.359
       207 -11.8528    133.4523    156.9077   4.7664580724e+01   2.4178648079e+01    0.4716773    0.2481475 -49.62  0.002056951    1.876    0.467
       208 -11.0121    118.0013    157.5081   5.1681312619e+01   2.6539993361e+01    0.2256263    0.1421933  30.99 0.0007520029    1.587    0.370
       209 -11.8438     31.4897    156.8480   7.8868600021e+01   3.8643548901e+01     0.464716     0.360351  47.12  0.002350111    1.292    0.226
       210 -10.8468    112.4456    156.7588   5.3018302731e+01   2.7604622123e+01    0.2749175    0.1469197 -56.53  0.001127984    2.018    0.505
       211  -9.9525    190.5027    155.0876   3.5631865534e+01   1.5813694414e+01    0.1848101    0.1072506 -41.69 0.0003727883    1.482    0.325
       212 -11.6570    121.8782    156.7338   5.0519792862e+01   2.6086917905e+01    0.3351558     0.231959 -48.33 0.0008481954    1.430    0.301
       213 -13.9530     83.8047    149.3691   5.9965780234e+01   3.3926546011e+01    0.8049016    0.7795804   2.72   0.00211853    1.008    0.008
       214 -12.2674     76.2529    154.6229   6.3335067415e+01   3.3733538512e+01    0.4085549    0.2371282  43.57 0.0009721296    1.779    0.438
       215 -11.8392     20.3007    154.5403   8.2566231035e+01   4.0278459547e+01    0.4221324    0.2563646  10.04 0.0009793075    1.740    0.425
       216 -11.4270     19.8325    149.6353   8.2215349319e+01   4.1660816704e+01     0.428805    0.2443047 -33.97  0.001816856    2.004    0.501
       217  -9.8478    211.9917    153.4802   3.1905679998e+01   1.3179229206e+01    0.1461658    0.1170307  33.24 0.0004236588    1.501    0.334
       218 -10.2203    172.1833    152.3878   3.8423267149e+01   1.8974826253e+01    0.2681163     0.088835 -42.66  0.001022521    2.704    0.630
       219 -10.4802     51.6058    153.1182   7.1321605326e+01   3.7443546316e+01    0.2724276    0.2026129  38.07 0.0008339164    1.314    0.239
       220  -9.5397    249.3021    151.7038   2.6637757484e+01   8.9962730013e+00   0.09841876   0.07095059 -53.45  0.000201799    1.578    0.366
       221 -10.3393    128.2850    151.0596   4.7760372861e+01   2.6281447582e+01    0.1968821    0.1838942 -31.40  0.000372434    1.043    0.041
       222 -11.3362    109.2523    149.1913   5.2388543495e+01   2.9869290684e+01    0.3430671    0.2924839  21.10  0.001231904    1.171    0.146
       223 -11.0731     15.0000    152.0210   8.4208117566e+01   4.1387882082e+01    0.3186419    0.1991763 -65.39  0.001488178    1.543    0.352
       224 -11.6753     54.1201    149.1674   6.9823237458e+01   3.8184869436e+01    0.4406511    0.1997377 -56.16  0.001570735    2.126    0.530
       225 -12.2716     51.2019    142.7337   6.9800012820e+01   4.0274096967e+01    0.4706971    0.2832235  32.60  0.001322721    1.589    0.371
       226 -11.5263     26.8833    149.1677   7.9592326277e+01   4.1175401683e+01    0.4687839    0.2849788 -34.91  0.002041819    1.842    0.457
       227 -10.8242      5.4523    149.9782   8.7460586653e+01   4.2608214044e+01    0.2161042    0.1361792 -80.76   0.00101548    1.557    0.358
       228  -9.7879    167.0053    149.2565   3.8809259532e+01   2.0356551352e+01    0.2316073    0.1488259 -77.05 0.0009074599    3.616    0.723
       229  -9.9725    147.0461    148.7259   4.2868394642e+01   2.3665115333e+01    0.1900233    0.1757446   0.71 0.0004082224    1.078    0.072
       230 -11.2381     96.0041    148.9423   5.6147551190e+01   3.2101769861e+01    0.2311166     0.224776 -13.00 0.0005832969    1.025    0.025
       231  -9.9610     32.3640    148.3629   7.7493000074e+01   4.0871472388e+01    0.2302316    0.1594006 -34.10 0.0006685491    1.573    0.364
       232 -12.5098     42.5963    145.3261   7.3333830292e+01   4.0607364232e+01    0.6341081    0.3480352 -16.72  0.002321476    2.651    0.623
       233 -11.6080    103.1778    144.9976   5.3248057757e+01   3.1861875706e+01    0.3371957    0.3170801  24.50 0.0003342893    1.051    0.049
       234 -11.1272    101.4297    141.4688   5.3020279661e+01   3.2989276884e+01     0.297268    0.2776719  -4.72 0.0007099762    1.068    0.064
       235 -11.4643     62.1343    145.5265   6.6418169841e+01   3.8090185364e+01    0.2636007    0.2159513  68.24  0.001287012    1.396    0.284
       236 -10.3232    170.2976    145.0667   3.7340334695e+01   2.0623253292e+01    0.1917518    0.1591891 -36.80 0.0008442656    1.074    0.069
       237 -11.8152    118.3485    143.8007   4.8808552345e+01   2.9560356144e+01     0.509528    0.2889829  57.17  0.001366006    2.612    0.617
       238 -12.5929     11.1086    141.6282   8.4618013973e+01   4.4528909259e+01    0.4751211     0.345647  71.56  0.001978594    1.456    0.313
       239 -12.7123     13.8105    134.3154   8.2796602705e+01   4.6355211960e+01    0.5793645    0.3757421  46.95  0.002712373    1.604    0.377
       240  -9.9010    187.1986    143.2055   3.3932243418e+01   1.8358095195e+01    0.1620269    0.1378597 -57.78 0.0002492226    1.307    0.235
       241  -9.7741    228.9770    145.2678   2.8073625118e+01   1.2303308728e+01     0.149301    0.1244522 -31.43 0.0004131575    1.088    0.081
       242 -10.1013    201.1541    142.1924   3.1475558339e+01   1.6491567224e+01    0.1797975    0.1425679 -26.47 0.0004684492    1.159    0.137
       243  -9.4837    178.2758    142.6536   3.5383788351e+01   1.9816634786e+01    0.1254585   0.09785046 -67.01 0.0005777983    1.629    0.386
       244  -9.7393    166.6775    142.3130   3.7482402414e+01   2.1714637351e+01    0.1283294    0.1052335 -80.04 0.0002992839    1.656    0.396
       245 -11.8424     94.7462    140.2868   5.4760713884e+01   3.4397454779e+01    0.4428709    0.3195474 -25.92  0.001100586    1.613    0.380
       246 -10.7053     41.5311    139.5357   7.2832162019e+01   4.2301365402e+01    0.1494753     0.147224  11.65 6.712845e-05    1.005    0.005
       247 -11.2687    127.9990    134.0461   4.4231409024e+01   3.0004487035e+01    0.2765316    0.2154566  48.72 0.0003623218    1.376    0.273
       248 -11.1851    157.8093    145.1312   3.9830479217e+01   2.2615107499e+01    0.2168355    0.1985739  -3.83 0.0002721047    1.100    0.091
       249 -11.7429     86.3498    135.2011   5.6301369732e+01   3.7036866374e+01    0.5067946    0.2590899  23.95  0.001774908    2.258    0.557
       250  -9.9676     46.5044    136.4891   7.0472109930e+01   4.2537399588e+01    0.1511988    0.1481597   2.18 -2.887338e-05    1.002    0.002
       251  -9.9388     26.8966    136.1574   7.7911713176e+01   4.4751924353e+01    0.2315446    0.1898581  54.60 0.0005003927    1.276    0.216
       252 -10.6874    198.2193    134.6006   3.0481629561e+01   1.8180216703e+01    0.3043084      0.22618  -3.53  0.001141182    1.739    0.425
       253 -11.1911     67.2261    134.8745   6.2646080423e+01   4.0142118731e+01    0.3164584    0.2026358  -5.62  0.001248467    2.193    0.544
       254 -11.6366     32.9634    133.2852   7.5133990138e+01   4.4942295543e+01    0.3998682    0.2658817  87.05 0.0007781094    1.793    0.442
       255 -11.6956     57.0250    133.7197   6.6077269148e+01   4.1908160035e+01    0.2839209     0.233832   6.45 0.0004580515    1.271    0.213
       256 -12.4605     44.8550    130.2948   7.0021858853e+01   4.4409244485e+01    0.6072834    0.2767592 -42.85  0.001924888    2.411    0.585
       257 -11.0003    230.1271    130.5643   2.5329162426e+01   1.4362802941e+01     0.204804    0.1383385 -41.47  0.000332543    1.153    0.133
       258 -11.6713    103.7517    133.9930   5.0735744396e+01   3.4342481074e+01    0.4242312    0.2242388  36.92  0.001437775    1.873    0.466
       259 -11.0645    121.7555    128.5355   4.4579372518e+01   3.2324692390e+01    0.3335566    0.2312876 -62.44  0.001256193    1.673    0.402
       260 -11.9803     82.7122    128.3454   5.5996800108e+01   3.9332807427e+01     0.477169    0.3331115 -11.93  0.002032603    1.939    0.484
       261 -11.3077    130.3967    128.6275   4.2436072774e+01   3.0720985346e+01    0.2530756    0.2437171 -50.13 0.0003899542    1.049    0.047
       262 -13.0429     58.2924    126.4564   6.4186443513e+01   4.3640396317e+01    0.6474465    0.3925537 -27.50  0.002574003    2.130    0.531
       263 -12.4544     53.8190    126.7079   6.5919799966e+01   4.4201693301e+01    0.4026726    0.3302982  -6.42   0.00144921    1.320    0.242
       264 -11.8183     75.0000    124.6260   5.7778738319e+01   4.1536755586e+01    0.4304015    0.2282346 -59.14   0.00123935    1.999    0.500
       265 -12.8853     76.9640    119.6061   5.5959841422e+01   4.2455605733e+01    0.6169742     0.394776  43.13   0.00114945    1.571    0.364
       266 -12.4779     10.4053    124.5923   8.3043691191e+01   4.9281082575e+01    0.5418726    0.1891352 -48.08  0.001897569    2.740    0.635
       267 -11.2696    186.6114    123.9176   3.0196609368e+01   2.1785689966e+01    0.2931393    0.2164243 -28.74 0.0008200508    1.351    0.260
       268 -12.5352     19.5599    130.6697   8.0069715939e+01   4.6913212400e+01    0.5722985     0.404155  -5.77  0.002479175    1.547    0.353
       269 -11.8797     20.7344    122.9800   7.8536188144e+01   4.8932080836e+01    0.3056254    0.2524791   8.53  0.001590773    1.233    0.189
       270 -12.1747    105.8099    121.6448   4.7320722580e+01   3.6803789028e+01    0.4074737    0.2808371  47.25 0.0002136779    1.497    0.332
       271 -10.2130    100.3015    119.6712   4.8462233539e+01   3.8276412244e+01    0.2422349    0.1873874  54.45 0.0005148802    1.402    0.287
       272 -10.9955    194.4787    122.5191   2.8684114698e+01   2.0763332978e+01    0.2162892    0.1247217  47.91  0.001121516    2.045    0.511
       273  -9.8619    169.6570    122.2733   3.2751981319e+01   2.4916059739e+01    0.1868852    0.1121622 -36.08 0.0003834638    1.605    0.377
       274 -10.2986    224.1069    120.6293   2.4271815351e+01   1.6661071742e+01    0.1474041    0.1291368 -40.74 0.0004703601    1.114    0.103
       275 -11.8041     82.7222    114.1389   5.2693079509e+01   4.2779589431e+01    0.4899662    0.2523318 -48.30  0.001941941    1.958    0.489
       276 -10.8599    201.5432    120.4642   2.7235479540e+01   1.9997485085e+01    0.2093974    0.1223705  49.51 0.0008078226    2.057    0.514
       277  -9.5299     36.5122    119.4622   7.1398769138e+01   4.8316407759e+01    0.1493334    0.1464011  -3.06 0.0002203827    1.013    0.013
       278 -10.7536     23.8255    115.5013   7.6075367754e+01   5.0700830456e+01    0.3028366     0.262618 -69.16 0.0006481912    1.160    0.138
       279 -11.9962     18.9889    114.0063   7.7941977289e+01   5.1535108901e+01    0.3592955    0.2315138  39.93  0.001659216    1.607    0.378
       280 -12.5137      9.5225    116.0160   8.2362670785e+01   5.1697994483e+01    0.7544922    0.2554397 -46.60  0.002610319    2.833    0.647
       281 -10.1577     94.6920    117.0264   4.9530031234e+01   3.9924063309e+01    0.2199549    0.2056016 -40.43  0.001171187    1.080    0.074
       282 -11.9672     18.1797    117.6015   7.8835401797e+01   5.0620985084e+01    0.3348259    0.2329808 -25.16  0.001379765    1.533    0.348
       283 -11.4610    116.4657    113.1687   4.2334938187e+01   3.6631132662e+01    0.3349375    0.2349009  10.83  0.001459776    2.105    0.525
       284 -10.7938    104.8465    114.3181   4.5828862723e+01   3.8626797986e+01     0.243747    0.1897413  60.11   0.00118059    1.446    0.308
       285 -11.3121     62.9265    113.3435   5.9589572113e+01   4.6314698624e+01    0.2982887    0.2303906 -81.98 0.0009876816    1.583    0.368
       286 -10.9484     62.0688    108.8088   5.8845056792e+01   4.7587039549e+01    0.3037896     0.260849  70.62  0.001525709    1.344    0.256
       287 -11.0612     58.5132    114.0322   6.1439072230e+01   4.6821036585e+01    0.2900595    0.2212267  26.53 8.150999e-05    1.289    0.224
       288 -10.7875    109.8399    112.2836   4.3911966630e+01   3.8110282065e+01    0.2455468    0.2005536 -60.16 0.0003156105    1.294    0.227
       289 -11.2633     26.5417    124.8224   7.6408111426e+01   4.7900813080e+01    0.3159573    0.2615609 -70.77  0.001629171    1.215    0.177
       290 -12.0607      2.3267    106.6162   8.4396366277e+01   5.4690463149e+01    0.5382168    0.2549363 -70.56  0.001846561    1.962    0.490
       291  -9.2677    198.5128    111.4691   2.5880110681e+01   2.1923417249e+01      0.12284    0.1032589 -45.03 1.100896e-05    1.003    0.003
       292 -11.1506     52.5130    110.7636   6.3070145627e+01   4.8544086943e+01    0.2779615    0.2464931  20.92 0.0002782056    1.104    0.095
       293 -10.0446    210.1204    108.8344   2.3797831403e+01   2.0506197935e+01    0.1786255    0.1376326 -54.97 0.0004587796    1.205    0.170
       294 -10.6861    169.9957    109.0043   2.9815663307e+01   2.7217055302e+01    0.1548753    0.1469341 -56.62 0.0004182182    1.060    0.056
       295  -9.5193    101.4767    109.4598   4.5598115239e+01   4.0352107304e+01    0.1483979    0.1458754  59.42 0.0001232219    1.026    0.025
       296 -10.9445    159.3633    106.6441   3.1192924032e+01   2.9598109018e+01    0.2624492    0.2144411 -86.73  0.001045218    1.444    0.308
       297 -12.5438     10.9849    102.0164   7.9719560971e+01   5.5397448230e+01    0.5389756    0.4739029 -62.91            0    1.112    0.101
       298 -11.8033     12.0208     98.3095   7.8627469449e+01   5.6313359066e+01    0.8149168    0.2714066  27.23 0.0003309884    2.753    0.637
       299 -11.3497     78.8854    101.7235   5.0851204533e+01   4.6393908098e+01     0.315468     0.277804  75.08 0.0007642886    1.293    0.226
       300  -9.9086    158.3605    102.1002   3.0333521065e+01   3.0600683795e+01     0.202077    0.1127766 -51.67 0.0009415083    1.777    0.437
       301 -10.6667    154.0275    100.8111   3.0843759127e+01   3.1666446327e+01    0.3336535    0.1815193 -46.71  0.001561625    1.726    0.421
       302 -10.9279     55.5815    101.6946   5.9673612139e+01   5.0375278996e+01    0.2686218    0.2535574 -64.33 0.0006087826    1.123    0.109
       303 -11.0437     57.0932     97.6763   5.8033762558e+01   5.1124127944e+01    0.4422052    0.2943323  38.12 0.0004265162    1.462    0.316
       304 -12.1544     95.8292     99.7511   4.4763951596e+01   4.3586137407e+01    0.7160047    0.3409888  53.54  0.001939692    2.541    0.606
       305 -10.2141     84.9265    100.8439   4.8551383504e+01   4.5464068257e+01    0.2242182    0.2022758   3.66 0.0003262575    1.196    0.164
       306 -11.1890    162.0510     98.9993   2.8950021046e+01   3.0439530883e+01    0.2178238    0.1530059 -70.28  0.001125767    1.720    0.419
       307 -10.5930    188.8628     98.0284   2.4477177177e+01   2.5692933104e+01    0.1861048    0.1610893 -49.36 0.0004679197    1.019    0.019
       308 -10.4946    104.9852     97.2973   4.1400064180e+01   4.2265080157e+01     0.240654    0.2059932 -45.20 0.0006016691    1.188    0.158
       309 -10.7035    178.7060     96.4392   2.5633223294e+01   2.7760201578e+01    0.2716368    0.2066214 -86.24 0.0009162319    1.578    0.366
       310  -9.6983     26.5160     99.5383   7.1954778580e+01   5.4708644605e+01    0.1457353    0.1416867  -5.14  8.32331e-05    1.035    0.034
       311 -12.4268     77.9386     92.3606   4.8620286702e+01   4.8695551219e+01    0.6568448    0.3273762  50.69  0.001926485    2.263    0.558
       312 -10.2236     41.4272     91.8372   6.3290220787e+01   5.4889372187e+01    0.2564679    0.1907932  36.53 0.0005557742    1.334    0.250
       313 -10.2187     56.2284     90.9928   5.6602058732e+01   5.2868428629e+01    0.2356182    0.1968676 -23.19 0.0004122289    1.281    0.219
       314 -11.8137     55.1077     86.3801   5.5779371858e+01   5.4135031587e+01    0.6351346    0.5111687  48.44   0.00322408    1.303    0.233
       315 -10.2356     28.3786     90.1077   6.9022989942e+01   5.6945243505e+01    0.2622826    0.1963782   0.80   0.00101927    1.385    0.278
       316 -11.3109      3.2680     88.6798   8.1433052766e+01   5.9422996147e+01    0.3007719     0.251558 -69.45  0.001018235    1.193    0.162
       317 -10.3549     11.5580     86.8613   7.6816572383e+01   5.9351689025e+01    0.2869427    0.2132194  10.59 0.0008453332    1.337    0.252
       318 -11.2969      6.7310     86.5582   7.9277868802e+01   5.9767313062e+01    0.3780834    0.1723151  32.46  0.001185148    2.221    0.550
       319 -10.7714    125.9273     87.6628   3.3427120686e+01   3.9788789504e+01    0.3361674     0.301146 -51.36 0.0007495267    1.105    0.095
       320 -11.0928    149.1786     87.8800   2.8640981978e+01   3.4908694935e+01    0.2672369    0.1815547 -44.39 0.0009643406    1.397    0.284
       321 -11.4811    150.7997     82.0727   2.6903323189e+01   3.5561536536e+01    0.4242988    0.3131391  11.38  0.002096024    2.264    0.558
       322 -11.0375     68.9600     86.5227   5.0236527055e+01   5.1677077661e+01    0.2253978    0.2002211 -48.25 0.0003026055    1.175    0.149
       323  -9.9185    178.0030     86.0005   2.3426113138e+01   2.9565522140e+01    0.1498844    0.1329934 -60.67 0.0003211897    1.024    0.023
       324  -9.6879    100.5205     86.5013   3.9681113601e+01   4.5389789141e+01    0.1457118    0.1416364  52.26  2.63936e-05    1.021    0.020
       325 -10.8685    165.7634     84.4042   2.4928293800e+01   3.2168811167e+01    0.1735797     0.120549  47.30   0.00084718    1.642    0.391
       326 -10.1595    134.0455     84.2304   3.0725242899e+01   3.8692129636e+01    0.2025866    0.1855648  36.62 0.0007222046    1.220    0.180
       327 -11.9926     66.1925     82.1495   5.0002050027e+01   5.3152281107e+01    0.3469293    0.3208036 -13.19  0.001813102    1.128    0.113
       328  -9.3294     20.2347     83.2600   7.1545024596e+01   5.9525404244e+01    0.1396843   0.09899569 -31.57 0.0006712349    1.409    0.290
       329 -10.0728    112.4840     83.2885   3.5499385260e+01   4.3471857474e+01    0.3513044    0.1259646  49.38   0.00123352    2.733    0.634
       330 -11.9077    224.8242     79.9876   1.6590778916e+01   2.2407052702e+01    0.1902555    0.1589798 -56.31 0.0002918169    1.089    0.081
       331  -9.5096     94.9830     80.9775   3.9702713211e+01   4.7649376840e+01     0.171735      0.16875  72.97   0.00041505    1.029    0.028
       332 -11.5488      4.6673     79.9695   7.9196797854e+01   6.1592384848e+01    0.3205909    0.2699049  38.46 0.0006335715    1.301    0.231
       333 -11.7207      8.3698     77.9381   7.6761159952e+01   6.1863267418e+01    0.3823261    0.2893935 -68.19 0.0006171034    1.357    0.263
       334 -10.2235    215.8564     80.1440   1.7524259604e+01   2.3809396140e+01    0.1727625    0.1236775 -55.29  0.000395124    1.174    0.149
       335  -9.8913     52.2072     79.8543   5.5118107193e+01   5.6111963539e+01    0.2186104    0.1977259  61.89 0.0005114101    1.241    0.194
       336 -10.8358    106.3766     73.2739   3.4180331283e+01   4.6643321322e+01    0.4127445    0.2545109  70.62  0.001776305    2.104    0.525
       337 -10.9471    111.1559     77.1844   3.4093198430e+01   4.4889805251e+01    0.5305147    0.3189248  80.18  0.001647361    2.934    0.659
       338 -10.6400    114.7960     75.8030   3.2784189129e+01   4.4343549667e+01    0.3301458    0.2119827 -21.30  0.001430811    2.322    0.569
       339 -10.6180     88.3390     79.1068   4.1201206594e+01   4.9412680625e+01    0.2538244    0.2000553  34.51 0.0007880024    1.296    0.229
       340 -10.5577    161.6566     77.0190   2.3828447355e+01   3.4166561885e+01    0.2236101    0.1837821  31.33  0.001311913    1.596    0.374
       341  -9.5473     75.3101     76.3145   4.4760677993e+01   5.2636117177e+01    0.1486485    0.1166238   1.61  0.000703042    1.632    0.387
       342 -11.3622    206.3882     75.4892   1.7603570696e+01   2.6036239729e+01    0.2444667    0.1980013 -12.82  0.001063357    1.715    0.417
       343 -10.7861     54.9978     74.5286   5.2249016884e+01   5.6822304332e+01    0.3035536    0.2156636  70.48  0.000661772    2.081    0.519
       344 -12.7142     54.9647     68.3889   5.0255350855e+01   5.8136165914e+01    0.3189747    0.3043864  23.01 0.0003934868    1.035    0.034
       345 -10.8635     69.8481     70.8761   4.5024094647e+01   5.4821112646e+01    0.4498501    0.2836269   7.50  0.001683821    2.988    0.665
       346 -10.5762     61.2216     71.7498   4.8718765346e+01   5.6295572457e+01    0.2028687    0.1704354  -1.06 0.0006590218    1.334    0.251
       347 -11.2536    189.0697     70.3905   1.8509663546e+01   2.9842922016e+01    0.2276262    0.1832869 -67.92 0.0004108408    1.131    0.116
       348  -9.1973     11.6963     71.2917   7.3416201204e+01   6.3260466228e+01    0.1374771    0.1037302  50.97 0.0002820018    1.572    0.364
       349  -9.8171    132.9450     70.3398   2.7226687890e+01   4.1295747328e+01    0.1821984    0.1625107  69.68 0.0002681154    1.094    0.086
       350 -10.6607    154.6101     68.1364   2.2768599322e+01   3.6996302025e+01    0.2719056    0.1768067  70.70 0.0005321269    1.617    0.381
       351  -9.7006    111.5504     72.5649   3.2642900678e+01   4.5630990547e+01    0.1411494    0.1329222  76.71 6.739465e-05    1.009    0.009
       352 -11.4662      2.3572     73.3680   7.9246993891e+01   6.3397836111e+01    0.4748996    0.1527215 -54.77   0.00178022    2.515    0.602
       353 -11.8505     10.1993     62.9600   7.2219024773e+01   6.5386993590e+01    0.5060831    0.3157929  -3.75  0.000433631    1.645    0.392
       354 -10.6492     11.9833     59.4613   7.0163587885e+01   6.6050528274e+01    0.2978532    0.2172802  26.96 0.0004519144    1.362    0.266
       355  -9.8587    179.5321     66.0157   1.8712749736e+01   3.2276490777e+01    0.1777644    0.1089611 -40.92 2.956664e-05    1.485    0.327
       356  -9.6890     39.0235     64.6745   5.6516823404e+01   6.1570665747e+01    0.1985979    0.1735535  14.56 0.0005057862    1.068    0.064
       357 -11.0188     46.6904     62.5711   5.2028826213e+01   6.0783497065e+01    0.2233544     0.181615 -81.89 0.0005944392    1.675    0.403
       358 -10.8600    109.4993     59.9640   2.9336021566e+01   4.8215907909e+01    0.2613748    0.1416465 -33.79  0.001150274    2.112    0.526
       359 -11.4116     42.2109     59.1465   5.2994236824e+01   6.2233299287e+01    0.3889854    0.3408867 -19.53  0.001352236    1.167    0.143
       360 -10.3473    155.5909     58.4447   2.0173098678e+01   3.8224129807e+01    0.3265923    0.1668504 -82.58  0.001231892    3.606    0.723
       361 -10.8944     40.8327     53.1003   5.1451607039e+01   6.3674591264e+01    0.2685398    0.1861573  32.31 0.0003501433    1.327    0.246
       362 -10.8753     35.2235     58.3376   5.6307773587e+01   6.3494809167e+01    0.4139399    0.2246311 -26.14   0.00164811    2.615    0.618
       363 -10.6182    182.2664     58.4586   1.6672186954e+01   3.2800961126e+01    0.2629417    0.1339863  59.12  0.001183987    2.101    0.524
       364 -11.1354    100.6174     57.5723   3.0802665534e+01   5.0615078786e+01    0.2459514    0.2117756 -43.47 0.0007004163    1.242    0.195
       365 -10.9694    193.6251     55.7330   1.4828325245e+01   3.1008154388e+01    0.2130883    0.1252109 -48.49  0.001135612    1.420    0.296
       366 -10.7432     19.0146     48.1819   6.2075480373e+01   6.7808272191e+01    0.3264234    0.1809746 -45.23 0.0009647613    1.791    0.442
       367 -12.0101     23.9309     55.4067   6.1623963064e+01   6.5671830802e+01    0.4734282    0.2793317  10.26 0.0008735927    1.849    0.459
       368 -11.2593     19.9033     53.0445   6.3241010233e+01   6.6668774492e+01    0.2780113    0.2372924 -51.82  0.000323399    1.274    0.215
       369 -10.7959    115.6686     54.2634   2.6170651655e+01   4.7699178902e+01    0.2129531    0.1212597 -48.09 0.0004179329    1.830    0.454
       370 -10.7458    120.7129     52.1065   2.4460364250e+01   4.6865909837e+01    0.2303456    0.2045888  88.89  0.001383326    1.047    0.045
       371 -10.7976    174.1214     50.2971   1.5745764483e+01   3.5505992113e+01     0.291027    0.1603818 -50.41  0.001590302    1.610    0.379
       372 -11.2492    110.1096     51.0796   2.6409118480e+01   4.9451480868e+01    0.2046391    0.1834493  38.26 0.0005144673    1.251    0.201
       373 -12.2221     30.1449     49.6824   5.5919646399e+01   6.6023931246e+01    0.3423245    0.3030761 -81.98  0.001260539    1.496    0.332
       374 -11.5227     99.6741     49.5810   2.8413458952e+01   5.2077688230e+01    0.3239683    0.2391758  86.55  0.001238388    1.562    0.360
       375 -10.5013     42.0015     47.9748   4.8848906499e+01   6.4457831273e+01    0.3441948    0.1967867 -48.29  0.001611932    1.949    0.487
       376  -9.9640    160.6167     44.2017   1.5901831235e+01   3.9093049226e+01     0.156747    0.1163231 -29.93 0.0002473145    1.552    0.356
       377 -11.3756    115.9885     42.9432   2.2597300377e+01   4.9246938275e+01    0.2479427    0.2011636  51.44 0.0005145861    1.268    0.211
       378 -10.5999    119.4256     39.7869   2.0955020105e+01   4.8868928708e+01     0.247815    0.2151592  84.06 0.0007502662    1.030    0.029
       379 -11.2182     23.9313     42.3353   5.6712536306e+01   6.8360521690e+01    0.2177464    0.1958227 -56.16  0.001317343    1.343    0.256
       380 -10.5255    142.7306     41.9990   1.7749255435e+01   4.3268156648e+01    0.1634377    0.1077102 -39.08 0.0008977487    1.542    0.351
       381 -11.2113     33.6816     40.2672   5.0061917515e+01   6.7275705999e+01    0.4233833     0.149098  33.59  0.001568187    2.732    0.634
       382 -10.4251    161.0384     38.4721   1.4419680222e+01   3.9724228533e+01    0.1871883    0.1686277 -27.83 0.0003275077    1.377    0.274
       383 -10.3634    103.4817     39.4834   2.4113016510e+01   5.2629887291e+01     0.136667     0.120616  80.46 5.318538e-05    1.048    0.046
       384 -11.5607     28.1399     37.2857   5.1973537841e+01   6.8696217618e+01    0.3116896    0.1856537 -44.24  0.001022155    1.812    0.448
       385  -9.9553     80.5140     36.5234   2.8957327032e+01   5.8362145117e+01    0.2417716    0.1178053 -47.41  0.001036767    2.434    0.589
       386 -10.1318    120.1905     32.7559   1.8640681810e+01   4.9575963419e+01    0.1897083    0.1558641 -88.55 0.0003427031    1.117    0.105
       387 -10.8881    106.4046     32.3179   2.1076907732e+01   5.2863652909e+01    0.3503783    0.2086417  78.41  0.001715219    1.757    0.431
       388 -11.9183     31.8198     31.7585   4.7254956386e+01   6.9063147147e+01    0.3614812    0.3322299 -27.58  0.001484266    1.222    0.181
       389 -11.0924    114.8050    247.4837   6.6298964748e+01   8.3179706839e+00      0.35578    0.1733007 -51.01  0.001810229    2.259    0.557
       390  -9.7621    224.3981     29.8589   7.1260523431e+00   2.8687117745e+01    0.1315392   0.08826093 -32.74 0.0003232996    1.597    0.374
       391 -10.8025     77.2260     30.4024   2.7523632736e+01   5.9930226182e+01     0.197657    0.1194478  68.28 0.0009493635    1.702    0.412
       392 -10.0295      2.4779     30.4974   6.7074932787e+01   7.3136075596e+01    0.1306273    0.1088931  -8.26 -9.656474e-06    1.009    0.009
       393  -9.5864    114.6517     27.3132   1.7879066521e+01   5.1514932484e+01    0.1386785   0.08958621 -73.74 0.0007046562    1.719    0.418
       394 -11.9689     85.4026     24.1169   2.2824455545e+01   5.8792869085e+01    0.4044001    0.2585367  61.71  0.001663535    1.348    0.258
       395 -11.3603     80.7507     18.7769   2.1868875486e+01   6.0479469008e+01    0.3036501    0.2508699 -85.16  0.001313519    1.280    0.219
       396  -9.6246      1.4911     25.5202   6.5791036737e+01   7.4200010866e+01    0.1288393    0.1068602  -5.24 0.0008102796    1.002    0.002
       397 -10.4553     70.4725     21.0199   2.5634476602e+01   6.2621435846e+01     0.179762    0.1336944 -29.17  0.001024832    1.570    0.363
       398 -10.3085     98.7378     19.7510   1.8248385489e+01   5.6114672023e+01    0.1804016    0.1366946 -82.50  0.001044527    1.341    0.254
       399 -10.1412     60.5137     20.4735   2.8626524236e+01   6.4936752516e+01    0.1340997    0.1135943  49.30 7.141268e-05    1.019    0.019
       400 -10.8590     92.4267     18.3157   1.9004668063e+01   5.7765455401e+01    0.2339266    0.1965101 -88.33  0.000492288    1.159    0.138
       401 -11.0786     66.9853     16.3832   2.4647877039e+01   6.3935970241e+01    0.2065576     0.195937 -25.29 0.0003031395    1.238    0.192
       402 -12.2548     49.7825    238.3805   8.1290987131e+01   1.6843888360e+01    0.5147629    0.3502806  39.95  0.002196806    1.310    0.237
       403  -9.2881    178.5174    247.5009   5.2878594680e+01   1.9170104167e+00     0.116444   0.08751627  -6.16  1.57779e-05    1.020    0.019
       404 -10.1371     99.6975    246.6576   6.9732814053e+01   1.0063895128e+01    0.2064578    0.1291397 -12.32  0.001043381    1.777    0.437
       405 -10.2592    162.8817    246.1546   5.5747301704e+01   3.6136781474e+00    0.1683507    0.1362375   9.43 0.0004496365    1.200    0.167
       406 -10.0859    124.8130    249.9159   6.4322469901e+01   6.8457886670e+00    0.1920254    0.1385753 -12.18  0.001153211    1.288    0.224
       407 -10.2699     78.0351    243.1105   7.4610138285e+01   1.3024019367e+01    0.1969324     0.163571  10.44 0.0007431837    1.068    0.063
       408 -10.3514    126.2614    241.6741   6.2975708503e+01   8.1361533297e+00    0.1772898    0.1704769 -26.15 0.0006009995    1.338    0.253
       409  -9.7777    246.9109    241.4696   4.0663182237e+01  -2.9108043052e+00    0.1307752   0.08200955  13.15  0.001021179    1.582    0.368
       410 -11.6089     53.0042    243.6223   8.0889929235e+01   1.5444624425e+01    0.7547547    0.2923321 -35.82  0.002651082    4.524    0.779
