#   1 NUMBER                 Running object number                                     
#   2 MAG_AUTO               Kron-like elliptical aperture magnitude                    [mag]
#   3 X_IMAGE                Object position along x                                    [pixel]
#   4 Y_IMAGE                Object position along y                                    [pixel]
#   5 X_WORLD                Barycenter position along world x axis                     [deg]
#   6 Y_WORLD                Barycenter position along world y axis                     [deg]
#   7 A_WORLD                Profile RMS along major axis (world units)                 [deg]
#   8 B_WORLD                Profile RMS along minor axis (world units)                 [deg]
#   9 THETA_WORLD            Position angle (CCW/world-x)                               [deg]
#  10 FWHM_WORLD             FWHM assuming a gaussian core                              [deg]
#  11 ELONGATION             A_IMAGE/B_IMAGE                                           
#  12 ELLIPTICITY            1 - B_IMAGE/A_IMAGE                                       
         1 -11.5431    248.3158    107.7802   7.1181122712e+01   9.1289044795e+00     1.075655    0.3622622 -27.64  0.003964833    2.784    0.641
         2  -9.5353    230.8837      2.0902   4.5328784927e+01   2.6216838434e+01    0.3637188    0.2028154 -84.90   0.00107363    1.999    0.500
         3 -11.4750    247.2265     32.9287   5.2160704749e+01   1.9012323070e+01    0.9195889     0.709347 -45.08  0.005136345    1.194    0.163
         4 -11.0303    227.9178     32.6698   5.4125573889e+01   2.3684173842e+01     1.062762    0.4644521 -19.44  0.004068777    2.449    0.592
         5 -11.1853    249.0648      8.4186   4.5594770198e+01   2.1231055319e+01     1.037654    0.3217176 -25.98  0.003944818    2.774    0.639
         6  -9.8517    232.9516     10.6332   4.7492571012e+01   2.4868301746e+01    0.4332511     0.251557   8.31   0.00185576    2.524    0.604
         7 -10.6933    238.1958      8.3096   4.6421363570e+01   2.3824621553e+01    0.6755888    0.3400471 -56.07  0.002901621    2.067    0.516
         8  -9.9018    233.2514     20.7107   5.0233979423e+01   2.3731876201e+01    0.5309331    0.3600927  -4.94   0.00260116    1.717    0.418
         9 -10.7548    239.2936     18.6072   4.9093671610e+01   2.2491635278e+01    0.6875718    0.3333456 -40.71  0.002954759    1.830    0.454
        10 -10.5152    244.0686     21.0741   4.9320573752e+01   2.1084510039e+01    0.6564148     0.281592 -18.68  0.002097105    2.481    0.597
        11 -11.2799    248.0857     16.7055   4.7821212354e+01   2.0606641765e+01    0.9776314    0.3541738 -45.29    0.0038495    2.532    0.605
        12  -9.4682    199.7780     15.1627   5.2166844084e+01   3.2877514116e+01    0.3036112    0.2300363 -23.35 0.0006401597    1.318    0.241
        13 -10.1058    219.9014     16.7594   5.0447589550e+01   2.7492255767e+01    0.4811117    0.2898736 -80.90  0.002164715    1.974    0.493
        14  -9.5209    221.8610     12.8971   4.9143284798e+01   2.7401437376e+01    0.3180408    0.2865676 -36.62   0.00185275    1.065    0.061
        15  -9.6469    223.2354      6.4642   4.7187112349e+01   2.7702093991e+01    0.6672572    0.3358447  74.37  0.002774284    2.023    0.506
        16  -9.8356    220.3429      3.1663   4.6505943362e+01   2.8750844369e+01    0.2747107    0.1824761 -23.87 0.0007443022    1.482    0.325
        17  -9.9214    155.1373     11.2815   5.6981096150e+01   4.5171998410e+01     0.614555    0.2558638 -19.52  0.002285187    2.508    0.601
        18 -11.3550     68.6205     11.1427   7.8396889406e+01   6.4947085445e+01    0.4291179    0.2821359  18.76  0.002235055    1.709    0.415
        19  -9.5690     83.8537     10.6141   7.2975285820e+01   6.2168627611e+01    0.3707923    0.2216275  -9.87  0.001778132    1.824    0.452
        20  -9.9865    129.1609     10.7304   6.1485560273e+01   5.1914662026e+01    0.2789266    0.2252918 -41.62 0.0008970735    1.329    0.248
        21 -10.6866    213.1402      8.2087   4.8630774959e+01   3.0103340199e+01    0.4824338    0.3788073 -56.12   0.00261068    1.245    0.197
        22  -8.7210    178.8456      9.1582   5.2790301109e+01   3.9065756800e+01    0.1910046    0.1603925  32.52 0.0002407032    1.251    0.201
        23 -10.1100    184.2722      5.4839   5.0889218139e+01   3.7970219198e+01    0.5754658    0.1953397 -33.84  0.002078635    2.652    0.623
        24  -9.3858    131.2903      6.4766   5.9291229335e+01   5.1823207610e+01    0.4953229    0.2864273 -44.92  0.002199996    1.969    0.492
        25 -10.0203    115.2413      7.8632   6.3245071243e+01   5.5611123395e+01    0.2830796     0.189587   7.56  0.001367628    1.636    0.389
        26  -9.7442     21.9878      8.0015   9.7483242396e+01   7.1821487124e+01    0.1629205    0.1413361 -72.43  0.001132783    1.696    0.410
        27  -9.2867    197.6268      9.5441   5.0657563372e+01   3.4023272952e+01    0.2727201     0.222403 -37.39 0.0008940809    1.197    0.165
        28  -8.8017    102.6116      6.8060   6.5803612880e+01   5.8645955177e+01    0.1990408    0.1175895 -32.61 0.0009477411    1.678    0.404
        29  -9.6128     33.7523      7.2016   9.1116841687e+01   7.0691993853e+01    0.2055748    0.1602189   8.22 0.0006723166    1.346    0.257
        30  -9.4353    111.2497      5.0300   6.2882665396e+01   5.6850967315e+01    0.2557612    0.1832326  -0.40 0.0004856339    1.417    0.294
        31  -8.9942    114.4950      3.0074   6.1234254554e+01   5.6286393509e+01    0.1962124    0.1800906   7.51 0.0006110023    1.037    0.035
        32 -10.2631     74.6698      5.6063   7.3416692265e+01   6.4578710849e+01    0.2792374    0.1897561  35.79  0.001510984    1.469    0.319
        33 -10.6644     64.1180      2.6528   7.5554659175e+01   6.6866038764e+01    0.4799556    0.2874331  29.89  0.001845881    1.751    0.429
        34  -9.2283    240.3316      1.9641   4.4568944018e+01   2.3930289897e+01    0.2580423     0.165542 -71.33  0.001081989    1.614    0.381
        35  -9.9159    202.4604      1.5321   4.7673285467e+01   3.3517360767e+01    0.2711262    0.1606362  64.20  0.001272885    1.629    0.386
        36  -9.1440    149.2630      1.9531   5.4372991858e+01   4.7621173484e+01    0.2355407    0.1926285  87.31 0.0005276431    1.320    0.242
        37  -8.6367    187.0460     16.5197   5.4173111671e+01   3.6110429356e+01    0.2143618    0.1430798  69.82 0.0004645666    1.499    0.333
        38  -8.6637    209.4672    250.4607   1.0354849279e+02  -1.0463471755e+00    0.1059671   0.07478963  32.31 0.0002219882    1.018    0.017
        39  -9.0053    187.8511    203.7174   1.0063490308e+02   7.4994185887e+00    0.1995647    0.1573461 -84.92   0.00122386    2.102    0.524
        40 -10.4510    248.2637    194.2510   8.9133629239e+01  -1.3501147836e+00     0.373346    0.3170402  60.33  0.002553953    1.855    0.461
        41  -9.1103    218.2849    201.5532   9.5161131765e+01   2.6914685258e+00    0.2167219    0.1416456 -46.48  0.001284822    2.205    0.547
        42  -8.4743    160.4399    202.4526   1.0527086245e+02   1.2276737052e+01    0.1201015   0.09897821  46.68 0.0001574582    1.034    0.033
        43  -8.8976    222.3136    201.3255   9.4464194500e+01   2.0572133202e+00    0.1227218   0.07673503  16.71  0.000285753    1.665    0.399
        44  -8.7759     16.4747    201.4694   1.3103175576e+02   3.2031275753e+01     0.101813    0.0708441  72.17 0.0001468686    1.013    0.013
        45  -9.2614    241.3887    199.8986   9.1174632186e+01  -8.5309152613e-01    0.2640941    0.1602113  33.92  0.001241325    1.349    0.259
        46  -8.7015    228.8667    200.7417   9.3305712314e+01   1.0570553407e+00    0.2180038    0.1282735 -51.54  0.001090051    3.355    0.702
        47  -8.8426    203.8022    198.1257   9.7025665247e+01   5.5189764784e+00     0.169722    0.1247714  18.35  0.001073586    1.328    0.247
        48  -9.2300    249.8293    201.3281   9.0107269362e+01  -2.3125478886e+00    0.2278611     0.145889 -32.47 0.0009728046    1.861    0.463
        49  -9.1482     24.0102    198.0007   1.2956770439e+02   3.1914409617e+01    0.1278912   0.09014372  71.19 0.0004772902    1.013    0.012
        50  -9.2188    193.3544    202.6994   9.9532731503e+01   6.7056105600e+00    0.1735084    0.1397132  73.01  0.001103249    1.784    0.439
        51  -9.8975    231.2712    194.3155   9.1833021467e+01   1.3784617364e+00    0.2219784    0.1663535  43.64  0.001393176    1.377    0.274
        52 -11.1748    237.8891    190.5511   9.0116918771e+01   7.1237383332e-01    0.5203254     0.261335 -34.77  0.002832476    2.251    0.556
        53  -8.9153    215.2836    191.8639   9.4045665499e+01   4.3401661265e+00    0.2337762    0.1295604  53.06  0.001209621    2.089    0.521
        54  -9.0388    199.1421    191.4753   9.6735626134e+01   7.1671806107e+00    0.1998352    0.1475287 -64.10  0.001139542    2.236    0.553
        55  -8.3424    128.6832    191.7191   1.0964931315e+02   1.9207020685e+01    0.1117422   0.09208174  19.29 0.0004157247    1.578    0.366
        56 -10.0105    249.6464    184.5158   8.7185982884e+01  -5.4313574558e-01    0.3506503    0.1774394 -34.47  0.001905665    2.214    0.548
        57  -9.7535    224.8512    184.8796   9.1231734649e+01   3.5505944520e+00    0.2497237    0.1968632 -40.63  0.001038347    1.628    0.386
        58 -10.7138    242.2929    180.3189   8.7572321970e+01   1.1285572976e+00    0.4187391    0.2660938 -32.52  0.002246496    1.738    0.425
        59  -9.2594    245.6724    178.3274   8.6668480752e+01   7.8928080166e-01     0.205246     0.154829 -71.81  0.001039732    3.327    0.699
        60 -10.0670    236.1169    181.1001   8.8705135608e+01   2.0777536321e+00    0.2750412    0.1953331 -25.33  0.001724675    1.477    0.323
        61 -10.6038    227.2495    179.5641   8.9873294887e+01   3.7798390692e+00    0.4118073     0.314144  44.81  0.001885416    1.359    0.264
        62 -10.0058    157.5327    179.0145   1.0227531367e+02   1.6373059703e+01    0.2660019    0.2184845 -11.57  0.000899543    1.568    0.362
        63  -9.7345    219.2783    178.5492   9.1021037169e+01   5.3010528295e+00     0.303964    0.1473313  54.70  0.001260863    2.680    0.627
        64  -8.2642    152.3088    178.2733   1.0315948762e+02   1.7424096329e+01    0.1214044   0.09524195  18.73 0.0003291894    1.548    0.354
        65  -9.0969    197.6392    176.8083   9.4466450513e+01   9.4223878672e+00    0.1640136    0.1184507 -45.91 0.0008743991    1.691    0.408
        66 -10.3832    233.6773    174.4677   8.7868700587e+01   3.2806358008e+00     0.344704    0.2315795 -32.26  0.002044031    1.622    0.383
        67  -9.6925    225.3656    172.4282   8.8857425510e+01   4.9948742858e+00    0.2921985    0.2051753 -14.56  0.001724323    1.467    0.319
        68 -10.3858    212.4959    169.0494   9.0411081302e+01   7.7679925859e+00     0.366174     0.234872 -40.39  0.001498328    1.797    0.444
        69  -9.4394    212.7057    164.0208   8.9404853763e+01   8.4156550257e+00    0.2578387    0.2076164  23.80  0.001289145    1.111    0.100
        70  -8.8649    169.9974    168.9568   9.8178485655e+01   1.5721316302e+01    0.1541889    0.1476348 -26.95 0.0008368274    1.160    0.138
        71  -9.7248    237.5753    169.8272   8.6350418226e+01   3.1607041571e+00    0.2047212    0.1464007 -29.28  0.001053591    1.483    0.326
        72  -9.5684    147.4162    167.9258   1.0242457503e+02   2.0057749407e+01    0.2495888    0.1752488  47.22 0.0004854711    1.278    0.217
        73  -8.9492    249.2473    167.1944   8.3983231314e+01   1.4551674091e+00    0.1516937    0.1462435   5.52 0.0006622972    1.384    0.278
        74  -9.9663    193.2097    165.7936   9.3237202359e+01   1.1836658686e+01    0.2780364    0.2440591 -34.95  0.001736114    1.272    0.214
        75  -9.6092    234.0378    164.1847   8.5826341952e+01   4.4800319638e+00    0.3282524    0.2317022 -57.19  0.001605498    2.469    0.595
        76  -9.2073    240.4986    162.4946   8.4442966632e+01   3.5362146286e+00    0.3624375    0.1468053 -21.34  0.001491655    2.997    0.666
        77  -8.7011    250.5121    158.4832   8.2056062634e+01   2.2562254469e+00    0.1708175     0.110389 -32.74 0.0007767092    1.631    0.387
        78 -11.0213    246.0910    158.1330   8.2677281201e+01   3.0753609041e+00    0.4272254    0.3321822   7.57  0.002674807    1.128    0.113
        79 -10.4177    230.5224    141.1321   8.1628764270e+01   8.1551269976e+00     0.356464    0.2217439 -30.61  0.001234986    1.585    0.369
        80 -10.5345    234.6083    146.2294   8.2051939383e+01   6.6863309846e+00     0.392576    0.2188622 -39.26  0.001096435    1.975    0.494
        81  -9.6699    226.7933    156.5539   8.5499220457e+01   6.7897821302e+00     0.350871    0.2175695  21.91  0.001546532    1.729    0.422
        82 -10.0292    233.0091    152.5203   8.3635831220e+01   6.1602676560e+00     0.320468     0.240135  -2.53  0.001351357    1.298    0.229
        83  -9.0376    229.1877    152.1992   8.4202739229e+01   6.9190636781e+00    0.2559557      0.20563 -11.56 0.0006611241    1.187    0.157
        84  -8.5943     41.4786    157.5164   1.2330543436e+02   3.7892734213e+01    0.1157537   0.09125293  83.01 -7.275583e-06    1.025    0.025
        85 -11.6316    242.1194    133.0857   7.7980930743e+01   6.9864359554e+00    0.6103987     0.442129 -13.95  0.002250378    1.299    0.230
        86 -10.9737    241.2382    124.5239   7.6183237917e+01   8.3021995469e+00    0.4652695    0.3787439 -63.99  0.002574567    1.781    0.438
        87 -11.0923    249.0398    133.2507   7.6942062762e+01   5.6422025154e+00    0.6538153    0.2840161 -32.26  0.002923649    2.158    0.537
        88  -9.5331    250.2090    140.1443   7.8269925468e+01   4.5494714357e+00    0.2553732    0.1901268  30.69 0.0009702356    1.269    0.212
        89 -11.7905    243.9502    149.2897   8.1194081111e+01   4.5516030951e+00    0.8683017     0.403493 -21.61  0.003935307    2.282    0.562
        90 -10.4302    249.7507    150.5472   8.0547036500e+01   3.3453289257e+00    0.5790324    0.2250134 -33.48  0.002550876    2.511    0.602
        91 -10.1289    221.8653    152.9044   8.5585589927e+01   8.2127361182e+00    0.2951466    0.2073476 -43.17  0.001218518    1.692    0.409
        92  -9.8628    197.4235    149.6860   8.9265925475e+01   1.3458199237e+01    0.3046199    0.1635452 -41.15 0.0008892413    2.016    0.504
        93  -9.5347    229.8284    147.6747   8.3147530793e+01   7.4027143303e+00    0.2495989    0.1817801 -29.91 0.0008512142    1.393    0.282
        94  -8.3928     35.5009    150.4869   1.2393461144e+02   3.9979260609e+01    0.1166675    0.0901456  83.53 -6.506623e-05    1.004    0.004
        95 -10.2385    224.2027    145.9245   8.3721342462e+01   8.7248004905e+00    0.3551944    0.2681114 -11.52  0.001399463    1.313    0.239
        96 -10.6490    225.2610    138.4498   8.1922314230e+01   9.5599464512e+00    0.5187113    0.2223498 -24.23  0.002057452    2.680    0.627
        97  -8.8916    111.8075    147.2125   1.0643098554e+02   3.0272276051e+01    0.1698687    0.1619372 -14.14  0.001061436    1.321    0.243
        98  -9.5446      8.8135    141.6119   1.2901708215e+02   4.4249436572e+01    0.1451419   0.08174676  50.89 0.0009441794    1.669    0.401
        99  -9.3466    218.9804    138.9396   8.3103121171e+01   1.0743349262e+01    0.2035267    0.1742584 -79.10 0.0009045865    1.705    0.414
       100 -10.3876    233.6383    134.8116   7.9725653654e+01   8.4084280955e+00    0.3318545    0.2571977  -7.17  0.001681082    1.230    0.187
       101  -8.6582    164.6726    136.2895   9.2837981753e+01   2.2361053794e+01    0.1398481    0.1117252  84.45 0.0004424632    1.616    0.381
       102  -9.0159     52.9029    135.8744   1.1837611377e+02   4.1197905677e+01    0.1780562    0.1503228 -67.42 0.0006315237    1.237    0.192
       103  -8.9716    169.9301    134.3308   9.1331156167e+01   2.1624782334e+01    0.2015722    0.1729672  36.41 0.0006665885    1.131    0.115
       104  -9.4648     61.8829    129.8749   1.1539111825e+02   4.1422728798e+01    0.1835982    0.1564511 -61.69 0.0004538078    1.247    0.198
       105  -9.9085    221.1914    128.3712   8.0346699309e+01   1.1827587619e+01    0.3274937    0.2590129 -41.28  0.001273508    1.391    0.281
       106 -10.4689    220.2652    122.4038   7.9116858551e+01   1.2897398893e+01    0.4785512    0.2905904  13.98  0.002050204    2.290    0.563
       107  -9.5292    193.1210    127.6578   8.5243478917e+01   1.7859446033e+01    0.2458995    0.1966053 -43.30 0.0007978115    1.336    0.252
       108  -8.4348    186.6860    128.3345   8.6637012535e+01   1.9123727143e+01    0.1421119    0.1152665 -78.84 0.0005288412    1.687    0.407
       109  -8.9391     68.8608    128.1519   1.1341194207e+02   4.0897966072e+01    0.1656561    0.1471651 -53.08 0.0005277565    1.301    0.231
       110 -10.6314    229.0257    124.9819   7.8250317498e+01   1.0703936037e+01     0.489404    0.2636958 -12.18  0.002030999    2.423    0.587
       111  -9.8798    206.2437    126.4751   8.2534740951e+01   1.5247562421e+01    0.2548368    0.2231281 -27.51 0.0006191671    1.150    0.131
       112  -9.1566    250.6711    125.2446   7.4900473792e+01   6.3624652750e+00    0.4069538    0.1208744 -25.53  0.001369592    3.602    0.722
       113  -9.5277    212.5200    124.1525   8.0870894863e+01   1.4272321238e+01     0.339266    0.2229728  -2.34  0.001554094    1.936    0.484
       114  -9.1490    161.4634    124.1005   9.0791702774e+01   2.5264354038e+01    0.2170008    0.1971775 -84.20 0.0005712794    1.229    0.186
       115  -8.9497    188.8215    123.3339   8.5056105739e+01   1.9505203594e+01    0.2054003    0.1851211 -38.65 0.0009667167    1.158    0.136
       116  -9.9367    200.1367    120.1681   8.2161123891e+01   1.7562969896e+01    0.2498479    0.2251365  12.10 0.0004761364    1.074    0.069
       117 -10.3506    241.8800    104.8050   7.1417167091e+01   1.0859885554e+01    0.5302209    0.2465874 -33.77  0.002287321    1.970    0.492
       118  -9.3922    249.6738     70.9519   6.1828479027e+01   1.3740883396e+01     0.268048    0.2224197  22.21  0.001506743    1.298    0.230
       119  -9.4898    238.7443     65.4412   6.1795557300e+01   1.6928632986e+01    0.2988259    0.2264278 -29.33  0.001137578    1.197    0.164
       120  -9.3607    249.9180    117.9041   7.3329548969e+01   7.4662514619e+00    0.2381936    0.1995824  56.60 0.0007457694    1.443    0.307
       121 -10.8390    245.0391     97.5367   6.9169212714e+01   1.1188918432e+01    0.9541864    0.2524293 -38.61  0.003077275    3.595    0.722
       122  -9.9291    246.4264     86.3080   6.6169978588e+01   1.2411916954e+01    0.5087202    0.2841708  57.89  0.002361205    2.005    0.501
       123 -10.8552    247.3280     62.6722   5.9978084313e+01   1.5336949636e+01    0.8157002    0.3995655 -55.45   0.00312975    2.883    0.653
       124  -9.7470    249.8515     98.1572   6.8633179230e+01   1.0098793402e+01    0.3148835    0.2328061 -48.70  0.001263255    1.561    0.360
       125 -10.4263    237.5498     90.0186   6.8374895819e+01   1.3837543444e+01    0.6711197    0.3549993  61.79   0.00290051    2.263    0.558
       126 -10.9632    235.0743     83.9829   6.7183980444e+01   1.5230082677e+01    0.8489234    0.5878466 -89.06  0.003889993    2.237    0.553
       127 -11.5381    243.7204     78.0586   6.4436631719e+01   1.4113566189e+01    0.9981737    0.6023841 -60.05  0.004321485    2.388    0.581
       128 -11.8028    237.2217     72.2770   6.3812318655e+01   1.6358140245e+01     1.289202    0.7949713   0.18  0.005580881    2.139    0.532
       129 -11.3748    244.5300    116.6092   7.3838391880e+01   8.7104885399e+00    0.8388415    0.3276108 -31.87  0.002981379    2.332    0.571
       130  -9.3544    233.9854    247.4863   9.9485280291e+01  -4.2489334428e+00    0.2526477    0.1459345  54.43  0.001534667    2.615    0.618
       131 -10.9855    230.8857    115.8260   7.5792112446e+01   1.1621079365e+01    0.5470289     0.352292  50.69  0.002061617    1.630    0.387
       132  -8.2842    124.7103    119.7047   9.8081252950e+01   3.3607779973e+01    0.1351079    0.1143101  -6.48 0.0002515318    1.552    0.356
       133  -9.7880    218.5309    115.3256   7.7722190527e+01   1.4321570438e+01    0.3903897    0.1860681  49.02  0.001635822    2.093    0.522
       134 -10.1532    213.2832    115.2163   7.8600568991e+01   1.5475193358e+01    0.4446437    0.2102878  35.67  0.001294427    2.494    0.599
       135  -8.3412    203.6957    115.6706   8.0419087989e+01   1.7504247564e+01    0.1509976    0.1089654  12.09 0.0004030997    1.652    0.395
       136  -8.9659     52.3340    113.4681   1.1534841606e+02   4.6244499828e+01    0.2183457    0.1018919 -66.45 0.0007890173    1.846    0.458
       137  -9.8606    104.5301    111.7367   1.0129221002e+02   3.9016542344e+01    0.2405924    0.1900286  44.70 0.0005072028    1.325    0.245
       138 -10.3710    232.4708    105.9743   7.3149253524e+01   1.2689741539e+01    0.4771518    0.3311673  84.25   0.00149167    2.442    0.590
       139  -9.0117    230.5102    102.4868   7.2593765948e+01   1.3612200921e+01    0.2360511    0.1996983  43.88  0.000537473    1.233    0.189
       140  -8.4925    183.6622    107.3312   8.2126264469e+01   2.3386621068e+01    0.1523938    0.1188735 -75.13 0.0007051982    1.738    0.425
       141  -9.4775     15.1053    111.8821   1.2494705945e+02   5.0159713023e+01    0.1778758     0.124563  81.03 0.0004874325    1.240    0.193
       142 -10.2291    221.9905    104.2222   7.4401693656e+01   1.5226113561e+01    0.3826883    0.2696459 -28.34  0.001598699    1.347    0.257
       143 -11.4900    218.4997    103.5029   7.4800327325e+01   1.6108333065e+01    0.6144021    0.4754415  -4.77  0.003169435    1.354    0.261
       144 -10.2883    235.5871    101.7721   7.1626401527e+01   1.2616385327e+01    0.4593039    0.2768407 -43.95  0.001823019    1.799    0.444
       145  -9.9602    236.3435     98.3095   7.0648543579e+01   1.2940454488e+01    0.4684463    0.2385784  63.45  0.001923663    2.581    0.613
       146  -8.2245    196.0633    103.0000   7.8632846306e+01   2.1278647493e+01    0.2379634   0.08420014  52.67 0.0007611372    2.866    0.651
       147  -9.2572    161.7896    100.5300   8.4871434435e+01   2.9596388920e+01    0.2993813    0.2009156 -71.23  0.001218396    2.289    0.563
       148  -8.4602    181.5386     99.4359   8.0485370085e+01   2.5244013524e+01    0.1484752    0.1447221   2.03 0.0002003484    1.010    0.010
       149  -9.5689    130.4357     97.7998   9.1389385137e+01   3.6989202405e+01    0.2468747    0.2109715  49.23 0.0005865323    1.198    0.165
       150 -11.0164    213.0457     95.3666   7.3624635693e+01   1.8581884955e+01    0.3523822    0.2650717  40.60 0.0004710646    1.354    0.261
       151  -9.9880    231.2039     94.0955   7.0367821619e+01   1.4663585717e+01    0.3839744    0.2492937 -26.21  0.001527919    1.439    0.305
       152 -10.4043    177.0241     93.8648   7.9883717759e+01   2.7273168754e+01    0.3810646    0.2992379  40.94  0.001251833    1.293    0.227
       153  -9.1238     51.1175     95.3428   1.1256028520e+02   5.0504362896e+01    0.1696478    0.1522753 -83.76 0.0004436934    1.091    0.084
       154  -9.8130    225.0382     93.1914   7.1096587870e+01   1.6173828852e+01    0.2717364    0.1936214  -0.51 0.0008504841    1.600    0.375
       155 -10.1194    197.2316     91.4338   7.5348329406e+01   2.2898480388e+01    0.3302756    0.2595688 -83.45 0.0009788899    1.715    0.417
       156  -9.8224    195.2811     88.3618   7.4864120041e+01   2.3861578385e+01    0.3218929    0.2422006  37.32  0.001339427    1.383    0.277
       157  -9.3253    170.6318     91.8790   8.0643353415e+01   2.9130653982e+01    0.2724576    0.2055784  36.44  0.001066324    1.398    0.285
       158  -9.8723    217.0173     88.6197   7.1185259551e+01   1.8688269663e+01    0.3578596    0.2722282  40.43  0.001811382    1.353    0.261
       159  -9.5341    226.1048     85.9790   6.9048100497e+01   1.6981132435e+01    0.3641935    0.2077383 -20.45  0.001577235    1.811    0.448
       160  -8.6413    187.9629     86.4706   7.5697550625e+01   2.5928890714e+01    0.2270282    0.1881352 -30.50  0.000148997    1.176    0.150
       161  -8.9610     19.6594     90.3071   1.2102386353e+02   5.4642242022e+01    0.1212578   0.07678758  73.50 0.0007042619    1.685    0.406
       162  -9.0109    139.3136     87.3306   8.6355277892e+01   3.7180052886e+01    0.1540075    0.1205746   3.73 0.0004319988    1.676    0.404
       163  -8.9044    205.9719     83.6873   7.1691464053e+01   2.2045743031e+01    0.2059613    0.2013977  30.78 0.0006542827    1.068    0.064
       164  -8.6354    135.1612     83.1582   8.6155153774e+01   3.8914477036e+01    0.2097412    0.1773612 -66.84 0.0006953967    1.304    0.233
       165  -9.1535    216.0219     81.7354   6.9496954639e+01   1.9951315228e+01    0.2746187    0.1893789 -10.96  0.001267364    1.602    0.376
       166  -8.3971     88.0062     82.0155   9.8567456275e+01   4.8348533328e+01    0.1728644    0.1490714 -54.38 0.0003882831    1.053    0.050
       167  -9.3318    183.8577     81.0732   7.4946053059e+01   2.7822986079e+01    0.2432984    0.2071516 -62.81  0.001154965    1.327    0.246
       168  -8.7806     21.1516     81.2032   1.1916955793e+02   5.6584672567e+01    0.1668582    0.1209803  88.12 0.0007628539    1.327    0.246
       169  -9.6329    224.7644     79.5646   6.7548840973e+01   1.8216456905e+01    0.2588286    0.2057874  10.78 0.0004591962    1.373    0.272
       170  -9.5901    226.8796     74.0981   6.5762866060e+01   1.8501191421e+01    0.4658426    0.3901874   7.65  0.001608407    1.259    0.205
       171  -9.5483    175.2431     77.4140   7.5557536238e+01   3.0546362933e+01    0.3011985    0.2137882 -32.02  0.001386416    1.381    0.276
       172 -10.2833    200.7984     74.3890   6.9966902977e+01   2.4739161086e+01    0.4210868    0.2848701  39.66  0.001922763    1.579    0.367
       173  -8.2612    148.6707     77.7022   8.1324003049e+01   3.6886191345e+01    0.1563514    0.1203068  13.76 0.0007028093    1.638    0.389
       174  -9.6394    212.9543     75.5612   6.8292543798e+01   2.1601967833e+01    0.2772924    0.1873295 -49.55  0.001269923    1.617    0.382
       175  -8.0753    126.4645     76.5035   8.6344232894e+01   4.2118269469e+01    0.1498791    0.1431005 -47.59 0.0008095108    1.022    0.021
       176  -8.4331    154.4845     75.5316   7.9353248460e+01   3.5910041290e+01    0.1526268      0.14902 -35.48 0.0001710425    1.018    0.018
       177  -8.4255    114.7120    120.6629   1.0069268079e+02   3.5278041646e+01    0.1363485    0.1119954 -17.68 0.0003788175    1.634    0.388
       178  -9.3149    119.7916     78.7923   8.8767064385e+01   4.3072921676e+01    0.2486539    0.1769593 -81.59   0.00107644    2.095    0.523
       179  -9.5373    152.7581     70.4352   7.8161674643e+01   3.7236567302e+01    0.2131142    0.1436599  41.67 0.0003994115    1.560    0.359
       180  -8.7077    221.4971     61.4669   6.3065889025e+01   2.1554322769e+01    0.2257163    0.1249642 -38.50 0.0008942582    1.693    0.409
       181  -9.9034    224.0039     64.0011   6.3415382968e+01   2.0597445998e+01    0.4455369    0.2683413 -10.77  0.001716821    1.962    0.490
       182 -10.4420    227.1215     66.8828   6.3766816093e+01   1.9453146173e+01     0.481301    0.3614298 -17.23  0.001634378    1.311    0.237
       183  -9.2222    227.8129     61.2147   6.2114536130e+01   2.0065141673e+01     0.534134    0.1638463 -38.95  0.001560517    2.938    0.660
       184  -9.8938    173.0923     65.0922   7.2245119348e+01   3.3131489454e+01    0.3647991    0.2707233 -66.53  0.001106174    1.684    0.406
       185  -9.1317    198.0947     63.3460   6.7209120630e+01   2.7089595761e+01    0.2658523    0.2024762 -14.10 0.0005724321    1.381    0.276
       186  -9.5943    206.9743     60.1151   6.4835200522e+01   2.5331511672e+01    0.3538602    0.1613823 -50.38  0.001228712    2.766    0.638
       187  -8.5976    181.4050     60.7138   6.9315876782e+01   3.1722760823e+01     0.210028    0.1478198 -18.35 0.0008784682    1.514    0.339
       188  -9.5109    235.6944     59.7274   6.0660776602e+01   1.8395636313e+01    0.3677867    0.2809476  84.25  0.001843652    1.586    0.370
       189  -9.4956    171.8484     59.1668   7.0621418611e+01   3.4397393358e+01    0.4038458     0.271411  52.79   0.00152542    1.499    0.333
       190  -8.8938    175.8314     54.7589   6.8462632548e+01   3.4065005157e+01    0.4050407     0.243416   7.32  0.001460435    2.735    0.634
       191  -8.6469     48.6615     60.6906   1.0539975428e+02   5.8572257537e+01     0.132586   0.08833195 -31.94  0.000704396    1.685    0.407
       192  -8.8108    134.6076     59.1382   7.8704013962e+01   4.3549303997e+01    0.2232493    0.1429582 -23.24  0.000949562    1.736    0.424
       193  -8.8454    193.9118     58.0724   6.6324715291e+01   2.8932556974e+01    0.2602404    0.1804395  23.60  0.001139095    1.777    0.437
       194  -8.6528    126.4154     58.2260   8.0435496818e+01   4.5590275229e+01    0.2171784    0.1344128 -46.85 0.0007915758    1.652    0.395
       195  -8.8132    213.0283     57.4925   6.3161075382e+01   2.4190182974e+01    0.2192964    0.1490768  61.98 0.0006171389    1.555    0.357
       196  -9.2623    250.3438     54.5021   5.7491131803e+01   1.5695533268e+01    0.3252385    0.1755684 -35.52  0.001253877    1.620    0.383
       197 -10.4218    244.6199     51.0966   5.7255302859e+01   1.7427392513e+01    0.4705131    0.2982798 -63.04  0.001671075    1.954    0.488
       198  -9.4965    221.2731     53.5743   6.0872578282e+01   2.2683986468e+01     0.494417    0.2000197 -21.69   0.00173274    2.691    0.628
       199  -9.2033    207.2640     54.3403   6.3097593932e+01   2.6075670975e+01    0.3063157    0.1983551  -5.20 0.0009180871    1.907    0.476
       200 -10.5771    199.1850     53.4841   6.4082679175e+01   2.8249922052e+01    0.4730565    0.3767682 -44.93  0.002367162    1.253    0.202
       201 -10.3347    235.5595     53.3546   5.8950129597e+01   1.9259925318e+01     0.571786    0.3450678  68.97  0.002651542    1.885    0.470
       202 -10.5658    228.6918     51.5816   5.9330860363e+01   2.1135665691e+01    0.5325518    0.4346591  42.38  0.002207386    1.317    0.240
       203 -10.0353    232.6398     44.8603   5.6978118757e+01   2.1040503575e+01     0.535559    0.3339609  26.72  0.002367034    2.124    0.529
       204 -10.1518    163.6604     53.2204   7.0294050477e+01   3.7416940200e+01    0.4925348    0.2463493 -56.36  0.001635107    3.076    0.675
       205  -9.1579    187.9481     51.4860   6.5293634600e+01   3.1426438077e+01    0.3351817    0.1600543  69.35   0.00120086    2.561    0.609
       206  -9.6578    204.8540     49.8459   6.2123090249e+01   2.7309315473e+01    0.3620102    0.2162507  57.15  0.001477681    1.698    0.411
       207  -9.7567    249.8917     45.7510   5.5256705442e+01   1.6876926001e+01    0.7371885    0.1457782 -31.32  0.002298648    3.586    0.721
       208  -9.6103    198.4178     46.1457   6.1968557979e+01   2.9468214600e+01    0.3459915    0.2532043  -7.58  0.001623938    1.524    0.344
       209  -8.7086    185.4736     47.0089   6.4295349958e+01   3.2708652460e+01    0.2268748    0.1487803 -25.24 0.0004402786    1.514    0.339
       210 -10.1030    195.8057     40.4582   6.0603309975e+01   3.0909358988e+01    0.3162785     0.243614 -79.45  0.000618932    1.513    0.339
       211  -8.9450    183.7970     43.2850   6.3381621601e+01   3.3667127400e+01    0.2861911    0.2275497  30.22   0.00123804    1.370    0.270
       212 -10.4830    190.0393     42.9433   6.2266482507e+01   3.2081815783e+01    0.3938626    0.2804525 -16.18  0.001166984    1.479    0.324
       213 -10.9522    185.6093     37.3074   6.1160527205e+01   3.3998201470e+01     0.762843    0.3807947 -49.54   0.00288807    2.305    0.566
       214  -8.9497    166.6459     47.7192   6.7881952634e+01   3.7493323031e+01    0.1618128    0.1142648  27.80  0.000346879    1.657    0.396
       215  -9.2950    238.3018     45.6527   5.6527717642e+01   1.9586242343e+01    0.2759598    0.2214312  -7.94  0.001483427    1.301    0.231
       216  -9.1272    219.2845     46.3116   5.9065684782e+01   2.4136105012e+01    0.2361359    0.2009532  15.00 0.0004545231    1.291    0.226
       217  -9.2118    219.5665     42.2404   5.7856962952e+01   2.4589107136e+01    0.2842659    0.2061771 -13.47 0.0009161026    1.446    0.309
       218 -10.6580    215.6226     40.6052   5.7890917381e+01   2.5789805309e+01    0.6036263    0.3998476  -1.42  0.002562898    1.857    0.461
       219 -11.8807    159.6908     41.3067   6.7033209711e+01   4.0230318335e+01    0.4722962    0.4337378 -27.49 0.0006204069    1.070    0.066
       220  -9.0518    165.4940     39.9908   6.5480839886e+01   3.8913777698e+01    0.3082768    0.1723327 -40.00 0.0009130745    1.775    0.437
       221  -9.1587    124.0691     46.0405   7.6693929818e+01   4.8244561446e+01    0.2268528    0.2177956 -19.67 0.0005271074    1.025    0.025
       222 -10.7291    243.9629     41.8302   5.4863070494e+01   1.8721740032e+01    0.4509388    0.3296561 -31.80  0.001407624    1.225    0.184
       223  -9.6365    238.4341     38.2581   5.4504834744e+01   2.0459288860e+01    0.2730431    0.2557512 -45.99  0.001618939    1.040    0.038
       224  -9.4080    153.4821     42.9626   6.8848709974e+01   4.1577857096e+01    0.3097873    0.2330645  62.48 0.0008809228    1.390    0.281
       225 -10.7384    134.5010     42.1331   7.2703137928e+01   4.6419207599e+01    0.4193774    0.2588462 -33.15 0.0008772092    1.560    0.359
       226  -8.2336     76.7110     43.6860   8.9883254426e+01   5.8133851441e+01    0.1375819    0.1007827 -14.03 0.0002882467    1.588    0.370
       227  -8.9277    142.7059     41.7437   7.0699386142e+01   4.4470486452e+01    0.2376445     0.134803  71.94 0.0009058455    2.372    0.578
       228 -10.1745    201.2747     38.7223   5.9272689960e+01   2.9712247325e+01    0.3166531    0.2620398   8.21  0.001036257    1.341    0.254
       229  -9.2185    169.9601     40.0306   6.4683168732e+01   3.7742516612e+01    0.1864508    0.1787973 -21.86 0.0005984167    1.026    0.025
       230  -8.9533    209.2077     39.2237   5.8330315873e+01   2.7600019295e+01    0.2111717    0.1636885 -56.43 0.0006248454    1.352    0.260
       231  -8.4837     61.3549     38.1807   9.3274166556e+01   6.1573916187e+01    0.1940634    0.1105387 -51.93 0.0009451763    1.729    0.422
       232  -8.8341    187.1408    246.8639   1.0654577269e+02   2.5575976571e+00    0.1414489    0.1009358  26.21 0.0005719326    1.294    0.227
       233  -8.3891    249.3154    246.7232   9.7132493509e+01  -6.2885389827e+00   0.08797143   0.06978686  40.96 0.0003093432    1.567    0.362
       234  -8.7016    191.3398    245.3104   1.0570454264e+02   2.1006105625e+00    0.1082187   0.06650938  23.41 0.0007044971    1.691    0.409
       235  -9.6412    235.1104     32.0133   5.3157028695e+01   2.1999777547e+01    0.4010743    0.3061555  16.38  0.002084398    1.570    0.363
       236  -9.5388    225.3754    243.2925   1.0021296065e+02  -2.6667475201e+00    0.2160015    0.1809784  50.30  0.001733737    1.604    0.377
       237  -9.3845    239.8640    240.5074   9.7659036195e+01  -4.4756656492e+00    0.2182459    0.1460246  51.63  0.001243152    1.988    0.497
       238  -8.8439    246.7257    240.6003   9.6656974549e+01  -5.4387719872e+00    0.1374916   0.07869682  42.16 0.0006661403    1.573    0.364
       239  -9.0159    243.9525    236.8646   9.6536379977e+01  -4.7377846239e+00    0.1765106    0.1506259  73.55  0.001281368    2.453    0.592
       240  -8.7148    182.8133    239.6048   1.0635495975e+02   3.9850464223e+00    0.1564501   0.07930785  48.68 0.0008440627    1.688    0.408
       241  -9.4264    230.8357    236.7864   9.8495605603e+01  -2.8617295006e+00    0.1846852    0.1423616 -22.75  0.001049738    1.595    0.373
       242 -10.0928    206.1276    236.0373   1.0221003504e+02   8.5441535807e-01     0.302858    0.2502143  61.92  0.002292948    1.685    0.406
       243  -8.5166    152.4955     35.5297   6.6400365591e+01   4.2903961199e+01    0.1499221     0.146632 -35.17 0.0008094858    1.046    0.044
       244  -8.9031    118.9625     33.9988   7.3382979681e+01   5.1339155176e+01    0.2353883    0.1747081 -60.72 0.0007780761    1.718    0.418
       245 -10.6717    214.4592     32.1622   5.5558805640e+01   2.7130276433e+01    0.5604894    0.4957401  85.97  0.002942274    1.182    0.154
       246  -9.6047    199.4714     31.4656   5.7282398835e+01   3.1095161087e+01    0.2560449    0.1438612 -24.32 0.0001041446    1.754    0.430
       247  -9.8731    201.5340     27.3128   5.5722254477e+01   3.1054542628e+01    0.3265793    0.1779262 -17.63  0.001352296    1.968    0.492
       248  -8.3970    197.4717     28.5109   5.6630726307e+01   3.1978107237e+01    0.1477787    0.1409934 -51.13 0.0008097302    1.029    0.029
       249  -9.5244    103.8820     28.8394   7.5318180214e+01   5.5476020445e+01    0.3602197    0.2153463  66.26  0.001329449    2.313    0.568
       250  -9.8460    176.9197     27.7201   5.9352048934e+01   3.7519046337e+01    0.3354016    0.2576703 -70.96 0.0008187023    1.494    0.331
       251  -9.5161    118.1576     26.4666   7.0536959148e+01   5.2623680001e+01    0.3025855    0.1902759  -4.28  0.001311011    1.970    0.492
       252  -8.2067    211.0025     28.5058   5.4896444995e+01   2.8452973679e+01    0.2189064    0.1453344  73.42  0.001025911    1.591    0.372
       253  -9.4295     40.9122     25.3667   9.6360606656e+01   6.6674380483e+01    0.2165739    0.1505379 -50.26  0.000828551    1.343    0.255
       254 -10.6355    224.5632     22.9356   5.1734344183e+01   2.5640822306e+01    0.5962018    0.3701271  65.80  0.002870546    1.652    0.394
       255  -9.6497    141.8006     24.0096   6.4245503581e+01   4.7173621811e+01    0.3903705    0.1938255 -46.78  0.001497276    2.363    0.577
       256 -10.9722    110.6130     24.1703   7.1504309566e+01   5.4672576616e+01    0.3578303    0.2772439  11.88  0.001200877    1.371    0.271
       257  -9.8609    117.1982     20.8391   6.8422172008e+01   5.3607677094e+01    0.2507501    0.2374923 -12.87 0.0008688936    1.063    0.059
       258  -9.1433    199.4914     19.9404   5.3690209134e+01   3.2435343834e+01    0.2799077    0.1474166 -15.91  0.001140267    2.083    0.520
       259  -9.4995    219.2811    235.1405   1.0003789924e+02  -1.0174075538e+00    0.2887778    0.1181731  37.61  0.001624801    1.859    0.462
       260  -8.8742    201.5140     11.5343   5.0844085478e+01   3.2797581828e+01    0.2068099    0.1266472  56.41 0.0006004607    1.621    0.383
       261  -8.5242    148.4877     20.5859   6.1641664108e+01   4.5876532356e+01      0.14449    0.1427715 -68.19 0.0001001514    1.070    0.065
       262  -9.4557     88.9949     19.0091   7.5380262016e+01   6.0007651714e+01    0.2199564     0.153725   9.02 0.0005187158    1.625    0.385
       263  -9.6347    238.6007    231.5596   9.6573981328e+01  -3.5092330769e+00    0.3469971    0.1700428  52.54  0.001830195    2.946    0.661
       264  -8.6637    244.5201    231.5327   9.5679529299e+01  -4.3558128311e+00    0.1067016   0.07911463  25.21 9.323176e-05    1.076    0.070
       265  -9.2283    227.4867    219.4834   9.6496555455e+01  -7.0285665116e-01    0.2255519    0.1524871 -15.83  0.001547569    1.635    0.389
       266  -9.9631    229.4473    227.7965   9.7425141878e+01  -1.8175361245e+00    0.3109243    0.1834376 -31.91  0.001743753    2.070    0.517
       267  -9.6730    106.9320     14.9341   6.8427559222e+01   5.6720604579e+01    0.2917037    0.2056565  61.07  0.001135247    1.568    0.362
       268  -9.0777    172.3876     14.1408   5.5379881107e+01   4.0283269242e+01    0.3574395     0.163606  56.98  0.001419259    2.028    0.507
       269  -8.9539    207.6661     13.0766   5.0643286071e+01   3.1028795796e+01    0.2020106    0.1788798 -25.03 0.0005404535    1.130    0.115
       270  -8.7706    229.5110    222.4971   9.6633084435e+01  -1.3114577920e+00     0.153801    0.1217739  46.64 9.706682e-06    1.493    0.330
       271  -9.5501    248.0845    227.0274   9.4476546129e+01  -4.4679017333e+00    0.2035577     0.153063  -4.12  0.000920398    1.319    0.242
       272  -8.8505    164.2538    228.4253   1.0801213686e+02   8.1488277994e+00    0.2236525   0.08596712  40.55  0.001136323    2.076    0.518
       273  -9.1231     99.1470    225.9190   1.1869824999e+02   1.8170732946e+01    0.1698042    0.1130098  62.61 0.0006461498    1.250    0.200
       274  -8.7248    219.3003    224.3592   9.8509301090e+01   5.3561973106e-02    0.1150544   0.07015232  16.85 0.0007036402    1.714    0.417
       275  -8.5191    119.4619     10.4622   6.3438186871e+01   5.4319390126e+01    0.1438999    0.1301439  18.39 0.0002498654    1.033    0.032
       276 -10.5674    238.9190    220.3451   9.4851441479e+01  -2.5150141802e+00    0.3098971    0.2947124  85.82  0.001907582    1.861    0.463
       277 -10.1504    208.6244    222.7890   9.9984193452e+01   1.8671850861e+00    0.3059925   0.08856121  46.63  0.001301507    3.118    0.679
       278  -9.6660    193.5443    219.4188   1.0196520678e+02   4.6267457725e+00    0.2257145    0.1785373  76.52   0.00149246    1.991    0.498
       279  -9.3293     48.8124    219.8597   1.2665056691e+02   2.5507805262e+01    0.1452975    0.1158253  71.37    0.0005633    1.181    0.153
       280 -11.0271    247.6140    216.3329   9.2898733923e+01  -3.4270733275e+00    0.4440008    0.3007397 -34.35  0.002744294    1.942    0.485
       281  -9.6834    219.5169    215.4763   9.7153462073e+01   9.4938519244e-01    0.1736844    0.1015726 -14.53 0.0008603479    2.139    0.533
       282 -11.0763    214.8559    214.7894   9.7799899493e+01   1.7590575709e+00    0.3036897    0.2565765  42.60  0.002009202    1.304    0.233
       283  -8.5084    109.4375    216.4763   1.1603655932e+02   1.8165808363e+01    0.1119001   0.08798722  57.35 0.0002555106    1.020    0.020
       284  -9.4059     62.9855    216.2114   1.2403599345e+02   2.4438435409e+01    0.1618163   0.08955743  71.09  0.001054685    1.618    0.382
       285  -9.6799    232.7122    212.6702   9.4623269199e+01  -8.1497194517e-01    0.2582962    0.1696987 -27.06  0.001208194    1.729    0.422
       286  -9.5340    186.5751    213.0896   1.0223268226e+02   6.5177255745e+00    0.2411791    0.2048784 -60.08  0.001716989    1.638    0.389
       287  -9.1530    132.3113    213.9402   1.1174850215e+02   1.5116935698e+01    0.1545074    0.1323618  59.75 0.0006233474    1.096    0.088
       288  -9.3311    207.2000    209.0276   9.8174279215e+01   3.6407230404e+00    0.1616629    0.1384788 -84.91  0.001083097    1.950    0.487
       289  -8.5487     86.0019    208.4848   1.1939843378e+02   2.2761181115e+01    0.1656468   0.06592035  57.51  0.000808957    2.444    0.591
       290  -9.4119    235.5754    204.0244   9.2778387437e+01  -3.6745464685e-01    0.2020625    0.1492215  47.88  0.001076083    1.557    0.358
