#   1 NUMBER                 Running object number                                     
#   2 MAG_AUTO               Kron-like elliptical aperture magnitude                    [mag]
#   3 X_IMAGE                Object position along x                                    [pixel]
#   4 Y_IMAGE                Object position along y                                    [pixel]
#   5 X_WORLD                Barycenter position along world x axis                     [deg]
#   6 Y_WORLD                Barycenter position along world y axis                     [deg]
#   7 A_WORLD                Profile RMS along major axis (world units)                 [deg]
#   8 B_WORLD                Profile RMS along minor axis (world units)                 [deg]
#   9 THETA_WORLD            Position angle (CCW/world-x)                               [deg]
#  10 FWHM_WORLD             FWHM assuming a gaussian core                              [deg]
#  11 ELONGATION             A_IMAGE/B_IMAGE                                           
#  12 ELLIPTICITY            1 - B_IMAGE/A_IMAGE                                       
         1 -13.8866      5.2829    121.3868   1.2941585478e+02   4.8730420518e+01     11.02181          nan -67.85   0.02580261   10.415    0.904
         2 -13.8277      5.2101    101.4854   1.2760420097e+02   5.3137718378e+01     2.887842     0.498475 -69.60   0.01118482    3.466    0.712
         3 -13.5544      2.7218     72.0837   1.2477092365e+02   5.9910847279e+01     2.055471    0.5397568 -58.32  0.009146785    2.569    0.611
         4 -14.9049      2.4022     24.1543   1.1470440596e+02   7.0408405105e+01     3.862694     1.438542 -59.11   0.02022342    1.852    0.460
         5 -14.4442    195.3705     28.0578   5.7760402740e+01   3.2706743845e+01     3.028594     1.822589  10.87   0.01212227    2.312    0.568
         6 -13.8967    205.9995     15.2168   5.2380954682e+01   3.1355345597e+01      1.99118     1.295473  29.49  0.009094097    1.869    0.465
         7 -11.4576    178.8323    242.1189   1.0885075605e+02   4.2361645495e+00    0.2240198    0.1458837 -57.26  0.001529341    2.393    0.582
         8 -12.1939    139.6243    249.7653   1.1578101434e+02   9.0524000898e+00    0.7241818    0.1650331  39.04  0.002778258    4.552    0.780
         9 -11.0014     70.6742    248.9455   1.2626425963e+02   1.8284938055e+01    0.3341777    0.1771338  40.05  0.001134417    1.791    0.442
        10  -9.4313     62.6621    250.3300   1.2753658948e+02   1.9039675801e+01    0.1570892   0.07359816  63.71  0.001057294    1.732    0.423
        11 -14.6308      4.4557    190.4520   1.3370811578e+02   3.4899218246e+01     1.375064    0.5565147 -84.50  0.008640409    1.989    0.497
        12 -14.4398     10.5249    206.1894   1.3337568953e+02   3.1567574634e+01      1.39425    0.5497561  41.22  0.009063317    2.210    0.548
        13 -15.1017     38.5422    240.8586   1.3060975067e+02   2.3135794781e+01      1.11635    0.7685841  89.02  0.002841048    1.365    0.267
        14 -16.0857      6.1407    243.0777   1.3535704471e+02   2.6038641483e+01     1.748059      1.34899 -77.11   0.01175377    1.742    0.426
        15 -11.8294    193.6380    237.7852   1.0600511103e+02   2.4982777495e+00    0.3421514    0.1926827 -49.37  0.002155907    2.705    0.630
        16  -9.5165     87.3507    240.5814   1.2314904168e+02   1.7402068906e+01    0.1575061   0.09986906  82.81 0.0007343485    1.614    0.380
        17 -10.7510     57.1258    240.3988   1.2779804215e+02   2.1130680743e+01    0.2326229    0.1197869  55.23 0.0008880572    1.376    0.273
        18 -10.2211     52.8482    228.0453   1.2773428075e+02   2.3524425994e+01    0.2406719    0.1089323  76.42 0.0005137129    2.253    0.556
        19  -9.0940     76.5488    223.6922   1.2361287851e+02   2.1339860146e+01     0.128447    0.0829163  81.96  0.000734082    1.458    0.314
        20  -9.8556     53.4160    221.9528   1.2726844664e+02   2.4435700216e+01     0.237965    0.1765604  80.50  0.001360649    1.170    0.145
        21 -12.2343     49.0194    213.6795   1.2746321861e+02   2.6310958465e+01    0.4348206    0.2607214 -60.32 0.0009622187    2.127    0.530
        22 -12.9837     59.1068    204.7720   1.2512798208e+02   2.6655638874e+01     1.228023    0.6815577  62.99  0.007692329    1.471    0.320
        23 -12.1183     71.6705    214.0222   1.2368003405e+02   2.3527492862e+01      0.49833    0.3809526 -50.64  0.003653343    1.978    0.495
        24 -10.9037     65.1707    218.1494   1.2508331193e+02   2.3655583590e+01     0.234079    0.1844638 -74.84 0.0009263917    1.472    0.321
        25  -9.2681     59.3258    218.8914   1.2610274677e+02   2.4240522586e+01    0.1423207    0.1043722  77.17  0.001118735    1.127    0.112
        26  -9.5433     84.2545    217.5549   1.2183367052e+02   2.1319206522e+01    0.1823972     0.133722 -87.01 0.0009181583    1.358    0.264
        27  -9.9471     43.0749    213.9956   1.2846583872e+02   2.6926014983e+01    0.2145445    0.1236532 -70.03  0.001527413    1.833    0.454
        28 -14.1784    109.6858    192.3012   1.1473691303e+02   2.1942431643e+01     2.197498      1.39135  67.75   0.01302148    1.618    0.382
        29 -14.5534     48.5898    126.1299   1.1939215223e+02   4.3734536208e+01     2.396063     1.884192  27.45   0.01438644    1.685    0.406
        30  99.0000     47.8506    149.7852   1.2239973331e+02   3.8648643732e+01     0.972013    0.4971492  59.15  0.004656855    1.891    0.471
        31 -12.1740     90.2731    145.2771   1.1233857180e+02   3.4003984290e+01    0.6339692    0.4888148 -38.34  0.003653152    1.734    0.423
        32 -14.0102     87.9685    201.8875   1.1976572187e+02   2.3429452341e+01     2.201379     1.246568 -89.01   0.01290572    2.051    0.512
        33 -11.9557     57.4576    182.4354   1.2360611164e+02   3.0931433153e+01    0.6380367     0.492964 -76.22  0.003334453    1.312    0.238
        34 -13.0711     58.9669    168.5277   1.2200033691e+02   3.3467041577e+01     1.200115     1.000994 -74.87  0.008631766    1.283    0.221
        35 -13.8430     79.9181    173.4449   1.1830196974e+02   2.9764610731e+01     1.982307      1.21139 -31.94  0.008717784    4.239    0.764
        36 -13.8491     67.9425    148.2313   1.1777561541e+02   3.6529281980e+01     1.327981     1.047266 -57.95  0.007837965    1.405    0.288
        37 -11.2183    198.0330    198.6672   9.9711696752e+01   6.3591888329e+00    0.3949026    0.2170862  40.07  0.002218893    1.521    0.342
        38 -13.8963     74.9052    161.8433   1.1796875918e+02   3.2763177772e+01     1.217251    0.7955081 -46.21  0.006924015    2.063    0.515
        39 -10.6627     65.6140    185.2382   1.2231061047e+02   2.9392645493e+01    0.5627733    0.1791468 -63.31  0.002663421    3.010    0.668
        40  -9.8533    208.4263    186.7802   9.5963826814e+01   6.0958063872e+00    0.1634554    0.1114503 -13.69 0.0009465344    1.684    0.406
        41 -10.5058     28.7574    167.5370   1.2794701689e+02   3.7013975908e+01    0.2936228     0.228874  68.02  0.001788197    1.155    0.134
        42 -12.1545     41.0010    168.8960   1.2563749827e+02   3.5468865677e+01       1.0792    0.3694055 -73.22  0.005284174    2.583    0.613
        43 -11.7240     34.6468    170.2035   1.2699461624e+02   3.5884228708e+01    0.8564529    0.2935877 -66.52  0.004381943    2.566    0.610
        44 -10.2891      1.9298    167.9142   1.3311155572e+02   3.9352008018e+01    0.3547705    0.1242147 -76.69  0.001999995    2.245    0.555
        45 -11.0086    110.3755    146.4539   1.0803156188e+02   3.0542680561e+01    0.3710885    0.2806265 -44.25  0.002087041    1.526    0.345
        46 -11.7067    111.8550    157.9693   1.0959490217e+02   2.7978394138e+01    0.6544023    0.5002303  54.38  0.003717073    1.211    0.174
        47 -11.1530    112.0046    151.8117   1.0857288733e+02   2.9181097299e+01    0.3993393    0.2741673  58.20   0.00150743    1.416    0.294
        48 -10.8273    161.9639    249.2984   1.1227797908e+02   5.9054770543e+00    0.1575627    0.1039413  42.72 0.0008291994    1.113    0.102
        49 -10.2553    120.7273    249.0706   1.1864089789e+02   1.1780089092e+01    0.2276912    0.1186187  32.75  0.001003874    2.288    0.563
        50 -10.6645    132.8397    246.9164   1.1656494577e+02   1.0365488609e+01    0.1560796    0.1176624  39.63 0.0007319074    1.254    0.203
        51 -13.5435     27.1450    248.9758   1.3261102984e+02   2.3123852294e+01    0.5098532    0.2473726  44.76  0.002407748    1.682    0.405
        52 -11.0825    125.0930    150.5030   1.0552375786e+02   2.7185253556e+01    0.4538669      0.23579 -66.53  0.001935002    2.552    0.608
        53 -12.5897    140.4010    137.6214   9.9760957610e+01   2.6882289595e+01    0.6903089    0.3600979  37.37  0.002963464    2.127    0.530
        54 -11.6841    133.0223    140.6554   1.0197577060e+02   2.7687326228e+01    0.7690569    0.3536502 -56.30  0.003152367    2.443    0.591
        55 -12.1159    127.2975    142.5092   1.0358637585e+02   2.8375413293e+01    0.4589657    0.4043354  18.29  0.002677513    1.392    0.282
        56 -13.5184    120.6163    128.1705   1.0226719342e+02   3.2536525206e+01     1.050836    0.9498881 -40.56  0.006137579    1.219    0.180
        57  -8.7023     44.2327    205.3291   1.2773049363e+02   2.8284718957e+01   0.08758654   0.07201985 -72.71 0.0001737995    1.524    0.344
        58 -13.3214    134.8237    124.7337   9.8264588201e+01   3.0542937527e+01    0.9583133    0.5905766 -41.77  0.004474055    1.697    0.411
        59 -12.4673    141.9266    117.6688   9.5036071658e+01   3.0544757284e+01    0.7542834     0.339415 -39.44  0.002884794    2.392    0.582
        60  -9.5693    105.9628    131.0160   1.0626125621e+02   3.4525589231e+01    0.2184013    0.1936485 -86.40  0.001100179    1.048    0.046
        61  -9.9830    100.2264    129.2258   1.0728403365e+02   3.5871249301e+01    0.2417956      0.20442 -25.60 0.0008660745    1.582    0.368
        62 -11.1529     97.1464    122.2266   1.0668780341e+02   3.7905914979e+01    0.6178411    0.5145405  -7.02  0.003400873    1.764    0.433
        63 -10.7903     74.6955    126.0059   1.1292334695e+02   4.0475101399e+01    0.3014991    0.2605143  74.24  0.001605315    1.114    0.102
        64 -12.5273     81.5121    122.0530   1.1054151384e+02   4.0380513312e+01    0.9018155    0.7139938  18.63  0.004458456    1.778    0.438
        65 -12.2326    111.1499    119.0183   1.0259512413e+02   3.6202348019e+01    0.6150157    0.4631103  32.10  0.003213108    1.575    0.365
        66  -9.8144    167.6254    112.3668   8.8123816324e+01   2.6072482680e+01    0.3043156     0.235265 -76.12 0.0008030132    1.721    0.419
        67 -12.1262    119.4607    111.3950   9.8852469052e+01   3.6304387447e+01    0.3896168    0.2962296 -44.37  0.002012087    1.317    0.241
        68 -10.2063     37.8453    108.3688   1.1966823050e+02   4.8903894236e+01    0.3976324    0.1778193 -52.02  0.001931142    2.217    0.549
        69 -11.0510     82.6083    103.7027   1.0662532663e+02   4.4359069217e+01    0.5049613     0.401424  86.78  0.002839779    1.331    0.248
        70 -13.5689    140.7394     95.4635   8.9645695364e+01   3.5271204497e+01     1.395359     0.963807  -5.28  0.005735762    2.354    0.575
        71 -11.5586     75.1636     91.7758   1.0602381729e+02   4.8184855988e+01     0.583095    0.4483874 -85.37  0.003222678    1.405    0.288
        72 -11.5573     82.1746     89.3027   1.0340394009e+02   4.7688455738e+01    0.5954844    0.4628355 -65.37  0.003293435    1.194    0.162
        73 -10.1657     52.2837     90.4151   1.1245356908e+02   5.1494509092e+01    0.3288574    0.1633957 -70.73  0.001524097    1.949    0.487
        74 -11.0475    128.4252     78.8590   8.7839052927e+01   4.1280736469e+01    0.2877742    0.2024307   8.56  0.001201204    2.216    0.549
        75 -10.5435     47.7742     98.8704   1.1538146626e+02   5.0050295653e+01    0.4340267    0.2839883  68.03  0.002401227    1.744    0.427
        76 -11.3035     21.2536     67.7020   1.1779895834e+02   5.9699823927e+01     0.805544    0.2199555 -65.26  0.003281111    2.697    0.629
        77 -11.4776    109.7461     68.0157   8.9361677942e+01   4.7366965464e+01    0.5184093    0.1552479 -45.56  0.001621603    3.153    0.683
        78 -12.0493    169.7248    242.1136   1.1027781804e+02   5.5874157526e+00    0.3662313    0.1378341  35.45  0.001831693    2.599    0.615
