#   1 NUMBER                 Running object number                                     
#   2 MAG_AUTO               Kron-like elliptical aperture magnitude                    [mag]
#   3 X_IMAGE                Object position along x                                    [pixel]
#   4 Y_IMAGE                Object position along y                                    [pixel]
#   5 X_WORLD                Barycenter position along world x axis                     [deg]
#   6 Y_WORLD                Barycenter position along world y axis                     [deg]
#   7 A_WORLD                Profile RMS along major axis (world units)                 [deg]
#   8 B_WORLD                Profile RMS along minor axis (world units)                 [deg]
#   9 THETA_WORLD            Position angle (CCW/world-x)                               [deg]
#  10 FWHM_WORLD             FWHM assuming a gaussian core                              [deg]
#  11 ELONGATION             A_IMAGE/B_IMAGE                                           
#  12 ELLIPTICITY            1 - B_IMAGE/A_IMAGE                                       
         1 -12.8477    249.4868     58.2433   2.0613804578e+01   1.5349516710e+01    0.6332782    0.2141269 -37.08  0.002428679    2.538    0.606
         2 -11.6027    183.6467     14.9279   1.7660403897e+01   3.7237834557e+01    0.3062205    0.2132421  75.19 0.0007888604    1.322    0.243
         3 -14.0808    177.2977      5.7357   1.5844377180e+01   3.9820457666e+01     1.388448    0.6775519  81.26  0.005931059    2.162    0.537
         4 -11.6087     34.9540     13.6482   5.6268536147e+01   6.8519443712e+01    0.2080937    0.1709562 -44.41 0.0006984456    1.584    0.369
         5 -12.3897    153.3917     11.5167   2.1092029233e+01   4.5329574758e+01    0.4027196    0.2152549  37.82  0.001769757    2.138    0.532
         6 -12.7804    162.1367     10.3034   1.9327308563e+01   4.3235222622e+01    0.5281187    0.2452851 -23.92  0.002272626    2.415    0.586
         7 -12.8696    123.1727      7.3357   2.5221023752e+01   5.3128885437e+01    0.5525336    0.3413231  37.52  0.001374437    1.574    0.365
         8 -10.9569     45.1564     11.8765   5.1022929896e+01   6.7491198984e+01    0.1705533    0.1466376 -15.29 0.0007756376    1.214    0.176
         9 -11.9828     27.1207     10.6667   5.8510604751e+01   6.9813443885e+01    0.2618031    0.1457501 -42.42 0.0008371226    1.746    0.427
        10 -11.8557     23.3489      5.4106   5.7854328350e+01   7.0950207318e+01    0.2567701    0.2180242 -75.76  0.001567157    2.624    0.619
        11 -11.3203     49.4921     14.2923   5.0341365908e+01   6.6572438910e+01    0.2385086    0.1672826  -5.85 0.0007802599    1.312    0.238
        12 -10.9951    104.3403     10.5569   3.0774494699e+01   5.7076648211e+01    0.2474856     0.204972 -74.36  0.001435208    1.659    0.397
        13 -11.5004     98.9892      8.4176   3.1277676269e+01   5.8440535172e+01    0.3254496    0.2217766  58.69  0.001244836    1.497    0.332
        14 -12.3193     55.9714      9.1267   4.5377817760e+01   6.6287147347e+01    0.3607326    0.2634057  21.44  0.001788562    1.237    0.192
        15 -10.6272    115.0153      8.7344   2.7512266467e+01   5.4882609551e+01    0.1938201    0.1569061  47.53  0.001141625    1.101    0.092
        16 -10.8613     78.2749      8.3845   3.7224856645e+01   6.2574853369e+01    0.2010226    0.1428043 -41.06 0.0006116425    1.744    0.427
        17 -11.3492      3.6344      8.4152   6.9254469166e+01   7.2151663763e+01    0.2131164    0.1388484 -28.02 0.0008428125    1.158    0.136
        18 -10.9937      7.7348      5.9774   6.6050558414e+01   7.2243764962e+01     0.200722     0.121315  -7.13   0.00064289    1.607    0.378
        19 -12.2663     86.1433      6.8015   3.4138419276e+01   6.1231242844e+01    0.4827027    0.2816263   9.28  0.002410688    2.043    0.511
        20 -12.3073    143.6570      3.2982   1.9988302445e+01   4.8546801322e+01    0.3563968    0.3177861 -34.06  0.001308579    1.252    0.201
        21 -11.8586    134.7917      4.2024   2.1837595607e+01   5.0639807576e+01    0.2713858    0.1740712  57.75 0.0006395244    1.353    0.261
        22 -11.7657    131.4796      3.5352   2.2209589602e+01   5.1500191823e+01    0.2371657    0.2076403  32.01 0.0006562921    1.126    0.112
        23 -11.4046     71.2302     10.0243   4.0268591413e+01   6.3668353008e+01    0.3398918    0.1725728  47.89  0.000982866    1.976    0.494
        24 -11.8129    114.1579      1.9893   2.5101983400e+01   5.5699092675e+01    0.4560418    0.1960334  60.46  0.001556329    2.086    0.521
        25 -11.6880     38.6449      2.6882   4.9392842130e+01   6.9529085980e+01    0.2853386    0.1945121  38.40  0.001530783    1.694    0.410
        26 -11.4111     26.5159    169.5081   9.3125004764e+01   3.6444857494e+01    0.2078424     0.135492  76.91 0.0009546895    1.315    0.239
        27 -11.9318     65.8033    249.5507   9.2258507089e+01   1.5809578757e+01    0.3387587    0.1971116  49.50  0.002235587    1.370    0.270
        28 -16.3578     50.7648    233.2253   9.3622943784e+01   2.0663391210e+01     5.193193     1.990306 -85.75   0.02438154    3.166    0.684
        29 -14.3808     26.7263    162.4644   9.2423697384e+01   3.7983173282e+01     1.116187    0.4695007  49.96  0.005676908    2.305    0.566
        30 -13.2093     52.9686    156.3394   8.5757377806e+01   3.6473517356e+01    0.4428349    0.2526908 -58.66  0.002338641    1.663    0.399
        31 -11.6424     71.6033    159.2304   8.1738817452e+01   3.3341741093e+01    0.1744259    0.1603956 -51.82 0.0005308862    1.318    0.242
        32 -10.8163     85.5227    148.4930   7.6665999545e+01   3.3759499363e+01    0.1414726    0.1243944  89.44 9.586022e-05    1.024    0.024
        33 -11.2137     45.9558    158.4735   8.7659605857e+01   3.6820859066e+01    0.1850877   0.08033671  57.08 0.0008096821    2.557    0.609
        34 -11.8228     63.3482    155.2520   8.3142527373e+01   3.5396881379e+01    0.2529466    0.1905233  67.49 0.0006425309    1.270    0.213
        35 -16.2084     10.9737    177.8966   9.6983957662e+01   3.6113600873e+01     4.132503       1.5068  29.77   0.02055417    3.393    0.705
        36  -9.9473      5.3401    138.3363   9.4992154077e+01   4.5214697302e+01    0.1168518   0.07092288 -52.28 0.0007050961    1.758    0.431
        37 -14.6279     20.9022    248.7285   9.9420357498e+01   2.1414482862e+01     1.128205    0.3819808  40.46  0.006351476    2.641    0.621
        38 -10.9685    107.6602    133.1774   6.8115170312e+01   3.3577278576e+01    0.2672606    0.2011535  56.31 0.0009056912    1.364    0.267
        39 -10.2100     81.4874    132.4581   7.4827758793e+01   3.8157899574e+01    0.1410202    0.1270053 -79.48  6.16312e-05    1.004    0.004
        40 -11.5651     58.4124    130.5352   8.0618798898e+01   4.1835305776e+01    0.3652501    0.1168125 -63.63  0.001355535    2.790    0.642
        41 -10.2832     46.4012    131.1939   8.3897723314e+01   4.3107612900e+01    0.1802173    0.1083401 -79.13 0.0003312918    1.574    0.365
        42 -10.3743     61.5141    130.0019   7.9702519994e+01   4.1565372561e+01    0.1895474    0.1072375 -89.96 0.0008077968    2.376    0.579
        43 -10.9379     77.2342    128.4183   7.5197716387e+01   3.9755403168e+01    0.1946319    0.1250768  51.38  0.000952311    1.659    0.397
        44 -11.0812     17.1697    123.8162   9.0534667040e+01   4.7601254359e+01    0.1789218    0.1342423  89.29 0.0003605737    1.175    0.149
        45 -11.1538     69.6721    118.9395   7.5439051125e+01   4.3084654389e+01    0.1982555    0.1631355 -65.51 0.0006697945    1.083    0.077
        46 -10.3379     53.4335    117.6875   7.9765671647e+01   4.5474963021e+01    0.1890383    0.1070527 -55.10 0.0009421066    1.552    0.356
        47 -12.2824    246.7994    112.5959   3.3689611413e+01   7.3324793566e+00    0.2672389    0.1902648  61.33  0.001372954    1.634    0.388
        48 -10.7304     91.8858    116.0611   6.8615610168e+01   4.0343215795e+01     0.217705    0.1981263 -58.25  0.000401796    1.050    0.047
        49 -10.7517     79.1890    111.4595   7.1177051559e+01   4.3453156343e+01    0.2318662    0.1808871 -38.45 0.0008663963    1.375    0.273
        50 -10.7184     61.9602    112.4617   7.6349104252e+01   4.5645372858e+01    0.1934294     0.101549  57.69  0.000809435    2.609    0.617
        51 -10.5003      2.5142    111.9050   9.2985559809e+01   5.1320161020e+01    0.1604693    0.1301717 -77.03 0.0004239604    1.076    0.070
        52 -10.2114     97.4793    109.4986   6.5523850146e+01   4.0896809418e+01     0.147338    0.1371332 -71.46 1.520476e-05    1.037    0.036
        53 -12.9967    249.7501    102.2258   3.0852064399e+01   8.4169905081e+00    0.7528159    0.1296592 -37.86    0.0020622    4.626    0.784
        54 -10.2950    103.3980     97.1567   6.0713051161e+01   4.2603736080e+01    0.2205161    0.1359397 -59.94 0.0009477602    1.783    0.439
        55 -11.5406     51.3744     96.7869   7.6281374942e+01   5.0575862065e+01     0.204514    0.1008507 -51.67 0.0008292142    1.733    0.423
        56 -10.4442     63.4317     95.7259   7.2308487434e+01   4.9328608178e+01    0.2764673    0.1243357 -61.27  0.001147125    2.177    0.541
        57 -10.4183      4.0123     96.5203   9.0645032801e+01   5.4663405730e+01    0.1357504    0.1179653   8.74  0.000325778    1.523    0.344
        58  -9.6842     81.5531     94.5122   6.6454014236e+01   4.6974233464e+01    0.1417687    0.1297217 -58.05 6.624358e-05    1.037    0.035
        59 -10.9618    132.2055     92.7361   5.1634357618e+01   3.7634696459e+01    0.2629579    0.2428334 -35.84  0.000454577    1.089    0.082
        60 -10.3610     62.0176     90.4675   7.1504506951e+01   5.0704224778e+01    0.2193412    0.1646535 -55.93 0.0008956118    1.180    0.152
        61 -10.6371    107.8205     89.2030   5.7262011173e+01   4.3486211213e+01    0.2514067    0.2492951  75.51 0.0008889157    1.049    0.047
        62 -12.9413    248.8134     87.2711   2.7500096769e+01   1.1026469787e+01    0.5099991    0.2467331 -24.74  0.001999868    2.564    0.610
        63  -9.9109     78.4977     88.4836   6.5824093315e+01   4.8795019368e+01    0.1405945    0.1284209 -47.88 0.0001852558    1.003    0.003
        64 -13.2123     52.2589     78.1629   7.1626598862e+01   5.4635658523e+01    0.6740937    0.3629755  29.80    0.0033622    2.141    0.533
        65 -10.2533    215.9719     78.3228   3.0170027248e+01   2.0013241550e+01    0.1954328    0.1809747  73.99 0.0002757505    1.102    0.093
        66 -10.3490     91.4733     75.0540   5.7966606244e+01   4.9503645614e+01    0.2057584    0.1914934  27.51 0.0005089292    1.127    0.113
        67 -10.0788    104.4863     71.9866   5.3090381189e+01   4.7682542426e+01    0.2255234    0.1394907 -42.60  0.001023081    1.563    0.360
        68  -9.9595     76.5137     71.4715   6.1646822835e+01   5.2736754604e+01     0.138488    0.1249694 -32.24 0.0001183576    1.013    0.013
        69 -11.8358     36.0228     67.3489   7.4493136448e+01   5.8675344584e+01    0.2560407    0.1883692  83.08  0.001455568    1.995    0.499
        70 -15.9767      6.2126    242.9813   1.0139907698e+02   2.3954279523e+01      2.07321     1.322736 -51.12   0.01392428    3.028    0.670
        71  -9.6776    141.6499     65.1900   4.0998689544e+01   4.0774967167e+01    0.1982045    0.1436805 -24.93 0.0001958256    1.517    0.341
        72 -10.2004     67.1638     65.1497   6.2853035959e+01   5.5424536469e+01    0.1713734    0.1525976 -65.48  0.001029901    1.290    0.225
        73  -9.5318    126.3008     64.6976   4.4685174142e+01   4.4437984193e+01    0.1475205    0.1192013 -77.59 0.0007003465    1.587    0.370
        74  -9.7107     75.3475     64.7358   5.9950434798e+01   5.4279374538e+01    0.1276182    0.1086266  80.66 0.0005426865    1.609    0.378
        75 -10.0723      4.2330     64.5838   8.5327530064e+01   6.1577499012e+01    0.1382014   0.09638547 -24.01 0.0005133815    1.583    0.368
        76 -10.2218     43.7527     62.8098   7.0461019164e+01   5.8837701372e+01     0.163647    0.1428315 -73.82 0.0006626306    1.354    0.261
        77 -10.8634    117.7447     61.5406   4.5944598547e+01   4.6901332307e+01    0.4221176    0.1990247  51.00  0.001658421    2.183    0.542
        78 -10.8242     98.7312     61.1130   5.1288809123e+01   5.0883949125e+01    0.3276744    0.2193427 -61.93  0.001451347    2.070    0.517
        79 -10.2724     34.3595     61.4123   7.3528752825e+01   6.0068402094e+01    0.2175826    0.1101469   2.43 0.0009481884    3.367    0.703
        80  -9.9905     56.9585     60.2588   6.4917225730e+01   5.7793920036e+01      0.17399    0.1594325 -18.34 0.0004024215    1.088    0.081
        81 -10.9311      4.2141     60.0866   8.4423152641e+01   6.2516226922e+01     0.241692    0.1694113   7.31  0.001667063    1.777    0.437
        82 -10.7678     96.4498     55.7072   5.0151156911e+01   5.2306233470e+01    0.2227853    0.2150906   4.10 0.0003257775    1.071    0.067
        83 -10.4533     78.0780     55.8675   5.6117824042e+01   5.5546812616e+01    0.1923276    0.1848656 -67.29 0.0004706566    1.253    0.202
        84 -10.5833     64.3061     55.6565   6.0811824494e+01   5.7695863842e+01    0.1249648    0.1050433 -81.03  0.000472336    1.690    0.408
        85  -9.6618     82.9693     54.0201   5.3855242495e+01   5.5063827635e+01    0.1623712    0.1453796 -20.92 0.0003164118    1.023    0.022
        86 -11.6172     94.0196     48.7880   4.8469193267e+01   5.3975287749e+01     0.235175    0.1899439 -29.63  0.001305993    1.189    0.159
        87 -15.0475      5.0432    202.7230   9.9641534248e+01   3.1567062704e+01     1.605845     1.017576 -78.64   0.01153034    1.379    0.275
        88 -10.1312     20.7658     44.7783   7.4106631543e+01   6.4541331357e+01     0.142096    0.1236698 -57.25 0.0003938404    1.261    0.207
        89 -10.6151     38.9639     43.7572   6.6386259271e+01   6.3078340892e+01    0.2036109    0.1740925  43.90  0.001360979    1.547    0.353
        90 -10.1684    119.0464     42.3398   3.9008495047e+01   4.9788339438e+01      0.20495    0.1830736  45.87  0.001147861    1.101    0.092
        91  -9.6999     45.5063     42.4408   6.3331762493e+01   6.2591659253e+01    0.1239769    0.1041266 -26.71 0.0002092625    1.024    0.024
        92  -9.6362     69.6104     39.2764   5.3074677703e+01   5.9826985377e+01    0.1199304    0.1056495  83.82 0.0006996875    1.731    0.422
        93 -10.8651     39.6724     36.4616   6.3536260574e+01   6.4322367833e+01    0.3411784    0.2010323   9.89  0.001857631    2.074    0.518
        94  -9.6112    161.7082     36.7279   2.7690452645e+01   4.0218559005e+01    0.1448684     0.107698  33.38            0    1.515    0.340
        95 -10.8156     82.0644     35.8707   4.7478375961e+01   5.8274153600e+01    0.1851231    0.1752739 -22.57 0.0003271033    1.185    0.156
        96 -10.1744     57.9373     35.8559   5.6064478285e+01   6.2135993401e+01     0.205476    0.1296361   7.48 0.0003714158    1.965    0.491
        97 -10.3303    154.1387     32.0831   2.7631599392e+01   4.2761833409e+01    0.2162596    0.1834878  38.73  0.000394795    1.199    0.166
        98 -10.4254     17.7388     31.7839   7.1267295301e+01   6.7198596713e+01    0.1674517    0.1191208 -33.54  0.000425396    1.104    0.094
        99  -9.7102     92.4272     31.4293   4.2445388725e+01   5.6991615938e+01    0.1325287    0.1209365   6.84 0.0001110176    1.035    0.034
       100 -10.4265      3.7231     31.5436   7.7452933836e+01   6.8160387166e+01    0.1202134    0.1021013  17.37 0.0006356023    1.487    0.328
       101  -9.5546    104.2895     28.3018   3.7779109982e+01   5.5002107806e+01    0.1392946   0.09784679  18.51   0.00030257    1.564    0.361
       102 -10.6595    160.4911     27.0251   2.4851758420e+01   4.1784652416e+01    0.2070182    0.1876235  67.27 0.0004627097    1.025    0.024
       103 -10.7004     48.5892     32.2206   5.8304360125e+01   6.3989637808e+01    0.1766641    0.0983799 -31.58 0.0004439782    1.625    0.385
       104  -9.9587    131.3210     26.3568   3.0369145182e+01   4.9121921962e+01     0.152268    0.1003352  26.47 0.0007045316    1.762    0.432
       105 -10.2473    110.8940     24.6834   3.4627965992e+01   5.4038382472e+01    0.1956326    0.1627239  53.53  0.001116729    1.205    0.170
       106 -11.1189     87.1733     22.3831   4.0430261650e+01   5.9235647967e+01    0.2456127    0.1827964 -40.45  0.001395854    1.534    0.348
       107 -12.2301     96.4423     22.1584   3.7573752952e+01   5.7426001776e+01    0.2854105    0.2496484  55.77 0.0003314349    1.283    0.221
       108 -10.7779     38.1754     22.6389   5.8762681585e+01   6.6793667217e+01    0.1963749    0.1487764 -19.06 0.0005073703    1.078    0.073
       109 -11.6365     35.2309     19.7690   5.8836082983e+01   6.7574213093e+01    0.2254855    0.1717504  -7.78 0.0008209762    1.143    0.125
       110  -9.9100      2.9595     23.7758   7.5340564111e+01   6.9609392711e+01    0.1194148   0.08247674   2.33 0.0002673509    1.579    0.367
       111  -9.8760     72.5612     22.5034   4.5276126933e+01   6.1874993162e+01    0.1281902    0.1093314   0.97 0.0001058108    1.008    0.008
       112 -10.2159    147.3755     18.7057   2.4501943673e+01   4.6077776169e+01    0.1800232    0.1350461  -5.52 0.0004282049    1.571    0.363
       113 -11.9207     19.9104     17.4118   6.4871985085e+01   6.9473230128e+01    0.2522426    0.1768029 -16.61  0.001301747    1.226    0.184
       114 -11.1252     66.0309     16.6555   4.5056754288e+01   6.3745167692e+01    0.2193133     0.160199 -13.52  0.000382543    1.253    0.202
       115 -15.3554     33.7662    239.0098   9.6857797235e+01   2.1672295037e+01     1.337677    0.7105037  62.23  0.007794904    1.408    0.290
       116 -11.8343     77.2866    242.6733   8.9759798975e+01   1.5421570506e+01    0.2144867    0.1400154  68.10  0.001417853    1.257    0.204
       117  -9.8982    189.4767    241.5817   6.9316814195e+01  -2.2973235085e+00    0.1223253   0.09638374  35.66 9.047111e-05    1.019    0.019
       118 -10.0106    204.1718     13.4366   1.4749715550e+01   3.2181376534e+01    0.1838438    0.1190809  88.90  0.000409477    1.508    0.337
       119 -12.1949     67.1876    240.4316   9.1329631549e+01   1.7210488309e+01    0.2859751    0.1640534  53.90 0.0006755657    1.344    0.256
       120 -10.5821    116.2539     13.4386   2.9028096685e+01   5.4124037762e+01    0.1795984    0.1263473  69.30 0.0007145443    1.563    0.360
       121 -12.5100     82.3934    238.3798   8.8490288782e+01   1.5449412901e+01    0.3178985     0.222467  55.80  0.001118198    1.127    0.112
       122 -10.8095     66.7057    237.3307   9.1167364645e+01   1.7829622982e+01    0.1658597    0.1149581  56.56 0.0002454808    1.151    0.131
       123 -12.7358     75.6950    227.6937   8.8736598273e+01   1.8347844654e+01    0.3149958    0.2744343 -60.17  0.001845858    1.568    0.362
       124 -13.6313     94.1856    228.3293   8.5377712343e+01   1.5511855702e+01    0.5727282    0.4198479  23.47  0.003377822    2.070    0.517
       125 -10.4057    110.4615    228.4810   8.2335377165e+01   1.2942616210e+01     0.125546   0.09993923  60.24 0.0002544049    1.007    0.007
       126 -10.6801    166.1458    212.8336   6.9395977051e+01   6.0875004657e+00    0.1767516    0.1489349  18.09  0.000600151    1.305    0.233
       127  -9.6140    212.4556     14.4564   1.4108294967e+01   2.9996843549e+01    0.1359126    0.1187407 -83.59 0.0001021101    1.012    0.012
       128 -12.2494     81.8004    218.4595   8.6709547423e+01   1.9216620051e+01    0.2618449    0.2158656 -89.74  0.001784905    1.187    0.157
       129 -11.5017     74.2428    209.9864   8.7309937096e+01   2.1972657701e+01    0.2357127    0.1204573  54.21 0.0008830989    1.683    0.406
       130 -11.1328    110.4778    209.4822   8.0053124846e+01   1.6474063885e+01    0.1315728    0.1090135  63.70 7.435633e-05    1.009    0.009
       131 -11.0718     94.4033    207.8438   8.3084328251e+01   1.9385031691e+01    0.1669685    0.1133173 -55.26 0.0006319843    1.722    0.419
       132 -10.8866    100.3142    200.3391   8.0959680149e+01   1.9952583360e+01    0.1186283    0.1055533 -16.18 0.0007047255    1.699    0.411
       133 -15.2459      4.8118    226.7519   1.0089484521e+02   2.7000906646e+01     1.080909     0.387907 -87.01   0.00603118    2.389    0.581
       134 -11.4872     96.2619    195.3985   8.1168820814e+01   2.1619047663e+01    0.1920231    0.1048467  52.16  0.000742315    1.648    0.393
       135 -15.6754     20.2388    215.0706   9.7703417417e+01   2.7643494143e+01     1.744328     1.034698 -89.79  0.009856691    1.347    0.258
       136 -10.8870    127.9988     14.0200   2.6665392980e+01   5.1322050457e+01    0.1706867    0.1461536  51.18 0.0004145144    1.059    0.055
       137 -14.0371     86.2677    185.6285   8.2030920965e+01   2.5257787350e+01    0.6183612    0.4055721 -67.46  0.003399848    1.497    0.332
       138 -10.3134    122.5172    190.5325   7.4903309769e+01   1.8176328377e+01    0.1392412    0.1202358  65.38 0.0002106035    1.031    0.030
       139 -12.1794     74.8891    188.7202   8.4850054715e+01   2.6289304760e+01    0.2632484    0.2134142   1.85 0.0009523347    2.143    0.533
       140 -13.0538     36.7214    176.2868   9.1595496230e+01   3.3878675050e+01    0.5261239    0.3000822  64.04  0.003012788    1.624    0.384
       141 -11.7981     29.6958    172.0366   9.2681290781e+01   3.5564440599e+01    0.2657694     0.170838  68.60 0.0006677542    1.378    0.274
