#   1 NUMBER                 Running object number                                     
#   2 MAG_AUTO               Kron-like elliptical aperture magnitude                    [mag]
#   3 X_IMAGE                Object position along x                                    [pixel]
#   4 Y_IMAGE                Object position along y                                    [pixel]
#   5 X_WORLD                Barycenter position along world x axis                     [deg]
#   6 Y_WORLD                Barycenter position along world y axis                     [deg]
#   7 A_WORLD                Profile RMS along major axis (world units)                 [deg]
#   8 B_WORLD                Profile RMS along minor axis (world units)                 [deg]
#   9 THETA_WORLD            Position angle (CCW/world-x)                               [deg]
#  10 FWHM_WORLD             FWHM assuming a gaussian core                              [deg]
#  11 ELONGATION             A_IMAGE/B_IMAGE                                           
#  12 ELLIPTICITY            1 - B_IMAGE/A_IMAGE                                       
         1 -14.5244    193.7306      9.9919   6.5313555921e+01   3.4915748683e+01     1.713291     1.115778  43.26  0.008060205    1.548    0.354
         2 -14.8254    184.5401     24.6868   7.1489267187e+01   3.5864283072e+01      2.84588      1.65899   3.34  0.008273188    2.110    0.526
         3 -12.8680    125.3404    246.7083   1.2993402398e+02   1.3522790008e+01     0.467901    0.3752694  32.50  0.004011851    1.374    0.272
         4 -12.7398    199.7314    249.7667   1.1886585372e+02   2.9360940890e+00    0.8276616    0.1122962  40.27  0.002876642    5.444    0.816
         5 -12.5008    177.0320    248.9306   1.2220331536e+02   6.1933594706e+00    0.4402059     0.256639  29.69  0.003125495    1.536    0.349
         6 -11.1883    170.7637    248.2284   1.2308505405e+02   7.1414358464e+00    0.2201425    0.1905575   4.19  0.001944076    1.436    0.304
         7 -11.3980    163.7148    249.6878   1.2431518624e+02   7.9721396135e+00    0.3310567      0.12786  41.33  0.001975161    1.840    0.456
         8 -19.4773     19.3042    139.5280   1.4026542397e+02   4.3627566075e+01     15.89265     3.203146 -77.93   0.05746312    4.899    0.796
         9 -11.2098     87.8681    202.0732   1.3215883837e+02   2.4683664534e+01    0.3327357    0.1544735 -60.04  0.001984514    2.435    0.589
        10 -11.5908    193.1880    195.0880   1.1253994562e+02   9.6675978554e+00    0.7932959    0.4517744 -62.98  0.002962267    6.385    0.843
        11  -8.5614    164.2899    202.6431   1.1865151894e+02   1.3413315543e+01     0.109352   0.08339635  68.66 0.0007026865    1.683    0.406
        12 -10.7306    115.4882    240.0215   1.3089532818e+02   1.5644839819e+01    0.1194339   0.09646326 -77.11 0.0005600491    1.546    0.353
        13  -9.1028    173.7015    211.2833   1.1820328011e+02   1.0837844409e+01    0.1049247   0.07804281  58.96 0.0001880636    1.547    0.353
        14 -12.2581     81.8816    187.7751   1.3189960954e+02   2.7809984383e+01    0.3139408    0.2259737 -44.86  0.002116713    1.980    0.495
        15 -12.0048     85.2434    181.9779   1.3067796723e+02   2.8370583354e+01    0.2698685    0.2407202  64.62 0.0009232155    1.141    0.124
        16 -10.0695     57.6719    177.2048   1.3551746595e+02   3.2600709294e+01    0.1919905    0.1146865  52.24  0.000653994    1.420    0.296
        17 -11.7341    183.2730    214.7099   1.1706203378e+02   8.9412771892e+00    0.2444804    0.2184073  29.64  0.001928005    1.188    0.158
        18 -10.5209    230.5490    166.8454   1.0129591194e+02   6.5998497211e+00    0.2746694    0.1006018 -38.12  0.001152653    3.356    0.702
        19 -10.7577    124.0059    209.2085   1.2650848370e+02   1.8640575352e+01    0.1823592    0.1475767  80.12  0.000524243    1.363    0.266
        20 -11.6197     66.1188    157.0965   1.3185444165e+02   3.5369564907e+01    0.3393384    0.2078529  69.37  0.001350207    1.633    0.388
        21 -10.7089    133.7744    143.7793   1.1527048827e+02   2.7796934816e+01    0.6160023    0.1574693 -53.27  0.001828092    5.397    0.815
        22 -10.5172    107.5045    146.9777   1.2153767829e+02   3.1584515707e+01    0.3542135    0.2333071 -49.99  0.001307616    1.633    0.388
        23  -9.9439    109.5240    142.9735   1.2044055123e+02   3.2033196829e+01    0.2652262    0.1625617 -42.93   0.00103917    1.910    0.476
        24 -12.3093     96.8412    146.4659   1.2380945125e+02   3.3308628564e+01    0.2417143    0.2163938  44.35 0.0005603422    1.180    0.153
        25 -10.6018    115.4246    133.8280   1.1751045567e+02   3.2839729961e+01    0.2726911    0.2217271 -29.54 0.0007630258    1.502    0.334
        26 -11.2968    103.8872    130.7578   1.1962267298e+02   3.5334639602e+01    0.3166026    0.2409005  38.19 0.0008745742    1.367    0.268
        27 -10.6938    135.9978    129.2036   1.1195316398e+02   3.0083211391e+01     0.389444    0.1236851 -48.11  0.001369321    3.333    0.700
        28 -10.8827    120.2785    126.5485   1.1499856742e+02   3.3430012800e+01    0.3204888    0.1968916 -24.33  0.001365079    2.786    0.641
        29  -9.8488    169.1729    215.2307   1.1948288519e+02   1.1060276211e+01    0.1772487    0.1383002  81.20 0.0008945045    1.955    0.488
        30 -10.1950    110.8159    121.9204   1.1631090386e+02   3.5977491459e+01    0.2080465    0.1845962  48.76 0.0004333181    1.124    0.110
        31 -10.8061    160.8138    128.3611   1.0638293910e+02   2.5440315085e+01    0.3219269    0.2086205 -50.32  0.001567511    1.766    0.434
        32 -10.5275     69.5026    116.0534   1.2551198053e+02   4.3363016777e+01    0.1827454    0.1638419  59.83 0.0005450608    1.158    0.136
        33 -15.7542     77.5832    155.4244   1.2922518408e+02   3.4250830523e+01     7.199776     3.111825  65.61   0.01147762    3.932    0.746
        34 -10.6589    168.5514    113.3206   1.0127390481e+02   2.6431398130e+01     0.340978    0.2796871 -83.81  0.000979773    1.697    0.411
        35  -9.6981    205.3257    110.1378   9.3288728306e+01   1.8980906169e+01    0.2604503    0.1819062  34.31  0.001017954    1.381    0.276
        36 -11.5048     66.7655    105.1590   1.2434695535e+02   4.6072219049e+01    0.2658353    0.2463367  24.26  0.001269792    1.305    0.234
        37  -9.3259    184.5118     77.4633   8.8368564745e+01   2.8700835023e+01    0.1561373    0.1393967  10.97 5.277715e-05    1.080    0.074
        38 -10.1381    147.3072    245.6788   1.2644030891e+02   1.0675636373e+01    0.0989835   0.06337071  59.67 0.0003366445    1.640    0.390
        39 -13.1743    175.9553     31.8566   7.5313509422e+01   3.7297081874e+01    0.9221983    0.6346024  38.12  0.001362508    1.476    0.323
        40  -9.7645    115.3983    214.8104   1.2858246649e+02   1.9055170866e+01    0.1281085   0.09917762 -44.52 0.0009458254    1.775    0.437
