#   1 NUMBER                 Running object number                                     
#   2 MAG_AUTO               Kron-like elliptical aperture magnitude                    [mag]
#   3 X_IMAGE                Object position along x                                    [pixel]
#   4 Y_IMAGE                Object position along y                                    [pixel]
#   5 X_WORLD                Barycenter position along world x axis                     [deg]
#   6 Y_WORLD                Barycenter position along world y axis                     [deg]
#   7 A_WORLD                Profile RMS along major axis (world units)                 [deg]
#   8 B_WORLD                Profile RMS along minor axis (world units)                 [deg]
#   9 THETA_WORLD            Position angle (CCW/world-x)                               [deg]
#  10 FWHM_WORLD             FWHM assuming a gaussian core                              [deg]
#  11 ELONGATION             A_IMAGE/B_IMAGE                                           
#  12 ELLIPTICITY            1 - B_IMAGE/A_IMAGE                                       
         1 -14.4186    217.6693     37.3454   3.6935746619e+01   2.6794231077e+01     2.088048     1.290571  37.01   0.01024362    2.872    0.652
         2 -13.7561    239.8319     18.2867   3.1155108966e+01   2.4565570918e+01    0.7271876    0.5980384 -65.16  0.002627624    1.139    0.122
         3 -11.3410      2.4875      3.5895   8.2647871381e+01   7.3874237204e+01    0.3230693    0.1592308 -35.24  0.002001662    1.780    0.438
         4 -12.0063     10.5720      8.3179   8.0187007058e+01   7.2466285160e+01    0.4435402     0.194456   5.97  0.001887493    3.821    0.738
         5 -14.7616      8.8702    207.8795   1.1958904291e+02   2.8855503028e+01     2.138618     1.140221 -75.82    0.0120281    1.652    0.395
         6  -9.6810    134.7834    250.3852   9.6538503231e+01   3.4250849946e+00    0.1776312    0.1068928  27.70 0.0004079239    1.549    0.355
         7 -15.0058    100.5220    225.6736   1.0080049595e+02   1.3379074836e+01     6.108862     1.095746  39.93  0.009290962    4.215    0.763
         8 -12.6609     57.1650    239.8282   1.1180148348e+02   1.6542761235e+01    0.5986306    0.4624778  59.84  0.001522616    1.078    0.072
         9 -13.1159     22.8866    203.2436   1.1617066696e+02   2.8539834160e+01     0.491027    0.3561537 -43.59 0.0009783236    1.812    0.448
        10 -15.9887     32.2914    190.2128   1.1281706102e+02   3.0604084837e+01     8.993257     3.655818  80.90   0.03053651    4.098    0.756
        11  -8.8316    197.5482    223.4660   7.9473879479e+01  -1.4956378346e+00    0.1287489    0.1112506   4.90 0.0004929809    1.035    0.034
        12 -12.6461     53.5260    176.8746   1.0592984049e+02   3.1367510337e+01    0.8953884    0.4918053 -29.52  0.003415137    3.401    0.706
        13 -11.9705     59.6883    171.2583   1.0352054602e+02   3.1964357411e+01    0.3400751    0.2893796 -28.96  0.001021963    1.425    0.298
        14  -9.5710    111.6525    204.8282   9.5289000084e+01   1.6091609275e+01    0.2979031    0.2090621  83.41  0.001014043    1.922    0.480
        15 -10.6225    193.0006    194.9890   7.5274504328e+01   4.1964515342e+00    0.6319107     0.336552 -64.41  0.001936453    5.530    0.819
        16  -9.4289    207.7659    194.9722   7.2351455410e+01   1.7961752116e+00    0.1789958    0.1040042 -38.60 0.0007971951    1.634    0.388
        17 -13.4455      8.1176    249.5158   1.2209968151e+02   2.0190816401e+01     1.272361    0.5571549  39.87  0.006553174    1.909    0.476
        18  -9.0333     99.4905    180.9503   9.4488518282e+01   2.3596513635e+01    0.2100107    0.1442149 -59.45 0.0004112031    1.481    0.325
        19 -11.7520     70.6593    161.9388   9.9073724785e+01   3.2779692143e+01    0.3727584    0.3229246  48.17 0.0004138002    1.163    0.140
        20 -13.9013     57.8433    120.8318   9.5332785716e+01   4.4892124366e+01     2.051075     1.083015 -70.89  0.001940393    2.270    0.559
        21 -13.0061     67.7806    142.5780   9.6514060508e+01   3.8078246537e+01     0.952697    0.4138243  45.64  0.001527241    2.530    0.605
        22 -10.0131     72.9389    172.9383   1.0020008083e+02   2.9702159716e+01     0.207127    0.1932719  89.81            0    1.013    0.013
        23  -8.9822    110.5539    167.4976   8.9195368367e+01   2.4918567305e+01    0.1508984    0.1443609  74.76   0.00017337    1.044    0.042
        24 -13.4515     57.0243    158.0936   1.0230100189e+02   3.5622211277e+01    0.5582491    0.3601576 -40.75  0.001479579    1.782    0.439
        25  -9.9478    134.5684    148.0098   7.8923472250e+01   2.4974492871e+01    0.7635185    0.3327511 -62.61  0.002156994    4.185    0.761
        26  -9.4351    133.1884    140.6725   7.7623037869e+01   2.6938611454e+01    0.4498534    0.2020985 -62.24  0.001316574    3.795    0.736
        27 -12.1381     35.2205    159.0339   1.0856574581e+02   3.7952797452e+01    0.7416793    0.3469171  77.59  0.002639816    3.515    0.715
        28 -12.3985     81.9490    140.3364   9.1843921240e+01   3.6484460549e+01    0.3888059    0.2922839 -59.15 0.0005432527    1.290    0.225
        29 -10.8125     94.0464    142.3996   8.8728493074e+01   3.3951961287e+01     0.433103    0.3039506 -38.67  0.001189462    1.546    0.353
        30  -9.7430     97.7448    138.8311   8.6897838168e+01   3.4178374561e+01    0.3506189    0.2543386 -22.02  0.001554844    1.801    0.445
        31  -9.5376    176.7208    141.7045   6.7648294488e+01   1.7757495159e+01    0.4331787    0.2275165 -66.15  0.001287855    4.336    0.769
        32  -9.3683    145.6269    142.4895   7.4923000964e+01   2.3988295564e+01    0.4082349    0.2539258 -82.00  0.001334021    3.540    0.718
        33  -9.6089     37.0044    134.5435   1.0453174554e+02   4.3935769953e+01    0.1921354    0.1367321  27.99 0.0006376254    1.557    0.358
        34 -10.8688    106.4679    130.9766   8.2621445600e+01   3.4474037628e+01    0.3926115    0.3446945  13.10  0.001075749    1.262    0.208
        35 -11.2575     93.5329    127.1869   8.5522103457e+01   3.7757586284e+01    0.3087332    0.2634991 -40.24 0.0004926376    1.177    0.150
        36  -9.6918    114.9793    124.8182   7.8748206232e+01   3.4270642675e+01    0.2571258    0.1840037   8.73   0.00107437    1.998    0.500
        37 -13.7056     78.1732    155.7151   9.5884108627e+01   3.3224114486e+01     2.805663      1.30873  60.23  0.001327107    3.844    0.740
        38  -9.2666    162.3764    120.6935   6.5832311803e+01   2.5140168573e+01    0.1595622    0.1210961 -88.84 0.0007028867    1.775    0.437
        39  -9.9016    104.9621    119.2787   8.0241829170e+01   3.7518330236e+01    0.2398898    0.2120929 -47.11 0.0003073304    1.116    0.104
        40 -12.7414     69.8380    145.8826   9.6514074542e+01   3.6947110057e+01    0.5856081    0.5166159  11.56  0.001205995    1.289    0.224
        41  -8.9421    159.6522    116.3153   6.5362574921e+01   2.6640295146e+01    0.1586796    0.1212843 -86.00 0.0007047522    1.723    0.420
        42  -8.7743    168.5117    113.5184   6.2742534348e+01   2.5255607202e+01    0.1524329    0.1427808 -72.68 1.863511e-05    1.079    0.073
        43 -10.0462    205.1107    110.6234   5.5115178180e+01   1.7947077096e+01    0.3127032    0.2429993  36.17  0.001288748    1.525    0.344
        44  -9.5476     68.2055    104.6161   8.8155838900e+01   4.7322109072e+01    0.2021388    0.1394274  17.86 0.0006445448    1.676    0.403
        45 -14.7410     36.5787    249.1497   1.1668711816e+02   1.7182800681e+01      4.99593     1.252008  27.62   0.01469224    7.134    0.860
        46 -11.1719     53.2173     91.6417   9.0130579325e+01   5.2428536936e+01    0.4807092    0.1940759 -57.03  0.001653699    2.489    0.598
        47 -10.5826     41.7343     92.0556   9.4485915656e+01   5.3742673675e+01    0.2720611    0.1989588 -38.67 0.0005300686    1.262    0.208
        48  -8.9206     81.0056     86.8296   7.9000626014e+01   4.9190742546e+01    0.2338863    0.1643414  63.75  0.001028294    2.019    0.505
        49  -9.9703    162.9938     83.5166   5.6218922582e+01   3.2210609154e+01    0.2239224    0.1424754  55.35 0.0005247685    1.557    0.358
        50  -9.1618     59.6323     74.7933   8.2994183769e+01   5.5160549890e+01    0.1871609    0.1277395 -56.42 0.0003495654    1.639    0.390
        51 -10.9671     13.5018     60.1504   9.7842872748e+01   6.3300448207e+01    0.2349854    0.2007544 -51.05 0.0004671824    1.197    0.165
        52 -13.8261     11.0890    233.3391   1.2068474527e+02   2.3150122916e+01     1.328754    0.8281802  87.71  0.005638637    1.388    0.280
        53 -10.1454     32.5371    233.9247   1.1642940104e+02   2.0745532819e+01    0.2828426    0.1478642  73.11  0.001186974    1.908    0.476
        54 -10.3550     11.6073     53.2165   9.6765683299e+01   6.4832019329e+01    0.1799374   0.08764984 -45.44 0.0007283946    1.654    0.395
        55  -8.9774     24.8520     50.7938   8.9853438528e+01   6.4165830695e+01    0.1477231     0.138883  13.85 0.0003487542    1.296    0.229
        56 -10.5552      2.6400     38.0130   9.6534555018e+01   6.8339285393e+01    0.1840398    0.1588542  34.91 0.0008276022    1.572    0.364
        57  -8.9140    115.4915     31.4971   5.0956891357e+01   5.1218893374e+01    0.1344101    0.1203231  54.73 0.0008105457    1.020    0.020
        58  -9.8456    128.3466     28.1923   4.7176519399e+01   4.8617549619e+01    0.2343992    0.1892157  86.25 0.0006041339    1.308    0.236
        59 -10.9123      2.3845     23.2310   9.1433036591e+01   7.0934549303e+01    0.2156029   0.08414031 -45.33  0.001136386    2.099    0.524
        60 -10.7015    189.5103     15.2582   3.4866481851e+01   3.5641766917e+01    0.2436892    0.1961448 -89.58 0.0007023215    1.037    0.036
        61  -9.9745     26.5484    233.4087   1.1761234460e+02   2.1520546676e+01    0.2340848     0.150258  67.02  0.000596365    1.321    0.243
