#   1 NUMBER                 Running object number                                     
#   2 MAG_AUTO               Kron-like elliptical aperture magnitude                    [mag]
#   3 X_IMAGE                Object position along x                                    [pixel]
#   4 Y_IMAGE                Object position along y                                    [pixel]
#   5 X_WORLD                Barycenter position along world x axis                     [deg]
#   6 Y_WORLD                Barycenter position along world y axis                     [deg]
#   7 A_WORLD                Profile RMS along major axis (world units)                 [deg]
#   8 B_WORLD                Profile RMS along minor axis (world units)                 [deg]
#   9 THETA_WORLD            Position angle (CCW/world-x)                               [deg]
#  10 FWHM_WORLD             FWHM assuming a gaussian core                              [deg]
#  11 ELONGATION             A_IMAGE/B_IMAGE                                           
#  12 ELLIPTICITY            1 - B_IMAGE/A_IMAGE                                       
         1 -11.6969     79.9214     23.4840   9.2752556537e+01   6.1218488642e+01    0.7918659    0.2849074  37.82  0.003034827    2.886    0.654
         2  -9.7236     27.5452     22.5594   1.1456400867e+02   6.8904301721e+01    0.6710449    0.2407739 -30.16  0.002677918    3.494    0.714
         3  -9.2614     46.0396     21.5088   1.0535592494e+02   6.6963050725e+01    0.3569382    0.1546849 -33.89 0.0009761577    2.104    0.525
         4  -9.0931     61.5861     27.0138   1.0119607544e+02   6.3881857534e+01    0.2515734    0.1686733   7.95 0.0004765002    1.602    0.376
         5  -8.6482    120.1142     16.7910   7.8370547162e+01   5.3251793862e+01    0.4620039     0.207514   8.86  0.001278386    5.768    0.827
         6  -8.8418    103.4669     16.5933   8.2483526096e+01   5.7164651487e+01    0.4821073    0.2258928  16.91   0.00159046    4.091    0.756
         7  -9.4529     64.2921     14.1897   9.4228937130e+01   6.5232536831e+01     0.546712     0.290399   9.17  0.002366702    2.787    0.641
         8  -7.8277     64.6835      9.6702   9.1880389570e+01   6.5717405151e+01    0.2238923    0.1315441  23.06  0.001177761    1.705    0.413
         9  -8.3965    129.3179     13.6819   7.5149933595e+01   5.1302504809e+01    0.3005228    0.2234575 -64.50  0.001530259    1.740    0.425
        10  -9.5344    134.0294     13.5853   7.4154843044e+01   5.0125545680e+01    0.3621546    0.3010497 -51.58 0.0002880426    1.401    0.286
        11  -7.9360    137.4148     10.5115   7.2377877313e+01   4.9558622192e+01    0.2207725    0.1864579  51.43 6.070357e-05    1.043    0.041
        12  -9.6973     76.3560      5.7702   8.5787803568e+01   6.3996379819e+01    0.4925407    0.3086517  32.78  0.002730181    1.415    0.293
        13  -9.4246     79.3237     12.9381   8.8185485020e+01   6.2643607320e+01    0.3941283    0.2474618  50.69  0.001277905    1.635    0.388
        14  -9.6335     74.4724     13.5172   9.0130087321e+01   6.3500069044e+01    0.4034872    0.2723856   7.30  0.001579401    1.502    0.334
        15  -9.2073     96.5353     13.1519   8.2943363230e+01   5.9069811436e+01    0.3954995     0.205842  11.90  0.001603663    2.787    0.641
        16  -9.6558     46.6574      6.5325   9.7781143529e+01   6.8977288885e+01    0.2880689    0.1994192  19.08 0.0001768822    1.301    0.231
        17  -9.2511     41.0602      5.6673   9.9909813247e+01   6.9874715887e+01    0.6277735    0.2767528 -17.66  0.002756969    2.969    0.663
        18  -9.5556     31.5744     10.9339   1.0724509919e+02   7.0328277795e+01    0.3566984    0.2253848  -6.87 0.0003900816    1.543    0.352
        19  -8.9471     32.0706      6.0666   1.0452867992e+02   7.0966041490e+01    0.2165613    0.1549778 -22.76 0.0003582627    1.172    0.147
        20  -8.7528    125.1759     10.3868   7.4764978760e+01   5.2651154900e+01    0.2610853    0.1812402  32.93 0.0004538226    1.410    0.291
        21  -8.3960    113.3015     11.3232   7.7797274964e+01   5.5439034762e+01    0.2288376    0.1334654  31.05 0.0005498566    1.761    0.432
        22  -8.2802    107.8565     10.7058   7.8874079879e+01   5.6774687881e+01    0.2473152     0.167542 -52.54  0.001225009    2.035    0.509
        23  -7.9440    155.7431      7.5877   6.8246417491e+01   4.5064796120e+01    0.2366114    0.1731652   2.04 0.0006090851    1.646    0.393
        24 -10.2677      8.5686      5.2039   1.1700596471e+02   7.3351095953e+01      0.61973    0.2493424   6.39 0.0002936667    3.576    0.720
        25  -8.9865    235.0020      6.0654   5.8988533559e+01   2.4871013643e+01    0.3054243    0.1855135 -29.50 0.0009737009    1.720    0.419
        26  -8.9984    130.0470      6.4413   7.2282255143e+01   5.1794555810e+01    0.4638466    0.1573855  42.22  0.001247968    2.961    0.662
        27  -7.9308    134.1789      2.8654   7.0184395299e+01   5.1054069951e+01     0.187914     0.167994  40.52 0.0003246638    1.076    0.071
        28  -8.7897    100.1038      6.4116   7.9034565315e+01   5.8951135096e+01    0.2955346    0.2281104  75.68  0.001247287    1.613    0.380
        29  -8.1611    111.1749      4.5871   7.5540308292e+01   5.6562875655e+01    0.2301403     0.170256  32.14 0.0006364778    1.241    0.194
        30  -9.3659    107.5947      1.7084   7.5170811628e+01   5.7646714455e+01     0.666358    0.1584466  57.03  0.002326553    3.118    0.679
        31  -8.9309     71.5484      8.9678   8.8997959835e+01   6.4566413723e+01        0.288    0.2009796  12.04  0.001666238    1.352    0.260
        32  -8.4620    143.1064      2.2307   6.8426283138e+01   4.8819847724e+01    0.2086121    0.1945719  11.88 0.0003408722    1.180    0.153
        33  -8.4528     55.9459      3.2818   9.2091410117e+01   6.7924170421e+01    0.2321905      0.14268  24.74   0.00107073    1.493    0.330
        34  -9.0305    119.0849      6.8701   7.4695407182e+01   5.4466862422e+01    0.2767829    0.2223262  51.30 0.0003683432    1.094    0.086
        35  -8.1870      3.3324      1.4605   1.1834554772e+02   7.4305957448e+01    0.1927334   0.09568003  15.04 0.0007907776    2.132    0.531
        36  -7.5303     60.3502    106.3093   1.2623308963e+02   4.8018032133e+01    0.1385148   0.09796414 -29.80 0.0004550386    1.714    0.417
        37 -10.1471    181.6083    248.6607   1.2137914325e+02  -1.4056235079e-01     0.381189    0.2110103  50.04   0.00214226    1.763    0.433
        38  -9.0133    165.8020    249.5692   1.2437243424e+02   2.2948166383e+00    0.1756255    0.1719011  17.98 0.0009441659    1.314    0.239
        39  -8.9931     55.6612    250.6188   1.4411386078e+02   1.8434637478e+01    0.1792108   0.07895326  43.08 0.0002806074    1.797    0.443
        40  -9.0863     14.1242    105.5616   1.4022893702e+02   5.2593287016e+01    0.2626689    0.1311542 -45.98  0.001404958    2.026    0.507
        41  -7.6888     93.8228    103.4118   1.1531182474e+02   4.3651140105e+01     0.202595    0.1406467  23.30 0.0005525005    1.745    0.427
        42  -7.3850    129.3092     97.3532   1.0351984348e+02   3.7908552532e+01    0.1611347     0.123811   0.34 0.0003106397    1.721    0.419
        43  -8.7695     16.4659     95.4753   1.3809381130e+02   5.4717058700e+01    0.2004386    0.1566829  83.86 0.0006160523    1.317    0.241
        44 -10.3454     12.4180     93.7762   1.3912094527e+02   5.5360942082e+01    0.5632533    0.2676177 -30.58  0.002576075    2.885    0.653
        45  -8.4042    242.6772     95.3358   7.9722577978e+01   1.1297646777e+01    0.1462425    0.1044604 -62.07 0.0007050686    1.712    0.416
        46  -8.2059     43.4959     92.6145   1.2880067381e+02   5.3094044824e+01    0.2432807    0.1871017 -29.12  0.001093671    1.435    0.303
        47  -9.4768     21.4331     90.7061   1.3573203043e+02   5.5447216119e+01    0.4539082    0.1737429 -34.75  0.001762094    3.978    0.749
        48  -7.0706    176.7084     91.5980   9.0454180005e+01   2.7680150432e+01    0.1665784    0.1229457  10.11 0.0006994333    1.804    0.446
        49  -7.9550    109.8125     91.1263   1.0723991301e+02   4.3337623920e+01     0.293053    0.1976128  15.82  0.001226116    2.108    0.526
        50  -8.1005     96.4796     90.2946   1.1101765943e+02   4.6074370684e+01    0.3083898    0.1821954  26.76  0.001292193    2.107    0.525
        51  -9.9925     37.7079     80.8977   1.2825971160e+02   5.6302793777e+01    0.5819364    0.3111179 -15.53  0.002528514    3.173    0.685
        52  -7.5037    126.6037     83.7010   1.0026595730e+02   4.1284525385e+01    0.1647542    0.1200324  13.20 0.0007004064    1.810    0.447
        53  -8.5577     87.7810     79.1523   1.1054746412e+02   5.0000507818e+01      0.43232    0.2297938  23.10  0.001489229    2.760    0.638
        54  -9.7929      8.1148     77.3454   1.3798448831e+02   5.9259712163e+01    0.5345919    0.2217693 -33.38  0.002542095    2.927    0.658
        55  -7.5582    184.4708     77.9448   8.5013511858e+01   2.8095708991e+01    0.2248678    0.1534155 -34.37 0.0004864493    1.489    0.328
        56  -8.8245     48.8583     77.2160   1.2341168543e+02   5.5971360245e+01    0.3483675    0.2141287 -16.63    0.0016793    2.272    0.560
        57  -8.0456    107.2358     75.8728   1.0341803050e+02   4.6994527540e+01    0.3328684    0.1681618  25.52  0.001094208    3.354    0.702
        58  -8.4302     23.4760     69.4615   1.3088789438e+02   6.0010526246e+01    0.2048679    0.1960753 -79.31   0.00071008    1.213    0.176
        59  -9.5231     29.4936     68.4913   1.2839490065e+02   5.9750319277e+01    0.3308607    0.1901136 -41.01  0.001375136    1.569    0.363
        60  -9.7768     36.5543     58.9496   1.2315263448e+02   6.1145256097e+01    0.5750534    0.3099624  -2.23  0.002667294    2.837    0.647
        61  -7.8518     75.0052     74.4502   1.1341758416e+02   5.3087526854e+01    0.1963876    0.1371046  32.84 0.0003760221    1.526    0.345
        62  -9.9939     24.2264     73.1738   1.3141949811e+02   5.9145936423e+01    0.5199038    0.2022088 -42.92  0.002384577    2.395    0.582
        63  -7.7823    105.7557     66.9899   1.0098467150e+02   4.9020562441e+01    0.2125876    0.1957886 -17.93  0.001165334    1.053    0.050
        64  -9.0264     83.8125     64.0373   1.0709458739e+02   5.3756281571e+01    0.4475254    0.2898154  -3.92  0.001513012    2.320    0.569
        65  -8.7992     16.2101     63.8458   1.3241442089e+02   6.1717968865e+01    0.2332277    0.1870743 -46.05  0.001059512    1.073    0.068
        66  -8.9797     19.5089     61.3285   1.3055293194e+02   6.2036977008e+01    0.2179197    0.1794867 -23.07 0.0009720725    1.255    0.203
        67  -9.5813     62.8271     61.1432   1.1364331494e+02   5.7615039711e+01    0.6654478    0.3331181  18.00  0.002684775    3.033    0.670
        68  -9.2916     26.0167     60.2693   1.2771312521e+02   6.1784051419e+01    0.2711509    0.2272977 -33.03  0.001415062    1.120    0.107
        69  -7.2807    123.5315     60.5320   9.3646019086e+01   4.6298665051e+01     0.151903    0.1427411  18.94 0.0002765026    1.020    0.020
        70  -8.4838     96.5275     58.9631   1.0113408521e+02   5.2366543017e+01    0.3768395    0.2191396  -8.23   0.00134285    3.255    0.693
        71  -7.9466    111.3287     58.2615   9.6326723010e+01   4.9431290788e+01    0.2751383    0.1688446  34.29 0.0009129715    1.725    0.420
        72  -9.6202    245.3031     54.6745   6.9560386247e+01   1.6606172541e+01    0.2460052    0.2344503 -79.36 0.0002566286    1.078    0.072
        73  -8.8974    249.0298     50.4943   6.8144697336e+01   1.6321525488e+01    0.2915347    0.1989458  19.00  0.001395901    2.306    0.566
        74  -9.9817     75.0615     50.2671   1.0535816611e+02   5.7833023746e+01    0.3802546    0.2811956 -14.75  0.000289289    1.403    0.287
        75  -8.2899    118.3120     51.0123   9.1759378890e+01   4.9092010498e+01    0.2559448    0.2016614  45.17 0.0006224596    1.222    0.181
        76  -9.0395     45.4428     48.8679   1.1639981771e+02   6.2242428840e+01    0.3680134    0.2317228 -15.26  0.001580033    1.861    0.463
        77  -7.8218    106.8231     48.6512   9.4213124349e+01   5.2030565348e+01    0.2991683    0.1638218  32.55  0.001235038    2.064    0.515
        78  -9.8309     11.1962     46.2559   1.3025148292e+02   6.5685580895e+01    0.6689866    0.3069941 -18.81  0.003316918    2.836    0.647
        79  -9.2477     56.8875     42.5274   1.0943942354e+02   6.1987817815e+01    0.7816795    0.3797992 -15.79  0.002489393    5.080    0.803
        80  -9.2877     62.0141     37.4711   1.0541057503e+02   6.2133452699e+01    0.3234084    0.2672129  61.06  0.001866756    1.816    0.449
        81  -8.4185     92.3453     37.8720   9.4597635946e+01   5.6740522492e+01    0.4536912    0.1916763 -41.96  0.001397315    2.607    0.616
        82  -8.3862     81.3342     44.2708   1.0084986738e+02   5.7801731272e+01    0.2324838    0.1758609 -20.19 0.0004939587    1.280    0.218
        83 -10.3755     83.2261     40.0612   9.8539481875e+01   5.8151958636e+01    0.2608853    0.2382491   7.19 0.0002206442    1.066    0.062
        84  -8.8367     87.7150     37.9982   9.6180364054e+01   5.7630758241e+01    0.3064087    0.2090702  34.38 0.0008125749    1.421    0.296
        85  -8.5849    246.3513     43.7987   6.6847041686e+01   1.7807066866e+01    0.1899926    0.1596001 -69.76 0.0006527143    1.121    0.108
        86  -9.7277     36.9019     37.1341   1.1591336849e+02   6.5392223999e+01    0.6561685    0.2712061 -32.73  0.002675597    2.583    0.613
        87  -7.8196    113.3506     42.3207   8.9961897630e+01   5.1577366165e+01    0.1574581    0.1061946  20.04 0.0007048193    1.744    0.427
        88  -9.3116      3.7728     38.9711   1.3163977577e+02   6.7535541190e+01    0.3151852   0.08777519 -63.23  0.001351579    3.018    0.669
        89  -9.2524      6.3607     33.6899   1.2895065521e+02   6.8438842111e+01    0.3188779    0.2080561 -45.12  0.001809571    1.147    0.128
        90  -7.5312    124.2692     39.3884   8.5944264394e+01   4.9454935585e+01    0.1548957     0.107897  16.17 0.0006988131    1.711    0.415
        91  -9.4483     69.4548     36.4055   1.0208254111e+02   6.1143561942e+01    0.6856524     0.338902  20.24  0.002669621    3.173    0.685
        92  -8.0691    105.2424     36.8756   9.0210729524e+01   5.4185720969e+01    0.2926478    0.1668035  27.02  0.001236651    2.111    0.526
        93  -8.8371     55.9860     35.6104   1.0710391394e+02   6.3324167543e+01    0.2362967    0.1539568 -23.88 0.0002770551    1.461    0.316
        94  -8.9182     18.9984     35.7683   1.2363066558e+02   6.7241244136e+01    0.1847347     0.123849 -30.78  0.001187736    1.268    0.212
        95  -8.9943     22.9784     35.5021   1.2168445376e+02   6.6985095678e+01    0.2321393    0.1827558 -12.16 0.0006538106    1.226    0.185
        96  -8.9947     22.0308     32.2530   1.2099640686e+02   6.7668783285e+01    0.2486672    0.1864354 -25.17 0.0004111333    1.134    0.118
        97  -9.2374      1.8667     28.2806   1.2950983268e+02   6.9699632570e+01    0.4578812    0.1170238 -58.17  0.002056871    2.822    0.646
        98  -9.0342    216.1347    248.6650   1.1521940917e+02  -5.5899612802e+00    0.1764085    0.1602782  -8.96  0.001347597    1.418    0.295
        99  -7.8336    151.8154     27.2208   7.5518675760e+01   4.4062163588e+01     0.206579    0.1616262  33.85  0.001053293    1.318    0.241
       100  -8.2922    158.3209    249.6491   1.2574791092e+02   3.4926060936e+00    0.1187575   0.08019869  61.85 0.0004926855    1.746    0.427
       101  -8.0629    144.9139     23.4423   7.5544538887e+01   4.6294991272e+01    0.2004138    0.1909565   8.44 0.0003138365    1.116    0.104
       102  -7.4969    118.4589     24.4546   8.1759742102e+01   5.2790523945e+01     0.146574      0.12502  31.53 0.0001775226    1.075    0.070
       103  -9.2417    152.5090    249.0195   1.2673450785e+02   4.5171709888e+00    0.2275142    0.1624824 -21.31  0.001402881    2.169    0.539
       104  -7.6424    128.9942     22.5079   7.8532580091e+01   5.0447387494e+01    0.2118148   0.09480831  40.01  0.000478123    2.316    0.568
       105  -9.5319    171.3155    247.9536   1.2315868878e+02   1.6162598707e+00     0.264157    0.1387824  43.21  0.001487875    1.467    0.318
       106  -8.4091    140.4713     20.0236   7.5210105003e+01   4.7817744371e+01    0.2556241    0.1725812  45.85 2.563597e-05    1.359    0.264
       107  -8.2347      9.4929     19.9377   1.2275097373e+02   7.0809280888e+01    0.2106927    0.1258119 -13.99 0.0007798146    1.666    0.400
       108  -7.4861    146.6064     19.2039   7.3744364954e+01   4.6318863148e+01    0.1828054    0.1374545   2.20 0.0002913203    1.552    0.356
       109  -8.5207      4.8737     18.5606   1.2469154630e+02   7.1334331492e+01    0.1902856    0.1772192  72.90 0.0009227517    1.659    0.397
       110  -8.2845    226.6577    247.6806   1.1324372654e+02  -7.0771410010e+00     0.122611   0.07039069  16.50 0.0007049651    1.719    0.418
       111  -7.2554     80.9921    247.2910   1.3951696045e+02   1.5658742400e+01     0.142889   0.07830367  45.71 0.0004868857    1.415    0.293
       112  -8.6711    162.4788    243.4678   1.2420332399e+02   3.6685323104e+00     0.123697   0.09441182  39.94 0.0004256309    1.001    0.001
       113  -7.3105    123.0486    239.2595   1.3107357043e+02   1.0703744900e+01    0.1532609   0.08396957  42.32 0.0002169007    1.442    0.307
       114  -8.3682    127.6834     16.9488   7.6729925164e+01   5.1377909498e+01    0.2435376    0.1929939  33.01  0.000365941    1.205    0.170
       115  -9.3452    188.0598    233.7290   1.1808681004e+02   7.4476384412e-01    0.2676726    0.1844273 -43.44  0.001201672    1.879    0.468
       116  -7.7561    128.3298    234.1012   1.2948480105e+02   1.0680900779e+01    0.2037947    0.1091684 -46.66  0.001086988    2.484    0.597
       117  -8.5465     33.6775    228.9297   1.4654234338e+02   2.4768592614e+01    0.1772536    0.1390715  65.45 0.0005781123    1.154    0.134
       118 -10.3596    123.9988    206.0029   1.2678517812e+02   1.6246747817e+01    0.1878149    0.1570898  52.55            0    1.001    0.001
       119  -7.7867     53.2056    206.2271   1.4132427661e+02   2.6743496259e+01    0.1616341    0.1059692  68.83 0.0002558235    1.282    0.220
       120 -10.0981    178.0683    200.8240   1.1479092689e+02   7.3638038482e+00    0.2286169    0.2113218  36.62 0.0003488385    1.121    0.108
       121  -9.0683     42.0328     27.7276   1.0988551611e+02   6.6468369048e+01    0.2548671    0.1893981 -40.48  0.001182658    1.328    0.247
       122  -8.3898    205.9941    151.4969   9.9387258131e+01   1.0072396223e+01    0.2088569    0.1154711  25.42 0.0005599483    2.380    0.580
       123  -6.9906    133.3569    148.2847   1.1484303096e+02   2.6119737660e+01     0.149505    0.1185599   7.73 0.0004161454    1.672    0.402
       124  -9.2527    123.9415    146.3486   1.1677576997e+02   2.8399116575e+01    0.2456219    0.2101391 -54.15 0.0002656274    1.215    0.177
       125  -9.1168     67.3661    144.6536   1.3105489876e+02   3.8175251454e+01    0.4279426    0.2740688  69.80  0.002160867    1.768    0.434
       126  -8.1731    188.9366    137.9225   9.9765693549e+01   1.6180954765e+01    0.2273964    0.2155755  17.09  0.000510462    1.012    0.012
       127  -7.5456      9.7582     12.4163   1.1957604376e+02   7.2090077718e+01    0.1463313   0.09056327  -4.57  0.000952047    1.611    0.379
       128  -8.1731      4.8944    133.6465   1.4573298839e+02   4.6909670739e+01    0.1554245   0.08728065  44.78 0.0009471662    1.869    0.465
       129  -8.4960    121.4004    131.3147   1.1421362503e+02   3.2208827753e+01    0.2371116    0.2211365 -41.11  0.000281677    1.128    0.114
       130  -7.3080    113.6518    128.6735   1.1567266447e+02   3.4306959133e+01      0.15223    0.1199996  -7.17 0.0007049438    1.753    0.430
       131  -7.2988    142.3490     10.3037   7.1399888992e+01   4.8310081783e+01    0.1545671   0.09181697  38.69 0.0007040675    1.697    0.411
       132  -9.7336    234.8467    129.8494   8.9134327260e+01   7.5825411778e+00    0.2654242      0.22984  34.06 0.0003463263    1.165    0.142
       133  -7.4002    119.3384    119.2781   1.1196250219e+02   3.5288841525e+01    0.1506242    0.1213234   2.37 0.0002932235    1.617    0.381
       134  -7.2618    159.4590    117.4867   1.0132049371e+02   2.6890150250e+01    0.1563461    0.1517962  36.43 0.0001148183    1.003    0.003
       135  -7.1345    181.2985    114.7285   9.5688575293e+01   2.2275086000e+01    0.1500941    0.1245866 -85.50 0.0003036203    1.526    0.345
       136  -8.1230    247.5849    112.1832   8.2971872782e+01   7.6891730684e+00    0.2566736     0.110297  56.30  0.001016184    2.690    0.628
       137  -7.2613    142.5300    111.5671   1.0392585802e+02   3.1988044648e+01    0.1556541    0.1507301  37.41 0.0001313122    1.014    0.014
       138  -8.7199      1.9100    110.2054   1.4428484479e+02   5.2297714501e+01     0.330388    0.0981915 -56.89  0.001529975    2.608    0.617
       139  -8.1815    238.4669    110.5348   8.4004527764e+01   9.8592590899e+00     0.141233    0.1313108 -20.05 0.0001219261    1.012    0.012
       140  -7.4320     39.1971    110.0791   1.3340497068e+02   4.9502894966e+01    0.1760651   0.08576757 -64.22 0.0008491733    1.733    0.423
       141  -7.5406     24.0144    111.0000   1.3805624803e+02   5.0631999127e+01    0.1703872    0.0707939  23.73 0.0007988214    2.917    0.657
       142  -7.6915    134.0226    106.2470   1.0470901916e+02   3.5005458952e+01    0.3180453     0.196366 -18.62 0.0009756155    2.644    0.622
       143  -7.4495    109.0570    106.4749   1.1162914959e+02   4.0157689735e+01    0.2053228    0.1340819  14.78 0.0008072309    2.402    0.584
