#   1 NUMBER                 Running object number                                     
#   2 MAG_AUTO               Kron-like elliptical aperture magnitude                    [mag]
#   3 X_IMAGE                Object position along x                                    [pixel]
#   4 Y_IMAGE                Object position along y                                    [pixel]
#   5 X_WORLD                Barycenter position along world x axis                     [deg]
#   6 Y_WORLD                Barycenter position along world y axis                     [deg]
#   7 A_WORLD                Profile RMS along major axis (world units)                 [deg]
#   8 B_WORLD                Profile RMS along minor axis (world units)                 [deg]
#   9 THETA_WORLD            Position angle (CCW/world-x)                               [deg]
#  10 FWHM_WORLD             FWHM assuming a gaussian core                              [deg]
#  11 ELONGATION             A_IMAGE/B_IMAGE                                           
#  12 ELLIPTICITY            1 - B_IMAGE/A_IMAGE                                       
         1 -14.7226    154.8868     49.1338   8.5362102537e+01   4.0341557403e+01     1.272875     1.131934 -19.12  0.003550939    1.082    0.076
         2 -14.8469    165.2247     18.6275   7.2394044913e+01   4.1660426562e+01     1.178758      1.06443 -74.83   0.00378064    1.261    0.207
         3 -13.4438    189.8115     13.9298   6.7117340249e+01   3.5584186256e+01    0.4936073    0.4033872 -11.50  0.001765503    1.214    0.177
         4 -11.3187    157.8335    244.9150   1.2473131863e+02   9.3002766793e+00    0.1726263    0.1208212  34.53 0.0002990059    1.207    0.172
         5 -20.5327     87.8083    182.9774   1.3029193848e+02   2.7858219349e+01     11.79609     5.853336 -66.49   0.06768991    2.179    0.541
         6 -10.8536     24.8531    214.2586   1.4359935919e+02   2.9746522912e+01    0.1247417    0.0847406  64.47 0.0003307424    1.031    0.030
         7 -10.4308     21.0542    209.9106   1.4401076053e+02   3.0783030158e+01     0.111212   0.07859544 -87.58 0.0003553998    1.343    0.255
         8 -13.5435     11.2766    206.6510   1.4543433067e+02   3.2172846124e+01    0.3509809    0.3300112 -57.57  0.003415307    1.763    0.433
         9 -12.3031     14.2253    198.2021   1.4461194201e+02   3.3291211075e+01    0.2111183    0.1275036 -69.20  0.001224329    1.815    0.449
        10 -12.7549    198.5600    245.6986   1.1856353890e+02   3.4712829771e+00     0.282836    0.1344692  39.29  0.001284146    1.485    0.327
        11 -12.1041    238.6738    184.8638   1.0329324132e+02   3.2862873188e+00    0.2148426    0.1298449  29.31  0.000689828    1.339    0.253
        12 -10.6238    248.0000    247.9480   1.1156143983e+02  -3.5312846752e+00    0.1291257   0.05265602 -24.56  0.000803002    2.946    0.661
        13 -12.7370    230.4375    167.5552   1.0144979834e+02   6.5386657735e+00    0.3610108     0.202773 -40.95  0.001873221    2.384    0.580
        14 -10.9185    167.2942    241.1083   1.2285465272e+02   8.3782932596e+00    0.1787103    0.1306972  38.95 0.0005055578    1.024    0.024
        15 -12.0239    163.1228    238.1061   1.2318192782e+02   9.3017194365e+00    0.2636491    0.1588764  53.47  0.001133856    1.591    0.371
        16 -11.6966     22.9871    155.9236   1.4068872598e+02   4.0087575185e+01    0.2218191    0.1884405   0.34  0.001075676    1.903    0.474
        17 -10.9960    176.9639    154.9800   1.0857641592e+02   1.7989805760e+01    0.1955894    0.1751785  36.99 0.0004919534    1.073    0.068
        18 -13.2861    173.6463    148.6171   1.0798638927e+02   1.9596561196e+01    0.4337634    0.3707235  62.47  0.001575335    1.350    0.259
        19 -10.6944     13.7914    240.7968   1.4625147084e+02   2.6832616425e+01    0.2002793   0.09030867  64.46   0.00120169    1.567    0.362
        20 -12.5488    173.4020    139.4316   1.0617135548e+02   2.1100294825e+01    0.2496839    0.2413545  60.50 0.0006642658    1.177    0.150
        21 -11.6928     13.0529    134.4493   1.4125515565e+02   4.5148020824e+01    0.3149927    0.2068281 -37.08  0.002054306    2.389    0.581
        22 -11.1487     19.4569    134.5909   1.3984368878e+02   4.4614325763e+01    0.2653341    0.1687408   5.65  0.001619592    2.805    0.644
        23 -11.1163      3.4147    132.7209   1.4325509056e+02   4.6194913487e+01     0.148712     0.120031 -45.48 0.0005246513    1.695    0.410
        24 -13.7475    161.0668    128.1007   1.0627253808e+02   2.5434689562e+01    0.5863335    0.4513523  32.29  0.003168351    1.281    0.219
        25 -10.7107      9.5767    237.4976   1.4674402351e+02   2.7669457713e+01   0.09759616    0.0582514  72.52 0.0001618725    1.214    0.176
        26 -11.6975    151.1722    241.6196   1.2543371377e+02   1.0598742868e+01    0.2098234    0.2084039  80.92  0.001957774    1.378    0.274
        27 -10.2048    149.0080    247.3208   1.2633706466e+02   1.0257912933e+01    0.1667179    0.1444837 -38.57 0.0007509483    1.626    0.385
        28 -12.1665    153.7907    125.6391   1.0728140537e+02   2.7314604233e+01     0.244776     0.172903  52.52 0.0007564016    1.441    0.306
        29 -11.0922    158.8289    240.8203   1.2414959988e+02   9.6113962276e+00    0.1773731    0.1548222  30.01 0.0005750576    1.243    0.195
        30 -11.0663     27.9125    231.5604   1.4387134156e+02   2.6848471156e+01    0.1322106   0.08975402  86.44 0.0009014352    1.344    0.256
        31 -12.0870    141.6767    121.1054   1.0894908768e+02   3.0517691774e+01    0.4521128    0.2451407  64.53  0.001654431    3.092    0.677
        32 -12.5924     39.0740    115.7414   1.3324654690e+02   4.6837187766e+01    0.3373865    0.2446993 -16.81  0.001633778    2.248    0.555
        33 -11.0956    167.5583    112.5661   1.0129860987e+02   2.6771436791e+01    0.3120653    0.2257794 -81.87   0.00134144    2.378    0.579
        34 -12.1288    196.2429    229.9169   1.1697010530e+02   5.3310672530e+00    0.1826627    0.1307022   7.26  0.001157208    1.571    0.363
        35 -11.0124    205.4229    110.1913   9.3284405060e+01   1.8951999633e+01    0.3049522    0.2225898  39.61 0.0009052612    1.311    0.237
        36 -12.6410    207.8455    224.2107   1.1438225910e+02   4.1692716592e+00    0.3102513     0.200296 -31.89  0.001336333    1.965    0.491
        37 -11.3078     38.5860    102.1514   1.3154481898e+02   4.9844636085e+01    0.1932072    0.1758657  14.08 0.0008454357    1.438    0.305
        38  -9.9972      6.6385    227.7780   1.4686897502e+02   2.9328062895e+01   0.06937331   0.06103978  52.81 0.0003790101    1.570    0.363
        39 -11.7025    153.6613    244.6214   1.2534918679e+02   9.9143740269e+00    0.2348344    0.1469301  40.22 0.0006382734    1.176    0.150
        40 -11.0581     32.1942    222.3906   1.4282048074e+02   2.7794707339e+01    0.1394352    0.1158893 -87.94 0.0007385032    1.420    0.296
        41 -11.6624    141.3530     82.2956   9.9118629106e+01   3.7868075943e+01    0.3409719    0.2476792  -8.93  0.001381162    1.725    0.420
        42 -10.8179    108.0112     82.9418   1.0787327214e+02   4.4466491236e+01     0.207801     0.197041 -45.90 0.0002956998    1.011    0.011
        43 -12.0981     60.6999     82.9849   1.2166508246e+02   5.1714352558e+01    0.2431259    0.1909668  35.88   0.00047643    1.465    0.318
        44 -10.4436     26.3653    220.7149   1.4364732085e+02   2.8609215592e+01    0.1087502   0.07196058 -79.39 0.0008816941    1.565    0.361
        45 -14.7320    145.1142     63.6231   9.2449597976e+01   4.0352726621e+01     1.282536     1.247107  -1.06  0.001115642    1.050    0.048
        46 -13.5986    187.6389    245.5697   1.2020993116e+02   5.0293253862e+00     0.476359    0.3114736  58.29  0.002954005    1.976    0.494
        47 -13.4929    158.9218     39.9942   8.1312863695e+01   4.0654284737e+01    0.5716514     0.505811  15.51 0.0007958855    1.105    0.095
        48 -10.5784    217.7448    218.0210   1.1194963087e+02   3.2806793727e+00     0.147845    0.1179386  15.37 0.0005320398    1.159    0.138
        49 -11.5680     13.4269     59.8435   1.3254869388e+02   6.1220258813e+01    0.1997172    0.1710775 -77.18 0.0004022692    1.135    0.119
        50 -12.1161      2.1670     26.8405   1.3000271916e+02   6.9000883786e+01     0.245883    0.1644135 -39.00 0.0006670429    1.392    0.282
        51 -10.2625    155.6691    248.2610   1.2540397193e+02   9.2371858294e+00    0.1505558    0.1046581  43.97 0.0002771667    1.046    0.044
