#   1 NUMBER                 Running object number                                     
#   2 MAG_AUTO               Kron-like elliptical aperture magnitude                    [mag]
#   3 X_IMAGE                Object position along x                                    [pixel]
#   4 Y_IMAGE                Object position along y                                    [pixel]
#   5 X_WORLD                Barycenter position along world x axis                     [deg]
#   6 Y_WORLD                Barycenter position along world y axis                     [deg]
#   7 A_WORLD                Profile RMS along major axis (world units)                 [deg]
#   8 B_WORLD                Profile RMS along minor axis (world units)                 [deg]
#   9 THETA_WORLD            Position angle (CCW/world-x)                               [deg]
#  10 FWHM_WORLD             FWHM assuming a gaussian core                              [deg]
#  11 ELONGATION             A_IMAGE/B_IMAGE                                           
#  12 ELLIPTICITY            1 - B_IMAGE/A_IMAGE                                       
         1 -17.2233    225.2575    176.9190   7.5105418783e+01   5.6752238951e+00     18.54067      10.3834 -52.43    0.0821903    3.933    0.746
         2 -16.1559    223.3337     53.4012   4.7719055530e+01   2.3217165503e+01     2.126142    0.7464542 -43.04  0.008337872    2.540    0.606
         3 -16.0369    231.2404     49.6679   4.5927442872e+01   2.2006022494e+01     1.900447    0.5371128 -29.56  0.006966007    2.952    0.661
         4 -17.3884    245.0140     66.0168   4.8479847596e+01   1.7181054138e+01     2.352155     1.068956 -34.56   0.01133539    1.770    0.435
         5 -16.2489    246.1747     41.6219   4.2569217186e+01   1.9914532715e+01     1.239089    0.7787442 -50.80  0.007051421    1.456    0.313
         6 -14.6516    247.2479     27.7386   3.9183860458e+01   2.1259778437e+01    0.8811918    0.7563998 -25.77  0.005937495    1.181    0.153
         7 -13.9628    222.0147     24.6343   4.0374442582e+01   2.6959527347e+01     2.671208     1.643574  59.51   0.01422752    1.798    0.444
         8  -8.2276    174.3870     17.5482   4.3029518323e+01   3.9271649178e+01    0.3649717    0.1899338  -6.94   0.00143643    2.712    0.631
         9 -17.3046    219.0316     68.5994   5.2140213684e+01   2.2111510648e+01     5.327341     2.622574 -52.64   0.02239187    2.417    0.586
        10  99.0000    192.0839     11.2394   3.9262746050e+01   3.5452662181e+01    0.5879326    0.3651378 -10.04  0.002849452    1.933    0.483
        11 -10.5471    250.9335      9.8503   3.4764648793e+01   2.2373109942e+01    0.1477243   0.05168393 -25.16 0.0002709946    2.537    0.606
        12 -11.0140    219.0342     10.0913   3.6797692938e+01   2.9160376676e+01    0.1835938    0.1560993 -54.47 0.0002791855    1.009    0.009
        13 -10.2272    207.8513      9.5301   3.7465686784e+01   3.1807248195e+01    0.2281169     0.192156  35.46 0.0008017566    1.459    0.315
        14  -9.6104    201.2185      9.1469   3.7878731070e+01   3.3428331149e+01      0.22542    0.1707841 -88.40  0.001018681    1.297    0.229
        15  -7.4975    184.9323      8.3001   3.9031523766e+01   3.7531497632e+01    0.2527745    0.1787796 -30.41  0.001346453    1.372    0.271
        16  -8.0132    240.5897      8.8184   3.5103436294e+01   2.4586745124e+01     0.128481    0.0644113 -64.04 0.0006304689    1.994    0.499
        17  -9.2659    172.0094      6.4858   3.9708649480e+01   4.1010993565e+01    0.3244998    0.1854496 -19.48  0.001050809    1.866    0.464
        18  -9.3041    227.8069      6.6629   3.5338448975e+01   2.7536577361e+01    0.1540426    0.1058893  27.90 0.0007239562    2.090    0.521
        19  -8.9648    166.0957      4.7074   3.9730778669e+01   4.2716888527e+01    0.2346541      0.19844   2.17 0.0004339677    1.376    0.273
        20 -12.0541    206.9029      2.3916   3.5572959726e+01   3.2716802494e+01    0.2277406    0.2188744  79.28 0.0003301325    1.182    0.154
        21  -7.9849    160.3519      2.1944   3.9482529087e+01   4.4452090999e+01    0.3143748    0.1649968 -48.32   0.00140223    1.882    0.469
        22  -8.3312    220.8036      2.7145   3.4761374604e+01   2.9473243407e+01     0.106989   0.09284181   2.38 -0.000275831    1.417    0.294
        23  -8.6438    175.6167      1.2905   3.7693018398e+01   4.0557621509e+01      0.15828    0.1155827  77.53 0.0008426387    1.314    0.239
        24  -9.7888    179.1907    151.9020   7.8704631904e+01   1.6913721288e+01    0.4745857     0.426614  42.90  0.002844036    1.219    0.180
        25  -9.4362    153.9211    157.4528   8.5128484406e+01   2.0481569566e+01    0.3676742    0.1909628 -39.33  0.001108322    2.085    0.520
        26  -9.7765    144.7869    155.1531   8.6745208134e+01   2.2545918470e+01    0.4328304     0.337259 -22.37  0.002154205    1.467    0.318
        27  -8.1919     95.1410    157.9145   9.9414591166e+01   3.0367685803e+01    0.2098565    0.1704854  63.78 0.0003766355    1.221    0.181
        28  -8.8543     68.3722    150.3450   1.0551336724e+02   3.5952712116e+01    0.1981201    0.1579295 -32.96  0.001090337    1.621    0.383
        29 -10.1208     62.9852    146.4152   1.0650371895e+02   3.7582079630e+01    0.3726911    0.2475049 -44.11  0.001892747    1.837    0.456
        30  -7.7693     52.6546    151.3086   1.0998629218e+02   3.7704721204e+01    0.1451322   0.08487704  61.03 4.300214e-05    1.700    0.412
        31  -9.9079    126.7000    156.6660   9.1282453506e+01   2.5438266732e+01    0.6816822    0.4299307   4.72  0.002747929    2.921    0.658
        32  -8.6796     42.2119    147.5923   1.1251208417e+02   3.9756369151e+01    0.1718709    0.1265422  12.54 0.0006815343    1.727    0.421
        33  -8.6298    103.7257    145.5595   9.5133785332e+01   3.1713892440e+01    0.3354433    0.2130808  68.88  0.001475944    2.130    0.530
        34  -8.4839     84.3512    144.6751   1.0025459836e+02   3.4995730599e+01    0.2282745    0.1512625  65.70  0.001095224    1.699    0.411
        35  -9.7494     55.9209    144.1028   1.0822144766e+02   3.9018188312e+01    0.2843276    0.1926948  64.54  0.001387377    1.451    0.311
        36  -9.8782     44.0795    142.3554   1.1143172657e+02   4.0805474932e+01    0.4466876    0.1878231  57.54  0.001816178    2.626    0.619
        37  -9.0926    108.7795    137.5469   9.2304246812e+01   3.2632748082e+01    0.2661962    0.2537085  70.56 0.0006419547    1.035    0.033
        38 -10.3247     52.5842    136.2502   1.0820752301e+02   4.1313720030e+01    0.3935176    0.2323419  47.85 0.0006736567    1.608    0.378
        39  -9.0663    104.4282    133.6252   9.2726785840e+01   3.4272367768e+01    0.3221354    0.2649262 -34.15  0.001559653    1.392    0.282
        40  -8.2449     73.0952    133.0996   1.0162963759e+02   3.9387400634e+01     0.200086    0.1902426 -45.20 0.0003707044    1.187    0.158
        41  -9.0024     88.7685    131.9698   9.6836421210e+01   3.7275166058e+01    0.2627418    0.2136052  26.95 0.0006795368    1.334    0.251
        42  -9.9267     13.9273    125.9662   1.1893948770e+02   4.7550656960e+01    0.3339436    0.1683648  73.35  0.001631224    1.907    0.476
        43  -8.8958     27.5456    124.8942   1.1459263896e+02   4.6720250496e+01    0.2906042    0.1683145  40.33 0.0009100567    1.671    0.402
        44  -8.9327     18.5004    123.0012   1.1727260781e+02   4.7938636290e+01    0.2964374   0.08715099  53.49  0.001047502    3.657    0.727
        45  -8.6003     35.2047    122.0013   1.1183110031e+02   4.6728040334e+01    0.2035051    0.1865922  49.70 0.0003339752    1.158    0.136
        46 -10.2984      4.7210    119.1154   1.2133702953e+02   4.9839386541e+01    0.4447992    0.1643757 -69.44  0.002006208    2.276    0.561
        47 -10.0578      3.7509    111.8593   1.2117636391e+02   5.1681336533e+01    0.4996384    0.1445692  49.92  0.001952838    3.311    0.698
        48 -10.5456     13.0937    209.8605   1.2337455408e+02   2.9244606267e+01     0.394848    0.1055456  46.97  0.001974525    2.376    0.579
        49  -7.3168     83.6723    107.6838   9.3480088185e+01   4.3927561469e+01    0.1493058    0.1162069 -21.02 0.0005048678    1.676    0.403
        50  -9.8594     12.3725    105.7733   1.1776862820e+02   5.2677274654e+01    0.3762594    0.1769783   9.09  0.001715455    2.823    0.646
        51 -10.0209      4.7902    104.5150   1.2029972406e+02   5.3447477504e+01    0.4060564    0.2611528 -25.25  0.002239354    2.048    0.512
        52  -8.4665     15.3737     99.1680   1.1603634620e+02   5.4146322320e+01    0.1931399    0.1064041  88.54 0.0008322069    1.710    0.415
        53 -10.0547      4.7581     97.8395   1.1978058703e+02   5.5119199429e+01    0.3138875    0.1786052 -75.34 0.0009403502    1.465    0.318
        54  -7.9438     83.0016    219.9885   1.0939066980e+02   1.9827909162e+01    0.1712964    0.1363624  46.79 0.0004042283    1.015    0.015
        55  -9.9369      6.6353    218.4097   1.2492611237e+02   2.8219698673e+01    0.2795517    0.1167074  45.93  0.001715998    1.650    0.394
        56  -8.3932     44.4643     95.3071   1.0461034305e+02   5.2532926207e+01    0.2300518    0.2055998  66.51 0.0005387073    1.131    0.116
        57  -7.7090     38.4478     95.9896   1.0699442585e+02   5.3004493306e+01    0.2080394    0.1239895 -70.84 0.0003974877    1.523    0.343
        58  -8.3966     16.0726     92.6672   1.1503528691e+02   5.5750057151e+01    0.1733262      0.16348 -81.60 0.0006443897    1.115    0.104
        59 -10.6395      6.9754     84.7959   1.1770814192e+02   5.8288463953e+01    0.6698426    0.2032296 -60.72  0.002730539    2.584    0.613
        60  -8.2624     32.0926     86.0611   1.0774586453e+02   5.6161071548e+01    0.2055752    0.1789125  87.17   0.00045805    1.106    0.096
        61  -9.6928      1.4375     83.9397   1.1983658637e+02   5.8768168554e+01    0.3623458    0.1420674 -82.13 0.0004741279    2.165    0.538
        62  -9.3712      2.3934     75.8091   1.1864501287e+02   6.0767824544e+01    0.2844512   0.09749909 -73.96  0.001200562    2.298    0.565
        63  -9.1214     29.6457     79.0437   1.0747692187e+02   5.8170147930e+01    0.3508877    0.2134197 -38.07  0.001057613    1.832    0.454
        64  -7.9574     63.1265     77.6662   9.3354216134e+01   5.4517147872e+01    0.2023245    0.1384638  20.12 0.0009436291    1.767    0.434
        65  -8.7690      2.8719     67.8888   1.1753243338e+02   6.2731875041e+01    0.2081185    0.1507239 -54.95  0.001253616    1.262    0.207
        66  -9.9092    219.3972    216.1586   8.2602960698e+01   1.7286968398e+00    0.2211575    0.1647646   6.31 0.0004762496    1.057    0.054
        67  -7.8110     56.0956    216.9004   1.1478300664e+02   2.3595623520e+01    0.1291831    0.1181801  55.14 -0.0006383859    1.221    0.181
        68  -8.0364     50.0186     58.3142   9.3175270617e+01   6.1025744669e+01    0.1875813    0.1835522 -28.69 0.0004716942    1.069    0.065
        69  -7.6676     54.4777     52.5664   8.9176927355e+01   6.1718447635e+01    0.1399901    0.1314559 -42.57 5.953808e-05    1.021    0.021
        70 -14.8416    241.0274    138.2674   6.5136734901e+01   8.3207719027e+00     1.883338     1.688939  64.56   0.01158918    1.643    0.391
        71  -9.1276     83.7345     38.1698   7.1082815214e+01   5.9319059354e+01    0.2646596    0.2379427 -78.57 0.0003893418    1.317    0.241
        72  -8.8023      2.6968    230.9398   1.2597748129e+02   2.6335863847e+01    0.1418483   0.09942378  63.04 0.0004809241    1.097    0.089
        73  -8.5056     29.7708    216.4376   1.2021542576e+02   2.6463753590e+01     0.144245   0.09730285  23.47 0.0009522742    1.680    0.405
        74 -10.8070    184.9886    202.4673   8.6552196081e+01   8.1921217748e+00    0.4436192    0.2317547  24.24   0.00232474    1.882    0.469
        75 -10.0067    181.6702     19.8204   4.2915748326e+01   3.7160299606e+01      0.23274    0.2178871 -57.32  0.000131883    1.034    0.033
        76 -10.1944    250.7859     18.3274   3.6737150620e+01   2.1548375198e+01    0.2002837   0.08682267 -25.22 0.0008599283    2.072    0.517
        77 -16.8859    242.4208     93.3685   5.5158767796e+01   1.4101966101e+01     2.069637     1.408656 -26.08   0.01124767    1.256    0.204
        78  -7.9226    133.3269    198.3324   9.6287251917e+01   1.6591809440e+01    0.1449209    0.1193861 -64.43 0.0009132569    1.514    0.340
        79  -9.1066    198.3087     17.3952   4.0487988850e+01   3.3286307733e+01     0.448604    0.1937398  55.96  0.001558742    2.441    0.590
        80  -8.4147    187.7185     17.4986   4.1555101045e+01   3.5888625972e+01    0.3035555    0.1407883  39.40  0.001132338    3.172    0.685
        81 -16.6189    226.7010     86.0290   5.5474696972e+01   1.8101356156e+01     3.796392     1.394588  62.78   0.01397922    3.848    0.740
        82  -7.8174    184.7271     15.2545   4.1179026450e+01   3.6878708083e+01    0.1384647   0.09335213 -60.01 0.0003917693    1.455    0.313
        83  -8.2697     50.7988     12.7692   7.2262876976e+01   7.0105867685e+01    0.1695461    0.1615572 -63.93 0.0004479346    1.328    0.247
        84  -6.8096    197.2335     11.3996   3.8855121242e+01   3.4170399464e+01    0.1905738    0.1254782  83.60 0.0004727849    1.531    0.347
        85  -8.2092    162.6940    193.9193   8.9545958603e+01   1.2812574732e+01    0.1651398    0.1502286  -3.05 0.0005085241    1.149    0.130
        86  -8.4983      1.5010    194.0132   1.2531960729e+02   3.3283907320e+01    0.1598979   0.09101989  86.81 0.0005927533    1.557    0.358
        87 -15.4987    235.2825     79.2895   5.2747902141e+01   1.7337847915e+01     1.039822    0.7019181 -66.60  0.005426794    2.011    0.503
        88  -8.5205     26.4644    232.5037   1.2153563616e+02   2.3926621223e+01    0.1067348   0.07821607  53.45 1.633239e-05    1.031    0.031
        89 -10.2857    171.0676    181.8172   8.5895453684e+01   1.3396698784e+01    0.3704914    0.3407568  54.34   0.00183479    1.350    0.260
        90  -7.2708    101.2793    176.2553   1.0051842172e+02   2.5566586785e+01    0.1191146    0.1008214   0.63 0.0006846742    1.467    0.318
        91  -7.5383    120.6943    174.2935   9.5626632991e+01   2.2938130203e+01    0.1334367   0.09722131  62.85 0.0002314774    1.580    0.367
        92  -8.5606     86.0830    172.3690   1.0372307213e+02   2.8596517738e+01    0.3339072     0.223811  14.22  0.001104349    2.000    0.500
        93  -9.1020    165.1393    169.5594   8.4964271710e+01   1.6389512011e+01    0.2916977    0.2451539  -6.39  0.001202315    1.214    0.176
        94  -7.8295     39.1402    211.1185   1.1799994185e+02   2.6508141404e+01     0.156962   0.09749755  54.15 0.0002636103    1.255    0.203
        95  -8.4293    179.6942    159.6846   8.0143685612e+01   1.5530760200e+01    0.1991395    0.1692567   1.53 0.0002861721    1.116    0.104
        96  -8.8195    180.5258    156.4862   7.9352527210e+01   1.5912007194e+01     0.281614    0.2190316  -0.08 0.0009148105    1.342    0.255
