#   1 NUMBER                 Running object number                                     
#   2 MAG_AUTO               Kron-like elliptical aperture magnitude                    [mag]
#   3 X_IMAGE                Object position along x                                    [pixel]
#   4 Y_IMAGE                Object position along y                                    [pixel]
#   5 X_WORLD                Barycenter position along world x axis                     [deg]
#   6 Y_WORLD                Barycenter position along world y axis                     [deg]
#   7 A_WORLD                Profile RMS along major axis (world units)                 [deg]
#   8 B_WORLD                Profile RMS along minor axis (world units)                 [deg]
#   9 THETA_WORLD            Position angle (CCW/world-x)                               [deg]
#  10 FWHM_WORLD             FWHM assuming a gaussian core                              [deg]
#  11 ELONGATION             A_IMAGE/B_IMAGE                                           
#  12 ELLIPTICITY            1 - B_IMAGE/A_IMAGE                                       
         1  -9.8114    113.4291     42.1263   2.7051954988e+01   5.0858692342e+01    0.4115292     0.242729  -1.22  0.001697213    2.751    0.636
         2 -10.8506     41.0188     13.8247   4.0074673222e+01   6.8211169104e+01    0.2195149    0.1580924  14.39  0.000245753    1.128    0.113
         3  -9.3443     97.5285     12.3902   2.0326993763e+01   5.7713036418e+01    0.2157032    0.1188335  -0.83  0.001028499    2.453    0.592
         4  -9.1991     67.6812      1.3250   2.4042625830e+01   6.4814257515e+01    0.1648451   0.08669612  45.09  0.000617694    1.504    0.335
         5  -9.2007    107.4901    247.3782   7.5250224824e+01   8.1778176317e+00     0.265664    0.1624725  70.98  0.001173632    2.258    0.557
         6 -10.4095     53.7116    249.1995   8.6532702711e+01   1.5317324569e+01     0.319738    0.2615236  17.86  0.001941119    1.653    0.395
         7 -10.8314     20.0401    249.0857   9.2969730765e+01   1.9252726343e+01    0.4121555    0.1751521  62.50  0.002193464    2.076    0.518
         8 -10.1114     13.2326    250.2370   9.4271964586e+01   1.9738892575e+01    0.2538945    0.1062055  43.69 0.0009662279    1.897    0.473
         9  -9.9892      4.1051    249.4593   9.5861071060e+01   2.0800530096e+01     0.218008    0.1176588  64.61 0.0007111522    1.442    0.307
        10  -9.5205     73.8758    243.8707   8.1962812146e+01   1.3719359381e+01     0.172799    0.1712924  73.15 0.0007840394    1.279    0.218
        11 -11.0339    167.2652    241.9789   6.1765030177e+01  -1.5290998204e-01    0.2394537    0.1674707  30.53 0.0007836556    1.224    0.183
        12  -9.6630      7.5406    242.5184   9.4910223082e+01   2.1827291708e+01    0.1149662   0.08260673  69.47 0.0002869458    1.039    0.037
        13  -8.5299    250.5078    241.5029   4.5516346783e+01  -1.1739089333e+01    0.1191783   0.08839578  -3.20 -1.262797e-05    1.001    0.001
        14  -9.1881     97.6629    241.6698   7.6687236661e+01   1.0747635076e+01    0.1244568    0.1006859  -6.34 -0.0002219112    1.734    0.423
        15  -9.3088     16.8207    238.1237   9.2943588913e+01   2.1780102401e+01    0.2465858   0.09918503  77.53  0.001149128    2.693    0.629
        16  -9.7208    231.0583    234.0861   4.7744692150e+01  -8.2637941505e+00    0.2332563     0.155906 -27.47  0.001035736    1.390    0.280
        17 -11.1872     91.0020    230.7905   7.6875848497e+01   1.3937133739e+01    0.4501413    0.1856728 -57.73  0.001957336    2.595    0.615
        18 -11.0904     87.6085    227.3573   7.7227023227e+01   1.5159010937e+01    0.3463791    0.2002023  35.27  0.001377768    1.613    0.380
        19 -11.2342     98.5170    225.3733   7.4525643757e+01   1.3935080575e+01    0.4419328    0.3265607  53.05  0.001531707    1.248    0.199
        20 -11.2261     95.7741    217.9091   7.4187668872e+01   1.5954635104e+01    0.5329337    0.3576064  60.00  0.001816694    1.546    0.353
        21  -9.6883     99.9872    217.2837   7.3125151507e+01   1.5436081764e+01    0.2813121    0.2268827  63.73 0.0005389509    1.230    0.187
        22 -10.8768    162.3849    225.3637   6.0166923024e+01   3.5540528616e+00    0.4135312    0.2958805  13.79  0.002185247    1.473    0.321
        23  -9.6211    116.5346    227.4776   7.0726377766e+01   1.0670505171e+01    0.1370153    0.1211328  44.51 0.0001014259    1.010    0.010
        24 -10.9103    126.2898    220.9213   6.7560891055e+01   1.0419917293e+01    0.3233227    0.2580084  67.66 0.0008426101    1.442    0.307
        25  -9.8409    237.9572    229.9513   4.5758983011e+01  -8.5817919838e+00    0.2478339    0.1918612  -2.88  0.001243183    1.008    0.008
        26  -8.8988    157.7589    221.4033   6.0529861780e+01   5.0616999523e+00    0.1978231    0.1215371  25.62 0.0006678347    1.619    0.382
        27 -10.2789    114.9227    220.8738   7.0165784430e+01   1.2290307024e+01    0.2096282    0.1863282   3.46 0.0008688555    1.292    0.226
        28  -8.8676    212.6632    220.6800   4.8884317295e+01  -3.6211683710e+00    0.1388548   0.08948336  -1.30 0.0007049767    1.707    0.414
        29  -9.2461    149.3448    219.8158   6.2146240511e+01   6.7810523516e+00    0.1945509    0.1247917 -36.99 0.0009452984    1.754    0.430
        30  -9.8727     74.9165    219.1723   7.9141872400e+01   1.8762156181e+01    0.2203195    0.1590856  61.93 0.0008153537    1.307    0.235
        31  -9.0581    143.5757    216.7775   6.2956151701e+01   8.3577613950e+00    0.1819369    0.1396105 -65.49 0.0009476612    1.611    0.379
        32 -10.1439    170.4484    215.2630   5.6685981749e+01   4.0836375323e+00    0.2654796    0.2276041  16.23 0.0007750827    1.053    0.051
        33  -9.1130    152.1543    216.0045   6.0881961264e+01   7.0501044979e+00    0.3149468    0.1828638   9.48  0.001209434    2.902    0.655
        34  -9.8564    108.7024    222.4178   7.1811302547e+01   1.2964690449e+01    0.2264032    0.1638438 -35.29 0.0008897778    1.747    0.428
        35  -9.3735    228.6547    213.6896   4.4548632441e+01  -4.8565856831e+00    0.1365426   0.08671307  -2.24 0.0005473993    1.704    0.413
        36 -10.3084     76.9539    211.7743   7.7799753694e+01   2.0123518697e+01    0.3129621    0.2281436 -57.38  0.001493675    1.466    0.318
        37  -9.7778    116.6274    210.3712   6.8214205279e+01   1.4248206025e+01    0.2211957    0.1604134  65.97  0.001095077    1.614    0.380
        38 -10.7018    212.2534    207.7098   4.6581629565e+01  -1.4149139435e+00    0.4016065    0.2250946  31.89  0.001991919    1.740    0.425
        39 -10.2896    124.0259    205.9769   6.5761051843e+01   1.3954422885e+01     0.204598    0.1897973  44.16            0    1.019    0.019
        40 -11.3941    177.8858    196.8517   5.1669360836e+01   6.3214110869e+00    0.3536322    0.3052394   4.61 0.0009916179    1.106    0.096
        41  -9.4015      4.5051    200.5033   9.3109590833e+01   3.1050403194e+01     0.120701   0.09496638  82.64 -0.0001493216    1.012    0.012
        42 -10.6627    166.7648    198.1821   5.4398587155e+01   8.0401326569e+00    0.3217747    0.1753203 -49.61  0.001388363    2.006    0.501
        43 -11.8092    172.8915    195.6176   5.2536812078e+01   7.4549391625e+00    0.6610862    0.3340219 -44.18   0.00179931    2.030    0.507
        44 -10.3158    125.5441    197.1252   6.3919875738e+01   1.5639989577e+01    0.4158372    0.2553047  25.99  0.001495971    1.798    0.444
        45  -9.0222    112.9984    194.2558   6.6524897099e+01   1.8462241714e+01    0.2030844     0.184006  38.65  0.000350135    1.065    0.061
        46  -9.2982    105.1743    197.5480   6.8998142754e+01   1.9019490111e+01    0.2780405    0.1777329 -40.64 0.0009361572    1.848    0.459
        47 -10.9362     13.9921    194.3399   9.0603956143e+01   3.1622518698e+01    0.4067737    0.2563195 -42.28  0.001839822    2.156    0.536
        48  -9.7443     21.8136    190.7965   8.8531859823e+01   3.1716956662e+01     0.276734    0.1213431  37.58  0.001233199    2.193    0.544
        49  -9.4198     66.6324    194.6288   7.8150204996e+01   2.5565043057e+01    0.2817135    0.1544332  86.25  0.001162458    2.471    0.595
        50 -10.1996    162.8124    194.1229   5.4527651588e+01   9.5776580396e+00    0.2266892    0.2049588  65.77 0.0006471106    1.322    0.244
        51  -9.2698    112.7329    197.9686   6.7200117478e+01   1.7658724671e+01    0.3770823    0.2226395  70.89  0.001430436    2.833    0.647
        52  -8.9250     36.4739    193.0148   8.5293249140e+01   2.9676197411e+01    0.1839304    0.0864764 -50.42 0.0008089265    2.457    0.593
        53  -9.9454    155.2514    191.5224   5.5782092009e+01   1.1501541360e+01    0.2415924    0.2287911 -73.59  0.000389609    1.217    0.178
        54 -11.3647     98.2918    188.2380   6.9244627585e+01   2.2332344946e+01    0.8379275    0.3276463  45.13  0.003040802    2.543    0.607
        55 -10.9937     94.4589    182.5777   6.9310760947e+01   2.4315414997e+01     0.534515    0.3901927 -77.94  0.001719235    1.518    0.341
        56  -9.9392    180.8572    199.8534   5.1594251678e+01   5.2179400013e+00    0.2123272    0.1947816  11.25            0    1.050    0.048
        57  -9.2129    138.6444    188.8639   5.9245784041e+01   1.5128313885e+01    0.2121817    0.1427432 -63.00 0.0009465024    1.779    0.438
        58 -10.6036    204.4858    188.0321   4.4317769968e+01   3.3405341188e+00    0.2637685    0.2009505  51.77  0.001381348    1.652    0.395
        59  -8.9771    129.1431    188.1960   6.1456086076e+01   1.7006996565e+01    0.2095392    0.1772339  72.53 0.0007519585    1.360    0.265
        60 -11.5990     10.6532    187.1978   9.0810045593e+01   3.3584062384e+01     0.371331    0.2632446  38.43  0.001315964    1.510    0.338
        61 -10.3808    250.0000    185.4690   3.5395112498e+01  -3.4338556243e+00    0.2878525    0.0627429 -39.25 0.0009388318    3.968    0.748
        62  -8.5727    165.3225    186.6391   5.2497953738e+01   1.0664100052e+01    0.1488351    0.1204832  81.72 0.0007042634    1.777    0.437
        63 -10.0433    109.5756    184.7932   6.5781579154e+01   2.1255948446e+01    0.4040747    0.2849149  43.05  0.001942303    1.367    0.268
        64  -9.6587    228.4894    184.5041   3.8984007183e+01  -8.2955443732e-03    0.1369843    0.1151223 -13.73 0.0001745388    1.022    0.021
        65 -10.3339    174.4862    183.6016   4.9812859185e+01   9.5857158942e+00    0.3432174    0.2443353  84.12  0.001391176    2.773    0.639
        66  -9.0785    120.0000    184.0098   6.2985999175e+01   1.9611435768e+01    0.2446547   0.08605116 -53.87 0.0008019905    2.939    0.660
        67  -8.6553    217.2933    183.3127   4.0846855681e+01   2.0278750950e+00     0.141227   0.09877229  -6.66 0.0002474961    1.593    0.372
        68  -8.7643     74.3245    183.6445   7.4709967492e+01   2.7143273174e+01    0.1550869    0.1017894  69.67 0.0007045984    1.768    0.434
        69 -10.4209     44.8678    180.3886   8.1859386198e+01   3.1783596380e+01    0.6281925    0.1383979 -65.53  0.002022886    3.762    0.734
        70 -10.3787     20.1889    181.2808   8.8072392719e+01   3.4136129440e+01    0.3828276    0.2125034 -78.82  0.002011849    1.568    0.362
        71 -11.5213     12.2756    179.4702   8.9807969601e+01   3.5272724664e+01    0.4028846    0.3566282 -56.43  0.002738551    1.305    0.234
        72  -9.9269    147.5940    179.8570   5.5332972919e+01   1.5456076849e+01    0.2867482    0.1954614 -65.24 0.0009530004    1.874    0.466
        73  -9.5238    138.8427    179.7613   5.7457411296e+01   1.7129897233e+01    0.2953834     0.211009 -87.51  0.001246057    2.173    0.540
        74 -11.4498      3.6529    177.7465   9.1703687480e+01   3.6380927954e+01    0.3584064    0.3087856  15.29   0.00246481    1.524    0.344
        75  -9.8724     77.5703    175.6086   7.2643964549e+01   2.8650885587e+01    0.2986387    0.1879468  69.57 0.0008916781    2.005    0.501
        76  -9.4221    204.9572    175.4701   4.1662116223e+01   5.6040093192e+00    0.2143986    0.1383336  37.33  0.001034386    1.600    0.375
        77 -10.0559    148.5404    174.9677   5.4117420410e+01   1.6361181548e+01    0.2934324    0.2138955  19.87 0.0008306681    1.551    0.355
        78  -9.8479    105.2776    174.5296   6.5076522293e+01   2.4457239264e+01    0.3652591    0.2199907  80.39  0.001283091    3.100    0.677
        79  -9.1980     24.2519    174.4472   8.6419172060e+01   3.5410467589e+01    0.1737806    0.1086833  47.01 0.0009393179    1.607    0.378
        80 -10.4214     88.5221    175.3588   6.9678749098e+01   2.7032261628e+01    0.5656409    0.2414304 -70.40  0.001856793    3.311    0.698
        81 -10.0076    177.1753    169.3168   4.6241753260e+01   1.2019411882e+01    0.4439609    0.2722164 -46.86  0.001962047    1.658    0.397
        82  -9.0046    134.7712    171.0621   5.6742446377e+01   1.9891851319e+01    0.2065568    0.1287062 -51.56 0.0008761841    1.648    0.393
        83 -10.5676    206.7953    168.9400   3.9928637418e+01   6.5106358193e+00    0.3355536    0.1817071 -45.76  0.001469819    1.851    0.460
        84 -10.4913    121.7040    167.7295   5.9440415205e+01   2.3143542044e+01    0.7075435     0.306685 -53.75  0.002541816    2.378    0.579
        85  -9.0374     54.8196    169.1998   7.7806335842e+01   3.3368883838e+01    0.2538414    0.1281583  66.55 0.0009521216    2.883    0.653
        86 -10.9460    219.0831    165.3149   3.6801833369e+01   4.9892552619e+00    0.3580695    0.2791012  43.78  0.001962258    1.445    0.308
        87  -9.8847    139.1237    164.9362   5.4370646747e+01   2.0466341132e+01     0.422231     0.284904 -76.98  0.001546118    2.283    0.562
        88  -9.2647     19.0218    166.5263   8.6945931038e+01   3.7824908213e+01    0.1704091     0.127347  30.45 0.0004393771    1.534    0.348
        89  -9.6173     98.3243    165.6490   6.5308230510e+01   2.7825750783e+01      0.41051    0.2231789 -79.20  0.001352445    3.214    0.689
        90 -10.2004     92.7788    159.9310   6.5764255726e+01   3.0179804288e+01    0.5572964    0.3651441  82.76  0.002260332    2.266    0.559
        91  -9.9710     80.3085    164.2074   7.0019667080e+01   3.1091882341e+01    0.4065381    0.2215923  87.10  0.001327379    3.634    0.725
        92  -9.9492    150.3151    163.8613   5.1353296116e+01   1.8501577589e+01    0.4699498    0.2871129 -29.35  0.001885588    2.024    0.506
        93 -10.6876    247.3270    162.1991   3.1231740229e+01   8.1552290156e-01     0.346186   0.09465546 -46.03  0.001096564    4.140    0.758
        94  -9.1593    177.7800    160.8083   4.4261458415e+01   1.3675027987e+01    0.2057757    0.1856806  87.92 0.0007173673    1.369    0.270
        95  -9.5579     99.4907    160.4718   6.3999726284e+01   2.8909837416e+01    0.3573085    0.1667952 -39.46  0.001155105    2.744    0.636
        96  -9.9730    146.7569    159.3985   5.1262021218e+01   2.0222281887e+01    0.2714083    0.2572679  76.33 0.0003481936    1.156    0.135
        97  -9.7899    141.5506    158.5036   5.2372856284e+01   2.1470157246e+01    0.4944897      0.15338  40.34  0.001479152    3.204    0.688
        98  -9.8689    188.6616    156.9043   4.1037129370e+01   1.2320610562e+01     0.363456    0.1760867 -48.25  0.001407099    2.145    0.534
        99  -9.0962    128.3727    158.2052   5.5710520974e+01   2.4140777114e+01    0.2305863     0.149206 -61.67 0.0009554121    1.767    0.434
       100  -9.9077    105.2898    157.4453   6.1792286940e+01   2.8642311734e+01    0.3222564    0.2555566  86.28 0.0009692546    1.527    0.345
       101  -9.7608    167.7088    157.1624   4.5734416046e+01   1.6475398886e+01    0.2472712    0.1985613 -66.19 0.0009925822    1.503    0.335
       102 -11.6908    205.4368    154.1356   3.7009316875e+01   9.6053298730e+00    0.5427782    0.3384938 -24.68  0.002426824    1.806    0.446
       103  -9.3670    119.1448    154.3002   5.7335654955e+01   2.6852869505e+01    0.3030961     0.209412 -83.43  0.001096942    2.147    0.534
       104 -10.0409     81.7457    154.2372   6.7819505160e+01   3.3387992189e+01    0.3492239    0.2028488 -77.56 0.0009760436    2.279    0.561
       105 -10.7995     68.1458    153.2059   7.1560957636e+01   3.5660423845e+01    0.5581192    0.3321987 -83.36  0.001989811    2.173    0.540
       106  -9.7166     49.5954    154.8158   7.7166484639e+01   3.7642532579e+01    0.2875012    0.1934153  74.37 0.0009867379    1.725    0.420
       107 -10.0903    133.3972    152.8750   5.3227733741e+01   2.4409285336e+01    0.5180638    0.3473455  80.62  0.001924164    2.641    0.621
       108  -8.9192     95.5177    154.4393   6.3925768625e+01   3.1092844131e+01    0.1511914    0.1468206 -35.57 1.777406e-05    1.064    0.060
       109  -9.2541     98.4130    150.2353   6.2248771749e+01   3.1643406300e+01    0.2888635    0.1533981 -67.85  0.001046676    2.430    0.589
       110 -11.5664    189.1503    148.8086   3.9119116556e+01   1.3868355980e+01    0.7137219    0.3872302 -59.96  0.002572375    2.845    0.649
       111  -9.6558    182.9066    150.1411   4.0750257666e+01   1.4863130546e+01    0.3747681     0.207806 -51.94  0.001340038    1.993    0.498
       112  -8.8428    162.4085    150.2600   4.5409414614e+01   1.9064287574e+01    0.2237439    0.1469491 -56.10 0.0008668497    1.716    0.417
       113  -9.6902    223.9499    148.2352   3.2279923475e+01   7.2562686633e+00    0.2845095    0.1699906  49.11  0.001147065    1.932    0.482
       114 -11.2432    248.8667    153.5866   2.9238862421e+01   2.0300186601e+00    0.4998107    0.2997653 -61.95  0.002206448    2.850    0.649
       115  -9.9914    199.6879    148.1763   3.6822754823e+01   1.1886628631e+01    0.2385271    0.1831802 -54.32  0.001185689    1.413    0.292
       116  -9.0243    142.5229    148.0468   4.9778927752e+01   2.3681587711e+01    0.2475964    0.1554399 -48.05  0.001032381    1.595    0.373
       117  -9.7723     39.4799    147.2490   7.8959239933e+01   4.0692576971e+01    0.4001043    0.1923742  62.48  0.001506968    3.139    0.681
       118 -10.4836     56.6232    145.7529   7.3659575568e+01   3.9094177381e+01    0.5601037    0.2768363  58.03  0.002088907    2.934    0.659
       119  -9.1366    175.6000    145.8160   4.1359784061e+01   1.7273546030e+01    0.2233582    0.1424746 -53.16 0.0007084478    1.706    0.414
       120 -10.7954    148.7705    142.5361   4.6918408653e+01   2.3636961350e+01    0.9619004    0.3732233 -49.97  0.003132258    2.721    0.633
       121 -10.0432    106.9553    144.6381   5.8616541363e+01   3.1496763086e+01    0.5453591    0.3425592  83.97  0.001861912    3.173    0.685
       122  -9.9472    106.4764    138.9872   5.7486956497e+01   3.2970737987e+01    0.3262807    0.1443037 -47.41  0.001054258    2.217    0.549
       123  -9.5275     78.0210    144.8073   6.7100271819e+01   3.6350743877e+01    0.5322886    0.1173753 -49.08   0.00142368    4.326    0.769
       124  -9.1155     13.4849    145.9899   8.6233477270e+01   4.3342444554e+01    0.1859392   0.09327623  79.41 0.0006958876    2.429    0.588
       125  -9.0858    165.8196    143.9920   4.3157363199e+01   1.9715430201e+01    0.2580389    0.1846704 -73.56  0.001073578    2.028    0.507
       126 -10.2180    124.7263    141.6819   5.2992596618e+01   2.8790279201e+01     0.657334    0.3336913 -64.67  0.002123524    3.086    0.676
       127 -10.5387     87.7397    142.8865   6.3824451422e+01   3.5292823303e+01    0.5317872    0.2671433 -71.49  0.001797286    2.987    0.665
       128  -9.6209    182.6702    141.5867   3.8833163946e+01   1.6680719443e+01    0.2640206    0.1851292 -60.85  0.000967856    1.733    0.423
       129  -9.1087      3.3154    142.6526   8.8698352084e+01   4.4867890046e+01    0.1318064   0.08152018  69.88 0.0007047625    1.722    0.419
       130 -10.5685     68.8619    138.9199   6.8708786657e+01   3.9194130747e+01    0.5823361    0.2340397 -72.56  0.001610833    4.633    0.784
       131  -9.6674    172.4108    137.7879   4.0187153417e+01   1.9643647518e+01    0.3899118    0.2461612 -68.75      0.00146    2.560    0.609
       132  -9.5182     81.4950    139.0820   6.4899192860e+01   3.7257292394e+01    0.2376982    0.1444213 -57.52  0.001029533    1.581    0.367
       133 -10.3042     23.2222    137.7206   8.2399956107e+01   4.4628828629e+01    0.5589629    0.2483712  83.05  0.001904205    4.027    0.752
       134 -10.9883    202.7544    136.5723   3.3594738159e+01   1.3546039541e+01    0.3175494    0.2641883  56.51 0.0007797702    1.350    0.259
       135 -11.4356    197.6208    136.6185   3.4604190154e+01   1.4583797404e+01    0.3969155    0.3221012 -31.57  0.001689585    1.188    0.158
       136 -10.6703    249.0575    135.8938   2.5578238328e+01   5.0138638456e+00    0.3475542    0.1573927 -47.02  0.001520628    2.077    0.518
       137 -10.6409    188.3073    135.1285   3.6136111430e+01   1.6817996781e+01     0.461376    0.2460487 -49.54  0.001495969    1.946    0.486
       138  -9.7508    162.4272    135.6924   4.1973772010e+01   2.2237090652e+01    0.3053918    0.1493014 -48.89  0.001122073    2.107    0.525
       139 -11.1743     41.4629    131.5881   7.5872700239e+01   4.4449806145e+01      0.55068     0.333596 -86.05  0.002212429    1.996    0.499
       140  -9.9120    179.6841    132.8310   3.7406969825e+01   1.9120860041e+01    0.4399021    0.2208202 -49.90  0.001551027    2.105    0.525
       141 -10.3960    192.5807    129.7031   3.3990629662e+01   1.7002784206e+01    0.3759979    0.1465338 -38.92 0.0009919661    2.503    0.601
       142 -10.6457    132.0837    129.4855   4.8063709201e+01   3.0134563465e+01    0.8478596    0.3388332 -51.44  0.002759309    2.698    0.629
       143 -11.4910    111.8824    128.8284   5.3525545848e+01   3.4396054384e+01    0.7454267    0.5951779  -1.69  0.003457042    1.545    0.353
       144 -11.0184    116.7098    122.4685   5.0549337661e+01   3.4936046298e+01     1.040407    0.3584031 -42.43  0.003180265    3.068    0.674
       145 -10.6579     83.4526    131.3887   6.2645729513e+01   3.8870491255e+01    0.4448363    0.3133654 -87.02  0.001488418    1.959    0.490
       146  -9.4791    142.9080    131.0676   4.5623946183e+01   2.7472160076e+01    0.3898724    0.2213417 -55.71  0.001456839    2.013    0.503
       147 -10.3746    168.6192    128.6496   3.8831146980e+01   2.2395222571e+01    0.4491115    0.2767686 -53.80  0.001861159    1.781    0.438
       148 -10.8835    103.0291    118.5178   5.3560592053e+01   3.8547520879e+01    0.3759727    0.2986909  17.16 0.0009450035    1.417    0.294
       149 -10.9219     98.3098    126.4477   5.6956933270e+01   3.7528863841e+01    0.7586048    0.4341135 -71.95  0.002665383    2.831    0.647
       150 -10.5041     98.3491    120.3139   5.5437107356e+01   3.8996515270e+01    0.4128696    0.2962215 -32.28  0.001494706    1.512    0.339
       151  -9.6149     12.6846    128.9635   8.4399115526e+01   4.7609903077e+01    0.3637792    0.1594594  75.95  0.001264598    4.183    0.761
       152 -10.2384     73.0072    128.3115   6.5233504780e+01   4.1263634903e+01    0.4420763    0.2561818 -72.55  0.001773077    2.202    0.546
       153  -9.5199    186.7537    127.9959   3.4764263890e+01   1.8586168185e+01    0.3213027    0.1497153 -38.63  0.001208753    2.106    0.525
       154 -10.5088    188.4238    123.2810   3.3292265452e+01   1.9167054946e+01    0.4386456    0.1776094 -38.10  0.001541897    2.463    0.594
       155 -10.7889     59.4981    123.9043   6.8631975669e+01   4.4254721529e+01    0.6407752    0.3628451  82.96  0.002138934    3.890    0.743
       156 -12.0065    185.3917    114.4032   3.1737043021e+01   2.1581787501e+01    0.5963087    0.4438532  26.99  0.002800948    1.652    0.395
       157 -10.3491    180.2317    124.2632   3.5219036722e+01   2.0755485921e+01    0.4504165    0.2570353 -55.04  0.001790852    2.037    0.509
       158 -10.3557    181.3851    120.2112   3.3984812329e+01   2.1319065555e+01    0.3348313    0.2653772 -50.09  0.001233731    1.250    0.200
       159  -9.8331     83.4699    123.3904   6.0812695790e+01   4.0843739258e+01    0.5195328    0.2110705 -33.77  0.001350044    5.025    0.801
       160 -10.8093     43.7983    122.4163   7.3471571305e+01   4.6502626543e+01    0.5807895    0.3335718  84.45  0.002299519    2.879    0.653
       161 -10.3662    152.8339    127.7037   4.2305335372e+01   2.6063932681e+01    0.6732078    0.2401806 -48.02  0.002103177    2.914    0.657
       162 -10.5771    105.3624    123.3916   5.4092493866e+01   3.6949402982e+01    0.2766191    0.2348989  30.29 0.0005608051    1.211    0.174
       163 -10.3619     29.3672    123.6744   7.8391301659e+01   4.7609278249e+01    0.3242444     0.200886  58.42  0.001583863    2.038    0.509
       164  -9.7028    172.7729    120.1658   3.5807135420e+01   2.3239683778e+01    0.4064428    0.1956816 -50.31  0.001488618    2.242    0.554
       165  -9.8867    158.5041    120.0168   3.9003268313e+01   2.6461968933e+01    0.4813352    0.2827017 -42.58  0.001980209    1.680    0.405
       166 -10.9616    141.6145    117.2809   4.2443758920e+01   3.0813329954e+01    0.9455139    0.3303117 -47.76  0.002926887    2.980    0.664
       167 -10.3264     70.8421    118.7386   6.3789161338e+01   4.3955262574e+01      0.47891    0.2127103 -66.78    0.0015923    3.156    0.683
       168 -10.1334    130.4568    116.9674   4.5296590912e+01   3.3317690680e+01    0.5890998    0.2863048 -51.21  0.002134714    2.205    0.546
       169  -9.9792      3.0892    116.9583   8.5809410903e+01   5.1134620512e+01    0.3805668    0.1739566  81.20  0.001535758    3.252    0.693
       170  -8.9398     12.3107    117.2895   8.2906749639e+01   5.0498931679e+01    0.1334107   0.08028223 -43.03 0.0002445095    1.582    0.368
       171 -11.5376    108.6930    112.3717   5.0255558023e+01   3.8874192113e+01    0.9204844    0.3505621 -50.68  0.003021732    2.737    0.635
       172 -10.3906    192.9690    113.5508   3.0046369957e+01   2.0073866648e+01    0.3213622    0.2224583 -40.35  0.001523579    1.374    0.272
       173 -10.3081     92.5287    111.9948   5.5120521417e+01   4.2022211873e+01     0.569864    0.3421875 -67.95  0.002111427    2.370    0.578
       174  -9.8848     92.6742    104.4325   5.3055622624e+01   4.3742554752e+01     0.420996    0.2651647 -16.47  0.001627936    2.428    0.588
       175 -10.8203     79.1955    112.6161   5.9576749920e+01   4.4148509760e+01    0.5418965    0.3522369 -89.76   0.00204192    2.909    0.656
       176 -11.6932     17.0137    104.8940   7.9352341304e+01   5.3181511641e+01    0.7666264    0.3167631 -40.22   0.00333915    2.396    0.583
       177 -11.0904     23.3639    102.0519   7.6589970206e+01   5.3391827515e+01     0.645586    0.3458709  67.02  0.002562615    3.544    0.718
       178 -10.1430    159.2176    110.7055   3.6430788863e+01   2.8242095218e+01    0.4563883    0.2172657 -40.97  0.001679685    2.089    0.521
       179 -10.7490    122.0804    110.2734   4.5815493951e+01   3.6594886941e+01    0.6512021    0.2733399 -39.09  0.002191638    2.582    0.613
       180  -9.7295     22.7530    110.8334   7.8407252590e+01   5.1322588384e+01    0.2884156    0.1529628 -78.66  0.001312932    2.096    0.523
       181 -10.9088     66.1523    108.8459   6.3009583143e+01   4.7034847695e+01    0.6268197     0.274407 -62.89  0.002236671    2.767    0.639
       182 -10.4252    182.7752    107.9288   3.0650414544e+01   2.3425814970e+01    0.3603012    0.1892585 -46.08  0.001455445    1.867    0.464
       183 -10.2017    133.3014    108.2852   4.2209404021e+01   3.4597790886e+01    0.4416832    0.2511099 -49.48  0.001759971    1.836    0.455
       184  -9.7471     33.7551    106.4774   7.3772032880e+01   5.1435194007e+01    0.3199949    0.1862759  74.22  0.001296191    3.095    0.677
       185 -10.9175    128.4244     99.7045   4.1135836282e+01   3.7491512704e+01    0.7512415    0.3396598 -38.27  0.002620064    2.339    0.573
       186 -10.9922     45.8212    102.1737   6.8546560448e+01   5.1225676226e+01    0.6784399    0.3823819  69.01  0.002359279    4.183    0.761
       187 -10.6592    149.8088    100.6309   3.5948629049e+01   3.2449910795e+01    0.7695791    0.2415564 -45.01  0.002320281    3.262    0.693
       188 -10.4432    139.5275    102.4302   3.8982675446e+01   3.4437708889e+01    0.5721992    0.2810789 -38.56  0.002139122    2.111    0.526
       189 -12.2157    185.9995    102.7839   2.8728105570e+01   2.3675559413e+01    0.6178484    0.4003307 -62.59  0.002676523    1.896    0.472
       190  -8.9037      6.6783    102.7072   8.2582993505e+01   5.4350899103e+01     0.133411   0.07527521 -42.05 0.0003221086    1.611    0.379
       191  -9.7346    159.7519     98.6298   3.3103279317e+01   3.0535857956e+01     0.446155    0.2027425 -35.23  0.001596833    2.401    0.584
       192 -10.8783    108.9072     98.4556   4.6340681024e+01   4.1920832442e+01    0.5932647    0.4313595  78.70  0.001881527    2.161    0.537
       193  -9.9713    108.2085     91.9029   4.4641889210e+01   4.3448761407e+01    0.4459805    0.3073863  13.47  0.001901698    1.948    0.487
       194  -9.9182     82.0004     99.4908   5.5194451327e+01   4.6742552262e+01    0.3710706    0.2464641 -74.42  0.001525495    2.366    0.577
       195 -11.1520    183.2175     95.8022   2.7497877102e+01   2.5610681566e+01    0.3576019    0.2692128  -4.86  0.001644522    1.885    0.469
       196 -10.7522     63.8599     95.8047   6.0476719509e+01   5.0414393518e+01    0.4896244    0.3289863  89.96  0.001998382    2.827    0.646
       197  -9.6022    164.8782     92.7384   3.0397753211e+01   3.0460581812e+01      0.36829    0.2013502 -31.06  0.001451536    2.100    0.524
       198 -10.1918    174.7778    109.9631   3.2804772768e+01   2.4841925826e+01    0.4926438    0.2340903 -43.74  0.001876997    2.049    0.512
       199 -10.7566    176.9406     92.1509   2.7773855460e+01   2.7737685652e+01     0.333772    0.2130599 -34.57  0.001088053    1.625    0.385
       200 -10.3446     94.8083     96.1562   5.0048897563e+01   4.5190651833e+01    0.4688132    0.2127246 -52.72  0.001611847    2.463    0.594
       201 -10.2217    138.6118     89.9462   3.5695156425e+01   3.7147623784e+01    0.5407702    0.2737905 -39.68  0.002110092    2.013    0.503
       202 -10.2906     44.5959     91.8442   6.6513551015e+01   5.3777113719e+01    0.3265644    0.1834068   2.37  0.001411281    2.471    0.595
       203  -9.2683    157.7178     90.4626   3.1335030867e+01   3.2575953525e+01    0.2833288    0.1355766 -39.03   0.00107292    2.112    0.527
       204 -10.6284    124.4920     90.5004   3.9554340952e+01   4.0241183539e+01    0.3956075    0.3101597 -63.76  0.001621493    1.532    0.347
       205 -10.3682    124.4987     85.9937   3.8218818687e+01   4.1126475213e+01    0.6142026    0.3739748   5.49  0.001980425    3.730    0.732
       206  -8.9032     57.6793     91.7188   6.1617460507e+01   5.2196652817e+01    0.1453332    0.1012743 -20.28 0.0002366679    1.586    0.369
       207 -10.2091     34.6175     89.0750   6.9619267993e+01   5.5451963272e+01    0.4924977    0.2446495 -74.39  0.001902526    3.168    0.684
       208  -9.9186     35.8375     81.7650   6.7313612671e+01   5.6978197978e+01    0.3551121    0.1777149 -21.18  0.001454716    2.770    0.639
       209 -10.0405      4.8257     91.2367   8.1346757903e+01   5.7137369814e+01    0.2014895    0.1131549  63.36 0.0009504419    2.797    0.642
       210  -9.6024    150.9636     87.2611   3.1967851093e+01   3.4769870526e+01    0.2859055    0.2020761 -23.58  0.001282157    1.680    0.405
       211  -9.7957     63.9929     87.5010   5.8130582910e+01   5.2254455548e+01     0.310161    0.1528555 -24.27  0.001040453    3.497    0.714
       212 -10.3011     86.2621     86.3268   4.9950801351e+01   4.8868448959e+01     0.384683    0.2725163 -67.87  0.001545802    2.015    0.504
       213 -10.4453     86.9877     80.5074   4.7914592194e+01   4.9931627884e+01    0.4685403    0.2480687  17.25   0.00158389    3.398    0.706
       214  -9.8738    166.9326    101.8567   3.2381819761e+01   2.8236267542e+01    0.4217463    0.2193747 -35.48   0.00164175    2.028    0.507
       215 -10.3558     48.5638     84.2423   6.3006841497e+01   5.5026522544e+01    0.3487774    0.2445831  74.10  0.001341144    2.588    0.614
       216 -10.2538      7.2266     84.7729   7.9257973812e+01   5.8491294172e+01     0.228182   0.09465069 -38.61  0.001059692    2.190    0.543
       217  -9.3473    116.7679     83.1364   3.9503001827e+01   4.3388151216e+01    0.2696896    0.2025009 -17.11 0.0006221638    1.560    0.359
       218 -10.5418    104.2808     82.2403   4.2906040626e+01   4.6211889701e+01    0.4923509    0.2736711 -55.92  0.001918703    2.402    0.584
       219 -10.3038    140.7662     80.8970   3.2540368769e+01   3.8346636461e+01    0.4423279    0.2083384 -34.50  0.001659144    2.313    0.568
       220  -9.5714    158.6404     81.1435   2.8554890649e+01   3.4058106243e+01     0.353444    0.1877688 -30.87  0.001398014    2.160    0.537
       221 -10.1367     24.5913     80.3596   7.1448217676e+01   5.8309744749e+01    0.3315421    0.2337466  85.79  0.001667015    2.177    0.541
       222  -9.7094    150.2851     78.4388   2.9616152797e+01   3.6532327267e+01    0.3787387    0.2136785 -37.67   0.00159932    1.825    0.452
       223  -9.8024    119.1501     78.2317   3.7329698307e+01   4.3792752683e+01     0.438658    0.2186792 -42.14   0.00174323    2.068    0.517
       224  -9.3250     74.4902     80.0117   5.2093793141e+01   5.2216740511e+01    0.2003764    0.1302548 -70.07 0.0008101114    2.672    0.626
       225  -9.7502      8.7594     80.6063   7.7829729189e+01   5.9346452109e+01    0.1573603    0.1119706  28.25 0.0009504224    1.691    0.409
       226 -10.3999    175.9176    100.2619   3.0081756853e+01   2.6462287688e+01    0.4129279    0.2171723 -34.36  0.001634859    2.025    0.506
       227 -10.3498     49.5105     76.6976   6.0487819659e+01   5.6541753968e+01    0.2848693    0.1860703 -13.23  0.001040124    1.763    0.433
       228  -9.2256    167.5001     76.0393   2.5335184992e+01   3.2820855211e+01    0.2240573    0.1461432 -36.33  0.001027649    1.582    0.368
       229 -10.7410    128.1754     72.5547   3.3168050224e+01   4.2771462373e+01    0.7667249    0.3394514 -33.97  0.002851207    2.483    0.597
       230  -9.4019    157.5575     74.6924   2.6976405367e+01   3.5439035780e+01    0.2735962    0.1497729 -30.80  0.001008738    2.066    0.516
       231 -10.1035    140.5225     73.7215   3.0482588568e+01   3.9679062578e+01    0.3621011    0.1452801 -39.28  0.001300333    2.548    0.608
       232  -9.8045     10.0146     74.1958   7.5944984520e+01   6.0694924711e+01    0.2043136     0.147534 -50.64 0.0003345945    1.118    0.105
       233 -10.3057     82.3591     72.0362   4.6774966179e+01   5.2439495429e+01     0.390032    0.2543439 -64.73  0.001462344    2.521    0.603
       234 -10.3778     82.5242     65.6626   4.4586729854e+01   5.3598005099e+01    0.4240961    0.2464014  -3.77  0.001544312    3.241    0.691
       235  -9.0708    151.4806     71.9853   2.7498088743e+01   3.7358583390e+01    0.2273033    0.1481957 -35.56  0.001035983    1.606    0.377
       236  -9.6928    115.7696     71.2549   3.6082563238e+01   4.5808033836e+01     0.367666    0.1705378 -43.67  0.001420093    2.299    0.565
       237 -10.0213     94.8374     70.0054   4.1947158816e+01   5.0447256722e+01    0.5187306    0.2049605 -49.64  0.001748858    3.332    0.700
       238 -10.2561     27.4076     71.2095   6.7937618316e+01   6.0063360302e+01    0.3767904    0.1704536 -13.58  0.001396883    3.770    0.735
       239  -9.9817    105.7326     71.1622   3.8952794134e+01   4.7999147870e+01    0.2313662     0.189385 -59.42  0.001018211    1.487    0.327
       240 -10.5107     51.2020     68.6087   5.7331945633e+01   5.7993296449e+01    0.4253777     0.225415 -65.11    0.0016048    3.540    0.717
       241  -8.9623    163.0311     69.4889   2.4409043406e+01   3.4986415571e+01    0.2133238    0.1138111  37.15 0.0008095223    2.487    0.598
       242  -9.7196    146.9656     65.9008   2.6704831586e+01   3.9448190430e+01    0.5245121    0.2060401 -31.55  0.001830594    2.968    0.663
       243  -9.0197     62.3380     71.3167   5.3834268143e+01   5.5890357076e+01    0.1477202    0.1000665 -11.45 0.0007048427    1.702    0.412
       244 -10.1216    138.5056     64.5092   2.8185820275e+01   4.1699077328e+01    0.4609984    0.1471958 -35.44  0.001504572    3.312    0.698
       245  -9.7847    121.6617     63.8281   3.2116836982e+01   4.5748886200e+01    0.5469961    0.1856208 -33.01  0.001784717    3.398    0.706
       246  -9.6280     37.4065     64.1553   6.1635214226e+01   6.0540897848e+01    0.1812644      0.12018 -59.87 0.0009501091    1.779    0.438
       247  -9.3820    110.0033     63.0364   3.5043439707e+01   4.8490241941e+01    0.3171551    0.1906478 -51.44  0.001374427    2.084    0.520
       248  -9.8993     17.9648     61.7612   6.9405154323e+01   6.2808890440e+01    0.2964338    0.1233016 -43.19  0.000945051    1.920    0.479
       249  -9.4951     16.4873     69.5404   7.2119709730e+01   6.1284847535e+01    0.2199794    0.1171652 -71.57   0.00103478    2.392    0.582
       250 -10.3900    100.1569     55.6648   3.5429367876e+01   5.1805241414e+01    0.3904704    0.1979711 -20.81  0.001491295    2.817    0.645
       251  -9.6018     73.2825     59.1166   4.5595638414e+01   5.6416932711e+01    0.3300341    0.2174266 -56.40  0.001558622    2.145    0.534
       252  -9.9074     73.8208     52.3381   4.2955090971e+01   5.7475293271e+01    0.5880325    0.2761785 -16.19  0.001695427    5.514    0.819
       253  -9.9203      7.4191     57.2121   7.2915332079e+01   6.4441013783e+01    0.1640717    0.1068806 -68.21 0.0009482973    1.737    0.424
       254  -9.0958    119.3251     55.6618   3.0078198647e+01   4.7578317303e+01    0.1448232    0.1141992 -78.89 0.0007051364    1.723    0.420
       255  -9.4042     62.5399     54.5016   4.7995330983e+01   5.9001445565e+01    0.2294395    0.1257812 -50.85 0.0006838276    2.307    0.567
       256  -9.2888     25.3455     55.3233   6.4156426164e+01   6.3488560559e+01    0.1379374   0.07804461 -24.14 0.0007050081    1.738    0.425
       257 -11.5863     45.5215     48.9372   5.2945619073e+01   6.2434130900e+01    0.2815671    0.2101486 -24.02  0.001679383    1.184    0.156
       258  -9.6855     92.4181     49.7922   3.5732454010e+01   5.4322145034e+01    0.2602704    0.1300143 -39.84  0.001131536    2.163    0.538
       259  -9.4211     63.7898     46.8247   4.4650158204e+01   6.0083734114e+01    0.2350037    0.1326628   1.75 0.0009504366    2.859    0.650
       260  -9.4115     22.8876     46.7860   6.2476878965e+01   6.5331924104e+01    0.2487321    0.1237278  -5.05  0.001139524    2.629    0.620
       261  -9.1882     81.8384     46.6018   3.8013543300e+01   5.6899253847e+01    0.1803886    0.1249961  51.19 0.0004055135    1.582    0.368
       262  -8.5843      1.3558     46.2479   7.2749475387e+01   6.6955079785e+01    0.1228742   0.06575735 -28.66 0.0003589638    1.597    0.374
       263 -11.6360    166.0737    248.0900   6.2939137989e+01  -9.8328473845e-01    0.4082424    0.2165823  28.99  0.002040087    1.681    0.405
       264  -9.4971     16.4016     44.2280   6.4732510119e+01   6.6356170662e+01    0.1615108    0.1074324 -56.78 0.0009406342    1.693    0.409
       265  -9.4939     31.1939     51.0586   6.0078570097e+01   6.3733887793e+01    0.1843679    0.1513549 -79.51  0.001080681    2.026    0.506
       266 -10.1121      4.9472     40.8668   6.9329781898e+01   6.7780562470e+01     0.383903    0.1664525 -66.32  0.001645598    3.606    0.723
       267  -9.3315    123.2316     40.6408   2.4165232313e+01   4.8788784651e+01    0.2566622    0.1709495  14.27 0.0009228312    2.043    0.511
       268  -9.0409     69.2137     41.3883   4.0492017435e+01   5.9999920619e+01    0.1812334    0.1194602  48.20 0.0007517897    1.697    0.411
       269  -9.1336    130.3024     46.3220   2.4392660776e+01   4.6365186210e+01    0.1452926    0.1036399  26.87 0.0004743966    1.632    0.387
       270  -9.2380     83.9617     39.8595   3.4761821549e+01   5.7460796043e+01    0.2357972    0.1350728  24.50  0.001035646    2.021    0.505
       271  -9.1651     26.3988     36.2703   5.6918825933e+01   6.6845645026e+01    0.1586822    0.1078284 -47.04 0.0009471856    1.623    0.384
       272  -9.6617      6.0686     33.9640   6.6430389070e+01   6.8967065782e+01    0.2004447     0.102747 -26.15  0.001131841    1.700    0.412
       273  -9.0167    150.0000     43.9829   1.9611096645e+01   4.1931219372e+01    0.2155219   0.08095972 -31.45 0.0007557127    2.911    0.657
       274  -8.8992     60.5109     32.5035   4.0223800512e+01   6.2762532451e+01    0.1295312    0.1091345  10.47 0.0008103002    1.037    0.036
       275  -9.0574     13.0000     30.9868   6.1671757105e+01   6.8972927884e+01    0.1829794   0.05701018 -49.18 0.0007947514    2.889    0.654
       276  -9.5925     44.3544     25.1847   4.3813172307e+01   6.6287872997e+01    0.1993367    0.1386455  16.35 0.0004226775    1.255    0.203
       277  -8.6186    118.6865     24.6591   1.9835498563e+01   5.1727265359e+01    0.1421453    0.0904649  32.22 0.0007046993    1.701    0.412
       278  -8.8611    110.5010     24.4595   2.1617941425e+01   5.3635398219e+01    0.1354938    0.1148593  44.13 4.985429e-05    1.025    0.025
       279  -8.8187     84.6915     21.3186   2.7281456712e+01   5.9579944653e+01    0.1175543    0.1028009 -79.24 0.0003613835    1.638    0.389
       280  -8.5284     48.3275     21.6609   4.0511266072e+01   6.6152307476e+01    0.1054928    0.1020272 -89.80 0.0005658799    1.732    0.423
       281  -8.6998     41.2780     21.2962   4.3446096931e+01   6.7248044145e+01    0.1227949   0.07858551   2.63 0.0001984032    1.533    0.348
       282  -9.8258     13.0469     20.9922   5.7548115891e+01   7.0581388763e+01    0.2072415    0.1378596   9.89 0.0006751359    1.360    0.265
       283  -9.0823     50.5075     15.4838   3.6775268942e+01   6.6545045939e+01    0.1271645   0.09524699  14.08 7.556593e-05    1.096    0.088
       284  -8.8266    247.5706    247.5020   4.7040925120e+01  -1.2170655011e+01     0.115609   0.08856966  -1.96 0.0001433715    1.078    0.072
       285 -10.3231     29.6635    245.0695   9.0921324744e+01   1.8998416724e+01    0.2804861    0.1521032  65.06 0.0008760267    1.601    0.375
