#   1 NUMBER                 Running object number                                     
#   2 MAG_AUTO               Kron-like elliptical aperture magnitude                    [mag]
#   3 X_IMAGE                Object position along x                                    [pixel]
#   4 Y_IMAGE                Object position along y                                    [pixel]
#   5 X_WORLD                Barycenter position along world x axis                     [deg]
#   6 Y_WORLD                Barycenter position along world y axis                     [deg]
#   7 A_WORLD                Profile RMS along major axis (world units)                 [deg]
#   8 B_WORLD                Profile RMS along minor axis (world units)                 [deg]
#   9 THETA_WORLD            Position angle (CCW/world-x)                               [deg]
#  10 FWHM_WORLD             FWHM assuming a gaussian core                              [deg]
#  11 ELONGATION             A_IMAGE/B_IMAGE                                           
#  12 ELLIPTICITY            1 - B_IMAGE/A_IMAGE                                       
         1 -14.5114    152.3233     54.2155   8.8290395566e+01   4.0029049400e+01      1.39395     1.241523  15.62  0.004003955    1.242    0.195
         2 -14.6858    163.8678     39.8192   8.1221933556e+01   3.9028251152e+01     1.313857     0.995041 -19.10  0.003616664    1.435    0.303
         3 -14.4533    177.5158      6.7429   6.8239770284e+01   3.9038408023e+01     1.187456    0.9117551  69.50  0.005066114    1.245    0.197
         4 -11.1631     13.3559    244.0287   1.5293899139e+02   2.5416430221e+01     0.265209    0.1171765 -73.05  0.001769379    2.728    0.633
         5 -19.9178     74.1794    170.6628   1.3575965304e+02   3.1876243777e+01     16.26272     7.096023 -70.84   0.07454724    2.601    0.615
         6 -11.8937    169.0157    202.5699   1.1894368338e+02   1.1428125720e+01     0.183639    0.1733795  80.94 0.0001639192    1.489    0.328
         7 -12.5697    133.7074    249.8032   1.3125197461e+02   1.0398397758e+01    0.1686352    0.1501356  27.54 0.0009545073    1.296    0.228
         8 -10.5392    140.7294    199.6605   1.2420726084e+02   1.6388126053e+01    0.1862164    0.1242762  38.97 0.0002881615    1.184    0.156
         9 -10.1072    136.3834    197.1700   1.2477877801e+02   1.7476449716e+01     0.400713    0.2387377  71.59  0.001767121    3.361    0.702
        10 -11.1377    114.0317    249.5894   1.3482767530e+02   1.3056754796e+01      0.12406    0.1130847  51.32  0.001045026    1.320    0.243
        11 -11.5447    160.7524    194.5698   1.1939366458e+02   1.3906771511e+01    0.2620216     0.134621  42.43 0.0008261838    1.619    0.382
        12 -12.1548    157.5302    191.7772   1.1962694476e+02   1.4856248473e+01     0.225714    0.1605642  50.51 0.0003989303    1.428    0.300
        13 -14.3404    206.2497    180.0394   1.0833529378e+02   8.3532524515e+00     0.790013    0.5878037  28.74  0.003445493    1.122    0.109
        14 -10.4946    150.6689    248.2433   1.2803655468e+02   8.2795419512e+00    0.1176043   0.09744432 -15.68 0.0009247828    1.595    0.373
        15 -10.4029    135.3190    235.3001   1.2951270420e+02   1.2049914031e+01    0.1207633    0.1041073 -89.25 0.0006332639    1.627    0.385
        16 -12.4311     30.1249    183.5184   1.4737687270e+02   3.4478319654e+01     0.372698     0.155945  46.24  0.001078664    1.782    0.439
        17 -11.2977     28.5434    179.4126   1.4752197751e+02   3.5458117653e+01     0.321321    0.2051189  36.45  0.001657962    1.429    0.300
        18  99.0000     26.9675    230.9596   1.5008474079e+02   2.6196117920e+01    0.1970682    0.1496597 -15.55 -1.028322e-05    2.638    0.621
        19 -11.1747     24.0338    228.6232   1.5055928888e+02   2.6869849414e+01     0.167894    0.1327773 -85.89 0.0004891396    1.502    0.334
        20 -11.8968      4.2338    180.3854   1.5311442072e+02   3.7422705114e+01    0.2495079    0.1841031   9.14  0.001381658    1.924    0.480
        21 -10.8980     25.5342    223.4532   1.5009446807e+02   2.7587880446e+01    0.2293989   0.08461748 -64.11  0.001241096    3.453    0.710
        22 -10.9030     10.6637    174.7080   1.5146834669e+02   3.8034785893e+01    0.1675101    0.1177191  74.63 0.0005316763    1.163    0.140
        23 -12.6702    178.4011    173.2084   1.1237854403e+02   1.4060374566e+01    0.3199382    0.2696588  83.05  0.001881097    1.843    0.457
        24 -12.6087    138.7075    171.9491   1.2055670050e+02   2.1315727017e+01     0.484535    0.3577289  81.07   0.00227024    1.984    0.496
        25 -11.4839    147.5840    172.7876   1.1873140798e+02   1.9605230834e+01    0.2929031    0.1934057  59.10  0.001351113    1.815    0.449
        26 -12.7921    143.9565    168.2941   1.1878224810e+02   2.1023794707e+01    0.5032319    0.2935404  48.56  0.001557415    1.602    0.376
        27 -13.3984    197.1487    173.3975   1.0881275269e+02   1.0759930635e+01    0.6361503    0.3931124 -45.59  0.002428645    2.136    0.532
        28 -11.8540    231.7158    170.5614   1.0228460639e+02   5.3853220425e+00    0.1932511    0.1451336 -41.66  0.001205704    1.831    0.454
        29 -11.8669    202.6687    166.4681   1.0652481370e+02   1.0745690200e+01    0.3344784    0.2981841  49.04  0.001676577    1.398    0.285
        30 -11.3333    122.9287    165.9474   1.2322743711e+02   2.5166725496e+01    0.3504518    0.1809559  51.00  0.001124698    1.896    0.473
        31 -11.4043    223.9686    164.2405   1.0238133801e+02   7.4007866742e+00    0.2335293    0.1701472 -34.86 0.0007196109    1.583    0.368
        32 -11.5436    219.5690    225.3461   1.1322339125e+02   1.2417937870e+00    0.2477442   0.09701737 -39.23  0.001290058    3.570    0.720
        33  -9.9831      3.1831    164.3698   1.5287655208e+02   4.0746116668e+01    0.1013715   0.06987595 -72.58 0.0002844933    1.557    0.358
        34 -10.1820     13.4266    163.1218   1.5034144142e+02   4.0199907106e+01    0.1597185   0.09658404 -88.46 0.0004526591    1.490    0.329
        35 -11.3609    237.2926    159.4103   9.9298485331e+01   5.7975553470e+00    0.1564397    0.1102764  45.76 0.0008129171    1.617    0.382
        36 -11.7108    164.5720    158.3496   1.1250978278e+02   1.8921295631e+01    0.2800735    0.1549018  39.15  0.000913284    1.594    0.373
        37 -14.2367    134.2628    146.1649   1.1706627889e+02   2.6891215387e+01     1.393039    0.4487722 -55.63  0.004215949    4.755    0.790
        38 -11.3199     22.9721    155.2268   1.4751707136e+02   4.1066983325e+01    0.2857298    0.1968171  74.14 0.0009298057    1.218    0.179
        39  -9.5262    182.6385    149.3055   1.0701050871e+02   1.6932967257e+01    0.1318499    0.1092067  76.28 0.0007038848    1.733    0.423
        40 -11.0037    174.6069    149.0086   1.0858253998e+02   1.8535079140e+01    0.2521879    0.2201082  44.46 0.0007880979    1.159    0.137
        41 -14.1630    143.5381    143.7903   1.1439238658e+02   2.5548586393e+01    0.8764149    0.5173672 -61.26  0.003810019    2.376    0.579
        42 -10.0020     19.5565    223.3081   1.5124104872e+02   2.8190922294e+01   0.09896063   0.07345279  47.93  0.000191587    1.167    0.143
        43 -11.0770     15.4152    220.1177   1.5194181018e+02   2.9122236926e+01    0.1428973    0.1269139 -78.64   0.00121226    1.544    0.352
        44 -10.7712     23.4117    137.9690   1.4625949667e+02   4.4884084811e+01    0.2053259     0.174166  -7.93  0.001039636    1.622    0.383
        45 -11.6622      5.2188    137.3945   1.5133786273e+02   4.6425739016e+01    0.2376365    0.2262148  -4.76  0.001521403    1.407    0.289
        46 -11.7365    163.5006    210.0294   1.2106481664e+02   1.1276341986e+01    0.2277293    0.1703918  27.16    0.0010294    1.109    0.099
        47 -12.3289    160.5457    128.1879   1.0716757914e+02   2.4959687513e+01    0.3433805    0.3001604 -36.95  0.001543083    1.227    0.185
        48 -11.1856     10.2386    211.1318   1.5270323351e+02   3.1156282553e+01    0.1259857   0.07539167  74.61 0.0006533039    1.399    0.285
        49 -13.3724     11.7072    206.1372   1.5226943753e+02   3.1919584305e+01    0.4350991    0.2556209  26.49  0.002533115    1.830    0.454
        50 -11.4564    171.9002    117.5691   1.0222570594e+02   2.4392449559e+01    0.3634183    0.2736689  83.44  0.001039015    1.982    0.496
        51 -10.1493      9.3375    201.8455   1.5263005504e+02   3.2909581137e+01    0.1760656    0.1157209 -84.22 0.0003146445    1.567    0.362
        52 -11.7010    111.4355    209.7141   1.3154027294e+02   1.9288906388e+01     0.238313    0.1758342  17.15 0.0008013474    1.646    0.392
        53 -11.4499    101.5529    207.4176   1.3338047830e+02   2.1104581199e+01     0.305458    0.1608504  56.68  0.001623527    1.921    0.479
        54 -10.5354    139.7986    250.0258   1.3017125279e+02   9.5463061955e+00    0.1659125    0.1112083  46.64 0.0009247611    1.307    0.235
        55 -10.8578    205.3381    110.2331   9.4044108662e+01   1.8320785356e+01     0.294001    0.1883152  42.73 0.0009741714    1.538    0.350
        56 -11.0204    155.0809    104.9296   1.0279100131e+02   3.0431276844e+01    0.2208926    0.2106562  41.24 0.0003016153    1.010    0.010
        57 -11.1019      8.8634    102.0335   1.4814374577e+02   5.4420355201e+01    0.2512084    0.1897975  46.98 0.0009351853    1.319    0.242
        58 -12.8912    163.5515    203.6742   1.2016667882e+02   1.2145627352e+01    0.3951653    0.2822677 -56.20  0.002176174    2.027    0.507
        59 -10.8076    159.0626    205.4975   1.2130421296e+02   1.2601397699e+01    0.2530811    0.1489999  40.08  0.001160305    1.351    0.260
        60 -10.4384    144.0158     79.7071   9.8357138725e+01   3.7765303251e+01    0.2256445    0.2007604  53.32 0.0006284638    1.092    0.084
        61 -11.7452    125.0437    247.6410   1.3263319213e+02   1.1843263766e+01    0.1781155    0.1436778 -57.85  0.001407374    1.765    0.433
        62 -10.1894      8.3324    246.8031   1.5387461686e+02   2.5446759052e+01    0.1001256   0.04054747  48.75 0.0005606075    1.497    0.332
        63 -12.8955    167.2900     31.6535   7.7899140331e+01   3.9153586231e+01    0.4243569    0.3839879 -24.25  0.000949365    1.160    0.138
        64 -11.1836     13.4067     59.8938   1.4154631658e+02   6.4409245592e+01    0.1900869    0.1663308  56.14 0.0004192418    1.243    0.195
        65 -10.5823    144.8396     34.0759   8.2689749331e+01   4.5019084028e+01    0.2331903    0.2003565 -72.95 0.0003137081    1.234    0.189
