#   1 NUMBER                 Running object number                                     
#   2 MAG_AUTO               Kron-like elliptical aperture magnitude                    [mag]
#   3 X_IMAGE                Object position along x                                    [pixel]
#   4 Y_IMAGE                Object position along y                                    [pixel]
#   5 X_WORLD                Barycenter position along world x axis                     [deg]
#   6 Y_WORLD                Barycenter position along world y axis                     [deg]
#   7 A_WORLD                Profile RMS along major axis (world units)                 [deg]
#   8 B_WORLD                Profile RMS along minor axis (world units)                 [deg]
#   9 THETA_WORLD            Position angle (CCW/world-x)                               [deg]
#  10 FWHM_WORLD             FWHM assuming a gaussian core                              [deg]
#  11 ELONGATION             A_IMAGE/B_IMAGE                                           
#  12 ELLIPTICITY            1 - B_IMAGE/A_IMAGE                                       
         1 -15.0257     57.0400     73.9967   1.0433740202e+02   5.4541725658e+01     1.487808     1.084222 -62.90  0.005170274    1.307    0.235
         2 -16.1370      6.7426     68.3759   1.1976856240e+02   6.0122478176e+01     3.977955    0.7124205 -67.98   0.01375864    4.335    0.769
         3 -14.2307      8.9186     42.9246   1.1354158627e+02   6.5313713323e+01      1.42616     1.003528 -17.70  0.009962291    1.598    0.374
         4 -15.2762     42.0705      6.6015   8.5404074341e+01   6.8751878256e+01       2.1931     1.148562 -21.08    0.0118535    1.851    0.460
         5 -13.6392      8.7995      3.0941   9.9749794478e+01   7.2622486135e+01    0.6678753    0.4822032  29.06  0.003552849    1.842    0.457
         6 -15.9854     13.5254     19.3936   1.0421103015e+02   6.9518707158e+01     1.345595    0.9456393 -32.36  0.006058671    1.125    0.111
         7 -14.7426     22.4808     13.7606   9.7714003383e+01   6.9775485950e+01    0.7732038    0.4304727  33.42  0.003855725    2.251    0.556
         8 -13.6540    119.7179     27.0962   6.8773725609e+01   5.1973850736e+01     1.692833    0.8810373  12.05   0.00565635    3.765    0.734
         9 -15.1153    119.9054     54.7100   7.8959914192e+01   4.7664357285e+01     1.456512     0.958966  21.38  0.001850106    1.972    0.493
        10 -13.4785    131.8451     33.2779   6.8182815588e+01   4.8300524213e+01    0.8586191    0.4617766 -25.97   0.00313746    1.904    0.475
        11 -14.9310    122.1788     37.0400   7.1959143438e+01   5.0015746547e+01      1.31002    0.6052358  37.11  0.004328028    2.518    0.603
        12 -12.7052    187.3324     12.9091   5.1194693733e+01   3.6479759114e+01    0.7698949    0.5385653 -27.10  0.003776797    1.493    0.330
        13 -12.4892    195.0041     23.5583   5.3393126092e+01   3.3263000767e+01    0.8613373    0.2981731 -36.33  0.003098499    2.677    0.626
        14 -14.7775    166.6306     30.3381   5.9996973183e+01   3.9921800664e+01     1.172411    0.8710988  66.73  0.003319458    1.342    0.255
        15 -15.0281    146.9061     30.4376   6.3823683026e+01   4.4983979353e+01     1.448152    0.8091314  62.39  0.004754024    1.824    0.452
        16 -11.9960    232.6011      1.7421   4.3249734930e+01   2.6010348632e+01    0.7497072    0.2440027  61.29  0.002933473    2.807    0.644
        17 -13.2033    222.4484      6.0733   4.5282348529e+01   2.8088869924e+01     1.958034    0.5167444 -19.86  0.005657055    5.287    0.811
        18 -13.8011    215.2192     21.0291   5.0105683014e+01   2.8289114998e+01     1.318822    0.4140125 -28.08  0.004616179    3.037    0.671
        19 -13.2047    218.8852     15.2574   4.8108853895e+01   2.8007175593e+01    0.5070263    0.4294526 -73.32  0.001738823    1.126    0.112
        20 -13.0342    214.9463      9.8410   4.7047196774e+01   2.9599482369e+01    0.4570925    0.3712928  73.42 0.0004796138    1.176    0.149
        21 -12.3035    223.0941     21.2714   4.9280347343e+01   2.6254437376e+01    0.7055614    0.4868759  -4.44  0.003442588    1.868    0.465
        22 -15.7767     98.6774     12.8411   6.8443677447e+01   5.8346066412e+01     1.694501    0.7830451  48.21  0.004306318    2.025    0.506
        23 -12.3407     61.0416     17.8496   8.3071403100e+01   6.4505120185e+01    0.3052989    0.2195783 -45.85 0.0003831663    1.681    0.405
        24 -11.3700    153.0773      8.3172   5.4785153894e+01   4.5929263950e+01    0.2489233    0.2081665 -35.18 0.0007149639    1.280    0.219
        25 -12.2554     27.0391      3.0863   9.0519782389e+01   7.1000891380e+01    0.3502547    0.2031788 -16.53  0.002120781    1.645    0.392
        26 -12.1902    119.8352      3.4564   5.9252655856e+01   5.4608280674e+01     0.452715    0.2893696 -82.98  0.002010958    2.587    0.614
        27 -11.4546     67.6683      3.6458   7.3847232220e+01   6.5296073634e+01    0.2804739    0.1741268  11.66  0.001527412    1.685    0.407
        28 -14.0697    189.0551     26.0672   5.4999219555e+01   3.4534478475e+01     2.188354    0.8092977 -53.79  0.006217699    4.569    0.781
        29 -12.2698     80.8295      1.7917   6.8601384556e+01   6.3117445088e+01    0.5495291    0.1306528  47.97  0.001999636    3.544    0.718
        30 -12.2648     60.8585      1.7713   7.5360270838e+01   6.6644197699e+01    0.3972093    0.1638257  44.23  0.001902897    2.450    0.592
        31 -13.7741     30.0131    169.3747   1.2611067218e+02   3.6320458839e+01    0.4457026    0.3108981 -58.77  0.001264843    1.647    0.393
        32 -13.2580     54.6653    247.2121   1.2740721776e+02   1.9252467480e+01    0.6605259    0.3530637  34.76  0.004148607    2.466    0.595
        33 -13.7437     28.2274    246.3778   1.3130854843e+02   2.2413628698e+01    0.4206949    0.2535214  70.21  0.003057826    1.144    0.126
        34 -11.8052      2.7464    249.7990   1.3504809694e+02   2.4462007456e+01    0.2631025     0.120196  65.44  0.001844462    1.463    0.316
        35 -14.0594      8.8663    245.5929   1.3404725949e+02   2.4530192440e+01     0.658464    0.3012521  61.51   0.00320445    1.482    0.325
        36 -13.5524    124.1034    166.6630   1.0589547317e+02   2.3656431396e+01    0.6205885    0.4045224 -75.68   0.00305384    1.883    0.469
        37 -13.1491     73.8103    153.3880   1.1499316468e+02   3.4528204854e+01    0.5497845    0.4387375  29.02  0.002975572    1.609    0.379
        38 -12.4019     77.3561    157.1377   1.1472124642e+02   3.3216641691e+01     0.390666    0.2947398  43.56  0.001412645    1.408    0.290
        39 -12.5290    111.0871    155.6164   1.0689725081e+02   2.8234760215e+01    0.5155473    0.2940226  80.07   0.00200537    3.074    0.675
        40 -11.3994     56.3771    155.0808   1.1911640999e+02   3.6425416075e+01    0.3245419    0.1373501 -52.29   0.00148681    2.639    0.621
        41 -12.0176    211.6025    155.1897   8.5677362733e+01   8.3109502136e+00    0.2026527    0.1309896 -21.38 0.0009580345    1.733    0.423
        42 -11.9466     85.4893    153.3102   1.1232996712e+02   3.2863246032e+01    0.3810339    0.2264619 -50.84  0.001945873    1.814    0.449
        43 -11.9592    103.5039    150.0719   1.0767549664e+02   3.0711158948e+01    0.3664795    0.2842822 -34.79   0.00198047    1.687    0.407
        44 -11.9924    244.6603    147.5776   7.8140051727e+01   2.8536869019e+00    0.2751394     0.167036 -32.19  0.001374856    1.590    0.371
        45 -13.1799     22.3318    181.1675   1.2849611747e+02   3.4697049121e+01    0.4085903    0.3010961 -81.49  0.002330255    1.227    0.185
        46 -11.0442     63.2930    147.3638   1.1655963309e+02   3.7252762862e+01    0.1234406   0.09084763 -44.38 0.0007028853    1.707    0.414
        47 -11.5212    149.0804    141.1789   9.5514729154e+01   2.4017795448e+01    0.2890295    0.2068365  66.67  0.001362814    1.628    0.386
        48 -13.0537     42.0737    136.8479   1.2013048412e+02   4.2067101620e+01    0.5427254    0.3417769 -55.00  0.003205651    1.600    0.375
        49 -11.2888     62.9484    134.4526   1.1477563373e+02   4.0179737149e+01    0.2565077    0.1867206  55.51  0.001517319    1.404    0.288
        50 -11.2419     11.0862    134.0346   1.2699531468e+02   4.5495989623e+01    0.1701889    0.1290004 -81.11 0.0005680289    1.068    0.064
        51 -11.2939    138.2245    132.6162   9.6134451116e+01   2.8010352553e+01     0.206403    0.1377161  36.16 0.0005022969    1.629    0.386
        52 -12.3234    132.8504    129.1333   9.6628098603e+01   2.9832000044e+01    0.7696515    0.2564479 -44.59  0.002535951    3.126    0.680
        53 -12.6066    246.2656    135.0489   7.5071575065e+01   4.3686730424e+00     0.405876    0.2967913  80.79  0.001937694    2.376    0.579
        54 -11.9930    222.3957    128.1786   7.7571049259e+01   1.0413699638e+01    0.2153792    0.1291264 -42.93 0.0009574217    1.755    0.430
        55 -13.7563    130.5609    102.7707   9.0796000191e+01   3.5921101732e+01     2.660887     0.391104  47.35  0.005577085    7.388    0.865
        56 -14.7197    105.1994    122.4421   1.0196293954e+02   3.6513963392e+01     1.724577      1.05434  39.12  0.008124787    1.759    0.432
        57 -15.3709    107.0611    106.7924   9.7912984038e+01   3.9662269693e+01     1.697705     1.356966 -34.95  0.008886023    1.352    0.261
        58 -13.2863     85.3751    115.4345   1.0563352094e+02   4.1362418216e+01    0.9087984    0.5841585  21.30  0.004231512    2.276    0.561
        59 -13.8730     91.4861    109.2634   1.0266588326e+02   4.1793642290e+01     1.337183    0.6553479  34.52  0.005635845    2.413    0.586
        60 -14.9105      5.6681     99.7515   1.2470427784e+02   5.3354515864e+01     1.085722    0.7474558  84.01  0.005038285    1.368    0.269
        61 -14.8946     20.4277     96.9114   1.2024316988e+02   5.2977610296e+01     1.284871    0.5660824 -80.35  0.005841062    2.333    0.571
        62 -14.6840     28.9246     92.6804   1.1711620464e+02   5.3247061949e+01      1.02289    0.7144487 -82.49  0.005910719    1.355    0.262
        63 -11.4394     59.7729    125.4997   1.1416231925e+02   4.2603875446e+01    0.2974486    0.2047613 -11.39  0.001364849    2.738    0.635
        64 -14.8143     17.8250    110.6252   1.2283315850e+02   5.0120139744e+01     1.049181     0.843272 -42.22  0.005386518    1.489    0.328
        65 -11.3568    184.6966    124.3177   8.3906633525e+01   1.9529680427e+01    0.2790405    0.2316019  89.89  0.000857555    1.534    0.348
        66 -12.3649    180.9987    121.2926   8.3932230726e+01   2.0939607625e+01    0.3942351    0.2833723  52.05  0.001358486    1.402    0.287
        67 -11.8331     37.3504    119.2526   1.1894517055e+02   4.6493770311e+01    0.2258341    0.1910551  88.69   0.00108073    1.105    0.095
        68 -12.3121      4.2719    119.9137   1.2724462998e+02   4.9040566764e+01    0.4112912    0.1768706  24.39  0.002288486    3.059    0.673
        69 -12.1844     45.0916    110.5388   1.1556860265e+02   4.7684572613e+01    0.4575305    0.3420272 -62.02  0.002858242    1.149    0.129
        70 -11.6542    176.2966    110.9320   8.2302029519e+01   2.3991164048e+01    0.3234621    0.2315731  40.74  0.001483188    1.421    0.296
        71 -12.2323     61.5521    108.6168   1.1072461789e+02   4.6235054379e+01    0.6543198    0.2853606 -57.69  0.002965324    1.938    0.484
        72 -11.6139     64.6864    102.3030   1.0859201610e+02   4.7277175393e+01    0.2103157     0.173603  42.41 0.0007252803    1.373    0.272
        73 -12.5507     61.8697     98.5521   1.0861534351e+02   4.8486724290e+01    0.4655976    0.3202159  78.49  0.001918829    1.887    0.470
        74 -12.5342    121.2215    111.7228   9.5433121491e+01   3.5897523376e+01     0.375043    0.2519902  65.97  0.001589961    1.872    0.466
        75 -12.6345     43.2004     90.8998   1.1254707628e+02   5.2327921537e+01    0.6793882    0.3105544 -70.87  0.003069876    2.255    0.557
        76 -13.1273     50.4688     99.0403   1.1200630529e+02   4.9719571480e+01    0.6919701    0.4864663   1.50  0.002925012    2.168    0.539
        77 -12.1443     49.7741     95.0103   1.1141474811e+02   5.0708745914e+01    0.3807737    0.2219493 -76.67  0.001784094    1.862    0.463
        78 -13.1915    137.6833     95.8160   8.7132397203e+01   3.5841296797e+01    0.4501559    0.3955638 -62.28   0.00103289    1.193    0.162
        79 -11.0996    161.6224     96.8064   8.1733597546e+01   3.0168827691e+01    0.3072088    0.1182219  47.93  0.001019714    2.587    0.613
        80 -12.4298    127.9939     95.8437   8.9587863311e+01   3.7916980904e+01    0.4159148    0.2240203  59.48  0.001576791    2.427    0.588
        81 -14.1217     30.1907    118.4669   1.2066726530e+02   4.7342781458e+01     3.373986          nan -59.66  0.009070054    6.756    0.852
        82 -14.0314    188.1826     84.4685   7.2654078430e+01   2.5963065690e+01     1.483809    0.8701968  58.20  0.004875955    1.788    0.441
        83 -13.6128    164.4043     71.3944   7.3684539073e+01   3.4212529117e+01     1.288533    0.5204548  47.28  0.004426725    2.487    0.598
        84 -14.7717    161.1176     80.6694   7.7208912771e+01   3.3351977979e+01     1.526411     0.766019  36.27  0.005394961    2.540    0.606
        85 -14.3207    169.2051     77.0501   7.4366910795e+01   3.2014706435e+01    0.8472658    0.6426118  72.40  0.002442363    1.538    0.350
        86 -13.7096    176.9177     76.1207   7.2485537992e+01   3.0246182034e+01    0.6463653    0.4934691  80.18   0.00158437    1.603    0.376
        87 -11.7369     89.3100     87.2887   9.7892809084e+01   4.7037780960e+01    0.3898069    0.2408728  49.84  0.001764141    1.856    0.461
        88 -13.0776    132.4538     86.2806   8.5737418921e+01   3.8928438629e+01     0.420043    0.3460957  47.78  0.001888763    1.247    0.198
        89 -11.8717    125.7927     86.5811   8.7546600766e+01   4.0300063161e+01    0.3524105    0.2739104  61.07  0.001716626    1.446    0.308
        90 -13.0612    237.6593     79.9398   6.2990852701e+01   1.4633863273e+01    0.5243422    0.3852518  82.95   0.00255781    1.727    0.421
        91 -10.7003     98.4199     84.1782   9.4393295717e+01   4.6149027733e+01    0.1996077    0.1306918 -58.58  0.000401922    1.616    0.381
        92 -11.8757     99.9300     64.5090   8.7967607600e+01   4.9903441261e+01    0.5112854    0.3307981  46.30  0.002458949    1.678    0.404
        93 -13.1621     38.9774     67.9282   1.0880831823e+02   5.7807985381e+01    0.8275963    0.3862881  24.94  0.004100665    2.698    0.629
        94 -13.2208     63.1329     56.4207   9.7185601765e+01   5.7439060532e+01     0.551581    0.4701066  86.02   0.00133988    1.624    0.384
        95 -13.7078     66.6587     49.5445   9.3662868232e+01   5.8296236615e+01    0.7619221    0.5072801 -49.52  0.004138093    1.442    0.307
        96 -13.6130    170.3932    242.4026   1.0799604505e+02   3.0645884568e+00    0.4984951    0.3134007  32.90  0.003137403    1.479    0.324
        97 -12.7004     72.1579     75.0497   9.9767180365e+01   5.2322098866e+01    0.4012882    0.3505465  18.83  0.001340433    1.306    0.234
        98 -12.3585     77.2029     73.4964   9.7735563626e+01   5.1912430177e+01    0.3729614    0.2476439 -47.36 0.0009074407    1.334    0.250
        99 -14.1873     86.0422     66.7270   9.2921050425e+01   5.1916475639e+01     1.007459     0.661517   7.77  0.003793297    2.362    0.577
       100 -11.9234    219.0442     75.0114   6.4543588508e+01   1.9846692825e+01    0.4499444    0.2155814 -34.62  0.001592987    1.956    0.489
       101 -12.5609    216.9951     81.4830   6.6628063033e+01   1.9322473848e+01    0.5286911    0.3679347 -40.73  0.000637055    1.392    0.282
       102 -12.7068    210.3981     77.7237   6.6710326885e+01   2.1550984279e+01     0.588356    0.4033891 -73.20  0.002503451    2.042    0.510
       103 -11.7115     90.5296     80.3074   9.5608837687e+01   4.8340028702e+01    0.4129669    0.3164103 -11.38  0.002109106    1.662    0.398
       104 -12.1452     40.5812    243.5654   1.2933183368e+02   2.1491786291e+01    0.2765355    0.1505671  88.64  0.001996942    1.620    0.383
       105 -14.5488     94.9587    236.8562   1.2018435415e+02   1.5576377448e+01    0.8489821    0.4542139  71.49  0.003063021    2.027    0.507
       106 -12.4046    147.2396    238.9582   1.1152421049e+02   7.2672084534e+00     0.202367    0.1543128 -81.70   0.00106409    1.702    0.412
       107 -12.2448     24.5212    217.1631   1.3037274356e+02   2.7712925046e+01     0.559536    0.2766508  70.39   0.00372206    1.604    0.377
       108 -13.2363     21.0280    224.9247   1.3133713760e+02   2.6720408876e+01    0.3510626    0.2965394  49.45  0.001964291    1.597    0.374
       109 -13.4545     24.1230    230.5836   1.3114645733e+02   2.5435750975e+01    0.2682664    0.1718975  89.30  0.001370747    1.294    0.227
       110 -13.3246     26.5996    226.1197   1.3053126555e+02   2.5933483293e+01    0.3740962    0.2268477  89.14  0.001950679    1.344    0.256
       111 -13.2818    134.9254     79.5635   8.3110302964e+01   3.9715705770e+01    0.9069826      0.44887  53.73   0.00320478    2.206    0.547
       112 -13.7473    133.3865     67.0783   7.9586603684e+01   4.2435830345e+01     1.248715     0.898639  39.57  0.005272031    1.440    0.305
       113 -13.8686     66.5223    223.3129   1.2383404472e+02   2.1718646645e+01    0.6570663    0.4517233  47.37  0.004668664    1.386    0.279
       114 -14.5121    101.5513     50.0734   8.2517537481e+01   5.2278141637e+01    0.9968796    0.7023766  64.07  0.002620822    1.942    0.485
       115 -14.1825     62.8567    214.8974   1.2378885723e+02   2.3675924233e+01    0.6630616    0.3656162  63.50  0.004170239    1.514    0.339
       116 -12.9929    109.9934     42.3633   7.7231605841e+01   5.1864219366e+01    0.5170289    0.2529406  51.42  0.001390583    2.164    0.538
       117 -13.1244     94.6580    218.8031   1.1853808534e+02   1.8614283322e+01    0.3111638    0.2047475  63.66  0.001447831    1.277    0.217
       118 -11.9800    113.9845     80.1166   8.8817618230e+01   4.4054974139e+01    0.4305786    0.3254205 -47.96  0.001888267    1.282    0.220
       119 -12.0346     41.9849     77.4398   1.1006468985e+02   5.5445430326e+01     0.338402    0.2140185 -55.26  0.001209229    1.278    0.218
       120 -13.8705    198.1459     70.8658   6.6908734549e+01   2.5741416985e+01     1.214309    0.6073892  39.49  0.004179718    2.426    0.588
       121 -10.9839     23.1336     75.1839   1.1568581083e+02   5.7581963324e+01    0.1840344    0.1298197 -49.14 0.0006006595    1.236    0.191
       122 -11.8779    158.2555     63.9146   7.2688442793e+01   3.7041822576e+01      0.37943    0.2384706 -46.56  0.001499199    1.683    0.406
       123 -13.5977     91.4941     57.7952   8.8295789847e+01   5.2738289567e+01    0.6454482    0.4787679 -46.36  0.002548182    1.314    0.239
       124 -13.6685     79.4242     60.3245   9.2982175321e+01   5.4274624819e+01    0.7971083    0.4905092 -30.64  0.003870311    1.693    0.409
       125 -11.2905     85.7910     50.2172   8.7459550398e+01   5.5154813047e+01    0.3643487    0.1776734 -33.11  0.001548479    2.066    0.516
       126 -13.9393    177.8682     57.8357   6.6758001167e+01   3.3044809210e+01    0.8741092    0.6656599 -53.07  0.002383366    1.417    0.294
       127 -12.2865     39.2910     60.6320   1.0681933805e+02   5.9328769669e+01    0.3215314    0.2117247  55.66  0.001783332    2.206    0.547
       128 -12.8219     24.4600     59.9714   1.1192587873e+02   6.0755472228e+01    0.3014481    0.1834497 -52.37 0.0007526795    1.264    0.209
       129 -11.6259    247.6853     55.3385   5.5336990660e+01   1.5866428936e+01    0.2375439     0.189634 -55.05   0.00129467    1.225    0.184
       130 -12.2888    247.6390     50.7876   5.4189434331e+01   1.6500078125e+01    0.4568379    0.3028773  23.51  0.002104154    2.181    0.541
       131 -10.5519     36.6390     54.1894   1.0599450230e+02   6.0921935495e+01    0.1843945   0.08844098 -48.16  0.000943593    1.641    0.391
       132 -11.8680    135.9981     49.9711   7.3187828785e+01   4.4795097545e+01    0.3514135    0.2075991  43.80  0.001515252    1.703    0.413
       133 -10.7815     23.3379     50.0439   1.0981753010e+02   6.2906829104e+01    0.1712165    0.1209948 -52.18 0.0005083589    1.097    0.088
       134 -12.8018    154.5268     46.4738   6.7783126216e+01   4.0793442356e+01    0.5024189    0.2753909  49.24  0.001717537    1.770    0.435
       135 -13.6491    158.8680     43.4126   6.5853744203e+01   4.0144252690e+01    0.7459462    0.4267606  50.08  0.001941878    1.687    0.407
       136 -11.4317     85.4828    215.9821   1.1989756472e+02   2.0429737681e+01    0.2379063    0.1261505  57.07  0.001386983    1.580    0.367
       137 -10.1631    154.3341    214.6661   1.0717721940e+02   9.6850271143e+00    0.1265134   0.08728878  69.29 0.0007052218    1.735    0.424
       138 -14.1233    217.3134     42.0851   5.5710702615e+01   2.5107244288e+01     1.211187    0.5147824  61.75  0.004205571    2.300    0.565
       139 -13.2886    205.2139     40.2830   5.6891044366e+01   2.8467693604e+01    0.7842906    0.4370014 -88.93  0.002959617    2.640    0.621
       140 -11.2403     25.5157     43.0465   1.0698521115e+02   6.4147550973e+01    0.1847949   0.09403427 -53.93 0.0004403663    1.550    0.355
       141 -13.2515     76.1775     37.4982   8.5899040689e+01   5.9018370381e+01    0.3577359    0.3048296  41.23  0.001036289    1.362    0.266
       142 -12.5018     70.5221     36.3041   8.7401664412e+01   6.0123111688e+01    0.3490084    0.2708954  -5.77  0.001121565    1.295    0.228
       143 -12.5108    105.1082     35.7622   7.6096337060e+01   5.3921364672e+01    0.5650585    0.2825664 -21.28  0.002271571    2.372    0.578
       144 -12.1789     36.3020     35.5253   1.0018712528e+02   6.4627745409e+01    0.4415461    0.2140985 -29.71  0.002162597    2.249    0.555
       145 -12.2894    245.3408     36.6750   5.0874036819e+01   1.8901609652e+01    0.3547814    0.2155182  85.47  0.001466587    1.915    0.478
       146 -12.4343    241.7159     35.8520   5.1060301097e+01   1.9871715774e+01    0.5894222    0.2273995  62.95  0.002332377    2.567    0.610
       147 -11.6432     45.4608     36.5114   9.6879482425e+01   6.3463703535e+01    0.2514043    0.1685404 -23.15 0.0007360658    1.462    0.316
       148 -12.6460     46.2189     32.9130   9.5230057730e+01   6.4029291508e+01    0.4150315    0.2574634  -4.97  0.001608124    2.089    0.521
       149 -13.1902      9.5043    210.8470   1.3245202262e+02   3.0327689453e+01    0.5872532    0.1916955  46.70  0.003510328    2.351    0.575
       150 -11.1544    185.3432    213.6717   1.0137341834e+02   4.4141410846e+00    0.1222829   0.09219279  68.55    0.0007051    1.745    0.427
       151 -12.8027    139.3672     21.7668   6.2239427879e+01   4.7951816817e+01    0.4983938    0.3018337  60.49  0.000651498    1.620    0.383
       152 -10.5402     91.3150     34.3228   7.9665413895e+01   5.6872554648e+01    0.1432148    0.1002492   4.91 0.0007041595    1.662    0.398
       153 -10.9374    136.5293    211.0573   1.0998623755e+02   1.3306970527e+01    0.1644456    0.1224164 -60.18  0.000906818    1.567    0.362
       154 -11.1454     45.5091    209.0494   1.2634825300e+02   2.6862534131e+01    0.2390546   0.09138786 -81.52  0.001210251    2.700    0.630
       155 -11.0339     80.5102    208.4985   1.2007281788e+02   2.2473754493e+01    0.1190098   0.09075347  69.20 -4.442143e-05    1.032    0.031
       156 -10.8856    149.9355    207.0000   1.0691795438e+02   1.1669742409e+01    0.2171976   0.06172922  43.78   0.00080502    2.960    0.662
       157 -12.6353     57.4197    203.5585   1.2381385765e+02   2.6445470483e+01    0.4582081     0.219563  89.81  0.002459473    2.255    0.557
       158 -11.6243     89.1172     30.1331   7.8660157708e+01   5.7931163039e+01    0.2199523    0.1894219  -2.74 0.0002599599    1.046    0.044
       159 -12.9377     40.5909    195.3714   1.2619668590e+02   2.9999670774e+01    0.4120926    0.1534563 -85.78   0.00191393    3.034    0.670
       160 -13.2605     55.7531     27.4715   8.9300047936e+01   6.3760654625e+01    0.4765273    0.3250397  35.33  0.001584287    1.654    0.395
       161 -11.4077     97.7385     26.9385   7.4704398279e+01   5.6724417768e+01    0.2862407    0.2314418  46.52  0.001087444    1.314    0.239
       162 -11.2940     65.1777     24.5263   8.4482698711e+01   6.2869862410e+01    0.2875469     0.177433  -4.97  0.001435759    2.017    0.504
       163 -11.3567     75.2442     23.4220   8.0409825622e+01   6.1409907279e+01     0.231694    0.1198307  38.76 0.0007836203    1.997    0.499
       164 -12.5359     16.7283    195.8000   1.3044511020e+02   3.2406632954e+01     0.418353    0.1977458 -67.43  0.002645211    2.023    0.506
       165 -12.3730    164.2171    195.0678   1.0238404364e+02   1.1063820148e+01    0.4571703    0.2931306 -68.36  0.002267379    2.353    0.575
       166 -10.6763    247.4842     17.5157   4.5875728602e+01   2.0717562726e+01    0.1353015    0.1179118 -61.54 -3.768712e-05    1.018    0.017
       167 -11.6791     70.7410     16.7666   7.9021269308e+01   6.3117549452e+01    0.2228959    0.1980882 -11.84 0.0005077726    1.148    0.129
       168 -13.3436     19.9937    159.8365   1.2732916384e+02   3.9261458154e+01      1.43193    0.7493005  33.52  0.008730991    2.258    0.557
       169 -12.4638    201.1282    191.7812   9.4841008169e+01   4.7109483811e+00    0.3336605    0.2691813  24.18  0.002026359    1.141    0.124
       170 -10.4801    107.6792    192.6776   1.1312553177e+02   2.1347581229e+01    0.1129624    0.1013244  -2.21 0.0006801608    1.674    0.403
       171 -11.7455     49.1043    181.6286   1.2344035265e+02   3.1728736870e+01    0.2992607    0.2122853 -56.14  0.001960315    1.726    0.421
       172 -12.0728    198.8796    182.1629   9.3500857878e+01   6.5816133715e+00     0.202981    0.1839092  54.18  0.001245596    1.226    0.185
       173 -15.2506      8.9969    179.9253   1.3085769220e+02   3.6176700010e+01     1.422506    0.9013966 -88.40   0.01040472    1.191    0.160
