#   1 NUMBER                 Running object number                                     
#   2 MAG_AUTO               Kron-like elliptical aperture magnitude                    [mag]
#   3 X_IMAGE                Object position along x                                    [pixel]
#   4 Y_IMAGE                Object position along y                                    [pixel]
#   5 X_WORLD                Barycenter position along world x axis                     [deg]
#   6 Y_WORLD                Barycenter position along world y axis                     [deg]
#   7 A_WORLD                Profile RMS along major axis (world units)                 [deg]
#   8 B_WORLD                Profile RMS along minor axis (world units)                 [deg]
#   9 THETA_WORLD            Position angle (CCW/world-x)                               [deg]
#  10 FWHM_WORLD             FWHM assuming a gaussian core                              [deg]
#  11 ELONGATION             A_IMAGE/B_IMAGE                                           
#  12 ELLIPTICITY            1 - B_IMAGE/A_IMAGE                                       
         1  -9.8768     38.5684      8.6338   6.9797189376e+01   6.9441704374e+01    0.5886964     0.335966   4.26   0.00320508    2.000    0.500
         2  -8.7482     39.7534      2.1631   6.5897043935e+01   6.9971597528e+01    0.2592627    0.1526781  28.28  0.001570241    1.474    0.322
         3 -10.5038     50.3802     36.8206   7.7562410773e+01   6.3820872927e+01    0.7583773    0.5812321 -60.67  0.004282286    2.053    0.513
         4 -10.5399     39.5803     29.7236   7.9284198557e+01   6.6434778285e+01    0.5436711    0.3110745 -39.01  0.002270576    1.680    0.405
         5 -11.9824     45.0086     22.4847   7.3634964144e+01   6.6737507753e+01      1.02931    0.8532252 -50.32  0.005912104    1.770    0.435
         6  -9.9154     90.5950     28.8718   5.9942297586e+01   5.7722257400e+01    0.3650777     0.311886  -6.64  0.002221771    1.177    0.150
         7 -11.5856    128.5731     15.3514   4.6007004741e+01   5.0596091345e+01     1.166549    0.8138852  73.47  0.005452898    1.402    0.287
         8 -11.9031    115.9331      4.3376   4.4527891329e+01   5.4549255385e+01     2.463506    0.4791119  66.19  0.007164006    5.042    0.802
         9 -10.6755    131.3638      3.6824   4.1639841826e+01   5.0964628758e+01    0.9134574      0.30841  60.96  0.003598883    2.309    0.567
        10 -11.6784    144.0713      4.0991   3.9870149847e+01   4.7881441286e+01     1.162557     1.033212  75.63  0.007602357    1.036    0.035
        11 -11.9627    155.3196     21.0324   4.3351805768e+01   4.3532617547e+01     1.178849    0.5257729  61.01  0.004866526    1.939    0.484
        12 -13.4367    169.1274     13.1834   3.9205791060e+01   4.0976257305e+01     2.302406     1.596658  52.26   0.01046105    1.457    0.314
        13 -11.0936     78.1657     13.0913   5.7109461333e+01   6.2031643974e+01    0.8485617    0.5094206 -21.64  0.004665394    1.757    0.431
        14  -9.8796     71.4155      5.7788   5.5933588208e+01   6.4062617479e+01    0.5211405    0.3052323  51.22  0.002386068    1.547    0.353
        15 -10.2693    115.8051     15.5511   4.8578320531e+01   5.3587039058e+01    0.8533474    0.3420433 -38.06  0.003620175    2.773    0.639
        16 -11.4822    156.8292      8.8035   3.9537272776e+01   4.4380133425e+01     1.054625    0.5561536 -29.97  0.005302933    2.061    0.515
        17  -9.2217     93.9837     17.2186   5.4348311336e+01   5.8322604059e+01    0.5024807    0.3375281 -88.46  0.002398831    2.583    0.613
        18 -10.3394    249.9755      6.8730   3.0580681764e+01   2.3501093215e+01    0.7543011    0.1706564 -32.44  0.002926901    4.179    0.761
        19  -9.8182     69.8010     14.0891   6.0215251098e+01   6.3559779327e+01    0.4192634     0.225185 -29.77  0.002208205    1.956    0.489
        20  -8.5290     20.3058     13.9719   8.1540064920e+01   7.1089070001e+01    0.5599276    0.2501456 -19.89  0.002592638    2.866    0.651
        21  -9.5808    104.4321     12.1671   4.9805081766e+01   5.6510398211e+01    0.4398831    0.2679655 -29.14  0.002357522    1.806    0.446
        22  -8.6096     54.8596      7.3931   6.2395393273e+01   6.6965302564e+01    0.3145907    0.1508558  54.77  0.001514517    2.551    0.608
        23  -7.9331     51.8261      1.8384   6.0785198522e+01   6.8030188035e+01    0.2527422    0.1453422  41.63  0.001047416    1.510    0.338
        24  -9.3624     60.5769      8.7862   6.0958392045e+01   6.5813974445e+01    0.3858474    0.2582752 -54.86  0.002014396    2.763    0.638
        25  -9.9981     61.0336      2.4977   5.7783666407e+01   6.6327173772e+01    0.6607631    0.3172026  43.81  0.003515577    1.744    0.427
        26  -8.1603    229.7922      8.3962   3.2252617273e+01   2.7504682832e+01    0.2762658    0.0665476 -53.85 0.0009562647    4.278    0.766
        27  -8.8019     49.5111      6.9523   6.4265223170e+01   6.7916535052e+01    0.2266347    0.1356574  15.04  0.001276905    1.701    0.412
        28  -9.7315     75.6863     26.0894   6.3469721910e+01   6.1051660354e+01     0.656153    0.3060857 -17.32  0.002739753    2.859    0.650
        29  -9.8370    203.8352      4.2255   3.3368973316e+01   3.3672393178e+01    0.2958518    0.2181165 -56.82  0.001871723    1.240    0.194
        30  -8.7521     17.7894      2.5573   7.7007073980e+01   7.2893300552e+01    0.2630773    0.1860274 -40.14  0.001773803    1.826    0.452
        31 -11.2161     84.0733      3.8080   5.1429345783e+01   6.1667086763e+01    0.9223526    0.3877732  57.32   0.00341209    2.094    0.522
        32  -8.6272     49.9717     60.9784   8.6718464320e+01   5.9552033741e+01    0.2396287    0.2108887 -24.03  0.001486143    1.037    0.036
        33 -11.8528     42.8428     82.2190   9.5840773566e+01   5.5918614234e+01     1.128487    0.8477935 -31.51  0.005609245    1.269    0.212
        34  -8.9328     76.8896     59.6449   7.6094401950e+01   5.5650292581e+01    0.3494053     0.191242 -56.83  0.001407257    2.755    0.637
        35 -10.4089    197.1464     56.6088   4.7006138959e+01   2.8796656446e+01    0.4432242    0.2977626  56.26  0.001068042    1.531    0.347
        36  -8.4925     66.3953     54.8986   7.8198226333e+01   5.8286140813e+01    0.3071009     0.123937 -42.69  0.001246132    2.396    0.583
        37  -8.2063     34.7014     52.5916   9.0292167964e+01   6.3021512901e+01    0.2203864    0.1195593  19.09  0.001115131    2.033    0.508
        38  -7.9748     23.6920     52.2208   9.5064315012e+01   6.4180921879e+01    0.1622919    0.1438874 -17.06  0.001004965    1.135    0.119
        39  -9.7559     81.3520     37.1793   6.6122129174e+01   5.8477397057e+01    0.5887683    0.2857324 -21.44  0.002458811    2.597    0.615
        40  -9.4740     87.1778     49.1713   6.8815633012e+01   5.5527530222e+01    0.3688665     0.263626  44.30   0.00149863    1.387    0.279
        41  -9.9866     83.3157     47.8137   6.9576172562e+01   5.6492433784e+01     0.445583    0.3322929  10.97  0.002374414    1.453    0.312
        42  -7.7032     65.4259     47.7918   7.5919631969e+01   5.9684413655e+01    0.1898474     0.117686 -27.19 0.0009493214    1.620    0.383
        43  -9.7932     91.3816     43.2744   6.5279701802e+01   5.5597745640e+01    0.3155405     0.297303 -21.55  0.001925091    1.142    0.124
        44 -10.3332      3.3986     40.6750   1.0104382929e+02   6.7927224256e+01    0.4311662    0.4021613 -71.61  0.003253069    1.423    0.297
        45  -9.2691      5.9738     35.8119   9.8175376463e+01   6.8692022692e+01    0.3407665    0.2671596  29.38   0.00237496    1.630    0.386
        46  -8.4079    111.0174     41.4920   5.9054273521e+01   5.1632968010e+01    0.3820402    0.1508677 -47.76  0.001296077    3.688    0.729
        47 -10.3398    173.5117    242.9869   9.2085235430e+01  -5.3170164273e-01    0.4341846    0.1595951  28.72  0.001676134    3.122    0.680
        48  -8.3257    159.3134    239.3406   9.4387472819e+01   2.2460842799e+00    0.1287553   0.09261514   2.28 0.0001526858    1.700    0.412
        49  -8.7970    204.6646    227.3337   8.3525069115e+01  -2.8577169033e+00    0.1148181    0.1012166  64.58 0.0007052149    1.739    0.425
        50  -8.9291    197.4806    225.9985   8.4685718757e+01  -1.5603136739e+00    0.1594767     0.115914 -67.46 0.0008040053    2.580    0.612
        51  -8.8992    215.5105    221.4906   8.0472861129e+01  -3.5953366186e+00    0.1270166    0.1053988   4.66 0.0008105031    1.011    0.011
        52  -9.0843     97.1617     35.7763   6.0721130617e+01   5.5449278507e+01     0.357463    0.1887963 -22.67  0.001600556    2.166    0.538
        53  -8.6964     67.5627     35.7460   7.0350442341e+01   6.1226247332e+01    0.4414302    0.1754297  50.76  0.001708769    3.218    0.689
        54  -9.0920     11.9197     34.0968   9.4532812691e+01   6.8586143414e+01    0.3625447    0.1938084 -40.86  0.002116628    1.486    0.327
        55  -7.1307     33.6650     34.7140   8.4104247567e+01   6.6367465687e+01    0.1279386   0.08140115 -11.00 0.0007014889    1.626    0.385
        56  -9.1328     85.9995     31.7078   6.2457516598e+01   5.8304547275e+01    0.2954231    0.2119048  34.09  0.001051768    1.289    0.224
        57  -8.5390     20.4235    154.3124   1.1554863555e+02   4.0584786034e+01    0.2601686    0.0991591 -67.88  0.001143426    2.115    0.527
        58  -9.3433     66.8105     29.3483   6.7953635412e+01   6.2263320821e+01    0.3545903    0.1989529 -15.16  0.001697943    2.128    0.530
        59 -11.7093     10.0369    141.0613   1.1690230970e+02   4.4653681430e+01    0.7535933    0.3693961 -85.06  0.003673857    1.903    0.475
        60  -9.1208     40.6956    141.8187   1.0840539497e+02   4.1704306073e+01    0.3614434     0.208509  46.21  0.001775115    1.860    0.462
        61 -12.6293    241.3113    131.8865   5.8114661682e+01   6.9531147340e+00     1.378826     1.236024  55.41  0.005810102    1.328    0.247
        62  -7.7924     24.5055    141.4727   1.1294910206e+02   4.3379343608e+01    0.1321781    0.1106081 -80.36 0.0008099665    1.018    0.018
        63  -9.1172     23.4630    125.5510   1.1110380602e+02   4.7405431187e+01    0.3461763    0.1526095 -27.85  0.001208587    4.473    0.776
        64  -8.7110     58.7835    124.4111   9.9991492015e+01   4.3922915352e+01    0.1886788    0.1411147  10.57 0.0006511778    1.670    0.401
        65  -9.8198     10.4795    121.5015   1.1448269207e+02   4.9385698470e+01    0.2385196    0.1541231  69.11  0.001315568    1.743    0.426
        66  -8.9908      2.5365    116.1738   1.1622644661e+02   5.1172946885e+01     0.214377    0.1453896  45.95  0.001287774    1.710    0.415
        67  -8.9496    132.8752     26.0208   4.8765027423e+01   4.8450901891e+01    0.2737147    0.2052351  32.41  0.001489421    1.441    0.306
        68  -8.6461    103.0201     26.0167   5.5422922398e+01   5.5388388942e+01    0.3251297    0.1703151  47.99  0.001473079    1.690    0.408
        69  -7.7540     25.4773     26.4917   8.4610800420e+01   6.8634291067e+01    0.1199622   0.09616902 -14.48 0.0001159255    1.036    0.035
        70  -9.6338     18.1041    105.1058   1.0963584273e+02   5.2818218965e+01    0.5232636    0.3358371  78.09  0.002736653    1.948    0.487
        71  -8.8607    111.5175     16.4820   4.9835318143e+01   5.4486841988e+01    0.3165351    0.1944518  56.94  0.001579085    1.430    0.301
        72  -7.6850     19.4891     22.9881   8.6144180324e+01   6.9812771885e+01    0.1445123     0.103253 -64.47 0.0008105438    2.581    0.613
        73  -8.0197     10.9731     23.4970   9.0897740285e+01   7.0502055368e+01    0.1594678    0.1021469  14.89  0.001025219    1.570    0.363
        74 -10.0377    224.9568     28.9751   3.7121540175e+01   2.6181142487e+01    0.4696116    0.3167369  68.99  0.002758187    1.481    0.325
        75  -8.7274     69.4830    103.9741   9.1987115052e+01   4.7420513674e+01    0.2327535     0.133768 -53.22 0.0006057034    1.601    0.376
        76  -9.6545     46.3595    100.5952   9.9044432232e+01   5.1260406961e+01    0.5323575    0.2281267 -52.14  0.002257387    1.971    0.493
        77  -9.7645    247.9072     16.2908   3.2573498106e+01   2.2860082751e+01    0.2514921    0.1706828 -84.85  0.001026358    1.318    0.241
        78  -9.5021     30.4888    102.2834   1.0490382592e+02   5.2479117999e+01    0.3953935    0.1911635 -33.71  0.001695216    2.539    0.606
        79  -8.3671     64.4925     98.9648   9.2403281256e+01   4.9324420646e+01    0.2301164      0.13198 -54.16  0.001038509    1.607    0.378
        80  -9.4394      2.5755     88.0579   1.1219655200e+02   5.7812697366e+01    0.8322445     0.190364 -68.09  0.003038454    3.378    0.704
        81  -9.0442     64.4781     16.0394   6.2935482145e+01   6.4334557598e+01    0.3314816    0.1759855  58.81  0.001552661    2.606    0.616
        82  -8.8288     58.8424     16.6877   6.5305348471e+01   6.5259092994e+01    0.2554657   0.08963919  40.05  0.001085879    2.606    0.616
        83  -8.2527     97.7607     27.1506   5.7244982787e+01   5.6408060095e+01    0.2547178    0.1791904   5.91  0.001345254    1.644    0.392
        84  -9.9622     25.6026     65.7299   9.8250383043e+01   6.1238504149e+01    0.5615254     0.264831 -48.17  0.002389646    1.713    0.416
        85 -10.8454      4.3775     76.3150   1.0939690948e+02   6.0392296550e+01    0.6756207    0.4686811  60.10  0.003647367    1.965    0.491
        86 -11.4420     14.7258     72.9983   1.0457630002e+02   6.0504914227e+01    0.9286845    0.6388491  32.22  0.005601491    1.752    0.429
        87  -8.8455    227.5953     79.0935   4.8270339717e+01   1.8486109252e+01    0.3349516    0.2456844 -11.43   0.00170959    1.907    0.476
        88  -8.3869    138.9829     78.8513   6.4266895190e+01   3.9085957037e+01     0.366849    0.2189768 -18.85  0.001396336    2.480    0.597
        89  -8.2853    238.4966     10.4914   3.2063269529e+01   2.5442400283e+01    0.1200586   0.09450623 -70.07 -9.523363e-05    1.009    0.009
        90  -8.6565     76.4987     76.6983   8.1919689324e+01   5.2397514929e+01    0.2821255    0.2293117  70.57  0.001454075    1.702    0.413
        91  -9.4707     74.3952     69.3913   8.0302609889e+01   5.4227924571e+01    0.4089378     0.322188  67.34   0.00209841    1.821    0.451
        92  -9.1760     83.8177     69.4136   7.7061227186e+01   5.2574104698e+01    0.4066868    0.3072424  58.58  0.002048993    1.676    0.403
        93  -9.5956     54.7248     81.1323   9.1088519031e+01   5.4715069076e+01    0.4713106    0.2051688  40.42  0.001941408    2.620    0.618
        94  -8.9463     45.2204     63.0016   8.9301499235e+01   5.9750671635e+01    0.5085704     0.208184 -40.48   0.00215523    2.261    0.558
