#   1 NUMBER                 Running object number                                     
#   2 MAG_AUTO               Kron-like elliptical aperture magnitude                    [mag]
#   3 X_IMAGE                Object position along x                                    [pixel]
#   4 Y_IMAGE                Object position along y                                    [pixel]
#   5 X_WORLD                Barycenter position along world x axis                     [deg]
#   6 Y_WORLD                Barycenter position along world y axis                     [deg]
#   7 A_WORLD                Profile RMS along major axis (world units)                 [deg]
#   8 B_WORLD                Profile RMS along minor axis (world units)                 [deg]
#   9 THETA_WORLD            Position angle (CCW/world-x)                               [deg]
#  10 FWHM_WORLD             FWHM assuming a gaussian core                              [deg]
#  11 ELONGATION             A_IMAGE/B_IMAGE                                           
#  12 ELLIPTICITY            1 - B_IMAGE/A_IMAGE                                       
         1 -10.0408     40.9480     13.7070   2.8494531957e+01   7.2448495276e+01     0.203032    0.1704869  -2.03 0.0001976104    1.189    0.159
         2  -9.3406     67.5228      1.4048   8.6866156494e+00   6.8037016701e+01    0.1359939    0.1177228  54.20 5.214494e-05    1.018    0.017
         3 -10.0254    106.3691    243.7424   6.0991761783e+01   1.0712337314e+01    0.1451212    0.1106848 -40.62 0.0007642216    1.645    0.392
         4 -11.6755     53.4388    249.4994   7.2947545232e+01   1.5958729228e+01    0.4206386    0.1903809  27.95  0.001192864    1.796    0.443
         5 -10.8147     56.8131    246.6268   7.2044651912e+01   1.6095943781e+01    0.2976726    0.1349391  38.07  0.001111273    1.576    0.365
         6 -11.1046     12.6965    244.3516   8.1432330988e+01   2.0969336249e+01    0.3921373    0.1376487  48.10  0.002090928    1.922    0.480
         7 -12.6672      5.9173    242.8139   8.2815146288e+01   2.1854852226e+01    0.6511959    0.4663041 -49.07  0.004427827    2.089    0.521
         8 -13.3141     19.7582    248.7302   8.0083562089e+01   1.9520206201e+01      1.04183     0.561388  14.92   0.00587543    2.240    0.554
         9 -10.8768     97.9616    242.0571   6.2658499927e+01   1.2037326077e+01    0.3325768    0.2060275  18.61   0.00110653    1.561    0.359
        10 -11.8556    249.6704    239.0455   3.3718322935e+01  -5.1212660990e+00    0.3815235    0.1676015 -32.47  0.002483506    2.105    0.525
        11 -10.8549    167.0205    242.0152   4.8289712668e+01   3.4271048238e+00    0.1820468    0.1385625  14.95 0.0006669217    1.011    0.011
        12  -9.5832    221.0041    239.4738   3.8262638228e+01  -2.3530664735e+00    0.1524797   0.08319811  22.80 0.0004206095    1.527    0.345
        13 -11.7840     12.0658    249.3345   8.1700685488e+01   2.0120321788e+01    0.7401533    0.1743081  40.56  0.003466632    2.312    0.567
        14 -11.0152     73.6830    244.3478   6.8190846788e+01   1.4575452835e+01    0.2282897    0.1958248  38.17  0.000603794    1.122    0.109
        15 -10.4597     38.8542    235.2901   7.5375753413e+01   2.0120953400e+01    0.2005245    0.1360506  62.80 0.0007471944    1.345    0.256
        16 -11.3391    231.5054    234.5080   3.5853550313e+01  -2.8697783066e+00    0.2205955    0.1578856   0.88  0.001018812    1.035    0.034
        17 -11.7791    166.5596    233.3481   4.7235706932e+01   4.6957050192e+00    0.5448536    0.2433411  28.78  0.002857157    1.847    0.459
        18 -11.6070    162.2031    225.8183   4.7072105119e+01   6.3542491025e+00    0.5885383    0.3135255 -22.97  0.002988581    2.423    0.587
        19 -10.5202    237.8202    230.0447   3.4209920711e+01  -3.0084941549e+00     0.206458    0.1141227 -12.23  0.001374449    1.584    0.369
        20  -9.9603    169.8970    225.2699   4.5461463605e+01   5.4404789083e+00     0.302456    0.1549458  46.41  0.001470254    2.711    0.631
        21 -11.5605     98.8663    225.3801   6.0793476655e+01   1.4855077395e+01    0.3924148    0.2292761  33.72   0.00171517    1.365    0.267
        22 -12.1207     95.8840    218.3940   6.0741139067e+01   1.6553738880e+01    0.6991091    0.3020716  46.01  0.001990047    2.188    0.543
        23 -10.6603     27.5508    225.2058   7.7457854265e+01   2.3244887247e+01     0.254465    0.1257182  61.27  0.001357018    1.815    0.449
        24 -10.4414    126.4767    221.1189   5.4030084172e+01   1.1906323014e+01    0.2500015    0.1669061  48.66 0.0008904588    1.625    0.384
        25 -10.2263     99.8392    217.5772   5.9717536664e+01   1.6178625817e+01     0.306999     0.179349  44.09 0.0009894056    1.527    0.345
        26  -9.8495    100.8373    233.0971   6.1145043857e+01   1.3217040222e+01    0.1891507    0.1427102  44.63  0.000550338    1.217    0.178
        27  -9.6021      2.3179    220.6652   8.3071150865e+01   2.6459346663e+01    0.1327277   0.05794902  52.97 0.0007048498    1.697    0.411
        28 -11.4579     24.3757    216.7945   7.7817460668e+01   2.5274591719e+01    0.3706574    0.1582615  38.95  0.001891992    1.726    0.421
        29  -9.9404     55.9977    216.8131   7.0195854621e+01   2.1888467379e+01    0.1850656    0.1603662  74.80            0    1.211    0.174
        30 -10.0301    170.7783    215.1714   4.3816716112e+01   6.8330465953e+00    0.2081028    0.1666179  11.08 0.0007543549    1.013    0.013
        31 -10.2618     64.6209    213.7068   6.7837325892e+01   2.1498667879e+01    0.4478516    0.1552615  41.72  0.001902619    2.233    0.552
        32 -10.0667    112.5318    213.6155   5.6269370596e+01   1.5182793336e+01     0.249205    0.1486367   5.46  0.001138722    2.391    0.582
        33 -11.8746     12.4960    205.8366   8.0224746255e+01   2.8705232209e+01    0.6305643    0.1967805 -75.00  0.002697596    3.211    0.689
        34 -11.6515     16.5392    196.5420   7.8830478521e+01   3.0401302444e+01    0.5269325    0.2749462 -40.87  0.001886891    3.077    0.675
        35  -9.2303     77.9607    211.0000   6.4300100249e+01   2.0375760108e+01    0.2281523   0.06442797  29.73 0.0008079329    2.981    0.665
        36 -10.0558     22.1739    210.3214   7.8050852939e+01   2.6851878998e+01    0.1692962    0.1438422  71.45    0.0011401    1.159    0.137
        37  -9.5107    124.1092    205.8865   5.2555918042e+01   1.4978415796e+01     0.167156     0.138305   3.46            0    1.243    0.195
        38 -10.8642    166.3611    198.2005   4.2072568391e+01   1.0147632609e+01     0.348448    0.1202596 -46.10  0.001409223    3.189    0.686
        39  -9.7375    178.0848    197.1157   3.9522167705e+01   8.6367052533e+00    0.1990479    0.1469872  -2.30 0.0005549251    1.302    0.232
        40 -11.2230    172.5709    195.0150   4.0278496591e+01   9.7689332998e+00    0.3420341    0.2165763 -41.33  0.001277807    1.679    0.404
        41  -8.7245    132.9849    199.1896   4.9538381872e+01   1.4919946976e+01    0.1700241   0.09164698  32.62            0    1.616    0.381
        42  -9.4781     94.1600    181.1640   5.6569600494e+01   2.4508875639e+01    0.3057353    0.2507726 -77.36  0.001175712    1.386    0.278
        43 -11.5021     98.1142    189.2184   5.6643717525e+01   2.2155252634e+01    0.4886903    0.3375439  67.45  0.001947891    1.796    0.443
        44  -9.8927    104.0419    189.5037   5.5161648867e+01   2.1209838095e+01    0.3018308    0.1868595  27.86  0.001045166    1.503    0.334
        45 -10.7352    204.6576    188.3203   3.3039490058e+01   6.2716611895e+00    0.2217039    0.2110374  84.96  0.001525667    1.728    0.421
        46 -11.1453     10.9800    187.2128   7.9869773818e+01   3.3020052027e+01    0.3984242    0.1867608  63.66 0.0007132848    1.893    0.472
        47 -10.2837    175.2671    184.2331   3.7891554577e+01   1.1155362689e+01    0.1895032    0.1544147  72.72  0.001048848    2.070    0.517
        48 -10.2344    225.9205    182.9438   2.8518102368e+01   4.2191593609e+00    0.1809336    0.1450339 -11.90 0.0005817734    1.056    0.053
        49 -11.9736     14.1661    180.1202   7.8688739481e+01   3.4419390509e+01    0.4922677    0.2801344  26.94  0.002580612    1.669    0.401
        50 -12.4988      4.8055    173.5279   8.0987056263e+01   3.6753544320e+01    0.5612144     0.309638  78.63 0.0002983881    1.641    0.391
        51 -10.9439      5.0248    166.4703   8.0636634673e+01   3.8457432270e+01    0.4838388    0.2590361  -8.04  0.002156054    2.929    0.659
        52  -9.3613     48.0000    176.9565   6.8931622114e+01   3.1755750822e+01    0.2145163   0.07726502 -72.76 0.0005896036    2.915    0.657
        53  -9.6617    150.6056    174.6776   4.1464487996e+01   1.6778352906e+01    0.4211449    0.1202584  36.34  0.001403852    3.322    0.699
        54  -9.7759     29.3444    172.3174   7.3923190765e+01   3.4913213958e+01    0.3545569    0.2476279  66.06  0.001499442    1.302    0.232
        55 -10.3066    177.2811    169.4953   3.4802992081e+01   1.3356279114e+01    0.3762785    0.2291702 -38.83  0.001937412    1.618    0.382
        56 -11.7980    207.3896    167.8556   2.8868353981e+01   8.9668723530e+00    0.4614462    0.2251782 -16.52  0.001842661    3.335    0.700
        57  -9.0871    199.7782    166.9988   3.0048663555e+01   1.0241083641e+01    0.1613151   0.09494393 -35.74 0.0002327527    1.579    0.367
        58 -11.1911    218.9846    165.0112   2.6392730173e+01   7.7137800943e+00    0.2561564    0.2155077  22.26  0.001739263    1.264    0.209
        59  -9.1480      1.2442    163.3683   8.1606495988e+01   3.9491014018e+01    0.1257179   0.08834353 -57.63 0.0005466457    1.616    0.381
        60 -10.2325    188.5790    156.5405   3.0084540599e+01   1.3737666111e+01    0.4224326    0.1193066 -39.67   0.00147436    3.385    0.705
        61 -11.7567    189.5949    149.4856   2.8471118591e+01   1.4771048369e+01    0.5549661     0.236104 -46.48  0.002284596    2.529    0.605
        62 -11.9899    204.7389    153.0175   2.6465121190e+01   1.1700430024e+01    0.4563814    0.2049757 -46.87  0.001992966    2.525    0.604
        63  -8.7826    135.5574    154.4197   4.1199782638e+01   2.3456465986e+01    0.1477385    0.1336885   5.96 0.0001012833    1.117    0.105
        64  -8.8616     68.7093    154.3795   6.0046914351e+01   3.4681252791e+01    0.1608224    0.1040077  65.68 0.0007018622    1.741    0.426
        65  -9.4678     40.9489    153.4897   6.8701490148e+01   3.8461353919e+01    0.2013582    0.1357723  27.92 0.0004289374    1.471    0.320
        66  -9.7125    182.4587    149.5801   2.9850431925e+01   1.5978625315e+01    0.2829585    0.1259811 -40.06   0.00120059    2.144    0.534
        67 -10.2728     26.0169    148.2709   7.3020583040e+01   4.1357093239e+01    0.2794954     0.165687  65.33  0.001321257    1.647    0.393
        68 -10.3533    223.7379    147.7631   2.2336447896e+01   9.5791304272e+00    0.2110263    0.1508812  31.47  0.001297662    1.528    0.346
        69  -9.8357     23.4182    154.8389   7.4394632335e+01   3.9888724547e+01    0.1982894    0.1145344 -64.59 0.0009478624    1.736    0.424
        70 -10.2422     18.8161    146.1420   7.5203456181e+01   4.2552674365e+01    0.1854541    0.1573682 -48.81 0.0006516397    1.345    0.257
        71  -9.4914    147.6084    143.2898   3.5989290860e+01   2.3537490449e+01    0.2801871    0.1401866 -50.70  0.001122153    2.157    0.536
        72  -9.8465    199.8451    147.5715   2.6222962086e+01   1.3375387652e+01    0.2276592    0.1447886 -39.91  0.001211162    1.480    0.324
        73 -10.9464     24.9977    138.9352   7.2513330339e+01   4.3918795547e+01    0.5924932    0.2236602  34.87  0.002358615    2.322    0.569
        74 -10.6609     13.7716    141.0737   7.6500933080e+01   4.4288319023e+01    0.3789825    0.1775904 -42.55  0.001431514    2.768    0.639
        75 -13.2738    245.7310    133.2927   1.6400259965e+01   8.4370913053e+00    0.9949647    0.3756839 -40.31  0.004760891    2.253    0.556
        76 -10.9396    187.7169    134.4706   2.5655997029e+01   1.7700737002e+01    0.6078212     0.227485 -44.32  0.002329771    2.631    0.620
        77  -9.2205    203.6448    135.7069   2.3111698924e+01   1.4683469309e+01    0.1342951   0.09636126   1.90 0.0007030532    1.687    0.407
        78 -11.0650     14.6995    133.6319   7.5622860132e+01   4.6190857506e+01    0.4494193    0.3395457 -16.70  0.002410856    1.657    0.396
        79 -10.1203    225.3487    132.3117   1.9005457646e+01   1.1644471367e+01    0.1273739   0.08886817  -1.57 0.0007045798    1.716    0.417
        80 -10.1697      6.7891    131.9499   7.8267790371e+01   4.7191767877e+01    0.2399618    0.1738469 -35.04 0.0009636806    1.656    0.396
        81  -9.4873    131.4409    130.4448   3.7131693226e+01   2.9422596319e+01     0.275036    0.1460558 -59.18  0.001026662    2.379    0.580
        82 -10.3203    197.8425    136.2839   2.4227175773e+01   1.5588979187e+01    0.3063824    0.1742318 -32.54  0.001475596    1.646    0.392
        83 -10.6068    222.4875    126.9478   1.8319073607e+01   1.2914678100e+01    0.1990606    0.1073172 -35.99  0.001026208    1.574    0.365
        84 -10.7578     66.8506    126.1671   5.5990373511e+01   4.2278504163e+01    0.3982054    0.2775926  -8.62  0.001683626    2.110    0.526
        85 -10.7869     47.0112    125.4021   6.2985629260e+01   4.5220909222e+01    0.5547223    0.2138374  53.46   0.00177415    3.313    0.698
        86 -10.2790     43.1486    121.1342   6.3758878319e+01   4.6843392159e+01    0.3847987    0.2256145  86.20  0.001041368    2.004    0.501
        87 -11.1613     14.1391    126.1533   7.5207897347e+01   4.8236552353e+01    0.3418829    0.2456215  22.66  0.001820312    1.480    0.324
        88  -9.8964    118.4641    125.7729   3.9540394947e+01   3.3073889663e+01    0.3841906    0.1959988  55.16  0.001373366    2.460    0.594
        89  -9.5709     77.4604    126.4864   5.2401189644e+01   4.0508722079e+01    0.2693503     0.154791  19.48 0.0009088744    2.258    0.557
        90 -10.1058     61.1608    126.3772   5.8035625028e+01   4.3065386258e+01     0.328335    0.1661256  44.73  0.001298028    1.940    0.484
        91  -9.6829    180.2243    122.6500   2.4419188434e+01   2.1210357665e+01    0.2494088     0.167381 -20.42   0.00116808    1.742    0.426
        92  -9.2201    104.4942    123.5333   4.3081217076e+01   3.6359392039e+01     0.155284    0.1516761  46.16 0.0008095849    1.025    0.025
        93 -10.0716     74.8085    122.0389   5.2401756508e+01   4.2100537971e+01    0.2934341    0.2057444 -42.05  0.001047316    1.590    0.371
        94 -11.6486     71.1529    118.0760   5.2862248566e+01   4.3732117756e+01    0.5147603    0.3556778 -48.15  0.001988533    1.513    0.339
        95 -11.5101     69.1586    110.6801   5.1987039270e+01   4.5993242160e+01    0.6854138    0.4710071  32.64  0.002434287    1.468    0.319
        96 -11.6646     62.1102    107.3327   5.3906789807e+01   4.7989623943e+01    0.5359282    0.2911134  50.18   0.00169029    2.003    0.501
        97  -9.9875     53.5081    115.9961   5.8957442827e+01   4.6919068420e+01    0.2338957    0.1473295 -69.16 0.0007431376    1.582    0.368
        98  -9.9255    108.3896    112.1981   3.9162334848e+01   3.8283190732e+01    0.3737937    0.2257683 -62.28  0.001486797    1.946    0.486
        99  -9.3017    185.6521    114.1914   2.1455892950e+01   2.1651228349e+01    0.2003652    0.1228713 -30.45 0.0007541939    1.637    0.389
       100 -10.3501     92.2862    111.6859   4.4115493212e+01   4.1614319771e+01    0.4776378    0.3048902 -77.11  0.001863734    2.179    0.541
       101 -10.1900    159.3831    111.6050   2.5971153909e+01   2.7528810227e+01    0.3008204    0.1201641 -52.71 0.0009529616    3.322    0.699
       102 -11.5998     55.1730    111.3994   5.7437568858e+01   4.7924815491e+01    0.9809938    0.2532799  33.85  0.002966576    3.392    0.705
       103  -9.3889     16.7918    112.6438   7.2898182429e+01   5.1700556432e+01    0.3670506   0.05676503  30.05  0.001096175    4.240    0.764
       104  -9.0115     22.2827    109.6491   7.0331079931e+01   5.2085180800e+01    0.1532748   0.09690353  63.50 0.0005854993    1.654    0.395
       105 -12.0826    249.8443    104.2799   1.0144119324e+01   1.1830889966e+01     0.694103    0.1606374 -34.38  0.002595511    3.431    0.709
       106 -11.7434     45.2207    101.8016   5.9524868629e+01   5.1834343860e+01    0.6893867    0.3562399  88.84  0.002407925    2.951    0.661
       107  -9.3894     92.7437    105.1687   4.2315769184e+01   4.3128751436e+01    0.2081494    0.1850604 -13.35 0.0004229969    1.310    0.237
       108  -9.5652    134.1486    109.4986   3.1322136815e+01   3.3408790997e+01    0.2857207    0.1815325 -67.10  0.001123901    2.192    0.544
       109  -9.6561    150.6377    103.7903   2.5890703672e+01   3.0959411641e+01    0.3400834    0.1794392 -61.75  0.001162438    3.012    0.668
       110 -12.2126     64.1727    100.7497   5.1592704004e+01   4.9396441905e+01     1.038279     0.552767  63.52  0.003522697    3.005    0.667
       111 -10.0450     17.9593    102.9562   7.1291006993e+01   5.4252338781e+01    0.2151569    0.1958824 -89.27  0.000509612    1.016    0.016
       112  -9.5141    160.7429    101.4421   2.3104289268e+01   2.9185955202e+01    0.2822255    0.1476751  56.32  0.001137646    2.114    0.527
       113 -10.6831     84.1890    100.6813   4.4083326838e+01   4.5893090215e+01    0.5771886    0.2714015  45.33  0.001965477    2.136    0.532
       114  -9.2978     29.9023    100.8720   6.5865669058e+01   5.3795500515e+01    0.2039111    0.1607499  67.36  0.000476632    1.306    0.234
       115 -11.0701     75.4401     99.0880   4.6853207406e+01   4.7910068885e+01    0.2974785    0.2263244  14.76 0.0009304069    1.598    0.374
       116  -8.9782     95.3180     97.6424   3.9431800587e+01   4.4427968407e+01    0.1675022    0.1250352  82.93 0.0005428444    1.756    0.430
       117 -10.3953     53.3114     96.9679   5.5104788317e+01   5.2039172201e+01    0.2428836    0.2157651  14.43 0.0002822995    1.218    0.179
       118  -9.2562    171.4781     94.9324   1.9310409377e+01   2.8027115361e+01    0.2165957    0.1375979 -36.40 0.0004053901    1.516    0.341
       119 -10.2801    147.9610     95.4814   2.4271211797e+01   3.3197854902e+01    0.2270826    0.1498648  50.65 0.0005550566    1.543    0.352
       120 -11.3614     57.6652     91.2700   5.1898642685e+01   5.2886939103e+01    0.4366745    0.2967112 -20.77  0.001250146    2.041    0.510
       121 -10.0688     24.3489     92.0054   6.6872001588e+01   5.6713390993e+01    0.3493688    0.1803567 -85.73 0.0009816288    2.146    0.534
       122 -10.1621    139.9524     92.4355   2.5274806591e+01   3.5639288342e+01     0.318306    0.2032957  70.72  0.001290473    2.060    0.515
       123 -10.5278     91.8013     90.7036   3.8638966063e+01   4.6798122638e+01    0.3856198    0.3535929  20.87  0.001156391    1.182    0.154
       124 -11.8150     83.2990     87.1464   4.0605740067e+01   4.9369415956e+01    0.7997922    0.4780325  49.13  0.002094813    1.718    0.418
       125  -9.3213     46.3511     91.3003   5.6784899468e+01   5.4496723413e+01    0.1571774    0.1119231 -27.20 0.0007037763    1.694    0.410
       126 -10.9943    132.5658    103.0120   3.0011459270e+01   3.5137901465e+01    0.6661396    0.3382807  43.44  0.002381029    2.012    0.503
       127  -9.9619    166.0373     87.9030   1.8482219914e+01   3.0496956264e+01    0.2715019    0.2061202  70.62 0.0008109052    1.464    0.317
       128 -10.1191    158.7901     84.6277   1.8993083243e+01   3.2748895463e+01    0.3427494    0.2473248  29.53  0.001583637    1.800    0.445
       129 -10.7817    105.1426     82.9636   3.1917671710e+01   4.5661210960e+01    0.5355657    0.3640469 -76.92  0.002138031    2.140    0.533
       130  -9.4309     48.4878     84.4960   5.4175044762e+01   5.5991890607e+01     0.149451    0.1432544  82.64 7.495265e-05    1.056    0.053
       131 -11.6277    119.9129     80.7393   2.6915657635e+01   4.2707877807e+01    0.8231022     0.510373 -87.66  0.002765202    3.217    0.689
       132  -9.9208    150.8013     81.2149   1.9657147995e+01   3.5246276518e+01     0.262204    0.1581495 -74.69 0.0009492227    2.785    0.641
       133  -9.7445    124.6136     90.8911   2.8697753846e+01   3.9502864538e+01    0.3189448    0.1948441 -57.57  0.001203195    1.874    0.466
       134  -9.1620     24.4827     80.9769   6.4813300631e+01   5.9661141417e+01    0.2069085    0.1128774  76.36  0.000809812    2.497    0.600
       135  -9.5960    105.6833     90.8560   3.4147340031e+01   4.3791493721e+01    0.3237742    0.1886211  32.28  0.001234408    2.093    0.522
       136  -9.8614    175.4001     78.3632   1.4253296983e+01   3.0017392888e+01    0.2949173    0.1878142 -68.59  0.001025969    2.017    0.504
       137 -10.5086      4.6142     78.0312   7.4346308391e+01   6.1770008704e+01    0.3047609    0.2100971  37.43  0.001626565    1.555    0.357
       138  -9.8495    147.3023     85.6718   2.1681372795e+01   3.5241328693e+01    0.1576436    0.1167959 -74.13 0.0005966439    1.645    0.392
       139 -10.1817    140.4148     74.5883   1.9943277562e+01   3.8962840889e+01    0.3001605    0.2411114 -64.36 0.0007259098    1.301    0.232
       140 -10.2246    127.8817     75.1306   2.3075074385e+01   4.1911366432e+01    0.2556879    0.2104103 -77.57   0.00123728    1.341    0.254
       141 -10.5008      9.7731     73.8710   7.1090950079e+01   6.2608151422e+01    0.2401767     0.194517  27.62 0.0005651291    1.334    0.250
       142 -10.6883    116.6957     72.8253   2.5276361391e+01   4.5069283326e+01    0.3082919    0.2077039  81.63  0.001238552    2.083    0.520
       143 -10.2953    106.3609     71.5830   2.7850934888e+01   4.7783183966e+01     0.420792    0.2961568 -86.27   0.00173162    2.052    0.513
       144  -9.6769     81.9964     72.0191   3.6263313607e+01   5.3138786242e+01    0.1902337    0.1836523  51.67 0.0004516847    1.017    0.017
       145  -9.3443     52.3021     71.6934   4.8785629251e+01   5.8670866712e+01    0.2020946    0.1863388 -82.83 0.0002329693    1.151    0.131
       146 -10.3209     49.4774     69.5244   4.9459872005e+01   5.9634580047e+01    0.3251432    0.1975597  20.87 0.0009083409    1.888    0.470
       147 -10.0086    147.1082     67.3524   1.6314567319e+01   3.8612449954e+01    0.2645332    0.2087196 -28.97 0.0009832256    1.381    0.276
       148  -9.8420     95.1366     70.2601   3.0977591858e+01   5.0654342813e+01    0.3099625     0.205716 -70.70  0.001239873    2.118    0.528
       149  -9.5191     14.2515     65.5891   6.7156761179e+01   6.4495580681e+01    0.1930859    0.1266154  -9.21 0.0009548733    1.722    0.419
       150  -9.3094     37.3625     64.6789   5.4125728780e+01   6.2502146597e+01    0.1524851    0.1080161  62.62 0.0007041544    1.778    0.437
       151  -9.7599     99.9983     59.8207   2.5674224533e+01   5.1623870009e+01    0.2624103    0.1816751  83.35  0.001083157    2.023    0.506
       152 -10.1988     72.6396     58.2043   3.4946491766e+01   5.8080900183e+01    0.3900411    0.2439927 -56.01 0.0007851897    1.803    0.445
       153  -9.9056    119.8267     56.5220   1.8913423107e+01   4.7333881470e+01    0.3108011    0.1913112 -69.38  0.001201369    2.323    0.570
       154 -10.7034      2.2609     54.5549   7.2196467457e+01   6.7952411188e+01    0.5040732    0.1711885 -52.80 0.0009618496    2.359    0.576
       155  -9.5914     63.4604     54.9665   3.7654564230e+01   6.0592613299e+01    0.2080021    0.1337665 -73.50  0.000631211    2.535    0.606
       156  -8.9074    114.4809     54.4875   1.9560348549e+01   4.9036121669e+01      0.15423    0.1449627  84.64 3.738838e-05    1.025    0.025
       157 -10.2764     22.5155     53.6558   5.9310668791e+01   6.6847288151e+01    0.4912474    0.1122354  36.74  0.001509971    4.328    0.769
       158  -8.9906    172.0272     50.0216   6.9091125443e+00   3.5232887938e+01    0.1656523    0.1485867 -70.72 0.0009482901    1.017    0.016
       159 -11.1924     45.5221     48.8467   4.4120513568e+01   6.5067912702e+01    0.2480266    0.2401612   7.90  0.000206337    1.039    0.038
       160 -10.0239    129.7658     48.0087   1.3627176704e+01   4.6198908587e+01    0.2022225    0.1252582 -35.67 0.0008884686    1.659    0.397
       161  -9.1187    123.3659     40.2804   1.2241466094e+01   4.9035931040e+01    0.1545427    0.1099474  36.52 0.0007013618    1.683    0.406
       162  -9.5563     44.3366     25.0359   3.3370475888e+01   6.9987200481e+01    0.1814238    0.1685101 -12.56 0.0004273138    1.076    0.071
       163  -9.6702     13.0545     20.9590   5.3711898680e+01   7.5163052259e+01    0.2088238    0.1325441 -23.15 0.0006329389    1.605    0.377
       164 -10.8770    247.5627    247.8723   3.5273963851e+01  -5.8295174450e+00    0.1948539     0.121716   7.03 0.0007326594    1.172    0.147
