#   1 NUMBER                 Running object number                                     
#   2 MAG_AUTO               Kron-like elliptical aperture magnitude                    [mag]
#   3 X_IMAGE                Object position along x                                    [pixel]
#   4 Y_IMAGE                Object position along y                                    [pixel]
#   5 X_WORLD                Barycenter position along world x axis                     [deg]
#   6 Y_WORLD                Barycenter position along world y axis                     [deg]
#   7 A_WORLD                Profile RMS along major axis (world units)                 [deg]
#   8 B_WORLD                Profile RMS along minor axis (world units)                 [deg]
#   9 THETA_WORLD            Position angle (CCW/world-x)                               [deg]
#  10 FWHM_WORLD             FWHM assuming a gaussian core                              [deg]
#  11 ELONGATION             A_IMAGE/B_IMAGE                                           
#  12 ELLIPTICITY            1 - B_IMAGE/A_IMAGE                                       
         1 -14.4461    213.7039      5.4025   4.3097811343e+01   3.0440486022e+01     2.159659     1.216676  67.24  0.005553037    1.655    0.396
         2 -15.0834    189.9254     34.9642   5.4387592774e+01   3.3153375936e+01     3.011019     1.884306  16.09   0.01231334    2.455    0.593
         3 -12.2037     58.0095      3.0022   7.3368751199e+01   6.7100941674e+01    0.5002941    0.2297609  19.33  0.002060292    3.284    0.695
         4 -12.8665     53.2634    209.6093   1.2317773677e+02   2.5275538065e+01    0.4280139    0.1630571  58.42  0.001932926    2.459    0.593
         5 -11.7487    248.8816    249.0514   9.3094443627e+01  -1.0728088146e+01    0.3621012    0.2263645   9.52  0.002458109    1.460    0.315
         6 -17.7651     41.2029    246.5032   1.2772027514e+02   2.0145130909e+01     8.018006     4.407651  32.59   0.05039443    2.531    0.605
         7 -10.4414     37.1473    206.6794   1.2587047068e+02   2.7738345251e+01    0.1488864    0.1005731  62.76 0.0005680601    1.181    0.153
         8 -11.8838    193.5340    195.6030   9.3961453040e+01   4.8743181257e+00     1.171578    0.6555015 -66.28  0.003730056    6.095    0.836
         9 -12.0561    204.3381    200.0909   9.2726477503e+01   2.2325452898e+00    0.4823776    0.2230563  36.77  0.002216459    1.965    0.491
        10 -11.6041    153.3960    200.9973   1.0270123866e+02   1.1350286583e+01    0.3024675    0.1626339 -50.01  0.001483869    2.144    0.533
        11 -12.4909     48.5563    206.1809   1.2376304946e+02   2.6508890515e+01    0.2329164     0.182254  72.08 0.0007269639    1.070    0.066
        12 -19.1921     15.5531    101.8905   1.2029930825e+02   5.2506008646e+01     16.56471     2.087786 -70.18   0.04289482    7.049    0.858
        13 -11.9982     37.2157    200.3235   1.2539457163e+02   2.8968457871e+01     0.170565    0.1311613  76.63 0.0005017699    1.054    0.051
        14 -10.6890    159.9333    197.1356   1.0078740162e+02   1.0829973000e+01     0.199296    0.1914731 -57.82 0.0003153414    1.186    0.157
        15  -9.1189     46.7466    198.1435   1.2344533526e+02   2.8303439812e+01      0.10061   0.06098204  58.61 0.0006117004    1.386    0.279
        16 -11.5095    207.5504    194.8556   9.1184780086e+01   2.4226319377e+00    0.3460517    0.1838666 -37.90 0.0009743349    2.068    0.516
        17 -10.1634     81.4646    195.2578   1.1639177119e+02   2.4324771517e+01     0.225853    0.1999721 -31.57  0.001476158    1.706    0.414
        18 -10.8792     59.5627    228.9659   1.2357464113e+02   2.0919066337e+01    0.1731932    0.1093998  65.30 0.0004378783    1.232    0.188
        19 -12.9210     70.7580    187.3015   1.1767315251e+02   2.7449777585e+01    0.6655672    0.5352935 -70.48  0.003596331    1.291    0.225
        20 -12.5131    149.2938    186.8703   1.0124929796e+02   1.4632388683e+01    0.4317404    0.3228286  84.73  0.001875242    1.750    0.429
        21  -9.1309     93.8242    189.1719   1.1314421622e+02   2.3709949121e+01    0.1516989    0.1484987  52.89 0.0004268023    1.314    0.239
        22 -10.9062    154.7418    186.8427   1.0012241208e+02   1.3620633958e+01    0.2453995    0.1911191 -77.02 0.0009849712    1.620    0.383
        23  -9.4571     60.9876    186.6836   1.1959610866e+02   2.8874796409e+01    0.2653581    0.1429061  30.58 0.0007688882    2.422    0.587
        24 -11.3674     70.1107    209.4579   1.2004951774e+02   2.3128594177e+01    0.2092561    0.1418244  76.54 0.0002699036    1.292    0.226
        25 -11.2579     99.3839    180.8022   1.1085659477e+02   2.4556255403e+01    0.2487154    0.2178302  60.29 0.0005915981    1.098    0.089
        26 -10.7178    204.5082    176.0676   8.8171324031e+01   5.8950471841e+00    0.3827879    0.2369304 -54.30  0.001764391    2.289    0.563
        27  -9.2657     68.4257    177.4936   1.1704625327e+02   2.9828252089e+01    0.1270459    0.1029737  80.81  8.83136e-05    1.026    0.025
        28 -10.3317     49.1279    172.4609   1.2058337976e+02   3.3352391003e+01     0.238313    0.2002851  55.86  0.001018666    1.261    0.207
        29  -9.7578    184.9791    169.4843   9.0698132254e+01   1.0858409503e+01    0.2209733    0.1899349 -33.46 0.0008930742    1.232    0.188
        30 -10.0433    163.4879    169.1330   9.5076179617e+01   1.5227649301e+01    0.2513664    0.2107324  80.77  0.001106547    1.428    0.300
        31 -11.0407    230.2279    166.5310   8.1449217032e+01   2.4620599318e+00    0.3170043    0.1750091 -49.31  0.001382159    2.532    0.605
        32 -10.0461    192.5489    164.8753   8.8236121588e+01   1.0140576728e+01    0.2346772    0.2240034  88.69 0.0007110924    1.246    0.197
        33 -12.4072     96.9283    153.3273   1.0718560117e+02   3.0900162837e+01    0.5983686    0.4626554 -30.41  0.003154745    1.788    0.441
        34 -10.7015    188.2179    154.8143   8.6978321399e+01   1.2824705967e+01    0.5374317    0.2440203  43.39  0.002122778    2.117    0.528
        35 -11.6762    133.9311    145.8005   9.6985508309e+01   2.5863770341e+01     1.265185    0.3200664 -54.98  0.003086859    5.910    0.831
        36  -9.9284    113.2027    151.0736   1.0292137161e+02   2.8616271084e+01    0.2595073    0.1875284 -82.40 0.0009285745    1.594    0.373
        37 -10.5436    174.3126    148.7270   8.8548866608e+01   1.6902880631e+01    0.3395693     0.275654 -76.72  0.001275314    1.584    0.369
        38 -11.1278    144.0099    146.6577   9.4823657305e+01   2.3661017356e+01    0.3998285    0.2570902 -66.03  0.001734858    1.968    0.492
        39  -9.7505    113.6498    142.3106   1.0113276087e+02   3.0485640468e+01    0.1523853    0.1089105  78.04 0.0007044967    1.717    0.418
        40 -11.5586    108.1161    139.2130   1.0187901870e+02   3.2178098550e+01    0.5121293    0.3109213 -37.96  0.002253057    2.064    0.516
        41 -12.4986     96.4137    138.8266   1.0472065064e+02   3.4274833953e+01    0.2751328    0.2633274  87.25 0.0004525141    1.086    0.079
        42  -9.5249    128.2633    139.3748   9.6984713595e+01   2.8374632131e+01     0.206844    0.1350809  52.76 0.0009400872    1.564    0.361
        43 -11.3195    105.9791    130.7890   1.0070045124e+02   3.4474353293e+01    0.3843168    0.3107853 -70.89  0.001212643    1.228    0.186
        44 -11.2237    103.0297    125.5924   1.0035844844e+02   3.6186169228e+01    0.2893929    0.2560505   2.68 0.0007745514    1.421    0.296
        45 -10.8669    135.8996    128.6327   9.2744919352e+01   2.9187707498e+01    0.4832175    0.1993386 -50.70  0.001617467    2.499    0.600
        46 -10.9413    115.1688    129.7967   9.8153073189e+01   3.3021438709e+01    0.3296754    0.2760048 -16.55 0.0007002392    1.533    0.348
        47 -10.2720    160.8593    127.5431   8.6613734275e+01   2.4053818682e+01     0.317642    0.2288188 -51.92  0.001463648    1.458    0.314
        48 -11.0124    120.8798    122.9742   9.5165616752e+01   3.3462013780e+01    0.4982958    0.2898768 -24.99  0.001761657    3.143    0.682
        49 -10.0014    110.2278    118.8639   9.6967010068e+01   3.6422388662e+01    0.2120164    0.1890004 -78.93  0.000318109    1.132    0.117
        50 -10.1238    168.0501    112.9791   8.1324772214e+01   2.5369620906e+01    0.3747947    0.2574553 -80.98  0.001454267    2.411    0.585
        51 -11.4116    119.3456    110.1322   9.2444587365e+01   3.6632306665e+01      0.54532    0.3753808  59.52  0.002480982    1.673    0.402
        52 -10.2804    205.6039    110.0985   7.2867019850e+01   1.7105939372e+01    0.2845042    0.2190799  40.44 0.0006810316    1.339    0.253
        53  -9.4752    134.5250    105.9842   8.7441516408e+01   3.4388401271e+01    0.2436276    0.1499462 -44.73  0.000955721    1.590    0.371
        54  -9.5445     75.5442    207.0278   1.1879028575e+02   2.2851018261e+01    0.2757404    0.2107049 -46.03  0.001352832    1.908    0.476
        55  -9.5243    190.3201     89.6532   7.0324767620e+01   2.4440097972e+01    0.1645164    0.1211387 -68.59  0.000704919    1.733    0.423
        56 -12.0802    165.0615     65.2511   6.8236110524e+01   3.5071381163e+01    0.7874665    0.6316766 -62.12  0.000937351    1.411    0.291
        57 -11.5458    157.7991    236.7253   1.0692734297e+02   4.9329162890e+00     0.391087    0.3112333  73.51  0.002401709    1.507    0.336
        58 -13.5766    175.1897     49.5522   6.1325142162e+01   3.4968181701e+01     1.014249    0.8209536  -4.39 0.0008796693    1.419    0.296
        59 -10.4986    169.0031    235.8134   1.0480173948e+02   3.2184489588e+00    0.1704371    0.1573564  35.72 0.0003653603    1.166    0.142
        60 -11.9755     59.7599    217.0065   1.2260505035e+02   2.3064219669e+01    0.4006771    0.1984073  72.82   0.00169093    2.065    0.516
        61 -13.4369     60.6353    202.6406   1.2120680517e+02   2.5697720617e+01    0.5942847    0.2927399 -65.89  0.002992934    1.992    0.498
