#   1 NUMBER                 Running object number                                     
#   2 MAG_AUTO               Kron-like elliptical aperture magnitude                    [mag]
#   3 X_IMAGE                Object position along x                                    [pixel]
#   4 Y_IMAGE                Object position along y                                    [pixel]
#   5 X_WORLD                Barycenter position along world x axis                     [deg]
#   6 Y_WORLD                Barycenter position along world y axis                     [deg]
#   7 A_WORLD                Profile RMS along major axis (world units)                 [deg]
#   8 B_WORLD                Profile RMS along minor axis (world units)                 [deg]
#   9 THETA_WORLD            Position angle (CCW/world-x)                               [deg]
#  10 FWHM_WORLD             FWHM assuming a gaussian core                              [deg]
#  11 ELONGATION             A_IMAGE/B_IMAGE                                           
#  12 ELLIPTICITY            1 - B_IMAGE/A_IMAGE                                       
         1 -10.1255     86.9817     48.9883   7.0702285251e+01   5.5685404611e+01     0.686368    0.5116261 -82.91  0.003087366    2.400    0.583
         2 -10.1203     50.5894     37.2807   8.0530305747e+01   6.4538946430e+01     1.030707    0.7988413  86.75  0.004836087    2.912    0.657
         3 -10.0772     38.3197      9.0782   7.2469163438e+01   7.0650216007e+01    0.7296622    0.3977426  -4.98  0.003497793    2.335    0.572
         4  -8.6684     40.6670      1.8889   6.7076573307e+01   7.1040040282e+01     0.256736    0.1516718  36.32  0.001446243    1.397    0.284
         5 -11.9473     44.6038     21.9634   7.6193218896e+01   6.7901900625e+01     1.053557     0.923849 -53.21  0.006099049    1.712    0.416
         6 -12.0461    129.0788     15.6022   4.7705230862e+01   4.9882421332e+01     1.579413     1.059402  68.40  0.008504099    1.324    0.245
         7 -11.9974    115.7737      4.3354   4.6044449633e+01   5.4132291587e+01     2.503779    0.4776593  68.94  0.007081336    4.979    0.799
         8 -10.6646    131.3033      3.6112   4.3369127156e+01   5.0364824848e+01    0.8487326    0.3320088  67.15  0.003076326    2.096    0.523
         9 -11.4773    144.0546      3.6542   4.1695604921e+01   4.7229872792e+01     1.048154    0.8034003  80.28  0.005229414    1.140    0.123
        10 -12.4773    155.6808     20.6287   4.5258434578e+01   4.2835216370e+01     1.394782    0.7514995  56.54  0.005436581    1.710    0.415
        11 -13.4100    169.4847     12.7965   4.1383376628e+01   4.0287156407e+01      1.78363     1.541034  44.99  0.008561348    1.330    0.248
        12 -10.7727    115.6404     17.2714   5.0768065514e+01   5.3038988881e+01    0.7941221    0.5311432 -58.29  0.004037298    1.870    0.465
        13 -10.1029     71.2875      5.7894   5.7106531462e+01   6.4503033074e+01    0.5311478    0.3639273  55.95   0.00214214    1.331    0.248
        14 -11.2712     77.9230     16.4006   5.9983735347e+01   6.2018639471e+01     1.540126    0.6660198 -13.12  0.005971402    3.346    0.701
        15  -9.4122     94.3745     17.4387   5.5697789471e+01   5.8149104704e+01    0.4954975    0.2987846  86.89  0.002112707    2.731    0.634
        16  -9.7796     64.9935     16.4396   6.4489442837e+01   6.4779771042e+01    0.5268632    0.2839189  66.54  0.002145028    3.118    0.679
        17 -10.0117    248.4640     15.5854   3.5741116007e+01   2.3301863035e+01    0.4505205     0.264287  -6.50  0.002234134    3.809    0.737
        18 -10.0309    250.1379      3.6872   3.3404986945e+01   2.4202235593e+01    0.3404906    0.2042523 -25.47  0.002214329    1.957    0.489
        19  -9.1459     20.3628     14.5005   8.6150904932e+01   7.2514949086e+01    0.5007263      0.23816 -19.33  0.002241947    2.635    0.620
        20  -9.4904    104.6033     12.2806   5.1193144940e+01   5.6196425798e+01    0.4204789    0.3056737   5.91  0.002327135    1.626    0.385
        21 -11.2810     84.1358      3.7454   5.2478951466e+01   6.1769947358e+01    0.9862844     0.412864  62.12  0.003399795    2.093    0.522
        22  -7.6085     51.9535      1.7804   6.1972744583e+01   6.8909279112e+01    0.2484336    0.1441488  43.65  0.001360978    1.413    0.292
        23  -9.8108     59.7274      9.5621   6.3054068130e+01   6.6596236979e+01    0.4610283    0.2900797  71.04  0.002176249    2.586    0.613
        24 -10.0095     60.0341      2.6429   5.9330138160e+01   6.7187491754e+01    0.6526662    0.4316725  43.50  0.003783649    1.234    0.190
        25  -8.6090    230.0102      8.2482   3.5394692398e+01   2.7543347865e+01    0.2900447   0.08796354 -41.18    0.0014066    2.462    0.594
        26  -8.3670     49.1218      7.1108   6.6140587520e+01   6.8935812486e+01    0.2103332    0.1444285  22.75  0.001030126    1.282    0.220
        27 -10.0627    204.2721      4.2825   3.6233099201e+01   3.3213823838e+01    0.2898267    0.2083541 -42.21  0.001861991    1.338    0.253
        28  -8.8700     17.8325      2.8246   8.0990864827e+01   7.4514432653e+01    0.3031853    0.2222488 -51.58  0.001775739    2.417    0.586
        29 -11.7809    157.0708      8.0485   4.1444964794e+01   4.3694298285e+01    0.9864331    0.7926275 -17.81  0.006119666    1.492    0.330
        30  -9.2615    218.7530      2.2586   3.4842261999e+01   3.0373795818e+01     0.209891     0.122237  88.69  0.001284235    1.570    0.363
        31  -9.5946     69.8165     14.1264   6.1620314587e+01   6.4020279713e+01    0.3543865    0.2693427 -43.27   0.00202374    1.693    0.409
        32 -10.4074      3.8529     39.8419   1.0766858591e+02   6.9209814640e+01    0.7001946    0.4353519 -50.43  0.002986983    1.352    0.260
        33  -9.0527     12.0270     34.2760   1.0068400629e+02   6.9816023573e+01    0.4627155    0.2116949 -41.32  0.001676659    1.805    0.446
        34  -9.9194    163.3323    243.7842   9.5707116128e+01   2.2436085736e+00    0.2706503    0.1466855  20.35  0.001419191    1.634    0.388
        35 -10.0928    204.1172    224.7829   8.4467423812e+01  -2.4968991543e-01    0.2530892    0.1347905 -14.17  0.001250969    2.118    0.528
        36 -11.1759      8.9935    141.8830   1.2281092235e+02   4.3985397931e+01    0.5801371    0.4498182  36.70   0.00345193    1.380    0.275
        37 -10.7269     39.6947     29.8007   8.2566553917e+01   6.7477988034e+01    0.5124243    0.3516682 -37.04  0.002453129    1.501    0.334
        38 -12.6615    241.8391    131.3542   6.0041414985e+01   8.9025962098e+00      1.23234     1.091123  22.41  0.005979604    1.292    0.226
        39  -8.9582     67.4007     35.6041   7.2431152584e+01   6.1775761565e+01    0.4619698    0.2400089  48.61  0.002063018    1.965    0.491
        40  -8.1045     34.0804     35.1250   8.8025368948e+01   6.7349758515e+01    0.1683079    0.1563264  16.74  0.001070725    1.321    0.243
        41  -7.6845     28.3175     34.6758   9.1060686881e+01   6.8146364576e+01    0.1162377    0.1056106  56.43 0.0004248532    1.671    0.401
        42 -10.2953     86.1992     31.1963   6.3795410593e+01   5.8445450629e+01     0.376844    0.2589305 -24.29  0.001641361    1.572    0.364
        43 -10.2994     89.8036     28.3930   6.1514964562e+01   5.7986853920e+01    0.4299478    0.3843703 -59.41  0.002521894    1.398    0.285
        44 -10.0362    224.9337     28.8072   4.0054268062e+01   2.6369915040e+01    0.4342496    0.2914673  72.32  0.002481594    1.524    0.344
        45  -9.1989     66.7835     29.5095   6.9957487694e+01   6.2775525226e+01    0.3547978    0.1849048 -25.29  0.001612936    2.112    0.526
        46  -8.9238     41.7624    142.2774   1.1240994950e+02   4.1153096358e+01    0.2497171    0.1788992  28.61  0.001276212    1.449    0.310
        47  -9.1541     21.8422    109.2895   1.1439638644e+02   5.1520430366e+01     0.415507    0.2182346  72.53  0.001631346    2.937    0.659
        48  -9.0161     16.9375    104.8302   1.1557952298e+02   5.3011704834e+01    0.3663441    0.2635537 -75.90  0.001985007    1.333    0.250
        49  -9.4325     30.0367    102.1613   1.0995565896e+02   5.2687574701e+01    0.3395995    0.1730201 -52.62  0.001383279    1.691    0.409
        50  -9.6618     46.6830    100.4569   1.0296425719e+02   5.1417661217e+01    0.4191775    0.2710704 -73.06  0.001906265    1.807    0.447
        51 -11.9658     43.3661     82.7232   9.9928744525e+01   5.6149788485e+01     1.163714    0.9817804 -15.96  0.006397978    1.133    0.117
        52  -8.5856     97.9809     27.1454   5.8678363361e+01   5.6244855955e+01    0.3130658    0.2162396  28.13  0.001349591    1.520    0.342
        53  -8.4228    103.3008     25.9104   5.6805318194e+01   5.5127301176e+01    0.2841381    0.1780212  49.49  0.001418086    1.391    0.281
        54  -8.1111    202.0212     46.4751   4.6316268878e+01   2.9041194372e+01    0.1864699    0.1217513  69.60 0.0007254201    1.553    0.356
        55  -8.2148     11.7667     23.3001   9.6283648026e+01   7.1924977028e+01    0.2438798     0.118023 -37.67    0.0012548    1.761    0.432
        56 -11.0564      5.2103     76.8178   1.1580035102e+02   6.0682559912e+01     0.748089    0.5265929  43.61  0.004205027    1.755    0.430
        57  -8.4799     20.7620     22.8630   9.0199424280e+01   7.1105994645e+01    0.2748133    0.1608566  25.80  0.001516551    1.647    0.393
        58 -11.3708     14.5038     72.9742   1.1067506886e+02   6.1101467793e+01    0.8020622    0.7183278  40.54  0.005019205    1.351    0.260
        59  -8.3396     77.6448     77.3228   8.4258230059e+01   5.2211930566e+01     0.149852    0.1226934  75.33 0.0007046248    1.762    0.433
        60  -9.2987      2.5225     88.2473   1.1887099972e+02   5.7986222366e+01    0.5089021    0.2246142 -75.94  0.002251988    2.139    0.532
        61  -9.6135     74.8617     68.9578   8.2511280538e+01   5.4453410411e+01    0.5054975     0.388354  13.45  0.002534373    1.346    0.257
        62  -8.8683     83.0284     68.8198   7.9397794757e+01   5.2935944100e+01    0.2738656    0.2163542 -36.32    0.0013867    1.280    0.219
        63  -8.8261    227.8115     79.5453   5.0867877266e+01   1.9209803716e+01    0.3548116    0.1984547 -21.91  0.001688538    2.230    0.552
        64  -9.5755     46.2766     62.1665   9.2344754353e+01   6.0430949952e+01    0.5537159    0.2586367  22.97  0.002276187    2.306    0.566
        65  -8.1459     75.9728     60.2336   7.8966509315e+01   5.5948854368e+01    0.2236858    0.1574279 -11.89  0.001045064    1.655    0.396
        66  -9.1285    199.4856     56.4798   4.9054584951e+01   2.8267838455e+01    0.2313997    0.1996078 -54.07 0.0006252908    1.060    0.057
        67 -10.1260    196.1417     56.1116   4.9397424051e+01   2.9050884189e+01    0.2973914    0.2326006 -50.00 0.0006925295    1.186    0.157
        68 -10.0994     25.3133     65.3652   1.0349271782e+02   6.2065021646e+01    0.6702195    0.2847976 -48.17  0.002751895    1.963    0.491
        69  -9.0258     66.3200     54.3466   8.0596202447e+01   5.8831948875e+01    0.3978875     0.165545 -45.29  0.001522346    2.585    0.613
        70  -8.2026     35.0425     52.6948   9.4511388021e+01   6.3833199061e+01    0.1958112    0.1614946  -2.11 0.0007584495    1.105    0.095
        71  -7.8951     23.5116     52.5352   1.0050793230e+02   6.5073277775e+01    0.1348321    0.1135182 -24.14  9.98695e-05    1.019    0.019
        72 -10.4628    173.2880    243.5017   9.3598333794e+01   9.7683705932e-01    0.4390793    0.1917778  15.06  0.001793796    3.014    0.668
        73  -7.6459    111.5195     46.3285   6.2304433947e+01   5.0535527692e+01    0.2763431    0.1254402  53.28  0.001095851    2.025    0.506
        74  -9.8725     93.5091     45.0000   6.7016912251e+01   5.4882672212e+01    0.3553567     0.144509  50.03  0.001350169    2.282    0.562
        75  -9.4570     83.2406     48.7395   7.1905636246e+01   5.6515551708e+01    0.6042839    0.3865041  55.36  0.002795313    1.782    0.439
        76  -9.6325     97.1082     36.5663   6.2645819910e+01   5.5266356144e+01    0.2692972    0.2134118 -10.30  0.000968789    1.378    0.274
