#   1 NUMBER                 Running object number                                     
#   2 MAG_AUTO               Kron-like elliptical aperture magnitude                    [mag]
#   3 X_IMAGE                Object position along x                                    [pixel]
#   4 Y_IMAGE                Object position along y                                    [pixel]
#   5 X_WORLD                Barycenter position along world x axis                     [deg]
#   6 Y_WORLD                Barycenter position along world y axis                     [deg]
#   7 A_WORLD                Profile RMS along major axis (world units)                 [deg]
#   8 B_WORLD                Profile RMS along minor axis (world units)                 [deg]
#   9 THETA_WORLD            Position angle (CCW/world-x)                               [deg]
#  10 FWHM_WORLD             FWHM assuming a gaussian core                              [deg]
#  11 ELONGATION             A_IMAGE/B_IMAGE                                           
#  12 ELLIPTICITY            1 - B_IMAGE/A_IMAGE                                       
         1 -13.0149    195.9140     31.6551   6.5882755934e+01   3.2764823868e+01    0.9498718    0.7418936  41.35   0.00544636    1.568    0.362
         2 -13.8263    209.6030     14.8361   6.0354062014e+01   3.1556916051e+01     1.279391    0.9652123  34.03  0.007520246    1.932    0.482
         3 -11.9866      2.2096      3.9464   1.0973933672e+02   7.1983760646e+01    0.4328324     0.300797 -18.37  0.003446637    1.060    0.057
         4 -11.7814      2.2799     12.4018   1.1327403323e+02   7.0847791741e+01    0.7613327    0.1184609 -46.59  0.002753546    5.723    0.825
         5 -10.8599    132.0111    248.5339   1.2635134512e+02   4.2486144979e+00    0.3929332     0.235735  68.70  0.001925305    2.198    0.545
         6  -9.9709    193.1179    249.7105   1.1458672067e+02  -6.1233067378e+00    0.2141205    0.1871823   8.65 0.0002548383    1.112    0.101
         7 -11.8404    199.4324    246.2899   1.1283264661e+02  -6.6222626751e+00    0.4807805    0.2621591  42.20  0.002048569    1.682    0.406
         8 -10.1909    193.8417    245.1218   1.1372146611e+02  -5.5380255272e+00    0.1956146    0.1785446 -14.49 0.0003013878    1.187    0.158
         9 -10.5468    184.4721    250.3558   1.1635143708e+02  -4.8173664925e+00    0.3026107    0.1498264  40.20            0    1.732    0.423
        10 -10.7004    169.7735    248.4413   1.1892168890e+02  -2.0781975404e+00    0.3436544    0.2414226   1.88 0.0007522758    2.024    0.506
        11 -11.4645    149.5932    248.3004   1.2286505859e+02   1.3410822330e+00    0.3918969    0.2973395 -77.51  0.002298195    1.710    0.415
        12 -10.8995    135.5625    248.5011   1.2565057201e+02   3.6622379047e+00    0.2614959    0.2140547  42.80 0.0009001878    1.098    0.090
        13  -9.5712    122.9657    249.9438   1.2829506252e+02   5.4893327631e+00    0.2516915    0.1828091  58.48  0.001506181    1.234    0.190
        14 -10.8016    126.6777    248.7419   1.2742166129e+02   5.0957846838e+00    0.3760962    0.2677151  87.40  0.002138208    1.727    0.421
        15 -11.2853    121.6959    244.8531   1.2790775728e+02   6.6318959492e+00      0.41157    0.1989432  44.95  0.001068639    1.754    0.430
        16 -11.6768    125.8792    240.5901   1.2652717309e+02   6.7319190062e+00    0.4132867    0.3647406  50.26  0.002000005    1.081    0.075
        17 -10.9493    115.4755    250.4985   1.2981238789e+02   6.6078254786e+00    0.4629351    0.2944253  38.76  0.002604734    1.478    0.324
        18 -11.4622    109.6337    247.2065   1.3055330925e+02   8.1587923235e+00    0.5073225    0.4551297  80.22  0.002854852    1.142    0.125
        19 -10.6744     99.1746    247.6018   1.3261480379e+02   9.7421866837e+00    0.4840269    0.2722673  77.71  0.002350426    2.335    0.572
        20  -9.9925    102.9284    247.3307   1.3186339400e+02   9.2036233997e+00    0.2555034    0.1791019  53.20 0.0007992345    1.190    0.160
        21 -10.9722     87.6263    248.4253   1.3489707073e+02   1.1359373368e+01     0.417749    0.2951321  58.96  0.001015202    1.163    0.140
        22 -11.4292     59.8875    245.9178   1.3979187310e+02   1.5830730598e+01    0.5272962    0.3646244  83.00  0.002701377    1.253    0.202
        23 -10.8479     67.5905    243.7973   1.3818832328e+02   1.5183603719e+01    0.4025405    0.2244557  30.51   0.00206335    2.436    0.590
        24 -14.3347      8.6555    147.9468   1.4082052400e+02   4.3260570117e+01      2.82281    0.6539919 -63.59  0.002634228    2.858    0.650
        25 -14.1918     42.0896    218.6045   1.4070514394e+02   2.3777372651e+01     1.572401     1.044662  48.19  0.009748066    1.453    0.312
        26 -11.1831    122.4383    233.6501   1.2629650736e+02   8.6415561727e+00    0.3555773    0.3227823 -74.49  0.001555738    1.201    0.168
        27 -12.1554    135.5388    241.0100   1.2464967115e+02   5.0215858982e+00    0.4661273    0.3548279  65.79  0.002017796    1.348    0.258
        28  -9.7115    134.7843    237.0134   1.2424926475e+02   5.8937311436e+00    0.1796072    0.1651921  74.83 0.0004043481    1.113    0.101
        29 -12.6246    134.0106    232.9808   1.2383898353e+02   6.7918236078e+00    0.6387445    0.5208613  71.44   0.00290348    1.261    0.207
        30 -11.5523     96.9132    239.7467   1.3216796892e+02   1.1615120572e+01    0.5127727     0.391227 -21.37  0.002777784    2.416    0.586
        31 -10.1575     91.4190    241.5354   1.3343930264e+02   1.2117601545e+01    0.2788359    0.2038855  75.54 0.0007533285    1.272    0.214
        32 -10.4049     89.8221    238.2148   1.3338325714e+02   1.3020688103e+01    0.2752383    0.1774739 -63.72 0.0009295228    1.646    0.392
        33 -10.9227    166.0496    242.2656   1.1873096232e+02  -4.1944872667e-01    0.3515182    0.1868939  44.61  0.001344545    1.666    0.400
        34 -10.1333    158.0794    242.4712   1.2034853043e+02   9.0761253337e-01    0.2104412    0.1886482 -52.28 0.0006509881    1.291    0.225
        35 -10.0117     84.7033    241.7747   1.3475933782e+02   1.3092596669e+01    0.2633159      0.19512  22.35  0.001502709    2.010    0.503
        36 -10.5713    244.1845    240.8327   1.0360122819e+02  -1.2628767733e+01    0.1747941     0.121733   3.49 0.0009038647    1.341    0.254
        37 -10.6488    116.5673    238.6123   1.2813385848e+02   8.6619308528e+00    0.3923905    0.2655103 -34.90  0.001751148    2.262    0.558
        38 -13.5212      3.8408    245.3259   1.4932000657e+02   2.2604816275e+01     1.102975    0.5426996  88.68  0.005474187    1.619    0.382
        39 -10.1715    104.3732    238.1464   1.3050781514e+02   1.0744158717e+01     0.225793    0.1568053  40.13 0.0008330998    1.402    0.287
        40 -10.0120     84.7645    229.5845   1.3341424626e+02   1.5549969151e+01    0.2408437    0.2047075 -41.07 0.0008527412    1.651    0.394
        41  -9.6748    173.0009    235.9723   1.1636699999e+02  -5.3668681362e-01    0.1919319    0.1737418  38.43 0.0003089117    1.055    0.052
        42 -11.3514     98.8734    232.5991   1.3093767093e+02   1.2731955521e+01    0.4505357    0.2742179 -79.39  0.001541561    1.873    0.466
        43 -11.8494    105.6689    228.4433   1.2903987748e+02   1.2478606155e+01    0.6961477    0.3886389  63.93  0.003282221    2.009    0.502
        44 -11.0549     99.3248    223.3565   1.2969599610e+02   1.4564663156e+01     0.411841    0.2501933  47.21  0.001063076    1.477    0.323
        45 -10.5651     62.9233    232.9642   1.3804095508e+02   1.8021900383e+01    0.1888529    0.1498028  64.15 0.0003082461    1.096    0.088
        46 -10.9240    142.1180    229.8857   1.2172101843e+02   5.9722800748e+00    0.4465431    0.2383061 -40.85  0.002002218    2.388    0.581
        47 -10.5507    113.3310    230.3851   1.2772202506e+02   1.0818435273e+01    0.2930528    0.2456547  64.19 0.0009267671    1.048    0.045
        48  -8.8649     57.4001    231.1630   1.3892292607e+02   1.9147419207e+01    0.1642348   0.09946623 -89.01 0.0006744405    1.557    0.358
        49  -9.2802     45.8975    231.1810   1.4108853148e+02   2.0645877510e+01    0.1997602    0.1255562  67.87  0.001208857    1.343    0.255
        50  -9.5367     55.4105    235.8391   1.3972568297e+02   1.8451382564e+01    0.2720714     0.139734  62.08 0.0009494833    1.772    0.436
        51 -10.9809     84.8164    234.4784   1.3395118368e+02   1.4537399540e+01    0.4075688    0.2230519  58.67  0.001574514    1.699    0.411
        52 -10.6486     79.4538    225.8570   1.3405804740e+02   1.7129558716e+01    0.4153173    0.2565726 -77.34  0.001257558    1.623    0.384
        53  -9.6506     77.2951    220.9436   1.3393824331e+02   1.8495811868e+01    0.2263138     0.149984  66.55 0.0004208404    1.399    0.285
        54  -9.5023     92.5240    226.1036   1.3143781817e+02   1.5073899280e+01    0.2396902    0.1521511  58.33 0.0005791799    1.437    0.304
        55 -10.6313    143.2291    249.2946   1.2425192322e+02   2.2390332928e+00    0.1964156    0.1848744  83.02 0.0006530916    1.176    0.150
        56 -10.0405    117.2019    224.2988   1.2609710122e+02   1.1399474889e+01    0.2278387    0.1974181  85.67 0.0002801553    1.139    0.122
        57 -11.1049    142.0153    221.5739   1.2047669812e+02   7.6064240127e+00    0.3486165    0.2513418  37.90 0.0002393498    1.316    0.240
        58 -10.3726     70.4493    218.6093   1.3507054303e+02   1.9998195472e+01    0.6446018    0.2802166 -77.57  0.002721079    2.720    0.632
        59  -9.3174     67.6068    214.5245   1.3519728088e+02   2.1294523363e+01    0.2032875    0.1091781 -70.17 0.0004865634    1.772    0.436
        60 -10.8099    245.8468    219.8625   9.9561101640e+01  -9.8843986944e+00    0.3299262    0.1478503 -28.22   0.00150745    2.370    0.578
        61 -10.4623    161.3387    223.0718   1.1666741537e+02   3.8437765078e+00    0.4701167    0.2872629  14.90  0.001867304    2.731    0.634
        62  -9.4970    132.4900    224.4731   1.2292008514e+02   8.7190976516e+00    0.1362478    0.1224248  52.69 4.320512e-05    1.037    0.035
        63  -9.1780    104.8903    218.7599   1.2792548668e+02   1.4623800404e+01     0.184637    0.1567575  67.46 0.0002689594    1.034    0.033
        64 -10.8089    156.7825    231.6862   1.1898008519e+02   3.0557784778e+00    0.2394634    0.2313751 -32.55 0.0003696487    1.167    0.143
        65  -9.7400     88.3633    213.3528   1.3071425714e+02   1.8457035906e+01    0.3708153    0.1985792 -82.80  0.001286793    2.373    0.579
        66  -8.8328    119.2682    217.3646   1.2467298477e+02   1.2480209483e+01    0.1293722    0.1088629 -21.05 0.0002913848    1.654    0.395
        67 -10.5366    137.3037    214.5110   1.2036907028e+02   9.8774962815e+00     0.270423    0.2254867 -83.56  0.001144614    1.318    0.241
        68  -8.8310    160.0090    213.7174   1.1538194199e+02   5.8820715578e+00    0.1917116    0.1697497  40.21 0.0003455902    1.047    0.045
        69 -13.8087     28.5077    246.9398   1.4537001361e+02   1.9597334144e+01     1.517098     0.810129  48.72  0.009533008    1.618    0.382
        70  -9.3909    102.0856    212.0836   1.2760832195e+02   1.6524267291e+01    0.4132175    0.1729115  62.89  0.001250625    4.620    0.784
        71 -10.4326     73.2762    209.6988   1.3345653540e+02   2.1547546987e+01    0.3849709    0.2647014  18.50  0.001940468    2.341    0.573
        72  -9.2862    106.6558    210.1352   1.2634352779e+02   1.6185567348e+01    0.1903063    0.1202611 -50.09 0.0005472982    1.769    0.435
        73  -9.7974    112.5933    208.4877   1.2480660903e+02   1.5532328649e+01    0.2567303    0.2274848  75.23  0.000753193    1.036    0.034
        74  -8.8969    134.4788    208.4671   1.2000962761e+02   1.1648093350e+01    0.1401811    0.1316401  50.09 0.0004077017    1.069    0.065
        75  -9.7770     96.8506    206.9574   1.2803009655e+02   1.8513650416e+01    0.3439302    0.2104727  85.80  0.001300553    2.074    0.518
        76 -10.3453     91.5316    204.3524   1.2883317596e+02   1.9955618331e+01    0.4378147    0.3738602  41.72  0.001312414    1.278    0.217
        77 -12.4877    128.6309    235.0296   1.2522355653e+02   7.3224151590e+00    0.8950354    0.4832994  67.78   0.00371285    2.847    0.649
        78  -8.8227     32.8788    206.9159   1.4145285534e+02   2.7418296479e+01    0.1693665    0.1386604 -72.87 0.0003437162    1.284    0.221
        79 -11.0716    249.9860    201.4760   9.5363165702e+01  -7.6861500690e+00    0.4822641    0.1636903 -35.84  0.001928623    2.783    0.641
        80  -8.8038    149.5128    203.9994   1.1596598107e+02   9.8003109091e+00    0.1952332    0.1231139 -26.32 0.0008090778    2.440    0.590
        81  -9.5575     74.7765    203.7160   1.3240182972e+02   2.2672539215e+01    0.2777801    0.2138864   9.95 0.0007853792    2.107    0.525
        82  -8.2277    133.0000    202.9689   1.1942977146e+02   1.3090952260e+01    0.2220142    0.0817271 -53.56 0.0005023415    2.855    0.650
        83 -10.0023    102.9991    202.7536   1.2607139137e+02   1.8434971766e+01    0.4053078    0.2218231  54.99  0.001183286    1.850    0.459
        84 -10.7284     84.2131    201.5791   1.3006380380e+02   2.1734220489e+01    0.3266745    0.2201371 -46.79  0.001129828    1.802    0.445
        85  -9.1864     86.1531    195.6237   1.2880865605e+02   2.2798180839e+01    0.1895194    0.1706842  66.56 0.0003713327    1.102    0.093
        86 -13.5862     40.8570    243.5077   1.4299620749e+02   1.8782527984e+01     1.138638    0.7825125  64.54  0.006316404    1.147    0.128
        87  -9.3432     32.7574    201.6100   1.4098990087e+02   2.8611331573e+01    0.1902043    0.1383865 -75.31 0.0006464648    1.219    0.179
        88  -8.5301    183.0042    200.2847   1.0809269077e+02   4.2011763245e+00    0.1742862    0.1217587  39.88 0.0003059761    1.371    0.270
        89  -8.8298    168.9864    200.4522   1.1110052579e+02   6.8322502532e+00    0.2012194    0.1194323  62.25 0.0006831673    2.397    0.583
        90  -9.2386    127.9598    199.6908   1.2000714851e+02   1.4727673326e+01    0.1955885     0.173319  53.25 0.0003881817    1.067    0.063
        91  -8.9374    115.0948    200.3291   1.2299819969e+02   1.6896174377e+01    0.1941971    0.1671685  61.31 0.0001955294    1.075    0.070
        92  -9.6291     57.8195    198.8535   1.3547058634e+02   2.6158871560e+01    0.2208572    0.1744997  62.26 0.0004545417    1.177    0.151
        93  -9.6328     53.9762    197.7739   1.3617132827e+02   2.6911067338e+01    0.3249019    0.1880893  39.39 0.0009569995    1.812    0.448
        94 -11.6161     61.2517    194.5663   1.3421455479e+02   2.6685250162e+01    0.5989147    0.3478566  39.21   0.00191934    1.804    0.446
        95  -9.6600     97.9535    196.2222   1.2623052589e+02   2.0758318829e+01    0.4586754    0.2588926  54.53  0.001433291    1.784    0.439
        96  -9.3031    102.8213    195.8199   1.2506547251e+02   2.0035493199e+01      0.19791    0.1691359 -72.98 0.0004723728    1.143    0.125
        97  -8.2714    107.6609    196.2982   1.2404086350e+02   1.9099726632e+01     0.150468    0.1024077  71.72 0.0007033654    1.661    0.398
        98 -10.1115     41.7231    189.5485   1.3789214815e+02   3.0323861164e+01    0.4136873    0.2260031  87.15  0.002052482    1.899    0.474
        99  -9.2241     38.7396    195.7147   1.3918086825e+02   2.9257116788e+01    0.2769777    0.1293361 -83.86  0.001275704    2.161    0.537
       100  -9.4240     38.6272    192.2036   1.3884083238e+02   3.0073288618e+01    0.1914956     0.146203 -61.76 0.0002735379    1.371    0.271
       101 -10.6634    249.5246    194.1339   9.4018334424e+01  -6.4360276784e+00    0.3250348    0.2588794  10.26  0.001974358    1.239    0.193
       102  -9.4749    113.1487    191.8382   1.2206845443e+02   1.9158255066e+01    0.2159877    0.1782393 -21.41 0.0003099899    1.666    0.400
       103  -9.1154     31.7104    195.2268   1.4059680661e+02   3.0165580614e+01     0.273379   0.09652606  50.06  0.001202433    2.751    0.636
       104  -8.7053    159.5800    194.4592   1.1203028346e+02   9.8715688394e+00    0.1433583    0.1388644  39.57 2.281427e-05    1.023    0.023
       105  -9.1093    119.4624    193.5737   1.2090873274e+02   1.7634832806e+01    0.1430475    0.1343299  69.41 3.042382e-05    1.043    0.041
       106  -9.5952     72.6591    192.9395   1.3147387062e+02   2.5460322997e+01    0.1939764     0.181051  56.10 0.0002937603    1.227    0.185
       107 -10.3214     25.6160    192.3290   1.4158030232e+02   3.1478124727e+01    0.2408207    0.1530622  70.78 0.0008293176    1.436    0.304
       108 -12.9216     53.1137    208.6754   1.3754229537e+02   2.4558992804e+01     1.489991    0.7603687  44.70  0.007723974    1.859    0.462
       109  -9.8421    191.4669    191.4606   1.0461607794e+02   4.3052695494e+00    0.2461245    0.2353782   6.66  0.000629687    1.008    0.008
       110  -8.3955     84.7014    192.2908   1.2866198734e+02   2.3798254184e+01    0.1424816   0.09686628  73.59 0.0002099465    1.561    0.359
       111 -10.8186     51.0625    189.5748   1.3585629417e+02   2.9178922864e+01    0.2441139    0.1704475 -77.77 0.0006372248    1.240    0.194
       112  -8.8371    135.2483    189.9964   1.1667394208e+02   1.5515514453e+01    0.1955287    0.1844239 -77.95 0.0003069423    1.066    0.062
       113  -9.8977     32.1458    189.8102   1.3997004792e+02   3.1352352447e+01    0.3340526    0.2153012  36.11  0.001961253    1.787    0.440
       114 -13.0492     14.1601    238.8453   1.4726202780e+02   2.2791922290e+01    0.6738331     0.485208  72.31  0.001112102    1.070    0.065
       115 -10.6400    249.8629    187.6292   9.2676909207e+01  -5.4223120827e+00    0.3894251    0.2159167 -28.61  0.001911085    1.751    0.429
       116  -9.9194     76.5580    188.8780   1.3003564231e+02   2.5837437983e+01    0.2785265    0.2197585  28.13 0.0006695106    1.577    0.366
       117 -11.6629     67.8456    187.2948   1.3180729709e+02   2.7472898446e+01    0.3128637    0.2315068 -52.08 0.0005440761    1.490    0.329
       118  -8.7522    111.3079    187.6639   1.2179982919e+02   2.0444659038e+01    0.1530098    0.1074607  77.56 0.0007042218    1.676    0.403
       119 -10.0436     24.3932    184.2729   1.4106427694e+02   3.3441217687e+01    0.5389073    0.1541779  44.31  0.002275473    3.258    0.693
       120  -9.1471     30.4925    183.5636   1.3968349382e+02   3.2969795476e+01    0.2200541    0.1876665 -80.23 0.0007215997    1.151    0.131
       121  -9.2511     37.0618    183.8562   1.3828319749e+02   3.2182189103e+01     0.201388    0.1449381  70.36  0.001208868    1.290    0.225
       122  -9.3248    140.1152    183.1431   1.1428949796e+02   1.6114836123e+01    0.2083261    0.2010629  -5.15 0.0003210301    1.158    0.137
       123 -10.5134    236.3704    145.9677   8.6358764760e+01   4.3402048400e+00    0.2695498     0.221482  45.55 0.0008805627    1.347    0.257
       124 -12.1167    248.7231    171.5578   8.9632322643e+01  -2.5066883720e+00    0.6570964    0.5040648 -35.18  0.003781788    1.164    0.141
       125 -13.6860    244.5951    157.8011   8.7480201127e+01   6.4562801470e-01     2.625431    0.8714532 -47.66  0.008947194    3.319    0.699
       126 -12.4666    248.6572    133.5677   8.1657914142e+01   4.2690071984e+00     1.201308    0.5788472 -37.62  0.005262571    1.876    0.467
       127  -8.5927    127.2201    182.0315   1.1708493157e+02   1.8836275458e+01    0.1853115    0.1201813 -54.48 0.0003016907    1.555    0.357
       128  -8.7642     65.8378    181.8954   1.3153529005e+02   2.9032650436e+01    0.1827572    0.1388887  75.83 0.0002843469    1.258    0.205
       129 -12.8210    248.0737    101.3634   7.4791061483e+01   1.0123174586e+01     0.928623    0.5528119 -40.92  0.004602262    1.495    0.331
       130  -9.4450    115.6283    177.9008   1.1907802907e+02   2.1946825048e+01    0.2934981    0.1906271 -58.51  0.001157962    1.529    0.346
       131  -8.9091     47.9168    179.8008   1.3538400349e+02   3.1863983456e+01     0.155563    0.1029322  36.23 0.0007369043    1.712    0.416
       132 -10.3920     19.9212    179.0436   1.4150861286e+02   3.5085001906e+01    0.2067506    0.1747359  36.19  0.001418573    1.499    0.333
       133 -12.1496     11.9196    175.4285   1.4288054626e+02   3.6652480294e+01    0.7262619    0.1820441 -69.22  0.002947163    2.921    0.658
       134 -10.5183     19.5783    172.8717   1.4096643618e+02   3.6542514992e+01    0.3582861    0.2115109  57.03  0.002054157    1.726    0.421
       135 -11.9279     13.5912    166.6670   1.4166541937e+02   3.8520494696e+01    0.3656719     0.347056 -37.13  0.001554238    1.427    0.299
       136 -14.4156     10.4162    208.9593   1.4592891739e+02   2.9346112936e+01     2.903568     1.202568 -78.85   0.01530456    1.973    0.493
       137  -9.1159     92.7132    178.1024   1.2460855401e+02   2.5871219681e+01    0.1925742    0.1690747 -72.77 0.0001920824    1.083    0.077
       138 -11.3093     77.5655    175.1051   1.2777130907e+02   2.8967412702e+01    0.2950246    0.2302289 -57.47 0.0004026514    1.273    0.215
       139  -9.1546     68.6760    175.5606   1.2996926944e+02   3.0150946676e+01    0.2810132    0.1281532 -65.23 0.0007420116    2.023    0.506
       140 -11.7125     64.4647    173.3720   1.3065664125e+02   3.1263055890e+01    0.5177544    0.2723338 -46.80 0.0007445366    2.203    0.546
       141 -10.2083     68.6449    166.5859   1.2862222626e+02   3.2325345606e+01    0.2415543    0.2036439 -68.04 0.0003511492    1.099    0.090
       142 -11.8659    107.8572    172.9122   1.2005019072e+02   2.4526633634e+01    0.2693128    0.2541103  79.09 0.0003001804    1.042    0.040
       143  -9.8477     45.9636    172.3130   1.3489417049e+02   3.3877631297e+01    0.2178954    0.1611942 -76.22 0.0003087392    1.144    0.126
       144 -10.7059     43.8355    168.9563   1.3496275125e+02   3.4928330011e+01    0.3808965    0.2637495 -55.77  0.001044082    1.426    0.299
       145  -9.6198     45.1350    164.8475   1.3411058138e+02   3.5762363108e+01    0.1805491    0.1520336 -83.39 0.0003345916    1.017    0.017
       146 -10.0654     28.7794    170.9575   1.3869876738e+02   3.6088841911e+01    0.3527922    0.2638322 -70.61  0.001500787    1.154    0.133
       147  -8.9388     52.6829    171.0165   1.3313756521e+02   3.3371105702e+01    0.1823745    0.1440086 -74.74 0.0003681418    1.092    0.084
       148  -8.3385    150.7408    170.2962   1.0928393753e+02   1.6893324343e+01    0.1483493    0.1190725  88.48 0.0001534846    1.502    0.334
       149 -11.9752     85.4334    166.6128   1.2446439097e+02   2.9813728264e+01    0.5701283    0.5230049  30.57  0.003278886    1.278    0.217
       150  -8.7233    118.5434    162.5984   1.1546038759e+02   2.5033132732e+01    0.1489455    0.1435057  87.68  0.000151204    1.034    0.033
       151 -10.1010     89.9381    160.1058   1.2218365426e+02   3.0676409798e+01    0.2181818    0.2012488 -74.72 0.0003267033    1.039    0.037
       152  -8.4342     52.3195    158.2969   1.3141715310e+02   3.6487239920e+01    0.1316792   0.09720669 -40.11 0.0007018735    1.615    0.381
       153  -8.8967     47.5255    157.9908   1.3256946844e+02   3.7135790668e+01    0.1932218   0.08690444 -47.57 0.0003955398    2.443    0.591
       154 -10.9790     16.3739    158.2870   1.4014259108e+02   4.0227096931e+01    0.2385277    0.1602828  22.03  0.001436822    1.999    0.500
       155 -12.2588     23.0999    155.4034   1.3821433577e+02   4.0304303176e+01    0.5001722    0.3480158 -80.69  0.003036192    1.194    0.162
       156  -8.4284    112.2716    157.6749   1.1604430860e+02   2.7382694076e+01    0.1530758    0.1155099  86.25 0.0003580461    1.577    0.366
       157  -9.4682     72.2176    156.3353   1.2605014025e+02   3.4317148549e+01    0.3441195      0.22629  -4.57  0.001419911    3.027    0.670
       158 -10.7701     31.8674    155.6567   1.3611811180e+02   3.9400822477e+01    0.3766833    0.2112718 -49.71  0.001061444    1.822    0.451
       159  -9.0679    228.3927    155.2888   8.9787070685e+01   4.1321820626e+00    0.1979428    0.1263302 -47.71 0.0005118766    1.536    0.349
       160 -10.2948     84.4851    155.2491   1.2269479176e+02   3.2735191626e+01    0.3456243     0.217845  26.13 0.0009137344    2.022    0.506
       161  -9.9358    113.8660    150.5333   1.1416762550e+02   2.8803508427e+01    0.3160053    0.2531312 -58.26  0.000415876    1.204    0.170
       162 -10.4196     97.9863    151.1479   1.1840273655e+02   3.1512652840e+01    0.3771881    0.3104662 -41.11  0.001379723    1.306    0.235
       163  -9.3001    101.2911    146.5268   1.1659734217e+02   3.2059552104e+01    0.3137499    0.1967713 -30.68   0.00116475    2.253    0.556
       164  -9.7732     86.3197    149.9606   1.2122542818e+02   3.3737372162e+01    0.2153105    0.1672804 -61.01 0.0004003051    1.189    0.159
       165  -9.7738     55.4116    150.2358   1.2937879599e+02   3.8063683476e+01    0.3447431    0.1601538 -79.50  0.001283468    2.948    0.661
       166  -9.1907     30.7434    150.4442   1.3570802621e+02   4.0755112540e+01    0.2182907    0.1180746  36.94  0.001136467    2.076    0.518
       167 -12.3915     68.3861    144.3753   1.2494549806e+02   3.7782837116e+01    0.7037368    0.5273762 -88.67  0.002218579    1.438    0.305
       168  -8.7786    123.7177    157.2837   1.1309042246e+02   2.5309207753e+01     0.151525    0.1178741  82.59 0.0006932631    1.518    0.341
       169  -8.9816     76.8304    147.1380   1.2320082511e+02   3.5891775768e+01    0.1875999    0.1561609 -44.01  0.001015603    1.266    0.210
       170 -10.3943    133.3294    141.5875   1.0723934345e+02   2.7090580552e+01    0.6469259    0.2691841 -52.54  0.002220998    2.459    0.593
       171  -8.9408     39.9711    147.0000   1.3287700657e+02   4.0634484767e+01     0.186446    0.0764138  29.51  0.000516783    2.888    0.654
       172 -10.7755     32.6842    140.7433   1.3384737444e+02   4.2878986659e+01    0.2870043    0.1749068  83.48  0.001219941    1.931    0.482
       173  -9.7510     37.0332    140.4845   1.3266359699e+02   4.2505761886e+01    0.1704146    0.1319433  31.47 0.0005152628    1.545    0.353
       174  -9.8677     56.0297    138.7789   1.2727935080e+02   4.0769403013e+01    0.2159096    0.1907478 -73.82 0.0003260393    1.035    0.034
       175 -11.0531     60.5926    136.8435   1.2568147872e+02   4.0660219604e+01    0.3328446       0.2473 -75.71 6.085417e-05    1.311    0.237
       176  -9.9375     46.1111    138.3660   1.2989909049e+02   4.2040608131e+01    0.2510873     0.153873 -57.57  0.001305828    1.393    0.282
       177  -8.8876     50.8285    138.1922   1.2859164852e+02   4.1539947767e+01    0.1823164    0.1471547 -41.43 0.0004988454    1.324    0.245
       178 -10.0256    109.8665    136.1412   1.1207055337e+02   3.3000887949e+01    0.3851337    0.2720795 -28.41  0.001257042    1.794    0.443
       179 -11.0802     45.0445    130.4829   1.2884657075e+02   4.4049864560e+01    0.4018755    0.2574967  67.85  0.002002418    2.034    0.508
       180 -11.7516     67.4967    129.0573   1.2224629320e+02   4.1617486462e+01    0.4960351    0.3467894 -81.45   0.00245743    1.657    0.397
       181 -11.1295     33.0725    131.2471   1.3228704406e+02   4.5099485785e+01    0.4767781    0.1409249 -62.32  0.001856761    2.615    0.618
       182 -10.6639     30.4473    126.5293   1.3225237820e+02   4.6460167648e+01    0.2061944     0.170795  -4.30 0.0005795204    1.543    0.352
       183 -12.0306      2.2104    131.4665   1.4051090727e+02   4.7508442599e+01    0.4966397    0.3178307 -79.21  0.003092678    1.283    0.221
       184  -9.1824    105.8030    128.6337   1.1143852827e+02   3.5536108810e+01    0.3100108    0.1115753 -49.13  0.001035252    2.620    0.618
       185  -9.0900     80.4473    129.4985   1.1867709009e+02   3.9624116583e+01    0.1456066    0.1322709 -63.63 0.0001229943    1.019    0.019
       186  -9.8083     59.5003    128.4718   1.2439954021e+02   4.2817363661e+01    0.1391956    0.1223246 -63.64 -3.264498e-05    1.011    0.011
       187 -10.5361     23.7829    127.5196   1.3425175533e+02   4.6817507790e+01    0.2464892    0.1462783 -66.87 0.0005928265    1.363    0.266
       188 -10.4481    209.9701    125.7685   8.6532326943e+01   1.3652238861e+01    0.3188087    0.2233139 -45.28  0.000493868    1.341    0.254
       189  -8.5013     87.9548    125.0351   1.1557086701e+02   3.9496612969e+01     0.166449    0.1601709 -63.24            0    1.040    0.038
       190 -11.5251     22.5809    121.4142   1.3363453386e+02   4.8340491937e+01    0.2885583    0.2135795  -8.07  0.001755852    1.791    0.442
       191 -11.9627      7.9609    120.8233   1.3761069623e+02   4.9562937139e+01    0.2904008    0.1969771  39.22  0.001221391    1.795    0.443
       192  -9.8263     54.7810    120.4603   1.2417042955e+02   4.5308630325e+01    0.2796378    0.1415475  16.69  0.001143515    3.049    0.672
       193 -11.0503     29.7624    119.4186   1.3125799440e+02   4.8186199032e+01    0.3304643    0.2250098  37.16   0.00193155    1.732    0.423
       194 -13.0843     35.2374    227.7745   1.4277718616e+02   2.2663622771e+01    0.5097156    0.4238254 -71.71 0.0008526777    1.399    0.285
       195  -9.6832    231.8080    116.3885   8.0576259525e+01   1.0769412375e+01    0.2045555    0.1686659 -53.84 0.0006213638    1.123    0.109
       196 -10.1393     66.8925    115.4066   1.1951651990e+02   4.4933048579e+01    0.3607896    0.1941413  34.08  0.001125415    2.062    0.515
       197 -10.6675    168.0529    113.2412   9.1976663748e+01   2.5727442799e+01    0.3612664    0.2983137 -82.85 0.0008333151    1.393    0.282
       198 -10.8944    249.6654    150.8966   8.5179954098e+01   9.6940545830e-01    0.4701704      0.24764 -43.78  0.001635302    1.708    0.415
       199  -9.1953    203.5126    111.4948   8.4342167818e+01   1.7886154596e+01    0.1506878    0.1429374 -55.94 0.0008103695    1.029    0.028
       200 -12.0572    247.6888    142.4362   8.3709182487e+01   2.8495369913e+00    0.7225675    0.6919278 -80.27  0.004155031    1.185    0.156
       201  -9.5381     44.6867    105.1895   1.2403405220e+02   4.9996295866e+01    0.1936296    0.1757532  47.01 0.0004812442    1.298    0.230
       202 -11.0617     14.3293    103.8050   1.3312261968e+02   5.2976685674e+01    0.2261228    0.1667129 -11.91  0.001444573    1.664    0.399
       203 -10.2087     16.9962     99.0217   1.3144491333e+02   5.3850419729e+01     0.185072    0.1501658 -57.97 0.0003339771    1.036    0.035
       204 -12.9607    248.4961    114.1796   7.7504118801e+01   7.7800027732e+00     1.359645    0.8859083 -22.77  0.006487757    1.961    0.490
       205 -10.7700    249.8940     86.6695   7.1380951537e+01   1.2264855791e+01    0.2405682    0.1719337 -37.10 0.0007761676    1.384    0.278
       206  -9.9644     81.6753    246.5415   1.3582471063e+02   1.2611967574e+01    0.3118756    0.1941016 -85.54  0.001783469    1.683    0.406
       207 -10.5534     74.3040    242.3412   1.3679425145e+02   1.4514668430e+01    0.3385801    0.2350613 -51.12  0.002010309    1.914    0.478
       208 -11.6595    176.3614    242.5797   1.1673621241e+02  -2.2243280429e+00     0.477616    0.2557946  53.64  0.001874782    2.213    0.548
