#   1 NUMBER                 Running object number                                     
#   2 MAG_AUTO               Kron-like elliptical aperture magnitude                    [mag]
#   3 X_IMAGE                Object position along x                                    [pixel]
#   4 Y_IMAGE                Object position along y                                    [pixel]
#   5 X_WORLD                Barycenter position along world x axis                     [deg]
#   6 Y_WORLD                Barycenter position along world y axis                     [deg]
#   7 A_WORLD                Profile RMS along major axis (world units)                 [deg]
#   8 B_WORLD                Profile RMS along minor axis (world units)                 [deg]
#   9 THETA_WORLD            Position angle (CCW/world-x)                               [deg]
#  10 FWHM_WORLD             FWHM assuming a gaussian core                              [deg]
#  11 ELONGATION             A_IMAGE/B_IMAGE                                           
#  12 ELLIPTICITY            1 - B_IMAGE/A_IMAGE                                       
         1 -13.5715    223.7814      6.3763   3.5242029133e+01   2.9094455779e+01     2.027007      1.34087  41.02  0.009491345    2.079    0.519
         2 -13.1711    181.1399     51.1951   5.2051059107e+01   3.3802622009e+01     1.629605     1.178199  34.95  0.005243598    1.627    0.385
         3 -13.0314    194.6192     39.9858   4.6850440606e+01   3.2041655142e+01    0.9007419    0.7760061 -44.95  0.003772893    1.146    0.127
         4 -13.5274    200.7830     33.0794   4.4183022295e+01   3.1434779247e+01     1.164408     1.106308  16.13   0.00160733    1.250    0.200
         5  -9.6293    189.9041     15.0085   4.0676531839e+01   3.6150806958e+01    0.2034486    0.1848362  89.79 0.0006923131    1.026    0.026
         6 -11.6211     58.6180      3.2953   6.4307472975e+01   6.7097597624e+01    0.4086113    0.2789707  35.13  0.002532849    1.293    0.227
         7  -9.9381    103.1151    214.0759   1.0739992165e+02   1.6387989315e+01    0.2283137    0.1754244 -78.36  0.001347814    1.405    0.288
         8 -11.1748    139.7982    249.1497   1.0429481948e+02   4.4621695433e+00    0.3756647    0.3023018  50.95  0.002530193    1.180    0.152
         9 -19.4843     12.3627    161.7563   1.2222090932e+02   3.9009416198e+01     18.67582     4.149572 -78.57   0.06140979    4.483    0.777
        10  -9.6803    107.3926    250.1816   1.1062990645e+02   9.0809041797e+00     0.194289    0.1397303  36.89 0.0007418299    1.262    0.207
        11  -9.7616     87.5029    204.1121   1.0955033225e+02   2.0768860950e+01    0.3415854    0.2411503  65.97  0.001919226    1.400    0.286
        12  -8.4130    224.2679    206.6593   8.1163140598e+01  -2.2284909952e+00    0.1105448     0.104373 -57.66 0.0002528387    1.602    0.376
        13  -9.4299    133.6776    195.5682   9.7990690769e+01   1.5193721536e+01    0.2188869    0.1702482 -87.60  0.001142605    1.635    0.388
        14 -10.1421     81.7627    194.6090   1.0965632127e+02   2.3651334719e+01    0.3693247    0.3022786  71.03  0.002226379    1.128    0.114
        15  -9.8601    119.9967    194.0404   1.0084914543e+02   1.7833708999e+01    0.2043331    0.1912623  63.51 0.0003814915    1.032    0.031
        16 -10.9782    193.2712    195.4677   8.5106032986e+01   4.7002397006e+00     1.027607    0.5765701 -64.03  0.003426993    4.955    0.798
        17 -11.4816    184.0369    211.9019   8.9952296775e+01   3.4811717325e+00    0.5102519    0.3723757  45.50  0.002861867    1.436    0.304
        18 -12.3592    196.0762    205.3506   8.6367464634e+01   2.5503801943e+00     1.007828    0.5486239   6.85  0.003762249    3.520    0.716
        19  -9.7073    149.5431    187.5845   9.3037745611e+01   1.4018859267e+01    0.2983527     0.247512  66.55  0.001299536    1.407    0.289
        20  -8.6186    120.3100    186.6426   9.9593839171e+01   1.9363189995e+01    0.1474934    0.1062627  74.29 0.0007042661    1.734    0.423
        21 -10.8454    173.7428    211.8490   9.2050643375e+01   5.2210229616e+00    0.5266443    0.1578427  33.54   0.00172123    3.717    0.731
        22 -11.3260    107.0099    210.3206   1.0607900739e+02   1.6548441212e+01    0.5587047    0.2981964  50.52  0.002700093    1.787    0.440
        23 -10.9903     98.7931    181.2822   1.0383274101e+02   2.4084216887e+01    0.4181011    0.3201297   1.74  0.001877839    1.899    0.473
        24  -9.1773     76.9991    208.1848   1.1230073091e+02   2.1388814680e+01    0.1772323    0.1319616 -49.72    0.0010364    1.620    0.383
        25 -10.1517    189.4859    177.5063   8.2367327883e+01   8.6047705072e+00    0.4654195    0.3227979 -52.12  0.002278665    1.716    0.417
        26 -10.5147    143.9141    178.0971   9.2579341544e+01   1.7008911555e+01    0.3649998    0.2442783 -45.38  0.001150168    1.555    0.357
        27  -9.4478    149.6326    177.2577   9.1097417132e+01   1.6126997228e+01     0.239421    0.2167913  76.28 0.0006695645    1.258    0.205
        28 -10.0360    138.9494    170.4093   9.2281776132e+01   1.9577825867e+01    0.3667298    0.2766697  49.78  0.001136719    1.343    0.255
        29  -9.3149    240.4361    169.4853   7.0902595648e+01   9.3826056418e-01    0.1359248    0.1134003 -12.21 4.326762e-05    1.008    0.008
        30  -9.0137    187.4656    162.7046   7.9686996497e+01   1.1797062712e+01    0.2857394    0.1404308 -46.02   0.00114009    2.126    0.530
        31 -11.5608     93.3272    151.8242   1.0026675192e+02   3.1878563615e+01    0.7236354    0.5258939 -34.89  0.003533639    1.632    0.387
        32 -10.8158    133.8404    145.7332   8.8426889280e+01   2.6077326658e+01     1.273278    0.3310587 -54.61  0.002985973    5.717    0.825
        33  -9.3756    187.2204    151.5918   7.7280337064e+01   1.4015098551e+01    0.2123638    0.1386315  30.86 0.0009460996    1.646    0.392
        34  -8.8238    112.5791    150.7475   9.4975847697e+01   2.8886434350e+01    0.2036607    0.1429151 -65.99 0.0004271939    1.536    0.349
        35  -9.1452    174.8028    148.9411   7.9380363637e+01   1.7078745280e+01    0.2799572    0.2160866 -61.73   0.00100411    1.575    0.365
        36  -8.6594    109.5560    148.0081   9.5216467034e+01   3.0071248444e+01    0.2203119    0.1437419 -55.22  0.000344599    1.501    0.334
        37 -10.7641    105.4915    138.1039   9.4243667249e+01   3.3156693584e+01    0.5564317    0.3511882 -29.34  0.002298813    2.139    0.532
        38 -12.6893    112.9027    205.7467   1.0417078088e+02   1.6554645978e+01     1.512847    0.2592424 -53.19  0.004360667    5.594    0.821
        39 -11.5872     93.4704    137.8547   9.7516466161e+01   3.5251070887e+01    0.2904188    0.2668757 -30.17 0.0004905863    1.173    0.148
        40 -10.4644    135.8795    129.6505   8.4166168433e+01   2.9335274148e+01     0.635788    0.1811425 -49.57  0.001780468    3.677    0.728
        41 -10.3323    105.9327    130.7259   9.2496530167e+01   3.4850460259e+01    0.3899884    0.3234181 -63.86  0.001214378    1.216    0.178
        42 -10.3899    113.6492    129.2007   9.0003012739e+01   3.3804755685e+01    0.3545457    0.3097303 -15.05 0.0007898168    1.285    0.222
        43  -8.3284     97.5927    129.5207   9.4579875664e+01   3.6592455864e+01    0.1501569    0.1397366 -69.37 0.0001361053    1.057    0.054
        44  -8.6917    161.0181    128.5195   7.7670577793e+01   2.4269931363e+01    0.2211049    0.1402407  69.29 0.0008101976    2.552    0.608
        45 -11.1906    119.6227    123.1783   8.6911745473e+01   3.4078462602e+01    0.6449758    0.3830875 -23.71  0.002098013    2.659    0.624
        46 -10.3625    101.0700    125.0514   9.2573968150e+01   3.7071701611e+01    0.3063987    0.2466347 -23.62 0.0007662061    1.429    0.300
        47 -10.2698    134.9975    120.0422   8.1993452733e+01   3.1686603040e+01    0.4852675    0.1389563 -45.85  0.001387455    3.410    0.707
        48 -10.0602    231.3372    113.6900   6.0033262151e+01   1.2017159353e+01     0.293245    0.2484476 -27.93 0.0007716685    1.077    0.071
        49  -9.3436    109.2580    118.2846   8.8603586142e+01   3.7201275909e+01    0.2432294    0.2164226 -25.02 0.0003537599    1.171    0.146
        50  -8.9359    167.6681    112.6398   7.2052368934e+01   2.6115704646e+01    0.3171313    0.2306182 -79.24  0.001315528    2.077    0.518
        51 -11.6068    117.8090    109.6561   8.3947187319e+01   3.7548510548e+01    0.8051829    0.5360646  70.28  0.003184811    2.366    0.577
        52  -9.4700    134.4765    102.6990   7.7475876946e+01   3.5613769219e+01    0.3713211    0.1491561 -48.39  0.001223376    2.610    0.617
        53 -10.1947     64.8390    105.4233   9.9086647377e+01   4.7412494085e+01    0.4205009    0.2435876 -22.29  0.001695788    2.675    0.626
        54  -9.3255    205.6462    110.1077   6.3603847603e+01   1.8076102291e+01    0.2687069    0.2201213  39.52  0.000655133    1.307    0.235
        55 -15.3348     72.4937    151.1703   1.0571894464e+02   3.5134637896e+01      6.53305     3.322657  85.36   0.01060637    4.223    0.763
        56  -9.3038     63.5047     99.5765   9.8148166965e+01   4.8987901274e+01    0.3203775    0.1467749  23.65  0.001259465    2.791    0.642
        57 -11.4797     51.1038     89.5789   9.9962354750e+01   5.2862114918e+01     0.356212    0.2838475 -13.17  0.001039808    1.389    0.280
        58 -11.3539    107.8125    203.8738   1.0503549573e+02   1.7746811464e+01     0.529592    0.2906566  57.56 0.0004494269    2.042    0.510
        59 -11.7181    109.6261    200.8754   1.0421237075e+02   1.8085682718e+01    0.5247522    0.2711965 -56.05  0.001789486    2.041    0.510
        60  -8.8885     64.8574     70.1393   8.9523337747e+01   5.5447013970e+01    0.1945392    0.1822194 -48.93  0.000340032    1.195    0.163
        61 -10.0324    129.2384    247.6046   1.0615185855e+02   6.3007897555e+00    0.3070791    0.1788441  81.75  0.001336042    3.764    0.734
        62  -9.6258    105.5896    246.2030   1.1056451320e+02   1.0019675341e+01    0.1440961      0.11128 -49.01 0.0005766022    1.638    0.389
        63  -8.6125    168.1594    248.1694   9.8701761317e+01   3.0564420905e-01    0.1532066    0.1245811  46.39  0.001013231    1.278    0.218
        64  -9.6102    158.7827    235.1529   9.8714407407e+01   3.7687186015e+00    0.1920687    0.1605531  50.95  0.001228964    1.260    0.207
        65  -9.0848     93.5019    205.4697   1.0840185828e+02   1.9601907127e+01    0.1892734    0.1660459  -5.77  0.001140763    1.538    0.350
        66 -10.8979    174.7746    217.2541   9.2738331746e+01   4.1286846965e+00    0.2849779    0.1771907   2.17  0.001294441    2.455    0.593
        67 -10.3620     74.2044     12.8926   6.3375209140e+01   6.3275945208e+01    0.3505914     0.182471  61.13  0.001548846    2.855    0.650
