#   1 NUMBER                 Running object number                                     
#   2 MAG_AUTO               Kron-like elliptical aperture magnitude                    [mag]
#   3 X_IMAGE                Object position along x                                    [pixel]
#   4 Y_IMAGE                Object position along y                                    [pixel]
#   5 X_WORLD                Barycenter position along world x axis                     [deg]
#   6 Y_WORLD                Barycenter position along world y axis                     [deg]
#   7 A_WORLD                Profile RMS along major axis (world units)                 [deg]
#   8 B_WORLD                Profile RMS along minor axis (world units)                 [deg]
#   9 THETA_WORLD            Position angle (CCW/world-x)                               [deg]
#  10 FWHM_WORLD             FWHM assuming a gaussian core                              [deg]
#  11 ELONGATION             A_IMAGE/B_IMAGE                                           
#  12 ELLIPTICITY            1 - B_IMAGE/A_IMAGE                                       
         1 -12.9286     61.4707     94.6096   5.1508568657e+01   5.1528595112e+01     1.678387     1.016925 -78.47  0.006519892    2.215    0.548
         2 -10.1943     41.1061     13.7269   2.8279652092e+01   7.2417002195e+01     0.225412    0.1933328  15.77 0.0002006669    1.193    0.161
         3  -9.2393     97.5149     11.9728   7.9596858369e+00   5.9042341093e+01    0.1860611    0.1140089  19.11  0.000810364    2.598    0.615
         4  -9.5762     67.7380      1.3397   9.6387162737e+00   6.7629895567e+01    0.1888422    0.1032663  59.90 0.0005413214    1.527    0.345
         5 -10.7788     73.7400    244.3827   6.9259143363e+01   1.3532538802e+01    0.2418861     0.204053  19.72 0.0005985855    1.104    0.094
         6 -11.8098    248.2252    247.4916   3.5788993067e+01  -4.2068764444e+00    0.4690648    0.3444292  -7.80  0.002567859    1.241    0.194
         7 -12.0366    249.5146    238.4161   3.4374136000e+01  -3.3079047268e+00     1.021436    0.2346036 -37.58  0.005041222    3.615    0.723
         8 -11.0752     53.3618    249.4371   7.4381953997e+01   1.4694672078e+01    0.3560558    0.2228449  20.53  0.001620507    1.378    0.274
         9 -10.0865     56.7872    246.6057   7.3402353798e+01   1.4879102276e+01    0.2616631     0.149121  30.44  0.001117993    1.339    0.253
        10 -10.2680     39.2894    249.5467   7.7655318134e+01   1.6036494613e+01    0.4079024    0.1007001  49.59  0.001554669    3.622    0.724
        11 -11.0571     34.7448    246.9695   7.8586226450e+01   1.6950110759e+01    0.2260469     0.142289  29.65 0.0008499913    1.238    0.192
        12 -10.7428      4.7928    248.9343   8.5518810657e+01   1.9155851153e+01    0.4220516    0.1620293  45.86  0.002237427    1.832    0.454
        13 -11.6055     12.0378    249.3145   8.3896592714e+01   1.8496342695e+01    0.7857955    0.1119922  42.06   0.00315068    3.117    0.679
        14 -11.8620      6.7561    243.0038   8.4934671871e+01   2.0146895497e+01    0.3856981    0.2940556  23.80   0.00262741    1.246    0.198
        15 -12.7290     19.2046    248.0611   8.2225687154e+01   1.8131259891e+01    0.8584945    0.3423091  35.77  0.004488701    1.730    0.422
        16 -10.5869     97.9620    241.8937   6.3400240916e+01   1.1339470776e+01    0.3272793    0.2071239  16.28 0.0009921105    1.391    0.281
        17  -9.2549    221.0545    239.6599   3.8825297696e+01  -1.1147645151e+00    0.1449684   0.09872337  -1.16 0.0005382892    1.103    0.093
        18 -11.3852    231.6894    234.8271   3.6496382476e+01  -1.4477642798e+00    0.2836917     0.192057 -13.91  0.001178484    1.063    0.059
        19  -9.9425    107.0181    241.3396   6.1275389589e+01   1.0424346363e+01    0.4474979    0.1296444 -45.35  0.001756961    4.101    0.756
        20 -11.4719    168.6404    234.0000   4.7303604769e+01   4.7501788462e+00    0.9373975    0.2398362  34.10  0.003813474    3.598    0.722
        21 -10.5120    162.4568    230.4842   4.8045966761e+01   5.9551590286e+00    0.2226445    0.1531105  18.85 0.0006647688    1.232    0.188
        22 -10.6465    162.2876    225.7250   4.7425496753e+01   6.7134814734e+00     0.529124    0.2882506 -19.43  0.002785825    2.112    0.527
        23  -9.6813     49.5439    235.4884   7.4414315846e+01   1.7760304673e+01    0.2277002    0.1112081  11.29  0.001032463    2.351    0.575
        24 -10.0438     38.6927    235.0529   7.7037212281e+01   1.8918068779e+01    0.1741838    0.1454989  48.06 0.0008276278    1.100    0.091
        25  -9.5085    100.8545    233.1640   6.1837499809e+01   1.2586246218e+01    0.1879459    0.1495557  33.91 0.0005795417    1.151    0.131
        26 -10.3323    237.7472    230.4632   3.4970035473e+01  -1.4414166950e+00    0.2377954     0.140226  -4.27  0.001728911    1.420    0.296
        27  -9.1501     90.4648    231.4900   6.4129904534e+01   1.4096014691e+01    0.1290282    0.1065809  20.49 3.755364e-05    1.043    0.041
        28 -10.0697    191.7343    227.0423   4.2009509363e+01   3.3226734885e+00     0.155756     0.116584 -10.73 0.0003730875    1.070    0.065
        29 -11.2079     98.8617    225.4525   6.1478912848e+01   1.4264886471e+01    0.3594861    0.2573702   4.13  0.001097047    1.433    0.302
        30 -11.9333     95.6522    218.1753   6.1450294345e+01   1.6072208017e+01    0.7604176     0.432692  27.83  0.002624631    1.478    0.323
        31 -10.0860    169.7209    224.7417   4.5812582831e+01   6.0294685399e+00    0.3150438    0.2043461  43.12  0.001845706    2.073    0.518
        32  -9.4874     27.5261    225.4983   7.9309170093e+01   2.1947218922e+01    0.1310848    0.1013715  43.23 0.0003113553    1.042    0.041
        33 -10.3799     99.9739    217.4906   6.0306837651e+01   1.5678656483e+01    0.2588119    0.2299235  52.43   0.00163668    1.257    0.205
        34 -10.1986    126.4135    221.0593   5.4487095378e+01   1.1747566390e+01    0.2279408    0.1653187  42.02  0.000745977    1.483    0.326
        35  -8.5484    157.6774    221.6830   4.7796605633e+01   7.8885613813e+00    0.1276363   0.08066079  -8.28 0.0007042986    1.666    0.400
        36 -10.5642    191.4990    213.5228   4.0059542559e+01   5.3002624165e+00    0.2348662    0.1566965  -8.15  0.001504314    1.355    0.262
        37  -9.9915     56.0056    216.8685   7.1442389662e+01   2.0952756632e+01    0.1891053    0.1749104  68.78            0    1.174    0.148
        38  -9.6988     24.7470    216.8359   7.9599522408e+01   2.4075496321e+01    0.2788741    0.1053931  44.37  0.001240102    2.063    0.515
        39 -10.0693    170.6606    215.2840   4.4258708153e+01   7.3984668063e+00    0.2265264    0.1699323  -8.00 0.0008018474    1.160    0.138
        40  -9.6667    112.5525    213.8443   5.6802588332e+01   1.4822917780e+01     0.321903    0.1757002 -26.54  0.001439492    2.518    0.603
        41 -10.1275     64.8423    213.8075   6.8869012701e+01   2.0633427152e+01    0.5067724    0.1590759  38.82   0.00196711    2.507    0.601
        42  -8.9574     79.0095    211.0000   6.4889221038e+01   1.9576544913e+01    0.2325417   0.06777757  26.36 0.0008032499    2.948    0.661
        43 -10.3032     21.8631    210.4598   8.0048411439e+01   2.5760235154e+01    0.2429111    0.1678967   9.54  0.001342459    1.576    0.365
        44 -10.0634    210.8348    207.8087   3.5832154715e+01   4.0363193767e+00    0.3090715    0.1137986 -43.95  0.001501253    2.807    0.644
        45  -8.3881    213.9660    208.0000   3.5346425482e+01   3.6815478309e+00    0.2487095    0.1006804  39.16  0.001238349    3.258    0.693
        46 -10.9465     12.6365    204.8443   8.2268554254e+01   2.7832734966e+01    0.4761942    0.2022996 -73.59  0.002164045    2.477    0.596
        47 -11.7194     16.4858    196.6314   8.0855507213e+01   2.9448940547e+01    0.6094247    0.2879945 -42.85  0.001800737    3.016    0.668
        48  -8.7200      1.3211    207.2955   8.5353390185e+01   2.8145427920e+01    0.1170972      0.09441 -33.52  0.000409194    1.615    0.381
        49  -9.3029    124.1204    205.8583   5.2968279930e+01   1.4878439821e+01    0.1685637    0.1350828  -6.53            0    1.243    0.195
        50 -10.5139    166.2568    199.5490   4.2724628133e+01   1.0524626902e+01    0.4572696    0.1618754 -37.07  0.001871812    2.977    0.664
        51  -8.8322     43.7740    198.5514   7.3297042208e+01   2.6406464401e+01    0.2049372    0.1041965  36.86 0.0009412807    1.626    0.385
        52  -9.3562    178.0321    197.1763   4.0012963513e+01   9.4330135988e+00    0.1920439    0.1398084  -8.33 0.0005796688    1.276    0.216
        53  -8.8534    105.4656    197.4677   5.6391205839e+01   1.9068065567e+01      0.13862    0.1228367  14.69 0.0001382216    1.038    0.037
        54 -10.9368    172.4988    194.7034   4.0691850145e+01   1.0546495511e+01    0.4089849    0.2029197 -46.01  0.001599136    2.069    0.517
        55  -9.6127    162.6668    192.9344   4.2394150603e+01   1.2138914741e+01    0.2136415    0.1441723 -24.78  0.001196427    1.460    0.315
        56  -9.8544     94.1560    181.3463   5.7118988703e+01   2.4197973464e+01    0.3406054    0.2815486 -67.67  0.001244737    1.354    0.261
        57 -11.7522     98.0890    189.0421   5.7149032106e+01   2.1904578807e+01    0.5341407    0.3816139  64.51   0.00182953    1.772    0.436
        58 -11.3463     10.6853    186.9518   8.2068178001e+01   3.2273744022e+01    0.5831392    0.2174597  51.26  0.001215628    2.300    0.565
        59 -11.9770     14.2623    180.8507   8.0723849795e+01   3.3515570282e+01    0.9630655    0.3435919  35.13  0.003938864    2.204    0.546
        60  -9.4039    165.3895    186.2158   4.0713652444e+01   1.2961146533e+01    0.1711481    0.1192845 -51.78 0.0007398244    1.670    0.401
        61 -10.2249    174.7942    184.0838   3.8461420391e+01   1.2057005214e+01    0.2201113    0.1782488  50.80  0.001331573    1.691    0.409
        62  -9.6465    225.8014    182.8422   2.9438759808e+01   5.9446766668e+00     0.170417    0.1214052 -17.13  0.000489828    1.145    0.127
        63 -10.1793     47.2097    181.6537   7.0830480429e+01   3.0149870226e+01    0.3851602     0.162086 -60.94  0.001547867    2.428    0.588
        64 -10.0345    214.0136    181.4921   3.1043815552e+01   7.4959235584e+00    0.1635285    0.0886613   6.99 0.0008105796    2.650    0.623
        65  -8.6953    138.0000    178.0055   4.5331319724e+01   1.8451076193e+01    0.2233968   0.07701352 -50.41 0.0008089378    2.988    0.665
        66  -9.3259     70.1688    177.8063   6.3518137090e+01   2.8326418191e+01    0.1972603    0.1674383 -28.02 0.0009969615    1.342    0.255
        67 -12.6834      4.8305    173.6144   8.3249313539e+01   3.6066671411e+01    0.5197275    0.3523065  72.27 0.0003298667    1.356    0.263
        68  -9.9553    182.9868    175.7090   3.5425253172e+01   1.2378808781e+01    0.1769616    0.1543225   2.24 0.0006573914    1.099    0.090
        69 -10.9672    204.2457    187.2848   3.3629715761e+01   7.7854019765e+00    0.2540599    0.2417297  -3.30  0.001894345    1.391    0.281
        70 -10.1643    204.8344    175.1558   3.1454384394e+01   9.5868141213e+00    0.1720869     0.122944 -10.99   0.00108025    1.334    0.251
        71  -9.1971    148.6667    174.8146   4.2324875499e+01   1.7486437808e+01    0.1932725    0.1616848   6.60 0.0008267379    1.149    0.129
        72 -10.1197    104.0237    189.4804   5.5640610751e+01   2.0981873745e+01    0.3370708    0.2306064  31.83  0.001257235    1.319    0.242
        73 -10.1668     29.2699    172.1358   7.5540333958e+01   3.4440157320e+01    0.3641053    0.2673488  68.96  0.001901807    1.318    0.241
        74 -10.1799    177.5747    169.2780   3.5297417068e+01   1.4252663880e+01    0.4035414    0.2137904 -37.45  0.002013961    1.745    0.427
        75 -12.0358    217.3067    165.1781   2.7694527135e+01   9.5470488968e+00     0.475029     0.316351  26.93   0.00303554    1.678    0.404
        76 -11.1842      5.0015    166.3509   8.2888890003e+01   3.7936829245e+01    0.5706186    0.2853821  -9.96  0.002257676    2.862    0.651
        77  -9.0663    200.1704    166.8436   3.0761444467e+01   1.1517206575e+01    0.1674832    0.1210568 -18.23 0.0003969222    1.281    0.219
        78  -9.4626     99.6600    158.5549   5.1911087252e+01   2.8743997751e+01    0.2963367    0.1881865 -60.44  0.001328932    1.691    0.409
        79 -11.0013     23.1183    153.5728   7.6080092486e+01   3.9954452855e+01    0.5397441    0.2277691 -80.85  0.002069519    2.404    0.584
        80 -11.3445    204.7563    151.4492   2.7152794135e+01   1.3377681092e+01    0.3527695    0.3064401 -28.06  0.002411472    1.084    0.078
        81  -9.6281     68.5360    154.0982   6.0734551784e+01   3.4576305668e+01    0.3096087    0.1853208  46.10 0.0008800102    1.634    0.388
        82 -10.0543     40.9691    153.6380   6.9928315497e+01   3.8171392644e+01    0.2348813    0.2072257 -88.10  0.000465458    1.131    0.116
        83  -9.8543      5.8075    152.2088   8.1946421771e+01   4.1647798180e+01     0.189763    0.1608105 -50.81 0.0006025761    1.309    0.236
        84 -10.6060    189.5206    148.8243   2.9214286310e+01   1.6055626467e+01    0.4127725    0.1121397 -40.90   0.00147678    3.279    0.695
        85 -10.7161    223.5215    148.2207   2.3702585178e+01   1.1311743771e+01    0.2679993    0.1889864  32.69  0.001759645    1.678    0.404
        86 -11.6526     13.8351    133.4205   7.7793932027e+01   4.6278947840e+01    0.7210124    0.4795104  67.79  0.003121621    1.477    0.323
        87 -10.6360     25.4403    147.7713   7.4759620523e+01   4.1338124118e+01    0.8474974    0.2608459  48.76  0.002711842    3.267    0.694
        88 -10.9121     18.9616    145.6785   7.6895390879e+01   4.2472292092e+01    0.2709762    0.2307051  69.74 0.0006774486    1.095    0.086
        89  -9.9762     13.4851    141.5231   7.8557729678e+01   4.4045752877e+01    0.2843053    0.2136788 -44.42  0.000834865    1.473    0.321
        90 -10.6918     24.3370    138.7835   7.4303264199e+01   4.3931669773e+01    0.4855048    0.2370651  47.33   0.00165259    1.974    0.494
        91 -10.6930     19.6960    139.0128   7.6057206614e+01   4.4263143835e+01    0.4413192     0.247968  47.75  0.001205241    1.696    0.410
        92  -9.2723     39.3694    147.6693   6.9797904251e+01   3.9976307691e+01    0.1720169   0.09740296  55.52 0.0007031667    1.826    0.452
        93  -9.5941     55.1155    144.2704   6.3790459696e+01   3.9020788778e+01    0.3044885    0.1826743  70.76  0.001220588    2.073    0.518
        94  -9.1363    148.1674    144.0037   3.6512490200e+01   2.3757477621e+01    0.2284896    0.1635746 -73.68   0.00103955    2.047    0.511
        95  -9.0441    126.1579    143.9918   4.1838192924e+01   2.7643928933e+01    0.2368565    0.1741377 -85.21   0.00106256    1.989    0.497
        96  -9.6865    117.0185    143.3501   4.4128206499e+01   2.9409119367e+01    0.2596519    0.1042062  53.58 0.0007047889    4.506    0.778
        97  -9.2474    135.8861    154.3314   4.1486048228e+01   2.3706423395e+01    0.2003385    0.1293872  23.92 0.0004816572    1.708    0.415
        98 -10.2589    197.9665    135.9311   2.5226512015e+01   1.6947798965e+01     0.316732    0.2164683 -27.34  0.001353326    1.390    0.281
        99  -9.0794    203.4652    136.4504   2.4452563577e+01   1.6014486203e+01    0.1256349    0.1057683 -32.08 0.0001020261    1.015    0.014
       100 -10.3016    187.8257    134.7933   2.6695590404e+01   1.8760637446e+01    0.3523552    0.1667904 -36.09  0.001606987    1.962    0.490
       101 -11.1560     47.2355    125.2359   6.3734422737e+01   4.5277709454e+01    0.5572027    0.3086459  47.59  0.002262531    1.835    0.455
       102 -11.3455     43.3473    121.2149   6.4611370447e+01   4.6881118085e+01     1.005598    0.3522054 -78.44  0.002808432    4.122    0.757
       103  -9.4026     83.5967    131.8689   5.1820253676e+01   3.8056626862e+01    0.3005805    0.2032391 -83.59  0.001251018    1.911    0.477
       104  -9.3985    131.4182    130.6547   3.7622884097e+01   2.9632780889e+01    0.2878769    0.1428698 -53.22  0.001049956    2.116    0.527
       105  -9.9588     99.6345    128.3995   4.5963849319e+01   3.6110253167e+01    0.4199208    0.2716967  76.14  0.001593294    2.486    0.598
       106  -8.8434    162.4222    128.4654   3.0112306121e+01   2.4310091714e+01    0.1388974    0.1276909 -39.65 6.365636e-05    1.025    0.024
       107 -10.8769    118.8585    125.8633   3.9821075978e+01   3.3098789402e+01    0.5407627    0.4000488  68.58  0.001934342    1.704    0.413
       108 -11.2030     74.5263    123.2954   5.3158994076e+01   4.1807501093e+01    0.9234167    0.4160509 -40.57  0.003040081    2.934    0.659
       109 -10.1249     47.0000    132.9863   6.5047762591e+01   4.3152055550e+01    0.7544211    0.3061083 -71.20  0.002505733    2.574    0.612
       110 -10.0232     77.2693    126.4931   5.2862495350e+01   4.0512717413e+01    0.3393002    0.2616877  13.60 0.0007950366    1.494    0.331
       111 -11.0924     56.8877    121.8837   5.9403061773e+01   4.4907288579e+01    0.5044144    0.3674101  82.30  0.001583737    1.581    0.367
       112 -11.5501     66.0014    126.5382   5.6879599594e+01   4.2296294272e+01    0.5315582     0.390342   2.44  0.002357483    1.716    0.417
       113 -10.6204     61.4935    126.4816   5.8525820367e+01   4.2985914543e+01    0.4834358    0.2063735  45.28  0.001504791    2.405    0.584
       114 -10.5960     11.0597    125.8471   7.8256265202e+01   4.8598804166e+01    0.5172903    0.2883403 -76.18  0.002224416    1.688    0.408
       115 -10.3489    104.4808    123.7782   4.3453020997e+01   3.6333187174e+01    0.5163486    0.2975399  21.02  0.001887665    2.502    0.600
       116  -9.2250    180.4085    121.9754   2.5277637005e+01   2.2288495135e+01    0.3926488    0.1131778 -33.12 0.0009560791    6.685    0.850
       117  -9.4521     27.8014    122.0776   7.1058701496e+01   4.8318088582e+01    0.2417981    0.1952775  61.97 0.0007937292    1.226    0.185
       118  -9.3406    140.5053    117.5075   3.2371581221e+01   3.0686879717e+01    0.2660765    0.1352206 -55.88  0.001024096    2.268    0.559
       119  -9.9315    133.7132    120.4025   3.4689043417e+01   3.1416889139e+01    0.2965541     0.141527  48.30  0.001143757    2.223    0.550
       120 -11.8589     44.5321    103.2440   6.0813057448e+01   5.1728305022e+01    0.7760154    0.6467454 -37.98  0.002711652    1.278    0.217
       121 -12.6514     54.2324    110.4389   5.8194228322e+01   4.8421347624e+01      1.35656    0.8122877  45.95  0.005680494    1.690    0.408
       122 -11.3075    165.6806    247.8512   4.9682610792e+01   3.0536020013e+00    0.2762857    0.2087177   8.57  0.001657325    1.052    0.049
       123 -12.1600     64.3914    105.7918   5.3076298973e+01   4.8110468147e+01     1.073511    0.6005253  20.24  0.004063485    2.207    0.547
       124  -9.2093    226.4763    123.5189   1.8627142473e+01   1.4627683055e+01    0.1201401   0.09489457 -31.73 0.0008093194    1.054    0.051
       125 -10.7426    107.4312    113.5461   4.0126494882e+01   3.8196922377e+01    0.6326218    0.3808269 -46.43   0.00266867    1.680    0.405
       126  -8.8351    209.7790    132.0031   2.2606903691e+01   1.5778757933e+01    0.1662702   0.08578744 -38.90 0.0004943936    1.611    0.379
       127  -9.2757    185.5512    113.9987   2.2646642915e+01   2.2780373350e+01    0.2064506    0.1168409 -40.34  0.000688487    1.553    0.356
       128  -9.3859    138.8199    112.7842   3.1624514273e+01   3.2009630512e+01    0.2083552    0.1762608 -82.09  0.001070641    1.353    0.261
       129 -10.6427     92.6784    111.7799   4.4294252972e+01   4.1509755497e+01    0.4867106    0.3650808 -74.93  0.001603135    1.548    0.354
       130  -9.5442     79.4050    113.1708   4.9173354477e+01   4.3613905143e+01    0.2276437    0.1530328 -72.96 0.0009489838    1.738    0.425
       131 -10.0322     16.9093    112.6209   7.4514875642e+01   5.1923303373e+01     0.464776    0.1997662  33.29  0.001819353    2.183    0.542
       132 -10.1337    159.4350    111.2798   2.6785187265e+01   2.8187490605e+01    0.4760011    0.1592518 -49.42  0.001574834    3.211    0.689
       133  -9.7077    134.0365    109.5158   3.1956819631e+01   3.3672273326e+01    0.2993876    0.2216167 -54.68  0.001018177    1.355    0.262
       134 -11.3486    132.9058    103.1527   3.0609162502e+01   3.5242444703e+01     0.659624    0.4309832  42.50  0.002099719    1.616    0.381
       135  -9.4825     22.0137    109.5325   7.1884431762e+01   5.2389012296e+01     0.331816    0.1680339  77.64  0.001243497    2.426    0.588
       136 -10.2906    146.7065    108.0060   2.8658178214e+01   3.1380074953e+01     0.332791    0.1951178  40.24  0.001464375    1.901    0.474
       137 -11.8906    250.0340    102.8109   1.1981799088e+01   1.4255215613e+01    0.6347573    0.1396671 -36.10  0.002478592    3.548    0.718
       138 -11.2568    151.6633    104.3435   2.6690850528e+01   3.1087576118e+01    0.6742876    0.3917369  71.28  0.002630647    2.799    0.643
       139 -10.5511     17.7312    103.5702   7.3035405404e+01   5.4418767066e+01    0.4400326    0.2086865 -67.02  0.001092105    1.929    0.482
       140  -9.8355     93.3958    104.5928   4.2231874946e+01   4.3126604468e+01    0.4246355    0.2725092 -10.95   0.00143432    3.256    0.693
       141 -10.3497     78.6591    105.2288   4.7510666162e+01   4.5782125898e+01    0.3356067     0.223425  26.08  0.001420196    1.677    0.404
       142 -10.9715     83.9130    100.2149   4.4319914203e+01   4.6051809404e+01    0.7216718    0.4381702  67.16  0.002658797    2.456    0.593
       143  -9.9145     29.7434    100.4720   6.6978137764e+01   5.4218595173e+01    0.3894102     0.212224  65.78  0.001182201    2.340    0.573
       144 -10.2773    109.6335     99.2896   3.5766970725e+01   4.1027497211e+01    0.5784463    0.2927422  61.38  0.001940235    2.937    0.660
       145 -10.8384     75.0887     99.0800   4.7254501225e+01   4.7996103298e+01    0.5647951    0.3044024  22.24  0.001993538    2.573    0.611
       146  -9.6460     95.8036     97.7960   3.9616568440e+01   4.4263378217e+01     0.395876    0.2265096 -76.34  0.001271783    3.342    0.701
       147  -8.3358    171.3159     95.2763   2.0722233798e+01   2.8768578563e+01    0.1293889    0.1085569   4.93 0.0002633671    1.567    0.362
       148 -10.9293    148.1767     95.0588   2.5062393137e+01   3.3611585264e+01    0.2482222    0.2182455  54.57 0.0008200788    1.196    0.164
       149 -10.4823     24.3313     92.0668   6.8103516825e+01   5.7083103785e+01    0.4494995    0.2851087 -84.78  0.001365707    1.689    0.408
       150 -10.9420    140.3914     92.2817   2.6003691290e+01   3.5829561109e+01    0.3924781    0.2856515  63.07  0.001913722    1.474    0.322
       151 -10.6051    125.1627     91.5830   2.9413934610e+01   3.9318808410e+01    0.4822748    0.2846486  44.25  0.002063108    1.774    0.436
       152 -10.9640     91.3977     91.0432   3.9167434000e+01   4.6755143680e+01     0.726579    0.3381684  41.42 0.0008569171    2.136    0.532
       153 -11.9082     83.5039     86.8392   4.0690371189e+01   4.9362796986e+01     0.931766    0.5620674  45.88  0.001763132    1.626    0.385
       154 -10.6640     86.2684     80.6232   3.7795215048e+01   5.0224350486e+01    0.3757901    0.2973758  13.80  0.001733241    1.643    0.391
       155 -10.8658     44.6868     91.8230   5.8231527539e+01   5.4815682927e+01    0.5079945    0.2370521  24.53  0.001885291    2.253    0.556
       156 -11.4300    104.6359     82.7193   3.2465722199e+01   4.5756998733e+01    0.9553376    0.4112417 -49.76  0.003408168    2.406    0.584
       157  -9.2879     34.9477     89.4840   6.2349321010e+01   5.6683438183e+01    0.2234996    0.1039835  47.37 0.0008072793    2.403    0.584
       158  -9.9523    166.2010     88.0459   1.9821121222e+01   3.1086686529e+01    0.2076834    0.1906834  83.54 0.0003493163    1.136    0.119
       159 -11.9169    116.6620     83.8873   2.9413957381e+01   4.2806237445e+01    0.5912886    0.3354762 -35.05  0.001971323    2.054    0.513
       160 -12.3805    118.5538     79.1985   2.7514767162e+01   4.3324186659e+01    0.8236426    0.5132258  81.94  0.003147778    2.542    0.607
       161 -10.5091    116.2453     72.6263   2.6092356281e+01   4.5150524010e+01    0.4348904    0.2416461 -42.04  0.001741495    1.823    0.451
       162 -11.0354     70.1702     84.9764   4.5240086226e+01   5.2421295352e+01    0.5091676    0.2598283  42.61  0.001971597    1.908    0.476
       163  -9.6309     34.3175     84.3338   6.1509025955e+01   5.8149533654e+01    0.1615847    0.1083934 -31.92 0.0007048085    1.694    0.410
       164  -9.8464    146.6078     85.8300   2.2942651329e+01   3.5696890005e+01    0.2142248    0.1267429 -51.20 0.0007375302    1.660    0.398
       165 -10.1035     48.2012     84.4379   5.4730764985e+01   5.6270291067e+01    0.2508921    0.2129484  79.48 0.0009765766    1.304    0.233
       166  -9.1926     24.7724     81.1681   6.5778319886e+01   6.0026947198e+01    0.2644006    0.1290936  58.28 0.0009449214    2.802    0.643
       167 -10.3993    138.1172     80.0838   2.3137974957e+01   3.8669835234e+01    0.2229186    0.2063818   6.66  0.001029096    1.321    0.243
       168  -9.5276    175.5125     78.4841   1.5900632402e+01   3.0766718128e+01     0.242701    0.1605966 -65.73   0.00072329    1.663    0.399
       169 -11.1617    248.7132     74.8924   6.7926861795e+00   1.8169175914e+01     0.293555   0.09133632 -40.57  0.001435354    2.220    0.550
       170 -11.1863    127.8347     75.3774   2.4078993079e+01   4.1918313583e+01    0.3272038    0.2242817 -69.95  0.001302372    1.749    0.428
       171 -10.6978     72.9065    111.0196   5.1032980998e+01   4.5307503242e+01    0.2941943    0.2505284  88.48  0.000281193    1.272    0.214
       172  -9.5622    234.6590     75.3318   8.1185418657e+00   2.0301064056e+01    0.1236704   0.06982879 -57.99 0.0007051403    1.748    0.428
       173 -10.0038    140.9490     74.8443   2.1048722540e+01   3.8983840642e+01    0.2240745    0.2066334  26.42  0.001240719    1.311    0.237
       174  -9.7031     74.9827     74.5089   4.0034968181e+01   5.3955518848e+01    0.2246436    0.1385254  18.28 0.0008105516    2.641    0.621
       175  -9.7179      9.9850     73.9825   7.2655237270e+01   6.3136093531e+01    0.2075532    0.1992533 -53.98 0.0003599176    1.014    0.014
       176 -10.5436    106.1510     71.6259   2.8529685907e+01   4.7703594350e+01     0.406365    0.2819408 -70.14  0.001381986    1.776    0.437
       177 -10.0172     82.0157     72.0277   3.6529234195e+01   5.3041491858e+01    0.2512746    0.1905181  84.20  0.001129947    1.686    0.407
       178 -12.4114     71.0036    116.7843   5.3039107579e+01   4.4110209981e+01     1.005375    0.7055035 -85.13  0.004340484    1.739    0.425
       179  -9.6789     95.1431     70.4449   3.1481178702e+01   5.0475058199e+01    0.3164247    0.1976227 -62.09  0.001060069    1.943    0.485
       180 -10.4279    249.8523     63.8528   4.5726203450e+00   1.9409364007e+01     0.165006   0.09854937 -52.35   0.00109318    1.346    0.257
       181  -9.8538     99.8295     59.8407   2.6376777251e+01   5.1467698950e+01     0.217823     0.177409 -88.23  0.001078308    1.346    0.257
       182  -9.3086     73.4864     59.5168   3.5330478841e+01   5.7531418064e+01    0.2755398     0.143036 -57.99  0.001017121    2.448    0.591
       183  -9.2590      2.3314     56.7047   7.4456181884e+01   6.8091603495e+01    0.1400938   0.09655299  50.35  0.000702629    1.637    0.389
       184  -8.6880    172.0403     49.9878   9.0287070884e+00   3.5887335414e+01    0.1549433    0.1325918 -69.94            0    1.034    0.033
       185 -11.1194     45.5321     48.9294   4.4240781422e+01   6.5225823642e+01    0.2552638    0.2187327  31.61 0.0003304728    1.118    0.106
       186  -8.9701    114.2631     41.3330   1.6003935452e+01   5.1032134728e+01    0.1373582    0.1133738  25.31 0.0001874027    1.577    0.366
       187  -9.1976    123.8018     40.1899   1.3625589108e+01   4.8804902140e+01    0.1872886    0.1646521  45.57 0.0003920419    1.306    0.234
       188  -9.6868    212.4470     39.4996   2.4035877035e+00   2.8912458168e+01     0.123204   0.09223399 -55.50 0.0001169202    1.037    0.035
       189  -8.7710    106.3135     37.3301   1.6336750061e+01   5.3626390591e+01     0.145315     0.110345  31.70 0.0003847606    1.675    0.403
       190  -9.4993    216.3246     30.3020   7.7503385431e-02   2.9283071336e+01   0.09933951   0.09119917  22.82 0.0005476666    1.637    0.389
       191  -9.7014     44.3629     25.1300   3.3334682524e+01   7.0006059186e+01    0.2187432    0.1705441  34.91 0.0003752745    1.197    0.165
       192  -8.3734    110.3252     24.3238   1.0481462591e+01   5.4351576250e+01    0.1428525    0.1023454  39.12 0.0007048308    1.688    0.408
       193 -10.1537     13.3307     20.7213   5.3696143817e+01   7.5747001910e+01    0.3143515    0.2116819 -10.91   0.00167149    1.607    0.378
       194  -8.6245     41.2507     20.7086   3.2562479870e+01   7.1339341377e+01    0.1224149    0.1070112  88.94 0.0006861432    1.481    0.325
       195  -9.5887    196.3238    248.3333   4.4119625740e+01   2.1818843023e-02    0.1143979   0.06314182  -8.25 -0.0001030037    1.708    0.414
       196 -11.9155    164.8085    242.5050   4.9171876616e+01   3.9076437521e+00     0.601528    0.2464732  15.03  0.002807197    2.685    0.628
