#   1 NUMBER                 Running object number                                     
#   2 MAG_AUTO               Kron-like elliptical aperture magnitude                    [mag]
#   3 X_IMAGE                Object position along x                                    [pixel]
#   4 Y_IMAGE                Object position along y                                    [pixel]
#   5 X_WORLD                Barycenter position along world x axis                     [deg]
#   6 Y_WORLD                Barycenter position along world y axis                     [deg]
#   7 A_WORLD                Profile RMS along major axis (world units)                 [deg]
#   8 B_WORLD                Profile RMS along minor axis (world units)                 [deg]
#   9 THETA_WORLD            Position angle (CCW/world-x)                               [deg]
#  10 FWHM_WORLD             FWHM assuming a gaussian core                              [deg]
#  11 ELONGATION             A_IMAGE/B_IMAGE                                           
#  12 ELLIPTICITY            1 - B_IMAGE/A_IMAGE                                       
         1 -14.4765    135.9478    123.6656   3.6439571845e+01   2.9987720020e+01     5.663918     2.573872 -51.30   0.02055616    2.453    0.592
         2 -15.8972    201.5789    113.5728   2.0329148966e+01   1.8396145748e+01     4.359138     3.378258  21.71   0.02436221    1.485    0.327
         3 -16.2751    245.6967     90.3713   9.2685706770e+00   1.3856485258e+01     6.817231     2.319113 -49.84   0.01988166    3.903    0.744
         4 -14.4311    171.0991    110.5313   2.5146420894e+01   2.5094524316e+01     3.468424     1.902572 -43.81   0.01505575    1.795    0.443
         5 -16.7856    242.3277    127.4067   1.7287980848e+01   9.3475635086e+00     4.517396     2.880132 -10.32   0.02586344    1.765    0.433
         6 -12.3813    219.2605      2.5552   3.5179650247e+02   2.9493505177e+01     1.084904    0.2787368  82.01  0.004130956    4.066    0.754
         7 -12.5955    248.2180     15.2765   3.5316386725e+02   2.2450779423e+01     1.221645    0.3951229 -31.17  0.005845361    2.484    0.597
         8 -13.8190    240.3776      4.4593   3.5125133719e+02   2.5026678250e+01     1.952961     1.150989  60.05   0.01195632    2.155    0.536
         9 -10.4406     55.4313     19.5551   2.7114837591e+01   6.8792630715e+01    0.3792232     0.238629 -14.58   0.00142289    2.028    0.507
        10 -10.7915    190.0682     15.1224   3.5677774632e+02   3.4812399533e+01    0.3378612    0.2037514 -60.11 0.0009430634    1.487    0.328
        11 -11.3046    208.3396     12.6706   3.5482768120e+02   3.0858732903e+01    0.2232118    0.2061943 -77.61 0.0007114309    1.196    0.164
        12  -9.0814     59.2800     10.7524   2.0003554919e+01   6.9149429069e+01    0.1926353    0.1459808  23.50 0.0007185388    1.356    0.263
        13 -10.8122    172.6966     12.2336   3.5745073225e+02   3.9371068777e+01    0.2799602    0.1687605 -57.63  0.001049276    1.526    0.345
        14 -10.0253    186.4050    184.6339   3.7645397160e+01   9.4204376080e+00    0.2452781    0.1461219 -35.77   0.00131402    1.691    0.409
        15 -12.4970    244.9553    248.3736   3.7494965951e+01  -5.6602629638e+00    0.7188734    0.4568776   7.48  0.005709206    1.104    0.094
        16 -12.2135    244.7759    233.3879   3.5381363449e+01  -4.1232160146e+00    0.5786726    0.3701223 -21.71  0.004400164    1.402    0.287
        17 -11.9369    249.0255    218.1502   3.2440583094e+01  -2.9263510941e+00     1.388641     0.277519 -29.26  0.004874872    6.070    0.835
        18 -11.4575    203.7184    200.3452   3.7075732705e+01   4.6370451796e+00    0.4774315    0.3013859  13.57  0.002440645    1.463    0.317
        19 -11.5901    247.2780    200.8938   2.9963681559e+01  -7.8821298331e-01    0.4402345    0.3038582  44.15  0.001689176    2.351    0.575
        20  -9.7946    240.0915    195.5327   3.0171938737e+01   6.7695621358e-01    0.2605398    0.1625405  11.85  0.001713729    1.465    0.317
        21  -8.5208    228.8188    204.1655   3.3387635809e+01   9.5499778855e-01    0.1573647    0.1035934  -1.09 0.0004633182    1.290    0.225
        22 -10.2195     26.0906    196.3626   7.8577166527e+01   2.9894279889e+01    0.1891813    0.1661155 -86.10 0.0004109393    1.262    0.208
        23  -9.6373    250.2188    194.2199   2.8426996726e+01  -3.3611755621e-01    0.2903455    0.1088981 -29.60 0.0008953954    2.288    0.563
        24  -9.8116    180.2434    193.8520   4.0461004565e+01   8.8971402507e+00    0.2433535    0.2092688 -25.85  0.000744895    1.273    0.215
        25 -11.4327    222.4008    245.3278   4.0670769276e+01  -3.1016687916e+00    0.2676793    0.1524059  33.48  0.001101527    1.871    0.465
        26 -14.4415    239.0997     96.7965   1.1370367753e+01   1.4098638442e+01     1.083671    0.5169528 -28.62  0.002470806    1.917    0.478
        27  -9.3738    203.3259    187.8828   3.5023560530e+01   6.4577011635e+00    0.2224379    0.1920198  54.91  0.001150679    1.815    0.449
        28 -10.6331    148.6726    186.9211   4.6041961995e+01   1.4940569620e+01    0.4041099    0.3517314  59.28  0.002389687    1.458    0.314
        29 -15.0678    239.3818    116.1052   1.5378575502e+01   1.1372844494e+01     1.159872    0.7041107 -27.75    0.0032641    1.422    0.297
        30  -9.1106    101.7360    177.8165   5.6242680136e+01   2.4337858714e+01    0.2294339    0.1456813 -13.78 0.0009148435    2.644    0.622
        31 -10.9711    206.7560    204.7038   3.7245969200e+01   3.6404763975e+00     0.228598    0.2163591  14.77 0.0005604462    1.537    0.349
        32 -15.1500    205.1725    169.0872   3.1278360362e+01   8.9727860488e+00     2.587578     2.061397  68.27   0.01469509    2.261    0.558
        33 -14.0265    220.6181    118.2692   1.8415954458e+01   1.4190905996e+01     1.240328    0.8264357   0.72  0.005606467    2.026    0.506
        34 -14.1636    196.6155    173.9619   3.3753729882e+01   9.5316239255e+00     1.541795     1.033248  56.07    0.0059137    2.412    0.585
        35 -10.5461    120.0065    154.5732   4.7349064898e+01   2.6358216132e+01    0.2287544    0.2039144 -47.03 0.0008047991    1.210    0.173
        36 -11.0622     69.5092    145.4687   6.0766534105e+01   3.6999922373e+01     0.459093    0.3447008  48.08  0.001353329    1.250    0.200
        37 -11.3817     66.4858    143.4989   6.1444336154e+01   3.7942264982e+01    0.5076798    0.3749778 -86.09  0.001802168    1.478    0.324
        38 -10.5710     13.2199    135.2175   7.8652261297e+01   4.5916540511e+01    0.2442457    0.2252753  14.70 0.0005117526    1.226    0.184
        39 -10.1085    193.4845    223.9210   4.2667577804e+01   2.7715353736e+00    0.2527717    0.1816252  15.74   0.00102638    1.092    0.085
        40 -10.0011    120.8982    128.7447   4.1684612490e+01   3.1969728129e+01    0.2680686    0.2310333 -63.73 0.0005043135    1.270    0.213
        41 -13.6527     10.9534    107.2416   7.7231705586e+01   5.3488001884e+01     1.238083      1.01698 -36.74  0.004632632    1.331    0.249
        42 -12.6245     41.4402    107.5997   6.4715836157e+01   5.0730736752e+01    0.5531813    0.5259957  44.70 0.0009960857    1.064    0.060
        43 -12.7314     58.1859    111.6245   5.8795114495e+01   4.7487123042e+01    0.9053751    0.6111931  39.22  0.001225466    1.435    0.303
        44 -13.9952     51.0283    108.1229   6.0925658827e+01   4.9405625277e+01     2.877301     1.162759  26.07  0.007750668    2.568    0.611
        45 -11.1633    126.8388    110.9295   3.5685040380e+01   3.4688000823e+01    0.4073319    0.2794184 -49.37 0.0004237558    1.512    0.339
        46 -10.9005    174.5381    222.3375   4.6071960872e+01   5.4343786223e+00    0.4197318    0.1379834  29.86  0.001792785    2.655    0.623
        47  -8.7318     93.5271    110.4839   4.5704316742e+01   4.1743693195e+01    0.1584769    0.1527151  52.42 0.0001123378    1.001    0.001
        48 -10.4515    140.9841    105.9477   3.0695928149e+01   3.2604153137e+01    0.3500704    0.3002126 -89.80  0.001135757    1.369    0.269
        49 -14.7376    249.3715    142.0784   1.9219871217e+01   6.3419605634e+00     2.367897    0.6972123 -28.81  0.005152015    3.543    0.718
        50 -14.9642    163.6712    160.6521   3.7880277101e+01   1.7227518336e+01      4.98084     2.536465  22.78   0.01954505    2.642    0.622
        51 -10.4132    112.1726     96.9675   3.6119900755e+01   4.1013143351e+01    0.3764584    0.3079671 -21.22 0.0008389326    1.455    0.313
        52  -8.3557     65.4589     96.4731   5.2524832284e+01   5.0338895507e+01    0.1530066    0.1496372  67.39  5.77908e-05    1.007    0.007
        53 -11.0896    239.5028    218.0959   3.3894947191e+01  -1.9108459856e+00    0.2368468    0.1887152   1.45 0.0005606842    1.263    0.208
        54 -10.2835    196.3348     87.1932   1.4889255656e+01   2.3678123678e+01    0.2707044    0.2331695  -5.74 0.0004239761    1.317    0.241
        55  -8.7095    109.3889     86.8049   3.3983699038e+01   4.3883239774e+01    0.2113318    0.1530544 -34.00  0.000431704    1.540    0.351
        56  -8.8007    113.7745     83.5556   3.1656735703e+01   4.3564966843e+01    0.2192427    0.1508296  59.09 0.0005236073    1.534    0.348
        57 -10.8142    191.0729     75.7215   1.2788826114e+01   2.6608502384e+01    0.3186058    0.2432089  29.28  0.001663493    1.669    0.401
        58 -11.9258    203.7570     64.5143   8.2162375430e+00   2.5484969139e+01    0.8939753    0.3901888 -26.64  0.003627621    2.544    0.607
        59  -8.9195    192.9572     68.2983   1.0600673784e+01   2.7313251836e+01     0.183159    0.1714331 -79.54 0.0002800974    1.080    0.074
        60 -11.3298    169.3462     60.2052   1.1942387651e+01   3.4082661953e+01    0.6192589    0.2365309 -40.13  0.002013408    2.405    0.584
        61  -9.0711    143.0304     60.0200   1.6727583272e+01   4.0735586934e+01    0.2366812    0.1859534  19.59 0.0005725103    1.677    0.404
        62  -8.2926    157.6489     71.2912   1.7245191249e+01   3.5174649760e+01    0.1569559    0.1134569 -75.59 0.0002381223    1.673    0.402
        63 -11.3438    178.0238     57.5716   9.8563545099e+00   3.2370753650e+01    0.4714012    0.3558487  50.61  0.001501034    1.448    0.309
        64  -9.5245    249.8105     51.8958   7.5956762332e-01   1.8049639633e+01    0.1685638    0.1457622 -19.76 0.0008288227    1.325    0.245
        65  -9.5532    183.7488     51.9708   7.5055085512e+00   3.1805022073e+01     0.195548    0.1676144 -45.69 0.0004076779    1.103    0.093
        66  -8.9052    156.9554     48.0002   1.0327038237e+01   3.9015964905e+01    0.1752529    0.1618768 -71.70            0    1.025    0.024
        67  -9.4228     46.3691     45.2960   4.5062188906e+01   6.5721101759e+01    0.2530137    0.1541896 -40.08 0.0008449361    1.670    0.401
        68 -10.3636    166.5392    189.9812   4.2629635827e+01   1.1593038589e+01    0.3443891    0.2706869 -29.84  0.001920593    1.325    0.246
        69  -9.6961     81.9118    219.8823   6.6370998221e+01   1.8516548666e+01    0.1847886    0.1754601  35.55 0.0004380778    1.189    0.159
        70 -10.4803    223.9688    214.2710   3.5807444345e+01   2.8842224485e-01     0.205177    0.1543552  16.72 0.0003754709    1.234    0.189
        71 -10.2533    190.1097    213.0166   4.1643758834e+01   4.6853367554e+00    0.1883708    0.1490632   9.59 0.0006890217    1.040    0.039
        72  -8.3181    152.3362    212.7475   4.9260804547e+01   9.9562317213e+00    0.1221584   0.08823802  45.59 0.0002266613    1.566    0.361
        73 -10.1838    242.9518    207.6583   3.1715171307e+01  -1.0932538873e+00    0.2084102    0.1629303   7.99 0.0006330683    1.233    0.189
        74 -10.2394      6.4980    208.0006   8.3918829687e+01   2.9144997351e+01    0.1712693    0.1050198  85.02 0.0007709928    1.580    0.367
        75 -12.5787    193.1067    194.8857   3.8128246448e+01   6.8795355254e+00    0.9938085    0.6804754 -62.13  0.004840097    3.116    0.679
