#   1 NUMBER                 Running object number                                     
#   2 MAG_AUTO               Kron-like elliptical aperture magnitude                    [mag]
#   3 X_IMAGE                Object position along x                                    [pixel]
#   4 Y_IMAGE                Object position along y                                    [pixel]
#   5 X_WORLD                Barycenter position along world x axis                     [deg]
#   6 Y_WORLD                Barycenter position along world y axis                     [deg]
#   7 A_WORLD                Profile RMS along major axis (world units)                 [deg]
#   8 B_WORLD                Profile RMS along minor axis (world units)                 [deg]
#   9 THETA_WORLD            Position angle (CCW/world-x)                               [deg]
#  10 FWHM_WORLD             FWHM assuming a gaussian core                              [deg]
#  11 ELONGATION             A_IMAGE/B_IMAGE                                           
#  12 ELLIPTICITY            1 - B_IMAGE/A_IMAGE                                       
         1 -14.9535     68.6066    144.3280   1.0577962119e+02   3.8395364108e+01     4.869139     1.579936  58.59  0.003533144    4.841    0.793
         2 -14.2777    196.7210     36.1011   5.0593130549e+01   3.0616506562e+01     1.715881     1.295375  20.28  0.006168096    1.522    0.343
         3 -14.6068    207.5470     24.3637   4.5646186305e+01   2.9093856737e+01     1.963035     1.169433   3.89   0.00289528    2.148    0.534
         4 -10.1530    155.3882     10.9168   4.7606256446e+01   4.4776275813e+01    0.2447135     0.206708 -83.43 0.0004031036    1.237    0.192
         5 -10.2303     62.5101      8.4516   6.9920595079e+01   6.7896461760e+01    0.1336474    0.1204424 -18.71 0.0004652094    1.007    0.006
         6 -12.0474    231.2724      2.0433   3.6986065825e+01   2.5175001080e+01    0.7092859    0.2614518  77.88  0.002534543    2.907    0.656
         7 -12.1487     59.2516      2.5523   6.7749891728e+01   6.9385207585e+01    0.5387359    0.1613939  47.43  0.001989836    3.439    0.709
         8 -11.2858     28.4809      1.9887   8.3397216089e+01   7.4323976987e+01     0.208556    0.1753654  54.01  0.001024847    1.591    0.372
         9  -9.8797     96.7026    189.9507   1.0477390257e+02   2.6078586017e+01     0.181428    0.1358893  56.47 0.0004587735    1.040    0.038
        10 -14.9407     86.7197    227.9775   1.0985494194e+02   2.1693423950e+01     2.096154    0.8083239  44.47  0.004318331    1.782    0.439
        11 -17.5517     52.0751    200.8737   1.1422134668e+02   3.0061883035e+01     10.66578     5.181767  85.59   0.05271475    2.201    0.546
        12  -9.6739     99.4447    186.9805   1.0392847296e+02   2.6166816088e+01    0.1742434    0.1254019  77.80  0.001160966    1.438    0.305
        13 -10.2246     99.4553    180.7837   1.0325214125e+02   2.7194499079e+01    0.2059133    0.1610959  41.70 0.0005936719    1.249    0.200
        14 -14.6330     20.2372    192.8336   1.1978985332e+02   3.4792566447e+01     1.261848    0.4644254  49.84 0.0005327315    1.839    0.456
        15 -11.9239    193.4366    195.3062   8.7858649015e+01   1.0061970704e+01    0.7082888    0.3918877 -60.40  0.002900041    5.891    0.830
        16 -13.4265     53.2352    146.8243   1.0971134450e+02   3.9862198859e+01     1.422815    0.4730358  31.33  0.005886885    3.566    0.720
        17 -13.9686     57.9725    129.5844   1.0660809220e+02   4.2859450102e+01     2.225865    0.7059501 -78.33  0.007008988    5.356    0.813
        18 -13.1298     83.7417    163.0859   1.0453475694e+02   3.2629968296e+01     1.132009    0.3231222  52.47 0.0003913915    3.702    0.730
        19 -13.7544     72.2012    158.4914   1.0656744309e+02   3.5112862123e+01    0.5101829     0.457435  40.35  0.001583423    1.355    0.262
        20 -15.7748      9.5144    206.5809   1.2221768592e+02   3.3504431276e+01    0.9393491    0.6553878  65.41    0.0048095    1.083    0.077
        21  -9.4082    201.6725    169.3158   8.2339858748e+01   1.1686026661e+01    0.1107535   0.09432382  72.19 0.0007044771    1.674    0.403
        22  -9.6766    162.5763    167.7724   8.9049286712e+01   1.8830848812e+01    0.1487841    0.1205175 -62.80 0.0009328773    1.602    0.376
        23  -9.2634    205.4239    167.2180   8.1347525028e+01   1.1278112747e+01    0.1512175    0.1144987 -38.93 0.0009570168    1.636    0.389
        24 -10.7068    113.9026    200.0216   1.0254918078e+02   2.1999512984e+01    0.2417659     0.163598  78.75   0.00109291    1.777    0.437
        25  -9.8751    192.8286    165.1147   8.3122704846e+01   1.3769180954e+01    0.1776818    0.1583282  44.79 0.0007442293    1.200    0.166
        26  -9.0078    170.3132    161.6783   8.6582970409e+01   1.8313372546e+01    0.1210824   0.09579431  74.09 0.0007039325    1.655    0.396
        27 -12.2676     90.4891    155.8231   1.0216267120e+02   3.2999017107e+01    0.4870542    0.4140874 -11.55  0.003060994    1.882    0.469
        28 -11.2602    133.7913    144.1411   9.0838175184e+01   2.7858392547e+01     0.853551     0.232026 -54.65  0.002581814    5.599    0.821
        29 -10.8053     97.4291    148.8845   9.9658394233e+01   3.3244788764e+01    0.3559766    0.1988459  74.10  0.001641357    2.499    0.600
        30 -10.3959    174.8211    148.9278   8.3449718258e+01   1.9318084992e+01    0.2224749    0.1870462 -69.75 0.0009944871    1.582    0.368
        31  -9.9702     86.2255    145.1880   1.0172430754e+02   3.5698294195e+01    0.2174968    0.1512951  59.85 0.0004603442    1.276    0.216
        32 -11.0263    103.9058    140.4168   9.6890875718e+01   3.3820536510e+01     0.459687    0.3412009 -17.55  0.002361106    2.436    0.589
        33 -12.4221     91.2900    140.8148   9.9910016624e+01   3.5785683135e+01    0.2406008    0.2236528  76.42 0.0004693132    1.147    0.128
        34 -10.1055     97.2481    200.6095   1.0571523145e+02   2.4308882340e+01    0.2173877    0.1675458  16.72  0.000957129    1.984    0.496
        35  -9.5640    175.1153    139.1334   8.1500207170e+01   2.0715303603e+01    0.1710537    0.1546764  73.70  0.000338262    1.288    0.224
        36  -9.4090     79.1125    139.4839   1.0263361390e+02   3.7898200109e+01    0.1786649    0.1113991  44.73 0.0002957096    1.468    0.319
        37 -10.9740    209.8742    199.4581   8.5817115922e+01   7.0132824237e+00    0.1804101    0.1693245  87.38  0.000645661    1.709    0.415
        38 -12.9639     43.2425    126.4154   1.1006848197e+02   4.5302373245e+01    0.6971732    0.2297405  46.46   0.00313355    2.627    0.619
        39 -16.6434     65.4208    248.3094   1.1459749428e+02   2.1519637578e+01     7.400513     1.781708  34.45   0.02362852    5.797    0.827
        40 -10.4214    106.0039    130.7423   9.4777481823e+01   3.5359620241e+01    0.2916178    0.2483431  88.44      0.00123    1.161    0.138
        41 -10.3867    112.4440    130.7675   9.3252196099e+01   3.4222283075e+01     0.257488    0.2187178  17.63 0.0007180633    1.531    0.347
        42 -11.3463    135.9014    126.4776   8.7038462920e+01   3.0629423694e+01    0.6153359     0.130001 -48.66   0.00174004    5.407    0.815
        43 -11.7752    118.0824    125.5379   9.0944538662e+01   3.4214283191e+01    0.6649086    0.3666555 -40.00  0.003013704    2.310    0.567
        44 -11.2276     99.5446    127.2996   9.5740987718e+01   3.7156155556e+01    0.3195164    0.2608497  -2.00  0.001432662    1.926    0.481
        45 -11.4034     25.0910    120.9137   1.1435105098e+02   4.8352262664e+01    0.2786923    0.1252066  45.44  0.001509771    1.979    0.495
        46 -10.0441    108.5821    119.6218   9.2088952996e+01   3.7128074430e+01    0.2164403    0.1889594  47.83 0.0004341041    1.147    0.128
        47 -11.2811    137.7245    171.0369   9.4344730730e+01   2.2675083687e+01    0.2611198    0.1792761  58.28  0.001067473    1.405    0.288
        48 -12.7890     43.1149    114.1568   1.0867270977e+02   4.7997588384e+01    0.4761285     0.245473  53.10  0.002514316    1.833    0.455
        49  -9.7144    107.8077    113.8491   9.1125008294e+01   3.8441465259e+01    0.1853935    0.1770207  69.70 0.0002723048    1.093    0.085
        50  -9.5623    167.8087    112.5397   7.7184873161e+01   2.6425962598e+01    0.2547356    0.1816557 -77.61  0.001163096    2.185    0.542
        51 -11.6253    118.6369    109.8950   8.7578607234e+01   3.7189837617e+01    0.5936043    0.3766026  61.21  0.002814797    1.706    0.414
        52 -11.0332    149.4817    188.0860   9.4509612202e+01   1.8171293424e+01    0.3624159    0.2369516 -75.25   0.00202324    2.611    0.617
        53 -12.4200     45.8660    109.8770   1.0733476533e+02   4.8638552545e+01    0.3945432    0.2456618  45.41  0.001612265    1.560    0.359
        54 -11.3355     19.5502    111.0394   1.1500257652e+02   5.1008124039e+01    0.2054192    0.1588427  49.65 0.0005334326    1.304    0.233
        55  -9.8127    205.5840    110.2187   6.9681962142e+01   1.8577099866e+01    0.2414633    0.1820683  45.38 0.0005796875    1.272    0.214
        56 -11.4409     35.2156    101.3475   1.0934270327e+02   5.1717769821e+01    0.2875938    0.1712278  61.15  0.001391805    1.634    0.388
        57 -10.0080     86.3992     99.2982   9.3798354146e+01   4.5285812879e+01    0.2512082    0.1881346  66.50 0.0005967748    1.361    0.265
        58 -11.1396     53.0266     90.6532   1.0212045863e+02   5.2136650972e+01    0.3233843    0.1752255 -67.45  0.001395543    1.670    0.401
        59  -9.8975     58.5051     96.4838   1.0147438123e+02   5.0100390730e+01    0.2331815    0.1401652  60.03 0.0008961528    1.758    0.431
        60 -10.8739     55.3377     94.6939   1.0212772327e+02   5.0920149990e+01    0.2260095    0.1939052  57.02 0.0005538066    1.186    0.157
        61 -10.9300     41.7712     91.8629   1.0592578740e+02   5.3188129741e+01    0.2073018    0.1791546 -81.41 0.0004522334    1.073    0.068
        62  -8.9045    157.2971     80.6754   7.1113341910e+01   3.4196314573e+01    0.1520113    0.1170103 -72.76 0.0003165965    1.626    0.385
        63 -10.0653     60.6630     68.2000   9.4603221124e+01   5.6244602895e+01    0.2273866    0.1725681  58.49  0.001057864    1.416    0.294
        64 -10.7087    151.3931     54.6878   6.4318418218e+01   3.9979827384e+01     0.286057    0.2581056 -72.55 0.0003921471    1.179    0.152
        65 -13.4850    187.4207     43.3393   5.4186363127e+01   3.2171073827e+01     1.059662    0.7071097  22.07 0.0009722462    1.880    0.468
        66 -11.6463    171.5662    240.5506   9.7071653524e+01   8.5584324903e+00    0.2869944    0.1690873 -47.98  0.002085255    2.552    0.608
        67 -16.2434      5.0517    248.9118   1.2394634603e+02   2.7608478185e+01    0.9738725    0.6959437  38.46  0.006619219    1.601    0.375
        68 -10.9595    152.8984     48.0523   6.1759412962e+01   4.0627467769e+01    0.3788844    0.2843724 -70.48  0.001221545    1.605    0.377
        69 -11.4493     26.0379     35.0459   9.9559340797e+01   6.7828032243e+01    0.3292918    0.1393798  42.68  0.001376825    2.838    0.648
        70 -11.1788     12.0252     52.5215   1.1028307078e+02   6.4950111879e+01    0.2032913    0.1347488 -73.53 0.0007425172    1.210    0.174
        71  -9.8713    189.7019     15.0109   4.4640078696e+01   3.4835389538e+01    0.2117408    0.1896044 -28.98 0.0005503077    1.096    0.088
        72  -9.1024    185.5429    236.5155   9.4465181549e+01   6.9839855935e+00    0.1041741   0.07283647  36.94 7.440484e-05    1.026    0.025
        73 -10.7449    198.4997    222.7694   9.0804349637e+01   6.4360606724e+00     0.192907    0.1097568  39.63 0.0004553313    1.285    0.222
        74 -15.8151      2.0169    228.1221   1.2400398599e+02   3.0835394689e+01     1.253436    0.3482579 -78.85  0.007535916    3.598    0.722
        75  -9.1474    130.4576    212.5601   1.0088672276e+02   1.7775141544e+01    0.1119202   0.08218091  48.01 0.0001823084    1.024    0.023
