#   1 NUMBER                 Running object number                                     
#   2 MAG_AUTO               Kron-like elliptical aperture magnitude                    [mag]
#   3 X_IMAGE                Object position along x                                    [pixel]
#   4 Y_IMAGE                Object position along y                                    [pixel]
#   5 X_WORLD                Barycenter position along world x axis                     [deg]
#   6 Y_WORLD                Barycenter position along world y axis                     [deg]
#   7 A_WORLD                Profile RMS along major axis (world units)                 [deg]
#   8 B_WORLD                Profile RMS along minor axis (world units)                 [deg]
#   9 THETA_WORLD            Position angle (CCW/world-x)                               [deg]
#  10 FWHM_WORLD             FWHM assuming a gaussian core                              [deg]
#  11 ELONGATION             A_IMAGE/B_IMAGE                                           
#  12 ELLIPTICITY            1 - B_IMAGE/A_IMAGE                                       
         1 -18.9123    225.5599     37.3008   6.4242585607e+01   2.4414627550e+01     9.053765       8.1151 -60.48   0.05636136    1.178    0.151
         2 -15.2167    177.3142     76.9977   8.1497628781e+01   3.0144888209e+01     2.274543     1.897932  53.13   0.01008434    1.173    0.147
         3 -11.2736    192.8445     15.7185   6.3104983840e+01   3.4865137019e+01    0.2664073    0.2075626 -64.03 0.0005287018    1.276    0.216
         4 -10.5013    189.3547     13.1698   6.2910007275e+01   3.5984192519e+01    0.2416895    0.1426061 -37.60  0.001276011    1.843    0.457
         5 -10.5079    107.1601      9.8248   7.5923543134e+01   5.5674755179e+01    0.1801137    0.1656534  65.19  0.000600561    1.241    0.194
         6 -10.4012    199.7009      7.1756   6.0299123637e+01   3.4113000960e+01    0.2101415    0.1035824 -38.14  0.001052252    2.128    0.530
         7  -9.7982    150.9494      7.9713   6.6871845488e+01   4.5814020214e+01    0.1855808    0.1389009 -71.01 0.0003526127    1.544    0.352
         8 -11.9328    135.9401      2.5610   6.7741178548e+01   4.9821412968e+01     0.426572    0.2623084  45.01   0.00206366    1.467    0.318
         9  -9.8120    182.2243      3.7996   6.1465659641e+01   3.8640282740e+01    0.2929447    0.1178734  63.94   0.00133298    1.981    0.495
        10 -11.5898     56.5314      2.4817   8.7659400484e+01   6.5814297896e+01    0.2220268    0.1247099  18.25  0.001294561    1.705    0.414
        11  -9.5608    120.0180      1.2386   7.0236903301e+01   5.3562330761e+01    0.1589796   0.08858354  59.53 0.0008405077    1.474    0.322
        12 -14.8706    203.2762     61.9874   7.3046278293e+01   2.6179652976e+01     2.424042     1.080021  72.73   0.00873777    2.867    0.651
        13 -13.7494    162.4296     67.8839   8.2000657531e+01   3.5377442909e+01    0.5043601    0.3930263 -11.64  0.002126377    1.620    0.383
        14 -15.0924     11.4811    201.8993   1.4648298348e+02   3.1134506461e+01     1.825533     1.080993  86.61  0.009976157    1.363    0.267
        15 -11.0210    134.9933    120.6371   1.0303894402e+02   3.1496348965e+01    0.3847207    0.1657859 -48.61  0.001333191    2.366    0.577
        16 -15.3314     30.1029    192.7109   1.4201635276e+02   3.1237445976e+01     1.103901     0.970333 -76.12  0.003549078    1.263    0.208
        17 -12.3819    152.6436    119.7376   9.8370130033e+01   2.7730890177e+01    0.5282068    0.3631243 -26.08  0.002215257    1.805    0.446
        18 -11.9748    120.0433    111.6334   1.0470229636e+02   3.6670139646e+01    0.6027172    0.3754539  74.91  0.002111922    3.079    0.675
        19 -10.0657     87.6483     68.7030   1.0190650935e+02   5.1595866364e+01    0.1448761    0.1031233   1.88 0.0006204043    1.688    0.407
        20 -10.8751    130.9889     65.9861   8.8662660657e+01   4.3217087836e+01    0.2299046    0.2150199  27.74 0.0008027462    1.038    0.037
        21 -10.9551    134.0000    147.5704   1.0972935994e+02   2.5563478294e+01    0.6788184    0.1808251 -52.79   0.00176934    4.352    0.770
        22 -11.7386    137.0246     64.7058   8.6781129174e+01   4.2032880435e+01    0.3397326    0.2497648  25.70  0.001632232    1.566    0.361
        23  -9.3300    111.4752    113.4553   1.0755220453e+02   3.7991513568e+01    0.1504597     0.147592 -35.64 0.0001191552    1.008    0.008
        24 -10.3064    153.9156    109.4811   9.5396755689e+01   2.9613154319e+01    0.2437998    0.1551501  50.69 0.0005428528    1.562    0.360
        25 -10.9096    144.2307    145.8873   1.0679084762e+02   2.3780590609e+01    0.3610366    0.2491103  74.97  0.001461652    2.038    0.509
        26 -11.6440    134.1157     55.1353   8.4543746001e+01   4.4219695968e+01    0.3073441    0.2009389 -44.55 0.0004411103    1.696    0.410
        27 -10.3896    139.4846    103.9321   9.7486129184e+01   3.4101841136e+01    0.2353314    0.1548861 -42.98 0.0005978142    1.536    0.349
        28 -12.7200    120.1844    102.7126   1.0227712585e+02   3.8573957595e+01    0.6012788    0.4642977 -42.19  0.002922351    1.291    0.225
        29 -12.5854    204.6596     50.7048   7.0062052479e+01   2.7537423752e+01    0.3037807    0.2562034 -64.90 0.0005984985    1.136    0.119
        30 -13.4583    207.5092     48.5487   6.9134229479e+01   2.7153933059e+01    0.3475339      0.26424 -55.96  0.000716578    1.280    0.218
        31 -12.3314    134.7227    108.3285   9.9899147630e+01   3.4241628003e+01     1.653755    0.2788776 -45.01  0.003662678    5.984    0.833
        32 -10.7921    152.0532    144.9409   1.0465809152e+02   2.2291284923e+01    0.2595453    0.2027593  -0.98  0.001139208    1.762    0.432
        33 -11.7783    144.9311     99.9790   9.5036160307e+01   3.3666579539e+01    0.4561893    0.3891451  77.92 0.0008645535    1.322    0.244
        34 -10.5379    190.7432     40.6450   6.9593282050e+01   3.2367574010e+01    0.2507324    0.1928153  44.64 0.0008102406    1.454    0.312
        35 -10.5665    190.0166     35.9657   6.8510556312e+01   3.3161544110e+01    0.2046996    0.1751475 -77.67 0.0008567323    1.120    0.107
        36 -11.5824    244.4442    150.9784   8.6900583289e+01   1.2995697928e+00     0.351083    0.2618212 -76.64  0.001725222    2.043    0.510
        37 -11.7770    153.0939     21.3712   7.0388576149e+01   4.3987579594e+01    0.2150786    0.2040541  58.31 0.0002502597    1.108    0.098
        38 -11.2092    131.7871     96.2975   9.7373949564e+01   3.7404131818e+01    0.2953159    0.2873479  83.50 0.0006359147    1.073    0.068
        39 -12.0351    192.4009    194.2550   1.0607734038e+02   3.4363177987e+00     1.038787    0.5255813 -64.53  0.002827338    6.161    0.838
        40 -13.0841     68.8926    145.3870   1.2646931929e+02   3.7602437724e+01     2.570302     1.355145  73.61  0.007506196    3.863    0.741
        41 -10.8606    111.9732    103.9782   1.0491590890e+02   3.9979171751e+01    0.2346318     0.229311 -22.25 0.0005826666    1.002    0.002
        42 -11.8788    137.6501     89.1373   9.3832175910e+01   3.7502717621e+01    0.3774811    0.3309243  85.97 0.0008285813    1.310    0.237
        43 -12.9614    149.8098     82.9142   8.9078516973e+01   3.5828627146e+01    0.3780011    0.3122111 -51.61 0.0009053659    1.277    0.217
        44 -14.0385     67.4846    161.5652   1.2955152377e+02   3.3899607223e+01    0.7746885    0.6275084  71.43   0.00157789    1.227    0.185
        45 -13.6015     55.6235    172.9023   1.3410083319e+02   3.2783901105e+01      0.67232    0.5051908 -10.04   0.00102887    2.220    0.549
        46 -14.6633     62.2061    167.5936   1.3177464610e+02   3.3179290192e+01     1.449471     1.124715  21.63  0.002940386    1.671    0.402
        47 -12.3035    230.6494    167.1938   9.2841757633e+01   1.0129897323e+00      0.48958    0.2577626 -44.79  0.001803441    1.910    0.476
        48 -12.0236    135.6936    128.4244   1.0480382884e+02   2.9597512674e+01    0.9085327     0.269478 -52.09  0.002439648    4.058    0.754
        49 -12.3708    234.8271    158.6319   9.0242280717e+01   1.7604563942e+00    0.5951922    0.2368092 -36.58   0.00226106    2.442    0.590
        50 -12.3350    219.6136    155.3330   9.2360398265e+01   5.3901870924e+00    0.4780043    0.1718359 -38.89  0.001655942    2.727    0.633
