#   1 NUMBER                 Running object number                                     
#   2 MAG_AUTO               Kron-like elliptical aperture magnitude                    [mag]
#   3 X_IMAGE                Object position along x                                    [pixel]
#   4 Y_IMAGE                Object position along y                                    [pixel]
#   5 X_WORLD                Barycenter position along world x axis                     [deg]
#   6 Y_WORLD                Barycenter position along world y axis                     [deg]
#   7 A_WORLD                Profile RMS along major axis (world units)                 [deg]
#   8 B_WORLD                Profile RMS along minor axis (world units)                 [deg]
#   9 THETA_WORLD            Position angle (CCW/world-x)                               [deg]
#  10 FWHM_WORLD             FWHM assuming a gaussian core                              [deg]
#  11 ELONGATION             A_IMAGE/B_IMAGE                                           
#  12 ELLIPTICITY            1 - B_IMAGE/A_IMAGE                                       
         1 -14.0489      3.7525     30.5846   1.2382722329e+02   6.7690562371e+01     1.368505    0.3771296 -55.22   0.00607779    3.430    0.708
         2 -15.0530      3.8826     72.0191   1.3437885796e+02   6.0002297750e+01     1.421358    0.4272672 -63.47  0.005987752    2.631    0.620
         3 -13.9165    176.7861     32.0051   7.2995960734e+01   3.7357287903e+01     1.038578    0.8022767  15.78  0.004298749    1.702    0.412
         4 -12.1210    249.9101     12.4602   5.9758903823e+01   2.2235266633e+01    0.4422007    0.2400708 -36.28  0.002394887    1.876    0.467
         5 -11.7470    250.0000      6.9714   5.8638238500e+01   2.2853631577e+01    0.3943575    0.1508785 -35.55  0.001851086    2.544    0.607
         6 -12.4188    221.3878      2.7390   6.0177198698e+01   2.9803997261e+01    0.7485654    0.2903171  83.74  0.003059545    2.801    0.643
         7 -11.3908    195.8261      1.5389   6.2444333495e+01   3.6003586904e+01    0.3926672    0.1029236  68.75  0.001434679    3.100    0.677
         8 -12.4883      1.3170    208.1272   1.5041488386e+02   3.1059121051e+01    0.3695704   0.07757849 -76.66   0.00150322    3.831    0.739
         9 -11.1004    225.2378    244.8638   1.1288544558e+02  -9.6837691915e+00    0.9478646    0.6224564  31.03  0.005813599    1.274    0.215
        10 -12.9706    248.6212    245.3025   1.0883366424e+02  -1.3303473614e+01    0.6633769    0.5165406 -28.15  0.003641172    1.455    0.313
        11 -13.4244    246.9880    201.2761   1.0116585288e+02  -7.1140739369e+00     1.517926    0.6579011 -42.16  0.006758225    2.499    0.600
        12 -15.2596    237.2750    228.2547   1.0789712746e+02  -9.3852392562e+00     1.159281     1.085176  54.81  0.005290646    1.490    0.329
        13 -13.5986    224.2471    211.9604   1.0733331607e+02  -4.8507530815e+00     2.130913    0.8745399 -35.94  0.009186282    2.587    0.613
        14 -14.4151    241.6197    217.8613   1.0524794630e+02  -8.6419630079e+00    0.8253618    0.7092899  32.64  0.003588365    1.242    0.195
        15 -12.8227    191.1146    243.5833   1.1893336510e+02  -3.8699302209e+00    0.7856956    0.5345228 -43.22  0.003555174    1.759    0.432
        16 -12.9877    182.1226    237.2836   1.1965290062e+02  -1.3588881591e+00    0.5513821    0.5136347  53.89  0.002141973    1.170    0.145
        17  -8.9687    156.1993    221.6606   1.2227461133e+02   5.9358159075e+00    0.3406253      0.29524 -14.30  0.001701934    1.472    0.320
        18 -12.1551    168.6910    249.4070   1.2396346657e+02  -9.0105034056e-01     1.034398     0.348559  46.31   0.00433077    2.519    0.603
        19 -12.8431    154.2579    229.4882   1.2384419944e+02   4.8964020153e+00    0.4596057    0.4159684  68.62  0.001990048    1.126    0.112
        20 -14.2899    155.2601    247.6692   1.2622194291e+02   1.6751744865e+00    0.6046408    0.5368159  40.35  0.002537173    1.127    0.113
        21 -14.0295    156.8763    237.6881   1.2453047369e+02   3.0271048851e+00    0.7269298    0.5049893  73.46  0.002474387    1.864    0.464
        22 -15.5664    122.9093    215.3109   1.2803373219e+02   1.3142749274e+01     4.029541     1.847177 -68.24   0.01622193    3.039    0.671
        23 -16.5525     17.6209    130.0110   1.3990542119e+02   4.6587804701e+01     2.815492     1.589268 -81.45   0.01540098    1.615    0.381
        24 -16.6485     87.3927    199.7585   1.3322019370e+02   2.2299567968e+01     4.162265      2.05763  81.66   0.01519417    3.683    0.728
        25 -19.5199     38.9489    153.6087   1.3786113786e+02   3.9211164239e+01     19.76524     1.014886 -65.28   0.04310408    9.227    0.892
        26 -14.8716    248.5176    175.4734   9.5733592511e+01  -3.3486303147e+00      1.83589    0.5243996 -39.62  0.006440204    3.303    0.697
        27 -15.4676    246.2778    146.5090   8.9946691784e+01   1.9571377297e+00     2.389002     1.049023 -37.58  0.008655061    2.095    0.523
        28 -13.4087    126.7840    182.3123   1.2200155580e+02   1.9346357231e+01    0.7265995    0.4310225 -48.35  0.002323546    1.803    0.445
        29 -10.1736     99.6853    162.4965   1.2476773869e+02   2.8714540785e+01    0.2465911    0.2279212 -14.12 0.0008885167    1.392    0.282
        30 -11.1657    102.6347    158.4111   1.2331842631e+02   2.9161028844e+01     0.525799     0.213117 -57.33   0.00171838    2.395    0.583
        31 -12.3202     88.8757    157.6323   1.2651236314e+02   3.1633555429e+01    0.3425311    0.2579038 -34.96  0.001231915    1.711    0.416
        32 -11.1535    163.5159    156.0122   1.0848555224e+02   1.7655321920e+01     0.241605    0.1514573 -47.78  0.001041019    1.620    0.383
        33 -13.2051    199.3435    144.8190   9.8276324332e+01   1.2100232012e+01    0.8451454    0.5681759 -31.36  0.003808502    1.590    0.371
        34 -15.3005    209.6130    132.7625   9.3430611582e+01   1.2181435928e+01     2.017546     1.539294  12.43  0.008334855    1.726    0.421
        35 -12.4095    133.8766    144.5268   1.1287691118e+02   2.6460933165e+01    0.9699301    0.2412287 -53.67  0.002404377    5.040    0.802
        36 -12.0312     68.8736    143.7503   1.2905318554e+02   3.7879660376e+01    0.6031633    0.3331476  70.58  0.002482379    2.777    0.640
        37 -11.5798    102.0545    140.5379   1.1996386461e+02   3.3452451924e+01    0.2593492    0.2519531  67.01 0.0004878051    1.100    0.091
        38 -11.2382      1.8427    140.1107   1.4486258429e+02   4.5500112857e+01    0.2231162     0.139238 -57.77 0.0009884824    1.445    0.308
        39 -12.8531    112.3525    129.9556   1.1500277662e+02   3.4047265514e+01    0.4679245    0.4329075 -47.81  0.001376186    1.088    0.081
        40 -12.4301    106.3867    128.0873   1.1613560355e+02   3.5582908596e+01    0.7404954    0.2985297 -47.49  0.001934669    2.388    0.581
        41 -17.6319     93.0814    244.2393   1.3725651750e+02   1.2521722967e+01     2.934809     1.718684  66.05   0.01682637    1.584    0.369
        42 -11.9331    118.1637    130.4932   1.1362640113e+02   3.2812510700e+01    0.2940013    0.2403582 -22.19 0.0007677368    1.500    0.333
        43 -12.5421    160.6204    128.2264   1.0269085227e+02   2.4297270529e+01    0.4155038    0.2530208 -41.68  0.001730881    1.657    0.397
        44 -12.7585    135.4357    124.0138   1.0769891239e+02   3.0766642866e+01    0.9164202    0.1729007 -49.23  0.002053674    5.855    0.829
        45 -10.2836     76.7744    129.5759   1.2434297406e+02   4.0098572086e+01    0.1833763    0.1287954  52.06 0.0006556298    1.570    0.363
        46 -11.6935    125.0432    127.0227   1.1105078147e+02   3.2242397822e+01    0.2533349    0.1906725  87.69  0.001142311    1.724    0.420
        47 -10.8040    112.9081    119.4928   1.1238880607e+02   3.6336026604e+01    0.2210764    0.1498002  42.09 0.0008712859    1.544    0.352
        48 -11.6919     99.1109    117.5164   1.1562653380e+02   3.9311376588e+01    0.4231452    0.2393016  59.43  0.001694161    2.455    0.593
        49 -12.7499    220.1889    114.0017   8.6999216384e+01   1.3360435937e+01    0.5856588    0.3357169  65.76  0.002216528    2.197    0.545
        50 -12.5517    218.4702    108.2769   8.5919563492e+01   1.4813208336e+01    0.5733632    0.4835373 -32.26  0.002082775    1.200    0.166
        51 -10.8327    168.8616    113.8284   9.7189206479e+01   2.5431154716e+01    0.2235617    0.1890732 -83.92 0.0006062151    1.345    0.257
        52 -13.6718    230.9940    110.2435   8.4254692815e+01   1.1623106957e+01    0.5665826    0.5057901  83.53  0.001786847    1.205    0.170
        53 -10.4425    205.5885    110.2270   8.8736693260e+01   1.7444553550e+01    0.2105457    0.1462449 -29.23 0.0005588538    1.566    0.361
        54 -12.4750      2.1389     46.2237   1.2903436136e+02   6.5052794814e+01    0.5281509    0.1698162 -57.04  0.001992074    2.402    0.584
        55 -10.8611    210.4212    243.3742   1.1533167422e+02  -7.0869871608e+00     0.552141     0.294511  15.17  0.002373819    3.127    0.680
        56 -10.4287    204.1773    243.4214   1.1648668491e+02  -6.0558891722e+00    0.2450353    0.2055063 -56.64  0.001039017    1.628    0.386
        57 -13.7934     15.9264    102.0842   1.3619710179e+02   5.2930731099e+01     0.680761    0.5226608  66.05  0.002983091    1.592    0.372
        58 -13.2778      4.0372     99.7346   1.3921021585e+02   5.4205208075e+01    0.6087983    0.3985827  59.31  0.003718774    1.977    0.494
        59 -14.2150    236.5039     95.2862   7.9853369503e+01   1.3042315645e+01     1.100047    0.9157428 -23.91  0.003668932    1.329    0.248
        60 -12.3794    237.4136     64.0315   7.2407484114e+01   1.7998033255e+01    0.4842048    0.3619912 -35.46  0.002218808    1.377    0.274
        61 -14.0683      5.7220     90.0583   1.3715407383e+02   5.6171783829e+01    0.6685087    0.4901367 -64.02  0.002981098    1.078    0.073
        62 -12.2549    248.9038     51.8123   6.8240339955e+01   1.7243151690e+01    0.5610872    0.1988416 -42.22   0.00227714    2.426    0.588
        63 -10.4539     23.4273     49.6803   1.2184501669e+02   6.3007933610e+01    0.1894259    0.1172102 -15.73 0.0008158046    1.705    0.413
        64 -12.3675    163.2136     46.9443   7.9662500471e+01   3.8740539137e+01    0.3524495    0.3235767  67.21 0.0009272612    1.029    0.028
        65 -10.4613      5.2329    242.1499   1.5170894425e+02   2.4144372273e+01    0.2913169     0.146968  67.46  0.001729667    1.480    0.324
        66 -12.6169    180.4095     25.0821   7.0527328141e+01   3.7291719766e+01    0.4955957    0.4033055  48.85  0.001312836    1.259    0.205
        67 -11.5610    171.5854    230.0152   1.2054720830e+02   1.6875967338e+00    0.3035341    0.2802429 -25.02  0.001111076    1.258    0.205
        68 -12.4854    167.6230    225.6372   1.2063534917e+02   3.1466120893e+00    0.6545091    0.4465628 -12.69  0.002824735    2.459    0.593
        69 -16.9636     69.4773    245.2069   1.4150476129e+02   1.5812210400e+01     1.691621      0.82389  62.13  0.007937479    1.821    0.451
