#   1 NUMBER                 Running object number                                     
#   2 MAG_AUTO               Kron-like elliptical aperture magnitude                    [mag]
#   3 X_IMAGE                Object position along x                                    [pixel]
#   4 Y_IMAGE                Object position along y                                    [pixel]
#   5 X_WORLD                Barycenter position along world x axis                     [deg]
#   6 Y_WORLD                Barycenter position along world y axis                     [deg]
#   7 A_WORLD                Profile RMS along major axis (world units)                 [deg]
#   8 B_WORLD                Profile RMS along minor axis (world units)                 [deg]
#   9 THETA_WORLD            Position angle (CCW/world-x)                               [deg]
#  10 FWHM_WORLD             FWHM assuming a gaussian core                              [deg]
#  11 ELONGATION             A_IMAGE/B_IMAGE                                           
#  12 ELLIPTICITY            1 - B_IMAGE/A_IMAGE                                       
         1 -14.8895    175.6054    102.1952   2.9301397279e+01   2.6031306634e+01     6.585309     3.372467 -34.74   0.01697725    2.140    0.533
         2 -14.1893    193.5383    105.4288   2.6646847696e+01   2.1449071915e+01     2.248732     1.773358  22.26   0.01144785    1.639    0.390
         3 -15.8500    243.6858     47.8077   7.3146959235e+00   1.9975382209e+01     4.993427     3.042758 -63.36   0.02949499    1.484    0.326
         4 -12.9047    138.7433    133.5591   4.5517812321e+01   2.7718041276e+01     4.122973     3.515765  52.30   0.02061328    1.199    0.166
         5 -16.1314    223.7982    103.6638   2.1246588258e+01   1.5431154602e+01     4.076598     3.056541  25.90   0.02168365    1.865    0.464
         6  -9.9415    238.0752     18.3164   2.1661757111e+00   2.4751172677e+01    0.2528984    0.1696761 -35.98 0.0006813173    1.675    0.403
         7  -8.4134    235.7728     10.1912   8.1797432787e-01   2.6117371367e+01    0.1358817    0.1215869  88.70 0.0004656212    1.310    0.237
         8  -9.9121    116.8730      7.5478   1.4247451440e+01   5.3212010429e+01    0.2164555    0.1917717  44.42 0.0004697814    1.128    0.113
         9  -8.0661     95.2342      7.9836   1.9048206176e+01   5.8000244585e+01    0.1354135    0.1045257 -15.14 0.0002975708    1.509    0.337
        10  -8.0266    111.5637      6.5511   1.4961497444e+01   5.4502588044e+01    0.1264763     0.103738  55.91 7.796624e-05    1.010    0.010
        11  -9.5260    234.9323      3.0979   3.5956382380e+02   2.7038118421e+01    0.2578977    0.2121483   9.23  0.001632754    2.227    0.551
        12  -9.1089    119.8276      1.8046   1.1874980460e+01   5.2995349097e+01    0.1888194    0.1386739  48.27 0.0008099237    1.211    0.175
        13 -10.1050      7.7309    207.2704   9.1200229196e+01   2.9478259176e+01     0.264672    0.1526001 -42.54  0.001404747    2.533    0.605
        14 -10.6353    247.5997    248.8153   4.5107875128e+01  -1.1899041331e+01    0.3343703    0.1630262 -25.44  0.001884052    1.914    0.477
        15 -10.7472    204.4876    201.8681   4.4992625947e+01   1.1970331128e+00    0.4562536    0.3883909 -49.68  0.001203976    1.429    0.300
        16 -11.2407    193.0493    194.9084   4.6013228771e+01   4.3526986363e+00     0.986528    0.5272143 -62.74  0.003318711    4.416    0.774
        17  -8.4055    250.2512    198.3723   3.5923022691e+01  -5.0403367355e+00    0.1537652     0.112818  40.81 0.0009413185    1.689    0.408
        18  -9.0064    160.5514    197.3781   5.3582107778e+01   9.5736793762e+00    0.3409958    0.2333301 -85.93  0.001367312    2.968    0.663
        19  -8.4237     11.8858    247.2357   9.2751373277e+01   2.0709730477e+01    0.1314073    0.1205934  87.75 0.0003569296    1.335    0.251
        20 -15.5317    243.8128    108.8521   1.9473792665e+01   1.0749309824e+01     4.648803     1.917512  39.73   0.01391774    4.022    0.751
        21  -9.0684    104.3709    207.0576   6.8592668917e+01   1.7214539647e+01    0.1843604    0.1688923 -65.44  0.000366976    1.168    0.144
        22  -8.2809     48.3993    188.4407   8.0025877456e+01   2.9587014763e+01    0.1311816    0.1194497 -87.65 0.0002331398    1.059    0.055
        23 -10.6098    244.8266    184.8582   3.4328411141e+01  -2.1414624565e+00    0.2200044    0.1953355  11.62 0.0003817213    1.194    0.162
        24  -8.3395    151.8304    181.5552   5.2617415167e+01   1.4473853839e+01    0.1956679    0.1371158  49.58 0.0003209483    1.509    0.337
        25 -11.0450    177.3617    169.6619   4.4350449793e+01   1.2117610966e+01    0.8594168    0.4377997 -48.80  0.003509822    2.070    0.517
        26 -10.6241    185.2642    169.6372   4.2632975836e+01   1.0622988003e+01    0.8457527    0.5651851 -71.62  0.003487105    2.627    0.619
        27 -12.0858    191.1667    153.1795   3.7913710593e+01   1.2758909465e+01     1.237839    0.6824183 -55.82  0.005017518    2.284    0.562
        28 -10.5025    191.9245    144.1334   3.5786600825e+01   1.4393832989e+01    0.3283975    0.3030175 -15.69 0.0004089501    1.081    0.075
        29 -12.4983    192.9287    165.7144   4.0209923002e+01   9.9559505742e+00    0.8352591    0.7390051 -58.25  0.002774644    1.288    0.223
        30 -11.3638    200.6856    165.1741   3.8524960846e+01   8.6194191802e+00    0.4245205    0.4050967  51.73  0.001323423    1.199    0.166
        31  -8.2511     14.7250    167.6401   8.6371848977e+01   3.8052174417e+01    0.1300457    0.0825852 -49.68 0.0004331945    1.657    0.397
        32 -10.4763    201.4681    160.5404   3.7404132182e+01   9.3604940074e+00     0.295557    0.2717189  27.50 0.0007195965    1.122    0.109
        33  -9.8350      7.3136    164.9554   8.8017534048e+01   3.9287273050e+01    0.1824337    0.1375623 -79.75 0.0005432566    1.117    0.105
        34  -8.3573    141.6497    163.2229   5.1398551587e+01   2.0462096193e+01    0.1995915    0.1422518 -39.74 0.0003469325    1.460    0.315
        35  -7.9386    121.6061    163.6823   5.6645663984e+01   2.4204220047e+01    0.1634336    0.1210355  -6.20 0.0007003364    1.860    0.462
        36  -7.9829     40.6830    160.2507   7.8546971394e+01   3.7360566243e+01    0.1350025   0.09471443  62.73 0.0001917626    1.526    0.345
        37  -9.6314    250.0861    222.4235   4.0237262998e+01  -8.5983966941e+00    0.2133212    0.1661418 -21.32  0.001079211    1.161    0.139
        38 -10.6060      4.9639    154.0385   8.7611067957e+01   4.2068722615e+01    0.2968018    0.1965175 -76.01 0.0009622856    1.267    0.211
        39 -10.4740    182.5087    151.0189   3.9255365208e+01   1.4904446656e+01    0.4007369    0.3006389 -54.29  0.001185401    1.442    0.307
        40 -11.8777     67.6889    142.7525   6.7850858809e+01   3.8350693378e+01    0.9680031    0.6509799 -77.74  0.003541056    1.724    0.420
        41 -10.6428    158.5560    142.5193   4.2727246417e+01   2.1597943898e+01      0.43528    0.4076581  22.46  0.001125185    1.075    0.070
        42 -10.1612    163.9758    141.8363   4.1307472910e+01   2.0609783782e+01    0.3472484    0.2677281  76.19  0.001593659    1.732    0.422
        43  -9.9022      7.9156    140.5931   8.5398417299e+01   4.5097965676e+01    0.2085605    0.1465318 -62.54 0.0004041218    1.218    0.179
        44 -13.4591      4.9257    124.2904   8.4357484158e+01   4.9202660924e+01     1.955434     1.365173 -21.52  0.005209061    1.680    0.405
        45 -11.5750     30.7706    129.4033   7.6989389524e+01   4.5990065160e+01    0.5791619    0.4824624  -5.99 0.0002527354    1.380    0.275
        46 -13.2414     51.1745    122.2442   6.9113041508e+01   4.5565485594e+01     1.375114    0.9864789  16.03  0.002092551    1.568    0.362
        47 -13.8395     42.5726    120.5297   7.1622755827e+01   4.6967022510e+01     2.851071     1.228615  22.12  0.007399587    2.676    0.626
        48 -13.5528    215.6836    181.6476   3.8929055004e+01   2.9482766453e+00     5.008528     1.376932 -47.57   0.01514846    4.582    0.782
        49 -12.2498    153.9669    118.7531   3.8153190842e+01   2.7618369011e+01    0.9103476     0.656576   4.36  0.003853823    2.086    0.521
        50 -11.1700    148.9721    111.0210   3.7401759705e+01   3.0317669769e+01    0.6925715    0.4382932  37.94  0.002551193    1.669    0.401
        51 -11.7590    158.4506    109.1459   3.4710375282e+01   2.8569145824e+01    0.6826202    0.4778222  50.96  0.001552418    1.422    0.297
        52 -12.1895    158.0246    101.8736   3.2955358948e+01   3.0090828406e+01    0.7511238    0.3617282 -49.74  0.002019397    2.272    0.560
        53  -8.2690     91.9921    115.8004   5.4453265947e+01   4.0982864796e+01    0.1961848    0.1184885  36.19 0.0003861104    1.664    0.399
        54  -9.7004    126.6227    104.8079   4.1473613595e+01   3.6523567222e+01    0.9549212    0.3233613 -48.04  0.002991302    3.201    0.688
        55 -10.7414    123.0018    103.5071   4.2110504216e+01   3.7572217739e+01    0.5263642      0.38273  82.14  0.002243839    2.085    0.520
        56 -11.9284     34.4941    121.6274   7.4491207371e+01   4.7531581951e+01    0.4924732    0.3433077  16.18  0.001032406    1.629    0.386
        57  -8.7031    108.4767    106.9350   4.7165912315e+01   3.9851290609e+01    0.2290836    0.1992716  37.28 0.0003549171    1.131    0.116
        58  -9.4208    112.4467    105.7841   4.5699306422e+01   3.9298065806e+01    0.2910199    0.1506645 -50.20  0.001132177    2.051    0.512
        59 -10.1615    142.7934    102.2020   3.6615571258e+01   3.3482445784e+01    0.3214502    0.2548737  68.19  0.000455213    1.421    0.296
        60  -8.2618    106.2161    102.3416   4.6605740605e+01   4.1291543514e+01    0.1484459    0.1139213 -18.68 0.0002396188    1.528    0.345
        61  -9.2594    127.1980     93.3367   3.8196665944e+01   3.8718126827e+01    0.2796435    0.2124815 -48.08 0.0006528065    1.385    0.278
        62 -14.8814    227.1532    167.6206   3.4042301981e+01   3.5264467023e+00     5.637786     2.897588 -26.20   0.02014855    2.295    0.564
        63  -9.1541    157.6885     89.1895   2.9730099095e+01   3.2547151611e+01    0.4177117    0.1418262 -35.90  0.001319496    3.387    0.705
        64  -8.8151    192.6690    223.1991   5.1226878871e+01  -6.1793667207e-01    0.2214892     0.163265  36.40 0.0006748349    1.348    0.258
        65  -8.1319     79.0809     86.0017   5.0696178986e+01   4.9766223081e+01     0.167629    0.1532947  12.14 0.0003253303    1.047    0.045
        66  -8.0515    142.3554     75.2823   2.9369108717e+01   3.8580052913e+01    0.1515055    0.1119365  25.32   0.00037837    1.663    0.399
        67  -8.0368    130.5324     69.4944   3.0512984441e+01   4.2298243475e+01    0.1461798    0.1368038  46.54 0.0008097636    1.006    0.006
        68 -10.8353    187.5812     61.0792   1.7035053507e+01   3.0183969808e+01     0.295087    0.2513632 -40.44 0.0005732765    1.256    0.204
        69 -11.5479    182.8956     59.3225   1.7335927460e+01   3.1532342511e+01    0.6727482    0.4605442  -6.73  0.003116893    2.462    0.594
        70  -9.9483    116.2859     62.5455   3.2056720924e+01   4.6661018318e+01    0.2557954    0.2378248   4.98  0.000686531    1.118    0.105
        71  -9.9469    138.9682     60.8485   2.6012546719e+01   4.1716477152e+01    0.3771065     0.243236 -13.91  0.001665558    2.253    0.556
        72 -10.6218    197.4705     58.9795   1.5074961056e+01   2.8226085565e+01    0.2972431    0.2287946  60.96 0.0004755419    1.292    0.226
        73 -10.7094    199.7209     55.0230   1.3845058080e+01   2.8285180126e+01    0.2647794    0.2524546  71.77 0.0003756633    1.191    0.160
        74  -9.3592    152.9982     56.5055   2.1852668406e+01   3.9036580139e+01    0.2701703    0.1893657 -57.20 0.0009573305    1.610    0.379
        75 -11.5337    159.7265     50.6049   1.8981006296e+01   3.8269503596e+01    0.6084239    0.2825941  73.87  0.001998455    2.901    0.655
        76 -10.4175    204.5258     52.2037   1.2566784108e+01   2.7602644422e+01    0.3457391    0.2613481  10.06 0.0007002554    2.262    0.558
        77 -10.5731    208.9143     46.7215   1.0797743355e+01   2.7378635095e+01    0.3637414    0.2372548 -35.33  0.001738052    1.655    0.396
        78 -11.4075    179.3640     44.3840   1.4175849583e+01   3.4444746162e+01    0.7466771    0.4741252  -5.24  0.003303932    2.963    0.663
        79 -11.1129    151.9052     47.9290   1.9681268102e+01   4.0508554819e+01    0.3243709    0.2991637 -73.28  0.001951682    1.127    0.112
        80  -9.7355    119.3365     47.1820   2.6455216883e+01   4.8269592254e+01    0.3906359    0.2358484 -19.49  0.001808633    2.128    0.530
        81  -9.2475    192.1405     47.7644   1.3182607384e+01   3.1019758437e+01    0.2247785    0.1740365   8.36 0.0009947215    2.045    0.511
        82  -8.9173    100.5645     47.1698   3.1425986558e+01   5.2416176329e+01    0.2328209    0.1653989 -19.48    0.0012166    1.597    0.374
        83  -9.3650    201.2618     46.8911   1.1779113643e+01   2.9061734992e+01    0.2345082    0.1522214  43.24  0.001161609    1.987    0.497
        84 -11.2799    141.3801     41.5835   1.9899068035e+01   4.3860433129e+01    0.4798231    0.3287398  24.05  0.002368046    1.960    0.490
        85 -10.2074    204.5353     42.1529   1.0307405797e+01   2.8955959303e+01    0.2391803    0.2175908 -40.92 0.0005685214    1.290    0.225
        86 -10.9871    195.2172     39.7163   1.0896770383e+01   3.1374975493e+01    0.5651779    0.2843389  66.77 0.0006484527    1.824    0.452
        87 -11.0799    183.2977     47.1205   1.4274631330e+01   3.3157387710e+01    0.4110201     0.344873  24.59   0.00172876    1.596    0.373
        88  -8.8693     15.0230    223.4801   9.0738315882e+01   2.5264595369e+01    0.1374921    0.1013694 -16.96  0.000806832    2.339    0.572
        89  -9.9320    190.4465     36.4897   1.0748542081e+01   3.2876704747e+01    0.2027677    0.1871562 -45.74 0.0006448836    1.251    0.200
        90 -10.9627    148.8586     33.0282   1.6063464042e+01   4.3129058533e+01    0.5240426    0.2518015 -17.26  0.002095343    3.370    0.703
        91  -8.6719    188.2394     22.5839   7.7643352217e+00   3.5026378326e+01    0.1907144    0.1550343  13.96 0.0007275462    1.846    0.458
        92  -8.5157    239.7620    221.4349   4.1871242040e+01  -7.1308911025e+00    0.2165909     0.108901  38.06  0.001126361    2.158    0.537
        93  -8.7631    151.5070     18.4864   1.1595210533e+01   4.4088398813e+01    0.1970253    0.1302235  -4.77  0.001024193    2.248    0.555
        94  -8.6146     21.4852    221.4774   8.9264283208e+01   2.5040983299e+01     0.120037    0.0990397  74.33 0.0008098368    1.034    0.033
        95  -9.2848    226.4442    215.5434   4.3253590681e+01  -4.4102224484e+00     0.197402    0.1628452  22.86 0.0007142048    1.240    0.193
        96 -10.3348    222.3073    213.0467   4.3580633430e+01  -3.4181672972e+00    0.2821542    0.2199102  41.12 0.0006557244    1.543    0.352
        97 -14.1561    248.9935    112.2514   1.9458474780e+01   9.2648287332e+00     2.665512    0.6451446 -35.97  0.001371569    4.810    0.792
        98  -7.9164    152.3061    213.2713   5.8267049868e+01   7.8336425091e+00    0.1391197    0.1050241   2.43 0.0002613802    1.540    0.350
        99  -8.8844    225.0168    207.6564   4.2095445201e+01  -2.9447480523e+00    0.1858554     0.152172  44.09  0.001129767    1.557    0.358
