#   1 NUMBER                 Running object number                                     
#   2 MAG_AUTO               Kron-like elliptical aperture magnitude                    [mag]
#   3 X_IMAGE                Object position along x                                    [pixel]
#   4 Y_IMAGE                Object position along y                                    [pixel]
#   5 X_WORLD                Barycenter position along world x axis                     [deg]
#   6 Y_WORLD                Barycenter position along world y axis                     [deg]
#   7 A_WORLD                Profile RMS along major axis (world units)                 [deg]
#   8 B_WORLD                Profile RMS along minor axis (world units)                 [deg]
#   9 THETA_WORLD            Position angle (CCW/world-x)                               [deg]
#  10 FWHM_WORLD             FWHM assuming a gaussian core                              [deg]
#  11 ELONGATION             A_IMAGE/B_IMAGE                                           
#  12 ELLIPTICITY            1 - B_IMAGE/A_IMAGE                                       
         1 -14.2865     55.0762     35.7441   6.4858479334e+01   6.5849932420e+01      1.10031    0.8897189  85.26  0.003986988    1.728    0.421
         2 -13.3133     64.7150     21.3638   5.2671605250e+01   6.6535519386e+01    0.7830692    0.6193677  66.61  0.002278764    1.475    0.322
         3 -12.3664    166.7127     17.0871   2.7280853187e+01   4.0804385538e+01    0.2937747    0.2365205 -87.09 0.0004162029    1.204    0.170
         4 -12.2067     91.3777     10.3194   3.7300006420e+01   6.1576818070e+01    0.4897571    0.3930501  16.34  0.001525537    1.380    0.275
         5 -11.7053     40.2687      9.8925   5.8518687944e+01   7.3284187133e+01    0.3157514    0.1867248 -34.95  0.001556684    1.678    0.404
         6 -13.4943     17.4077      3.0503   7.1666526273e+01   7.7995542537e+01    0.4669164    0.3414384  -0.73  0.002104812    1.412    0.292
         7 -12.5756     48.5070      9.3881   5.3260070209e+01   7.1783342904e+01    0.3580491    0.3471721 -40.28  0.001776023    1.187    0.157
         8 -10.7856     55.2072    219.3210   9.8801613141e+01   2.3392520586e+01    0.2346518    0.1208668  51.04 0.0009469655    1.642    0.391
         9 -12.4997     51.7274    249.9702   1.0124930675e+02   1.8619765566e+01    0.3464562    0.1458263  29.32  0.001343042    1.807    0.447
        10 -12.6233    119.2166    217.5565   8.4513978422e+01   1.5929002977e+01    0.3105628    0.2144139  87.77  0.001765493    2.528    0.604
        11 -10.9674    249.3248    213.4688   6.0250286894e+01   1.2592062698e-01    0.2239465    0.1399547 -40.87  0.001472889    2.682    0.627
        12 -11.0724     98.4816    198.9873   8.7040003987e+01   2.1870830515e+01    0.1691681    0.1278491 -64.43   0.00103679    1.606    0.377
        13 -10.5535     94.5979    186.3764   8.6484874212e+01   2.4789334993e+01    0.2312738     0.122742 -83.40 0.0009553232    3.384    0.704
        14 -10.4600     76.7793    175.1981   8.9686743152e+01   2.9488007327e+01    0.2379546     0.111449  59.27 0.0009527169    2.794    0.642
        15 -10.7914    141.5945    171.8392   7.3142934734e+01   2.0429546935e+01     0.235064    0.1432348  38.07   0.00108372    1.475    0.322
        16 -12.5170     13.2290    167.3389   1.0624359991e+02   3.8021627682e+01    0.5930353     0.237148  77.76  0.002683368    2.511    0.602
        17 -11.0550      4.2780    163.6617   1.0853112552e+02   3.9512375302e+01    0.2947415     0.135742  54.20  0.001529088    1.770    0.435
        18 -10.5657     79.3267    162.9929   8.7491288855e+01   3.1782065491e+01    0.2158347    0.1069441  85.46  0.000705152    4.345    0.770
        19 -10.6749     92.9467    159.9806   8.3344294734e+01   3.0467569349e+01     0.235974    0.1544471  60.64  0.001141445    1.758    0.431
        20 -12.8429    223.4302    146.8277   5.2639449292e+01   1.1129036634e+01    0.3438622    0.2213699 -23.35  0.002053862    1.363    0.266
        21 -12.6201    227.6838    155.0424   5.3571194491e+01   9.4290867471e+00     0.532446    0.1967967 -29.85  0.002457847    2.486    0.598
        22 -10.4363    105.3111    157.6628   7.9669781917e+01   2.9046323611e+01     0.143968    0.1031584  64.61 0.0006293129    1.686    0.407
        23 -11.0079    106.4771    144.4925   7.7077685982e+01   3.1676392785e+01    0.3324905    0.2094862  69.41  0.001383915    2.446    0.591
        24 -10.5635     55.4939    145.0129   9.2129200886e+01   3.9073288485e+01    0.2041645      0.10574  75.57 0.0008103488    2.604    0.616
        25 -12.3869    218.9837    138.2607   5.1616199200e+01   1.2974588063e+01    0.2834013    0.1547248 -37.60  0.001496927    1.773    0.436
        26 -12.4727    131.5889    129.3459   6.7348968767e+01   3.0349687795e+01    0.6572899     0.290201 -53.57  0.002430582    2.727    0.633
        27 -11.0764    105.6909    131.9947   7.4894963349e+01   3.4566331447e+01    0.3544243    0.2422398  48.16 0.0005042103    1.447    0.309
        28 -11.9233    101.5110    129.4966   7.5593329252e+01   3.5863528963e+01    0.7252266    0.4137786  66.71  0.002629686    3.023    0.669
        29 -10.6586     82.7728    131.0848   8.1541780035e+01   3.8616073800e+01    0.3639308    0.2036507 -74.43  0.001488246    2.297    0.565
        30 -11.5865    142.8745    131.1552   6.4966580817e+01   2.7829403969e+01    0.2203129    0.2051315  75.46 0.0009443182    1.257    0.204
        31 -12.6209     31.7553    129.6283   9.8046056900e+01   4.5463354195e+01    0.3089089    0.2606355 -37.76 0.0006127156    1.400    0.286
        32 -11.1075    153.3378    129.6680   6.2202142041e+01   2.6100839728e+01     0.297886     0.245676  88.08  0.001533432    1.729    0.422
        33 -12.3664    117.8404    124.5676   6.9918331640e+01   3.3972022376e+01    0.5088254    0.3605693 -88.70  0.002200117    2.220    0.550
        34 -10.8297     58.7677    123.4594   8.8046543371e+01   4.3972587291e+01     0.354271    0.1935585  86.41   0.00138954    2.556    0.609
        35 -12.1790     44.3153    121.3516   9.2737969155e+01   4.6272154630e+01    0.7850825    0.3714505  40.73  0.002456636    1.963    0.491
        36 -10.9411    141.4865    118.9965   6.2513973716e+01   3.0480617200e+01    0.2059176    0.1303061 -67.11 0.0007027683    2.553    0.608
        37 -10.6500      2.4261    116.1717   1.0717636827e+02   5.1039613035e+01    0.3168379   0.09963392  83.39  0.001144835    3.224    0.690
        38 -11.6077    109.4875    113.5666   6.9750201887e+01   3.7987416100e+01    0.6115018    0.3251329 -65.87  0.002193751    2.844    0.648
        39 -12.0008    121.8970    112.0928   6.5884761213e+01   3.5856161454e+01    0.3738226    0.2186159 -57.78  0.001537016    2.038    0.509
        40 -11.0620     92.2966    112.0945   7.4662143867e+01   4.1532750007e+01    0.4466289    0.2677063 -73.31  0.001774074    2.309    0.567
        41 -10.9107     78.8006    112.3454   7.9154739568e+01   4.3785254338e+01    0.3571663    0.2095126 -78.93  0.001406276    2.368    0.578
        42 -10.2648     66.3289    110.6574   8.3133299375e+01   4.6143673327e+01    0.1595392    0.1076314  66.78  0.000705116    1.745    0.427
        43 -10.9116    243.3345    108.6681   4.1979123283e+01   1.2939619792e+01    0.1189214   0.08473299 -50.96 0.0007052211    1.731    0.422
        44 -12.6610     31.5443    104.4821   9.5171775766e+01   5.1963307530e+01    0.4851905    0.3180769 -36.68  0.000612837    1.813    0.448
        45 -13.3358     28.3951    103.7953   9.6320452763e+01   5.2430901880e+01     1.058314    0.4806972  43.37  0.001311222    2.144    0.534
        46 -11.6445     44.4647    101.0743   8.9543198524e+01   5.1498080169e+01    0.5882223     0.277233  70.39  0.001943866    3.623    0.724
        47 -11.7246    109.5841     99.3350   6.6128507741e+01   4.1133580941e+01    0.6004965    0.3657608  69.19    0.0022002    2.721    0.633
        48 -10.6261     81.3869     99.2211   7.5260682796e+01   4.6552164318e+01    0.2193765    0.1451362 -69.04 0.0009542207    1.724    0.420
        49 -10.9572     63.4075     95.9265   8.1089332184e+01   5.0300511596e+01    0.4058294    0.2344409  80.70  0.001460296    2.965    0.663
        50 -10.9567     34.5872     89.0874   9.1514013354e+01   5.5710624745e+01    0.4640591    0.1778894 -83.06  0.001466031    3.745    0.733
        51 -11.2045    203.6956     88.9863   4.2868786345e+01   2.2752137926e+01    0.2240243    0.2010847  46.09 0.0003036084    1.226    0.184
        52 -13.2478    110.3068     79.3082   6.0103016311e+01   4.5301240728e+01    0.9214578    0.5566149  46.14  0.001457049    1.640    0.390
        53 -10.6880     47.8298     83.9997   8.4724044605e+01   5.5522418601e+01    0.2529092    0.1617383  76.21  0.001087169    2.053    0.513
        54 -11.6961     92.0272     76.5598   6.5135414266e+01   4.9826868245e+01    0.2865211    0.2690292  50.10 0.0004043094    1.059    0.056
        55 -12.1931    230.6572     72.6939   3.5429079504e+01   1.9686733509e+01    0.3013035    0.2170289  25.45    0.0017082    1.737    0.424
        56 -11.8655    228.5305     69.1877   3.4834510836e+01   2.0529322503e+01    0.3122326    0.2588837 -89.95 0.0008128549    1.474    0.321
        57 -10.3918     62.4068     74.1869   7.5853269909e+01   5.5882801025e+01    0.2162312    0.1427646 -70.44 0.0009494263    1.738    0.425
        58 -10.9250     82.2870     72.4548   6.7325631120e+01   5.2715593660e+01    0.2742848    0.1943434 -72.59  0.001196507    1.812    0.448
        59 -12.5589    220.3455     70.3031   3.6039520533e+01   2.1980408980e+01    0.3588549    0.2847001 -73.61  0.002145368    1.514    0.340
        60 -11.1884    170.6147     70.7919   4.3373972791e+01   3.2704504564e+01    0.2189033    0.1241166 -42.64 0.0009534518    1.703    0.413
        61 -11.4193     28.9733     70.0254   9.0409109609e+01   6.1241750140e+01    0.2401103    0.1519827 -37.04  0.000961358    1.720    0.419
        62 -14.8082     11.9377     57.6274   9.7061679514e+01   6.5739635043e+01    0.8414039    0.8155227   6.69  0.002706073    1.141    0.124
        63 -12.0194     63.9355     52.9979   6.7984507784e+01   6.0576668989e+01     1.041604    0.4718291 -57.70  0.003740539    2.699    0.629
        64 -12.1500     73.6596     51.0773   6.2986906263e+01   5.9118690619e+01    0.5789272    0.3570861 -23.56  0.002322716    2.292    0.564
        65 -13.3422     36.7353    245.0723   1.0403041527e+02   2.0865410806e+01    0.4258033    0.3899466  -5.57  0.001714202    1.527    0.345
        66 -10.3269    143.6578     41.3275   3.8921709316e+01   4.3825496477e+01    0.1616302    0.1092369 -65.84 0.0007051206    1.740    0.425
        67 -11.1909    119.0304    246.8466   8.7577409669e+01   1.1606747147e+01    0.2300506    0.1688418 -68.61  0.001653591    2.042    0.510
        68 -10.2407     82.0338     27.3086   4.8923520656e+01   6.1644137184e+01    0.2074576    0.1847583  54.58 0.0004480435    1.106    0.096
        69 -10.2491     83.9782     19.5206   4.4288178385e+01   6.2315236275e+01     0.222428    0.1373102  55.81 0.0006261606    1.535    0.349
        70 -10.0737    211.2999    242.6403   7.0302382734e+01   1.3362666646e+00   0.08783602   0.07423296  28.35 0.0005697434    1.714    0.417
        71 -10.3561     84.4778    234.0237   9.3506114289e+01   1.7595970892e+01    0.1414424    0.1145482 -70.76 0.0008515714    1.596    0.374
        72 -13.3968    220.2181    229.7719   6.7108713836e+01   1.6683211970e+00    0.8818251    0.3736789  34.79  0.005261541    2.146    0.534
        73 -10.8748     50.0038    226.5019   1.0037704762e+02   2.2669067776e+01    0.2472096   0.08012298  57.92  0.001041963    3.526    0.716
