#   1 NUMBER                 Running object number                                     
#   2 MAG_AUTO               Kron-like elliptical aperture magnitude                    [mag]
#   3 X_IMAGE                Object position along x                                    [pixel]
#   4 Y_IMAGE                Object position along y                                    [pixel]
#   5 X_WORLD                Barycenter position along world x axis                     [deg]
#   6 Y_WORLD                Barycenter position along world y axis                     [deg]
#   7 A_WORLD                Profile RMS along major axis (world units)                 [deg]
#   8 B_WORLD                Profile RMS along minor axis (world units)                 [deg]
#   9 THETA_WORLD            Position angle (CCW/world-x)                               [deg]
#  10 FWHM_WORLD             FWHM assuming a gaussian core                              [deg]
#  11 ELONGATION             A_IMAGE/B_IMAGE                                           
#  12 ELLIPTICITY            1 - B_IMAGE/A_IMAGE                                       
         1 -10.4857     10.2015     18.9459   1.1464231090e+02   7.5375572709e+01     1.514177    0.5188441 -25.65  0.003956061    7.547    0.868
         2 -11.1702     23.9201     32.0827   1.0995336165e+02   7.1338310250e+01      1.62741    0.5817325 -41.67  0.003758446    2.826    0.646
         3 -10.6447     37.3440      9.6245   8.8267977188e+01   7.3397330431e+01    0.9049623    0.3360177 -41.53  0.002340994    3.026    0.670
         4  -9.5431      2.2333     14.1716   1.1970085109e+02   7.6910820749e+01    0.4505047    0.2729473 -86.39  0.001966495    2.575    0.612
         5 -10.5640      4.9613      4.5272   1.1182487137e+02   7.8612244647e+01    0.5625753    0.4160097  -0.80   0.00154516    1.225    0.184
         6 -10.2135     28.3555     11.2218   9.5433828957e+01   7.4650417048e+01    0.8643815    0.5505552  33.25   0.00478757    1.470    0.320
         7  -9.7618    130.7241     45.9351   7.2116139683e+01   4.6371004538e+01     1.419973    0.5125443 -22.25  0.001757925    6.243    0.840
         8  -8.5747     72.0106      8.4623   7.1491187599e+01   6.6145413229e+01    0.2216133    0.1823836   4.76 0.0007511451    1.350    0.259
         9  -9.2430     78.1030      4.3960   6.7428975481e+01   6.5061038632e+01    0.6203121    0.3097131  -5.54  0.001739899    2.889    0.654
        10 -10.3430     69.6431     40.6921   8.8553369398e+01   6.2083953109e+01     1.205969    0.4469459 -39.56  0.003374728    2.865    0.651
        11 -10.3077     73.5579     17.8127   7.5935677877e+01   6.4697897626e+01     1.239854    0.4267867 -25.86  0.003826984    3.602    0.722
        12 -10.6257     35.9063     37.9807   1.0468848801e+02   6.8607972236e+01     0.620708    0.3937978 -12.02 0.0003462909    2.091    0.522
        13  -9.8361     60.6898     31.8721   8.8392896647e+01   6.5467615215e+01    0.9383706    0.4729007 -27.45  0.003250917    2.568    0.611
        14  -9.3092     64.3607      9.1784   7.4623189011e+01   6.7864245280e+01    0.4521112    0.2815966  84.53  0.001410643    2.562    0.610
        15 -10.0035     64.6747     13.3613   7.6878020152e+01   6.7303207705e+01    0.4081011    0.3337134  81.16 0.0002639827    1.478    0.324
        16  -9.4076    100.8766     32.1666   7.4088717643e+01   5.6078043580e+01    0.5274994     0.218562 -31.80  0.001038526    2.615    0.618
        17  -9.2076    103.0577     21.2852   6.8943221002e+01   5.6928639829e+01    0.3573078    0.2309416 -31.49 0.0007546342    1.684    0.406
        18 -10.1922     51.2289     15.0451   8.3880289049e+01   6.9978917014e+01     1.164826     0.645236  18.18  0.004704563    2.915    0.657
        19 -10.2496     46.2964     29.9036   9.4746025839e+01   6.8536086506e+01    0.5842325    0.3882008 -66.95   0.00235781    2.532    0.605
        20  -9.7698    131.7845     17.0368   6.1695992589e+01   4.9826705002e+01    0.4962524    0.2664169  80.33  0.002182404    1.838    0.456
        21  -8.9316    126.9706      9.0493   5.9509049504e+01   5.1911298405e+01    0.3308416    0.1513292  45.06 0.0009087657    2.514    0.602
        22  -9.5426    119.2210     20.4326   6.5137712560e+01   5.2784564796e+01    0.5560306    0.3357849 -13.62  0.001994588    2.171    0.539
        23  -8.4694    125.1863     13.1086   6.1299129503e+01   5.1987701745e+01    0.2928152    0.2200764  78.74 0.0007819064    1.190    0.160
        24  -8.9596    131.5903      7.7902   5.8393174906e+01   5.0803798549e+01    0.4925911    0.1864754 -42.26  0.001962417    2.604    0.616
        25  -8.9411    113.8688     10.1595   6.2066160614e+01   5.5284169411e+01     0.302121    0.1885362  45.22 0.0003974227    1.668    0.400
        26  -8.8721    112.3932     15.5937   6.4545228818e+01   5.5122972561e+01     0.307648    0.2185867 -50.29 0.0007300458    1.507    0.336
        27  -9.2097     96.7807      4.8686   6.3098869610e+01   6.0265433703e+01    0.5048105    0.2513112 -34.40   0.00229489    2.151    0.535
        28  -8.7081     95.9683     16.9695   6.8793098069e+01   5.9257966397e+01    0.3670917    0.2222315 -51.33 0.0004413181    1.940    0.485
        29  -8.6678     96.9926     12.4015   6.6482364334e+01   5.9487672858e+01    0.4422475    0.2195862  33.49  0.001737718    2.718    0.632
        30  -8.3225    104.2903      2.1816   6.0438870800e+01   5.8530598106e+01    0.3232957    0.2058945  55.87    0.0011976    1.405    0.288
        31  -9.2464    110.1092      5.4853   6.0813022175e+01   5.6712535875e+01    0.5175426    0.2756508 -27.56  0.002417814    2.052    0.513
        32  -8.9015    115.0700      4.0173   5.9386294427e+01   5.5527036987e+01    0.3243788    0.2194275 -42.25 0.0007531919    1.571    0.363
        33  -8.3839    105.0172     13.3864   6.5129442268e+01   5.7295790256e+01    0.4418954    0.1982436 -18.97  0.001756988    2.795    0.642
        34  -8.5207    101.9316      7.7709   6.3335078852e+01   5.8657321677e+01    0.2943067    0.2150689 -45.92 0.0007036616    1.493    0.330
        35  -9.6208     85.3575     13.2212   6.9864033601e+01   6.2364344415e+01    0.4704854    0.2637562 -56.75  0.001469873    2.463    0.594
        36  -8.1224     84.7557      6.8485   6.6876943457e+01   6.3167208026e+01    0.2561737    0.1834813  21.14 0.0009092281    1.636    0.389
        37  -9.1154    134.9027      2.7587   5.6175208322e+01   5.0378436190e+01    0.4749921    0.2959101  36.64   0.00231786    2.025    0.506
        38  -7.9699     80.4039     12.3385   7.0872683932e+01   6.3690486749e+01    0.2365221    0.1628921 -38.80   0.00121935    1.616    0.381
        39  -8.1336    141.1666     11.9615   5.8581135412e+01   4.7871005818e+01    0.2250042    0.1894462 -83.92  0.001172314    1.056    0.053
        40  -8.9887    137.7010      7.5631   5.7512218917e+01   4.9209042662e+01     0.391568    0.1917002 -25.12  0.001753599    2.250    0.556
        41 -10.0023     63.0662     21.1429   8.1812394387e+01   6.6633578086e+01     1.457866     0.421858 -45.72  0.004122787    5.573    0.821
        42  -8.3610    143.0247      4.9730   5.5992594237e+01   4.8047153638e+01    0.3183962    0.1270597 -49.31  0.001284895    2.523    0.604
        43  -8.6918    125.7411      4.0782   5.7831308885e+01   5.2689475585e+01    0.3551795     0.175848 -29.79  0.001187063    2.131    0.531
        44  -8.5407    121.4333      5.6940   5.9063961339e+01   5.3690953881e+01    0.2600557    0.1120671  71.77 0.0009396049    2.015    0.504
        45  -9.6474     63.8518      2.8072   7.1074232031e+01   6.8646263772e+01     0.384163    0.2636302 -59.61   0.00181151    1.993    0.498
        46  -8.4039    152.0394      2.5236   5.4247144890e+01   4.5921332556e+01    0.3699719    0.1008654 -45.15  0.001322895    3.296    0.697
        47  -9.1260     88.3343      2.7311   6.3953345449e+01   6.2630784948e+01    0.5264111    0.2732142  78.90  0.001639239    2.041    0.510
        48 -10.3835     18.3332      5.6531   9.9652842227e+01   7.6977373146e+01    0.6475743    0.4482314 -50.52  0.002938667    1.743    0.426
        49 -10.5539    128.3125    100.9447   8.9821724326e+01   3.6759566268e+01    0.9471914    0.5160508 -33.20  0.002162231    2.264    0.558
        50 -10.5351    203.4187    249.2870   1.0171762946e+02  -1.7591496997e+00    0.5585753    0.1584398  28.21  0.002543166    3.042    0.671
        51  -8.5728    203.6035    245.1970   1.0112809383e+02  -1.2952457993e+00    0.2074298   0.09968291 -35.19    0.0012422    2.214    0.548
        52 -10.0254    193.4583    249.1056   1.0346693567e+02  -6.1175127143e-01    0.4175733    0.1860241  21.08  0.002295997    1.985    0.496
        53 -10.9787    186.6382    247.3176   1.0447470452e+02   4.0260017508e-01    0.5006171    0.2346719  19.25  0.002741062    1.962    0.490
        54 -10.0704    108.6730    114.5745   9.8974284727e+01   3.7951341105e+01    0.6472106    0.4029106 -74.14  0.001381156    2.446    0.591
        55 -10.7436    108.7677    100.7439   9.5342605309e+01   4.1116525471e+01      1.12048     0.798753 -81.09  0.004699077    1.964    0.491
        56 -10.7338    130.6983    118.8399   9.3813775458e+01   3.2386437992e+01    0.8823479     0.597318 -84.98  0.001771028    2.506    0.601
        57 -11.0568    133.6123    109.5633   9.0717899011e+01   3.3752066257e+01     1.087419    0.4680233 -49.48  0.003297058    2.469    0.595
        58  -9.5975     41.5438    122.0794   1.2376994950e+02   4.7030243422e+01    0.5768547    0.2696226 -89.29  0.002042611    2.937    0.659
        59  -7.9166    159.0637    123.1706   8.8003469791e+01   2.5511961235e+01    0.2458156    0.1771153  76.57   0.00109131    2.024    0.506
        60  -9.1723    153.0333    120.9516   8.8832289790e+01   2.7212079330e+01    0.3059998    0.2070311  13.85  0.001269111    2.233    0.552
        61 -10.1856    140.7520    118.4435   9.1148476976e+01   3.0332047475e+01    0.5004381    0.3498521 -72.89  0.001187565    2.023    0.506
        62  -8.1958      1.4054    116.2921   1.3826809231e+02   5.1846744337e+01     0.307552    0.1174701 -85.39 0.0008836169    2.414    0.586
        63  -9.0703    153.1487    115.4883   8.7478005427e+01   2.8278742457e+01    0.2827441    0.2111303 -42.95 0.0006536155    1.335    0.251
        64  -8.6229    239.2627    125.5646   7.4645485013e+01   1.0289937808e+01      0.15526    0.1110789  29.09 0.0009512392    1.651    0.394
        65 -10.0944     91.8128    113.0149   1.0392476772e+02   4.1657361152e+01    0.6225675    0.4524233  82.75  0.001620767    1.831    0.454
        66  -8.9021     93.7429    103.1917   1.0080646804e+02   4.3659881515e+01    0.8132333    0.3595006  28.34  0.002484174    3.368    0.703
        67 -10.2063     78.1943    112.9992   1.0858149006e+02   4.4136562497e+01    0.5842791    0.3719516 -88.55  0.001654935    2.329    0.571
        68  -8.3660    167.1795    114.1665   8.4111549170e+01   2.5541153450e+01    0.2028128    0.1693354 -64.84 0.0006622918    1.345    0.257
        69  -8.0970     63.8053     82.0575   1.0618469102e+02   5.4319667720e+01    0.6175588    0.2915699  56.69  0.001939744    3.512    0.715
        70 -10.4975     63.0567     95.7631   1.1017023509e+02   5.1031250460e+01     1.119538    0.6162997 -88.72  0.002783723    3.735    0.732
        71  -8.9406     64.0539     86.7388   1.0740260515e+02   5.3130993130e+01    0.7332155    0.4260107  -1.10  0.002321047    3.915    0.745
        72 -10.3101     65.5837    111.0232   1.1272262870e+02   4.6716436391e+01    0.7589976    0.6436145  82.15  0.001126907    1.254    0.203
        73  -9.7018     59.1763    109.2061   1.1476304220e+02   4.8154432456e+01    0.4618148    0.2612264 -65.02   0.00133772    1.793    0.442
        74  -9.7500     14.4259    111.5824   1.3285868951e+02   5.2313511418e+01    0.4751824    0.2251594  68.47  0.001520225    2.422    0.587
        75  -8.6993    158.8943    111.8284   8.5294089957e+01   2.7759335702e+01     0.254691    0.2055617 -45.83   0.00041576    1.230    0.187
        76  -9.5118     33.9996    109.6206   1.2478138466e+02   5.1169310628e+01    0.6528752    0.3309441  50.63  0.002709789    2.131    0.531
        77  -8.5498    149.8524    109.9554   8.6851063206e+01   3.0098327004e+01    0.2282195     0.201755  -6.35 0.0003920241    1.281    0.219
        78  -9.6291    149.4936    103.2489   8.5205452316e+01   3.1510119672e+01    0.4723948    0.2952961 -54.16  0.001003543    1.759    0.432
        79  -8.0906    150.0304     96.7204   8.3351324296e+01   3.2663885512e+01    0.3282523    0.2211679  -9.17  0.001248473    2.459    0.593
        80  -9.0177     40.2361    107.3938   1.2189762905e+02   5.1091497126e+01     0.272824    0.1925521 -71.43 0.0006053922    1.378    0.274
        81 -10.9106     44.8067    102.4536   1.1911485697e+02   5.1861754404e+01    0.9601191    0.4405273  62.09  0.003050857    3.722    0.731
        82 -10.8382     20.9891    101.1098   1.2890680515e+02   5.4615130719e+01     1.248192    0.5478081  73.61  0.004194472    3.310    0.698
        83  -7.8706     23.1659     69.0851   1.2217162595e+02   6.2779890587e+01    0.2238829    0.2002306  42.67 0.0003746407    1.203    0.169
        84  -9.6983     39.2805     55.7688   1.0962443259e+02   6.4259367607e+01    0.9490027    0.4794707 -44.30  0.004104451    1.957    0.489
        85  -9.9120     20.2538     83.0018   1.2642776989e+02   5.9445420251e+01    0.8543249    0.4032309 -77.26  0.003576131    2.159    0.537
        86 -10.4574     25.8736     78.2997   1.2278325130e+02   6.0195726640e+01    0.6970447    0.4254205  70.60  0.002070331    2.129    0.530
        87 -10.3877     31.9248     64.7960   1.1640564106e+02   6.2996257524e+01      1.22155    0.4863138 -31.80  0.003690087    4.468    0.776
        88 -10.1563     50.1030     54.4569   1.0344533396e+02   6.2975379621e+01    0.6611415    0.4776854  79.78  0.002084406    2.188    0.543
        89  -9.8291     56.5412     43.0233   9.5567885011e+01   6.4244050596e+01     1.003595    0.5683119   3.51  0.002912882    5.323    0.812
        90 -10.1126    139.4926    104.6538   8.7951757934e+01   3.3472557437e+01    0.7051285    0.3289277 -52.77 0.0007151544    2.497    0.599
        91  -8.8833    141.1960     99.2268   8.6086764144e+01   3.4191198051e+01    0.3327261    0.2596184   6.86  0.001521458    1.752    0.429
        92  -8.2729     78.1459    105.2373   1.0676291940e+02   4.6099075734e+01    0.3908089    0.2582376  -1.26  0.001479242    2.578    0.612
        93  -9.5673     81.3383    100.1600   1.0432503156e+02   4.6779798545e+01    0.4362288    0.2952626 -74.09 0.0008519502    1.837    0.456
        94  -8.1525     81.9954     94.4805   1.0256670429e+02   4.8040611655e+01    0.4190587    0.2777052   0.32  0.001557299    2.680    0.627
        95  -9.5023      6.4744    103.7289   1.3528327985e+02   5.4879480526e+01    0.5498677     0.249574  56.52  0.001389075    2.383    0.580
        96  -8.1979     14.3239    105.0387   1.3218918903e+02   5.4057153476e+01    0.2458954    0.1715081 -33.43 0.0006281367    1.608    0.378
        97  -9.1548    165.4544    102.8854   8.1664726904e+01   2.8023693655e+01    0.3817549    0.2381892 -49.42  0.001721409    1.638    0.390
        98  -8.3333     73.7610    102.3326   1.0765866707e+02   4.7595563073e+01    0.3980517    0.2113142 -64.13 0.0008190465    2.111    0.526
        99  -8.3230    159.0013    101.3890   8.2622963779e+01   2.9737202704e+01    0.2657741     0.196899 -58.70 0.0004168657    1.478    0.324
       100  -9.3991     94.3730     97.2936   9.9004968296e+01   4.4931327351e+01    0.3774418    0.3098998 -73.98 0.0007501662    1.364    0.267
       101  -8.7850     95.1830     91.8033   9.7180719911e+01   4.6041534830e+01    0.5566455    0.3607121  -2.56  0.001872984    3.335    0.700
       102  -8.9993    239.2061     96.8186   6.8745721187e+01   1.4393338565e+01    0.1611982    0.1326216 -10.58 0.0004035293    1.345    0.256
       103  -7.9972    250.4337     96.1918   6.7351186553e+01   1.2613731035e+01    0.1777734   0.08681172 -42.95 0.0009432872    1.704    0.413
       104  -9.7504    221.1553     95.9757   7.0810132659e+01   1.7737930899e+01    0.2010189    0.1945522 -46.88 0.0002710099    1.119    0.106
       105  -7.5782    171.4083     96.0051   7.8734770027e+01   2.7958450433e+01     0.222037    0.1369032 -38.54 0.0003657827    1.569    0.363
       106 -10.2527      4.2683     89.2754   1.3479850143e+02   5.8782224519e+01    0.7900225    0.3219448  79.76  0.002043789    2.945    0.660
       107  -9.4511      6.0684     78.6492   1.3268856125e+02   6.1457890882e+01    0.7348037    0.2640684 -34.53    0.0027046    3.297    0.697
       108  -9.1895    164.5604     93.4455   7.9403043298e+01   2.9957661924e+01    0.5887991    0.2410606 -34.11  0.001718633    2.681    0.627
       109  -8.1097    163.4099     87.2447   7.7978641202e+01   3.1337866179e+01    0.2101336    0.1320234 -49.44 0.0004730484    1.603    0.376
       110  -9.1091    139.8861     75.0062   7.9467629985e+01   3.9171864426e+01    0.4945994    0.2887654 -46.67  0.001304792    1.739    0.425
       111  -9.8129    138.7246     91.5514   8.4567675355e+01   3.6294951039e+01    0.6657502    0.3413063 -39.50  0.002008498    2.010    0.502
       112  -9.3742    140.4910     82.1847   8.1459313469e+01   3.7690302390e+01    0.6580868    0.3012065 -40.12  0.001919673    2.205    0.546
       113 -10.1907     34.5191     90.5384   1.2119023322e+02   5.6172135839e+01     0.629685    0.3232657  88.74  0.001839369    2.842    0.648
       114 -10.0692     36.9825     81.0486   1.1799460190e+02   5.8361729965e+01    0.8464418      0.41617 -21.71  0.002802452    3.770    0.735
       115  -8.8672    157.6719     91.4186   8.0266307060e+01   3.1907096367e+01    0.3280121    0.2118017 -51.23  0.001003583    1.600    0.375
       116  -8.8235    150.0257     89.6200   8.1414209103e+01   3.4022090806e+01    0.3178898    0.2876888 -25.04 0.0008730654    1.194    0.162
       117  -8.4668    234.0128     90.0000   6.7904588768e+01   1.6262893083e+01    0.1785092   0.07220721  58.31 0.0008025121    2.943    0.660
       118 -10.2088     85.2958     86.6725   9.9132032955e+01   4.9250627878e+01    0.4851358    0.3722778  84.46 0.0009070415    1.691    0.409
       119 -10.1819     47.9636     84.4425   1.1374188855e+02   5.6130539574e+01    0.6014223    0.3715965  69.85  0.001654739    2.366    0.577
       120  -9.0496     48.6910     77.4317   1.1155749040e+02   5.7789395613e+01    0.7153164    0.3760335   5.74  0.002419473    3.482    0.713
       121  -7.7719    231.3090     86.3122   6.7421761866e+01   1.7273282669e+01    0.1188862   0.09434126   1.02 0.0007026831    1.625    0.385
       122  -8.3009    225.6745     92.0759   6.9365888471e+01   1.7476562035e+01    0.1858237    0.1433533 -36.47 0.0005492895    1.116    0.104
       123 -11.3587    121.1557    109.4635   9.4043540264e+01   3.6488911610e+01     1.322886    0.7417752 -51.35  0.003111284    1.871    0.466
       124 -10.3565    104.0600     82.7352   9.1560068591e+01   4.6139762415e+01    0.5154437    0.3557655 -62.05 0.0008881784    1.694    0.410
       125  -9.7770    105.0577     71.4540   8.7617536502e+01   4.8263363795e+01    0.9127052      0.42615 -33.85  0.003106401    2.694    0.629
       126  -9.7401     87.4584     78.8944   9.5955904564e+01   5.0583682673e+01    0.7744955    0.4460178  20.97  0.001911003    2.948    0.661
       127  -7.7556    170.5971     83.7512   7.5680961370e+01   3.0289787590e+01    0.2037712    0.1274927 -48.92 0.0006212485    1.581    0.368
       128  -9.0755    157.9987     82.9824   7.7889472702e+01   3.3365050673e+01     0.473067    0.2439078 -31.26  0.001369921    2.200    0.545
       129  -9.3210    149.9691     79.9640   7.8702254784e+01   3.5822668860e+01     0.489807    0.2242621 -36.76  0.001317399    2.247    0.555
       130  -8.7434    119.0189     80.4406   8.6407061395e+01   4.3165832061e+01    0.3439279    0.2576892 -65.11 0.0006167945    1.539    0.350
       131  -8.4714    119.9111     75.8846   8.4736736327e+01   4.3861073875e+01    0.2906638    0.2673116  14.30   0.00105601    1.238    0.192
       132  -9.1652     74.1640     80.1973   1.0139500710e+02   5.2921924823e+01    0.4801946    0.2729678 -62.45  0.001248368    2.100    0.524
       133  -7.9912     75.3445     74.3356   9.9070842870e+01   5.4049034499e+01      0.29076    0.1421328  26.12 0.0009557307    3.032    0.670
       134  -8.0611     68.6663     79.4772   1.0339551887e+02   5.4097846823e+01    0.2669373    0.1414145 -53.21  0.001068472    1.908    0.476
       135  -8.8279    247.9947     78.9949   6.4071882577e+01   1.5330205374e+01    0.1824921    0.1488395 -40.26 0.0004534362    1.030    0.029
       136  -8.5915    165.7066     76.5600   7.4625046927e+01   3.2658608104e+01    0.5065443    0.2023051 -42.08  0.001581261    2.374    0.579
       137  -8.1608    162.7274     73.3499   7.4279621026e+01   3.3910286799e+01    0.3516336    0.1928494 -53.77 0.0006714762    2.010    0.502
       138  -8.1389    184.0810     78.0107   7.1873980162e+01   2.8172649962e+01    0.2160255    0.1976137 -55.23 0.0005894395    1.011    0.011
       139  -7.2355    174.2488     78.6521   7.3671670697e+01   3.0309583062e+01    0.1486509    0.1032159 -61.94 0.0003129272    1.583    0.368
       140  -8.6441    156.9479     76.4708   7.6269595813e+01   3.4764465239e+01    0.2827187    0.1902408 -53.21  0.000557004    1.531    0.347
       141  -9.4614    127.3132     75.2024   8.2565638070e+01   4.2204921444e+01    0.4692051     0.284235 -56.37 0.0008169992    1.915    0.478
       142  -9.0541    129.5430     68.9136   8.0024222783e+01   4.2830870732e+01    0.5915596    0.2939023  36.29  0.002019941    2.919    0.657
       143  -8.6988    130.5845     64.7878   7.8448354274e+01   4.3311973845e+01    0.3554318    0.2660142 -32.56  0.001003473    1.451    0.311
       144  -9.1571     88.2283     56.5098   8.7870267976e+01   5.5081419662e+01    0.9314098    0.4992223 -26.10   0.00253968    2.784    0.641
       145 -10.3774     89.3652     38.4552   8.0197928403e+01   5.7987642374e+01      1.13126    0.4310156  39.35   0.00353987    3.525    0.716
       146 -10.1512     73.3425     57.0198   9.3756462007e+01   5.8188388967e+01     1.139005    0.4480633 -39.05  0.002772488    2.908    0.656
       147 -10.2690     85.2109     48.1128   8.5650301152e+01   5.7327452848e+01     0.463522    0.3661686 -79.06  0.000977561    1.639    0.390
       148  -9.2788     80.1838     46.5157   8.6846465445e+01   5.8750004364e+01    0.3944137    0.2874883 -25.76 0.0004774604    1.576    0.365
       149  -9.9815     81.5515     72.3263   9.5994486943e+01   5.3260323649e+01    0.5169181    0.3406528 -67.40  0.001090149    2.002    0.501
       150  -9.0835     83.9702     64.4190   9.2341005420e+01   5.4441872006e+01    0.5467376    0.3819962   1.78  0.002233561    2.317    0.568
       151  -8.9677    115.1583     72.9506   8.5119475564e+01   4.5576399908e+01     0.380454    0.2683231 -58.60 0.0005632441    1.594    0.373
       152  -7.9081    116.0096     68.5080   8.3423024326e+01   4.6229419977e+01     0.291963    0.1939348  40.57  0.001272009    1.597    0.374
       153 -10.5121     55.0163     70.9010   1.0669757946e+02   5.8433089061e+01    0.6413045    0.3825273  56.43  0.001226323    2.200    0.545
       154  -9.7122     55.5140     63.0941   1.0389611015e+02   6.0168466078e+01    0.5103206    0.3558488   5.64  0.001605629    1.874    0.466
       155 -10.2415     62.6859     60.8476   9.9784294495e+01   5.9431068550e+01    0.9244331    0.2964296  39.14  0.003026491    3.031    0.670
       156 -10.3051     16.4058     66.2765   1.2521051754e+02   6.4015220661e+01     1.444412    0.1669886 -65.75  0.003955987    5.034    0.801
       157 -10.4878    166.2040    249.4883   1.0862154211e+02   2.5780085437e+00    0.5230727    0.1353363  29.17  0.002083041    3.319    0.699
       158  -9.5791    244.2411    245.9016   9.4520752075e+01  -5.6337999837e+00    0.1866851    0.1437682   0.17 0.0005838376    1.280    0.219
       159  -8.1862    166.6668    240.6763   1.0740322012e+02   3.7235104876e+00    0.1225331   0.07659031   2.35 0.0004720839    1.707    0.414
       160 -10.8471     21.8649     53.4733   1.1891102495e+02   6.6727637963e+01    0.9190222    0.5024113  75.73  0.003157186    3.516    0.716
       161  -9.7797    188.0247    233.6613   1.0234533479e+02   2.0033552525e+00    0.2726812    0.1690603 -42.18  0.001206046    1.976    0.494
       162 -10.1474    137.8959    232.0257   1.1219352928e+02   8.7948174987e+00    0.2019586    0.1838585   8.79 0.0003227631    1.181    0.153
       163 -10.1688     12.3640     45.7435   1.2270730853e+02   6.9301426472e+01    0.9436117    0.4041266  -1.35  0.003045944    3.011    0.668
       164 -10.1780      5.0387     41.9446   1.2665172817e+02   7.0616448617e+01    0.7639197    0.3336794 -75.60  0.003031775    2.412    0.585
       165  -9.6410      6.7310     32.5797   1.2278975818e+02   7.2684059599e+01    0.2824675    0.2292387 -11.91 0.0009132176    1.182    0.154
       166 -10.1943      7.1365     28.1888   1.2099703531e+02   7.3635841357e+01    0.3871268    0.2934998  49.71  0.001088099    1.663    0.399
       167  -7.2395    175.3552     72.6809   7.1882240859e+01   3.1030852436e+01    0.1543985      0.10486 -70.35 0.0007046049    1.752    0.429
       168  -8.1047    169.4266     71.6681   7.2610335483e+01   3.2590549742e+01    0.2748786    0.1278578 -41.57 0.0006807469    2.026    0.506
       169  -8.3722    156.5088     70.0877   7.4521433905e+01   3.5964479826e+01    0.2198486    0.1427049 -40.07 0.0005035396    1.517    0.341
       170  -9.2408    146.8991     69.2026   7.6186086652e+01   3.8477233712e+01    0.3571269    0.2537834 -61.89 0.0009023719    1.550    0.355
       171  -9.8514     94.8007     68.3228   8.9872142574e+01   5.1253448853e+01     0.791645     0.288438 -45.27 0.0008663681    2.853    0.650
       172  -8.3173     95.4848     61.0347   8.7061058568e+01   5.2548632768e+01    0.3714308    0.2665535   0.96  0.001558588    2.174    0.540
       173  -8.6256     98.5879     56.7985   8.4497243358e+01   5.2622462372e+01    0.4602684    0.2540267  39.72  0.001841979    1.956    0.489
       174  -9.2171    121.2879     66.0842   8.1195917119e+01   4.5389764300e+01    0.4292654    0.2784556 -57.21 0.0009465038    1.769    0.435
       175  -9.2181    122.2966     60.3502   7.9016740881e+01   4.6168778318e+01    0.3055671    0.2709665 -55.87 0.0003748827    1.154    0.134
       176  -9.5393    118.2823     54.7295   7.8102012770e+01   4.8148262561e+01      0.54371    0.3398772 -37.17  0.001233491    1.682    0.406
       177  -9.0080    121.1859     47.1128   7.4679370552e+01   4.8652253130e+01    0.3162346    0.2340091 -45.81 0.0005031444    1.401    0.286
       178  -9.0088    138.0004     66.4425   7.7262412618e+01   4.1168054302e+01    0.3529695    0.2077143 -47.35 0.0006527958    1.739    0.425
       179  -7.8851    138.9606     61.9904   7.5648221534e+01   4.1691279501e+01    0.2351945    0.2085748  34.21 0.0007102807    1.274    0.215
       180  -8.2518     75.6110     66.2275   9.6216424417e+01   5.5793784443e+01    0.2077176    0.1430356 -37.47 0.0005769071    1.563    0.360
       181  -7.7942    171.0000     64.8905   7.0465900010e+01   3.3301044950e+01    0.2321436   0.07923581 -34.68  0.000468093    2.864    0.651
       182  -9.3817    109.7713     63.9196   8.3642297991e+01   4.8610073847e+01    0.3842711    0.2877771 -70.93  0.000653249    1.635    0.388
       183  -8.8006    110.6874     58.2162   8.1381921535e+01   4.9433969119e+01    0.4086773    0.3172945  -5.68  0.001139086    1.739    0.425
       184  -8.5171    157.7755     63.1941   7.2269659663e+01   3.6789926722e+01    0.2609204    0.1809444 -48.82 0.0008899897    1.414    0.293
       185  -8.1957    147.0470     63.9467   7.4561567023e+01   3.9333199897e+01    0.2328944    0.2189807  65.28  0.001068861    1.078    0.072
       186  -8.5910    164.2148     60.6878   7.0406291282e+01   3.5602814215e+01    0.3462447    0.1984933 -24.33  0.001459786    2.149    0.535
       187  -8.5991     10.1084     60.3479   1.2754303079e+02   6.5897615526e+01    0.4078473    0.2310629  78.84  0.001744668    2.286    0.562
       188  -7.7903    152.4727     60.2494   7.2375838663e+01   3.8581442570e+01    0.2190297    0.1289311 -49.06 0.0009482079    1.718    0.418
       189  -8.8301    146.6350     58.2580   7.2889623631e+01   4.0368886172e+01    0.5276701    0.2546627 -25.92  0.001648501    2.705    0.630
       190  -9.7440    149.4605     49.0191   6.9468389192e+01   4.1079241101e+01    0.5588868    0.2943532 -18.03  0.002080416    2.933    0.659
       191  -8.1144    130.3175     54.3332   7.5063273877e+01   4.5156240067e+01     0.300246    0.2145767  29.51  0.001351333    1.824    0.452
       192  -9.2264    139.1005     56.9438   7.4006605075e+01   4.2491643090e+01    0.4258084     0.252044 -57.18 0.0009914616    1.950    0.487
       193  -9.1176    142.1254     47.8643   7.0458838817e+01   4.3133527533e+01    0.5634084    0.2868799 -22.81  0.001651208    2.631    0.620
       194  -7.4158     10.0022    220.4952   1.4059655549e+02   2.6404640288e+01    0.1680739    0.0993221  29.39 0.0005486691    1.511    0.338
       195  -8.9618    162.9062     54.4173   6.8801070751e+01   3.6884739417e+01    0.2805002    0.1798729 -52.42 0.0006975754    1.550    0.355
       196  -7.3977    157.6769     55.7080   7.0066759693e+01   3.7991708601e+01    0.1439571    0.1129683  31.36 0.0005420976    1.613    0.380
       197  -8.5114    129.9562     57.9787   7.6364371597e+01   4.4644372298e+01    0.3257738    0.1953875 -52.03 0.0005313232    1.813    0.449
       198  -9.1324    105.5493     51.8633   8.0541616479e+01   5.1817886625e+01    0.5688232    0.3006233 -35.91  0.002150647    2.032    0.508
       199  -9.2662    218.2680     47.5570   6.0035280728e+01   2.5114445651e+01    0.3233902    0.2038171 -29.83 0.0008826602    1.567    0.362
       200  -8.4385    157.6638     49.1698   6.8101345706e+01   3.8973623649e+01    0.2346902    0.1609002 -55.07 0.0005504829    1.457    0.313
       201  -7.3672    139.8000    217.5704   1.0988609795e+02   1.0911832539e+01    0.1692538    0.1023985  39.18 0.0003392622    1.479    0.324
       202  -8.7195    132.9633     35.9888   6.8214531070e+01   4.7213098857e+01    0.3125783    0.2069235 -38.42  0.000503625    1.555    0.357
       203 -10.7869    134.0160     31.0372   6.6289522599e+01   4.7589428470e+01    0.3717123    0.2963194   1.36  0.001913026    1.649    0.393
       204  -8.7831    111.9416     46.9072   7.6922144670e+01   5.1045011705e+01    0.2974786     0.241004 -69.29 0.0005740362    1.368    0.269
       205  -8.9906    113.6267     41.8141   7.4579265721e+01   5.1411189118e+01    0.5955158    0.3671356   5.15  0.002162551    3.244    0.692
       206  -7.2096    162.3337     46.6107   6.6585498812e+01   3.8166758836e+01      0.16273   0.09750355 -64.82 0.0003221701    1.899    0.473
       207  -9.3453    105.0053     41.3854   7.6682624160e+01   5.3670820249e+01    0.4701324     0.269067 -40.03  0.002044736    1.836    0.455
       208  -8.6216    106.1902     36.5576   7.4452356434e+01   5.4096988385e+01    0.2915268    0.2469106  40.02 0.0009046588    1.223    0.182
       209  -7.3927     56.0000    215.9975   1.2946792216e+02   2.2566595905e+01    0.1896669   0.07233062 -72.49 0.0008138034    3.022    0.669
       210  -9.8973      9.9239    207.3585   1.4016652664e+02   2.9147908645e+01    0.5055515    0.2799579  13.79  0.002691577    2.175    0.540
       211  -8.1497    123.9435    205.9863   1.1188758512e+02   1.5298893484e+01    0.1897616    0.1597634  29.19            0    1.008    0.008
       212 -10.0778     76.2759     32.0467   8.1944597153e+01   6.2064653983e+01    0.6118402    0.3935292  71.04   0.00114062    2.042    0.510
       213  -8.5806    247.2960    203.3159   8.7608383809e+01  -1.1854267575e+00    0.1724705    0.1517013 -12.46 0.0002516354    1.455    0.313
       214  -9.9234     79.4409     24.0700   7.7006745600e+01   6.2485518797e+01    0.7490816    0.3079571  38.81  0.001990358    2.998    0.666
       215  -9.0550     84.7203     21.9029   7.4239217197e+01   6.1493700512e+01    0.2882563    0.2467698  43.89 0.0008667465    1.100    0.091
       216  -9.6085    153.2836     41.4780   6.6452331934e+01   4.1181149682e+01    0.4303392    0.3409401 -69.70  0.001732418    1.239    0.193
       217 -10.0140     37.7805     42.1664   1.0534429135e+02   6.7471542616e+01    0.4241514    0.2944566  61.84  0.001375002    2.125    0.529
       218  -9.3169    192.0433    194.7119   9.5532072397e+01   7.0450448004e+00      0.69669    0.3675377 -58.44  0.002598438    5.003    0.800
       219  -8.8026    139.5288     40.4075   6.8487640433e+01   4.4887198935e+01    0.4111618    0.2082369 -41.09  0.001426561    1.962    0.490
       220  -8.4175    123.1006     40.9165   7.2007025528e+01   4.9096322361e+01    0.4829576    0.2471226  32.37  0.001628076    3.416    0.707
       221  -8.0870    191.6359     39.3118   6.0710806513e+01   3.2044242101e+01    0.3267387    0.1601756 -57.39 0.0009447059    2.094    0.522
       222  -9.3481     54.2304     36.7427   9.3871450771e+01   6.5862652517e+01    0.5736826    0.2803293 -33.76  0.002099852    2.382    0.580
       223  -9.3989    245.0963    185.1337   8.4908372538e+01   1.3243605383e+00    0.2429276    0.2063562 -46.10  0.001336296    1.771    0.435
       224  -9.0088    233.2088    180.2134   8.5867755756e+01   3.4678448926e+00    0.2019629     0.173072  11.03  0.001467933    1.231    0.188
       225  -7.6370     15.6589    178.8166   1.3744648121e+02   3.5081927231e+01    0.1632104    0.1465206  41.61 0.0002955135    1.165    0.142
       226  -7.5999    160.3198     38.8169   6.4547730414e+01   3.9747384877e+01    0.1945944    0.1340171 -20.57 0.0009397456    1.754    0.430
       227  -8.8072    144.0679     36.4044   6.6352727359e+01   4.4253016837e+01    0.2664677    0.1939273 -50.18 0.0006043241    1.368    0.269
       228  -8.9171    118.9549     34.7041   7.0640110584e+01   5.1059497391e+01    0.3429047     0.203481 -36.43 0.0006740784    1.764    0.433
       229 -10.1124    100.9969    176.0013   1.1328310584e+02   2.5011974317e+01    0.2048525    0.1838849  39.22  -0.03019764    1.002    0.002
       230  -9.0719    234.3480    170.3922   8.3936390937e+01   4.6594921033e+00    0.1990922    0.1696129 -16.96 0.0002853686    1.153    0.132
       231  -8.3286    153.3692     35.0535   6.4422938937e+01   4.2020658101e+01    0.2476606    0.1846066  60.92 0.0007358507    1.316    0.240
       232  -9.1115    110.1653     32.9901   7.2027299837e+01   5.3581731257e+01    0.5176267    0.2297944 -42.50  0.001299103    2.387    0.581
       233  -7.5632    110.0285     26.4879   6.9462996794e+01   5.4476770322e+01    0.2309778    0.1321585  62.69  0.001027081    1.576    0.366
       234  -8.3125    155.1004    170.6082   9.8894099159e+01   1.7005058359e+01    0.2029912     0.185215 -46.41 0.0005981249    1.237    0.192
       235  -8.6847     42.3688     27.8263   9.5928453247e+01   6.9580975835e+01    0.2793007    0.1818025 -22.54            0    1.788    0.441
       236  -9.0676     88.5933    171.0953   1.1595235263e+02   2.8075319769e+01    0.2376187    0.1906366  27.95  0.000333648    1.211    0.174
       237 -10.3616    153.0294     27.2415   6.2002073043e+01   4.3086003470e+01    0.6336097    0.4187737 -61.94  0.003149962    1.521    0.343
       238  -7.8883    164.9628     29.4851   6.1104823475e+01   3.9761521845e+01    0.2095035    0.1283001  73.41 0.0005922408    1.544    0.352
       239  -8.9604     91.3327     26.1114   7.4176262634e+01   5.9308338655e+01    0.3674486    0.2406324 -54.69 0.0009637452    1.849    0.459
       240  -8.6958     92.0547     20.9862   7.1650498784e+01   5.9782137112e+01    0.3818294    0.2143478  34.06  0.001525404    2.189    0.543
       241  -8.6249    144.1633     25.7471   6.2805176334e+01   4.5574516907e+01    0.2498649    0.1777637 -51.09 0.0007407379    1.393    0.282
       242  -8.7300    128.3466     25.6555   6.5395483201e+01   4.9755882233e+01    0.3248602    0.2285596 -48.18  0.000841865    1.464    0.317
       243  -8.5072    129.5047     21.0150   6.3505175996e+01   4.9992631930e+01    0.2970435    0.2026348  36.30   0.00105587    1.783    0.439
       244  -7.8454    244.0064    170.4719   8.2503193541e+01   3.3727633538e+00    0.1503459    0.1059868  28.70 0.0004618465    1.512    0.339
       245  -8.2506    140.4966     23.0313   6.2447533993e+01   4.6856213828e+01    0.1973832    0.1393876 -33.00 0.0004775517    1.506    0.336
       246  -8.9834    233.9769    175.4383   8.4901263683e+01   4.0162679498e+00    0.2104179    0.1440867 -25.96 0.0001863606    1.239    0.193
       247 -10.0550    202.1557    167.7675   8.8814854673e+01   9.7274944302e+00    0.2402065    0.2310731 -30.61 0.0003574793    1.306    0.234
       248  -8.5745     87.9395    155.9256   1.1377093297e+02   3.1776288815e+01    0.2105068    0.1971818  43.63            0    1.031    0.030
       249  -7.6784    235.2947    155.6522   8.1068019084e+01   6.5887034112e+00    0.1118471   0.08887334 -52.31 0.0007031931    1.673    0.402
       250  -8.7181    133.4014    148.5194   9.9777674251e+01   2.5399513306e+01    0.8251471    0.1845333 -46.16  0.002243549    4.647    0.785
       251  -8.5201    111.5241     21.0677   6.6942085648e+01   5.4742673188e+01    0.4083296    0.1681335 -28.69  0.001591656    2.620    0.618
       252  -8.8172    222.0064    150.8307   8.2183166837e+01   9.2605774581e+00    0.1938215    0.1525912 -23.32 0.0002839072    1.091    0.084
       253  -8.6374     41.1203     20.9776   9.2942124164e+01   7.0977232946e+01    0.2615548    0.2084356 -10.16 0.0006062341    1.290    0.225
       254  -8.0659    139.7614     18.0157   6.0842387422e+01   4.7611308807e+01    0.1738817    0.1182958 -30.48 0.0005369108    1.587    0.370
       255  -8.3340    207.9334    150.0793   8.4354199839e+01   1.1611490013e+01    0.2565352    0.2020882 -46.50  0.001355831    1.410    0.291
       256  -7.1582    150.2677    147.7143   9.5488847490e+01   2.2364853418e+01    0.1354517    0.1161605  82.47 0.0002215328    1.497    0.332
       257  -8.5493    236.5148    146.4830   7.9141745169e+01   7.7142441034e+00     0.122117    0.0986853 -17.40 3.558732e-05    1.042    0.041
       258  -9.0346    154.0829     16.5316   5.8469449087e+01   4.4026797138e+01     0.347575     0.164948 -59.57  0.001442889    2.298    0.565
       259  -7.3761    189.3040     15.3447   5.4619445359e+01   3.5406984747e+01    0.1227461   0.09763359  38.76  0.000573141    1.687    0.407
       260  -9.2411     66.9307    144.0420   1.1834977302e+02   3.7964507412e+01    0.5551496    0.2669506  44.72  0.002216988    1.980    0.495
       261  -8.0793    249.0559    138.4581   7.5871451553e+01   7.0230186144e+00    0.1473908    0.1143859  36.92 0.0004541118    1.520    0.342
       262  -8.5906    112.2536    133.8221   1.0238800099e+02   3.2743574482e+01    0.3381085    0.2498169  83.38  0.001097393    1.846    0.458
       263  -9.7799    133.9912    131.5437   9.5956148216e+01   2.8946041567e+01    0.5331561     0.452386  40.45  0.002741598    1.144    0.126
       264  -8.0933     83.0004    131.3913   1.1086052245e+02   3.8662571268e+01    0.7826045    0.3914773  63.78  0.002425944    3.634    0.725
       265  -8.0319    142.9716    132.1104   9.3830578755e+01   2.7005716494e+01     0.368146    0.1997069  63.27  0.001249321    3.211    0.689
       266  -9.7318     98.5069    128.5657   1.0534212373e+02   3.6602815918e+01    0.6433477    0.3871415  71.12    0.0021925    2.774    0.640
       267 -10.2217     58.2491    124.4976   1.1804731699e+02   4.4274799612e+01    0.8388824    0.4258885  66.56  0.002663011    3.058    0.673
       268  -9.7603     67.1490    128.8613   1.1569894750e+02   4.1845898776e+01    0.3690069    0.3472803  74.66   0.00138724    1.028    0.027
       269  -7.9013      9.9557     12.8496   1.1176203447e+02   7.6607090633e+01    0.2439268    0.1429414  18.01  0.001343221    1.656    0.396
       270 -10.0727     71.1057    125.6064   1.1371936455e+02   4.2079741226e+01    0.6446866    0.4101536 -85.88  0.001577257    2.018    0.505
       271  -7.7718    242.2570    129.3600   7.5002339109e+01   9.2891204209e+00    0.1210589   0.08181301 -11.36 0.0006968932    1.622    0.383
       272  -7.7516    160.5068    128.9758   8.9036457105e+01   2.4080132302e+01    0.2280284    0.1423094 -42.49  0.001034162    1.594    0.373
       273  -7.5849    125.6529    129.6991   9.7733207484e+01   3.1037224863e+01    0.1573761    0.1224175   0.90 0.0003957436    1.686    0.407
       274  -9.9572    117.1937    125.4861   9.9102070470e+01   3.3696249307e+01     0.603449     0.403693  77.63  0.001203885    2.391    0.582
       275  -9.3365    117.9572    119.5236   9.7469907191e+01   3.4902069840e+01     0.597288    0.3195634  20.66  0.001816624    3.769    0.735
       276  -9.8296     27.4515    123.1069   1.2916055648e+02   4.8200946918e+01    0.6786722    0.2919887  61.07  0.002232768    2.873    0.652
       277  -9.2170    109.5316     90.5557   9.2223128008e+01   4.3219024661e+01    0.9554639    0.4250216  31.91  0.002830759    3.626    0.724
       278 -10.6738    123.6894     90.4169   8.8108167704e+01   4.0026967102e+01     1.098238    0.6793256 -30.17  0.002383253    2.008    0.502
