#   1 NUMBER                 Running object number                                     
#   2 MAG_AUTO               Kron-like elliptical aperture magnitude                    [mag]
#   3 X_IMAGE                Object position along x                                    [pixel]
#   4 Y_IMAGE                Object position along y                                    [pixel]
#   5 X_WORLD                Barycenter position along world x axis                     [deg]
#   6 Y_WORLD                Barycenter position along world y axis                     [deg]
#   7 A_WORLD                Profile RMS along major axis (world units)                 [deg]
#   8 B_WORLD                Profile RMS along minor axis (world units)                 [deg]
#   9 THETA_WORLD            Position angle (CCW/world-x)                               [deg]
#  10 FWHM_WORLD             FWHM assuming a gaussian core                              [deg]
#  11 ELONGATION             A_IMAGE/B_IMAGE                                           
#  12 ELLIPTICITY            1 - B_IMAGE/A_IMAGE                                       
         1 -12.4048    248.6350    134.0093   7.9676389288e+01   3.6931179369e+00     1.161326    0.6951104 -35.23  0.005565146    1.597    0.374
         2 -12.8322    197.6212     32.6980   6.2479401431e+01   3.1653224637e+01     1.060309    0.7206432  46.53  0.005247904    1.503    0.334
         3 -13.6277    213.0619     15.1376   5.5755634625e+01   2.9828323824e+01     1.336937    0.9806067  25.98  0.007054626    1.811    0.448
         4 -11.5504      2.1000     15.5518   1.1210861826e+02   6.9127463644e+01    0.7545215          nan -50.68  0.002373196    6.842    0.854
         5 -11.2728      2.1709      4.5627   1.0809043298e+02   7.0796517425e+01    0.4278382    0.1551751 -50.67  0.002320678    2.668    0.625
         6  -9.7215     73.7852    243.1183   1.3081834798e+02   1.7260040104e+01     0.184035    0.1370614  86.48  0.001162991    1.206    0.171
         7 -11.8647    199.3459    246.6479   1.0984831252e+02  -3.5214939925e+00    0.5213754    0.2438658  49.37  0.002514869    1.907    0.476
         8 -11.2663    149.7263    248.2757   1.1864734946e+02   4.6990487607e+00    0.3231709    0.2415798 -68.44  0.002170284    1.684    0.406
         9 -11.3717    100.1895    247.8152   1.2694636522e+02   1.2694825172e+01    0.5517946    0.2615077  49.44  0.002766792    1.647    0.393
        10 -12.6936    131.8751    248.7501   1.2174911378e+02   7.5802666574e+00     1.664955     0.217808  44.79  0.004915324    5.793    0.827
        11 -12.3964    124.2978    240.8114   1.2216107600e+02   1.0046464185e+01    0.6857182     0.434788  39.94   0.00417368    1.553    0.356
        12 -11.5410    109.0173    245.8331   1.2529054549e+02   1.1667437308e+01    0.4123039    0.2732123 -89.77 0.0007743277    1.655    0.396
        13 -10.4453     84.4286    240.8274   1.2889378181e+02   1.6154826779e+01    0.3715496    0.2258328 -85.18  0.002401297    1.684    0.406
        14 -10.5493     81.8356    246.9861   1.2985116847e+02   1.5500758902e+01    0.3657832    0.2313828 -88.83  0.002491471    1.552    0.356
        15  -9.5920     91.6007    250.1737   1.2855862745e+02   1.3585459040e+01    0.2178355    0.1585992  60.59  0.001585821    1.063    0.059
        16 -10.9363     86.9156    248.2298   1.2914216061e+02   1.4575785964e+01    0.3107736    0.2466937  55.75 0.0008264781    1.255    0.203
        17  -9.4374     62.7623    250.4131   1.3311191767e+02   1.7524155334e+01    0.1789799     0.115562  39.64  0.001039626    1.871    0.466
        18 -11.3213     60.3260    245.9686   1.3316155628e+02   1.8573093895e+01    0.3740462    0.2751205  63.33  0.001838479    1.139    0.122
        19 -10.1261     67.1893    243.8337   1.3192558356e+02   1.8030274976e+01    0.2596626    0.1526827  39.50  0.001662452    1.946    0.486
        20 -12.3208     18.4836    216.9593   1.3771533716e+02   2.8499047449e+01     1.032164     0.776548 -17.14  0.002318966    3.962    0.748
        21 -10.8011     22.3142    200.4591   1.3598251652e+02   3.1173724593e+01    0.3741073     0.171829 -86.07  0.001784284    1.891    0.471
        22 -12.4983      7.5314    214.6782   1.3928390312e+02   2.9985552005e+01      1.08665    0.5869758 -61.75  0.007513447    2.140    0.533
        23 -12.3362     11.6480    205.9840   1.3811484571e+02   3.1183759529e+01    0.7238116    0.4328536  23.43  0.004595731    3.104    0.678
        24 -12.4271     44.3330    208.3298   1.3283610298e+02   2.7268346204e+01     1.164013    0.4954989  74.62  0.005618832    2.868    0.651
        25 -13.2431     40.1856    243.4516   1.3605972999e+02   2.1477661550e+01     1.039818    0.6504392  73.39  0.005768009    1.172    0.147
        26 -13.3061      3.9624    244.7401   1.4133488678e+02   2.5152168874e+01      1.15039    0.4586878 -85.97  0.007632007    2.058    0.514
        27 -13.1997     13.7242    239.7503   1.3972466610e+02   2.5006312787e+01    0.9269125    0.4911546 -83.52  0.002376949    1.543    0.352
        28 -12.8502     31.6806    227.1661   1.3630391640e+02   2.5263941404e+01    0.4603041     0.266138 -69.47 0.0008358439    1.724    0.420
        29 -13.8391     38.0142    218.5729   1.3469462487e+02   2.6095745965e+01     1.072969    0.7834824  54.20  0.008173031    1.356    0.262
        30 -11.8484     54.8990    207.5888   1.3093132713e+02   2.6126471308e+01     1.023562    0.4392521  56.43  0.004747292    2.099    0.524
        31 -10.6831    142.2545    221.5770   1.1657228344e+02   1.0158714644e+01     0.364508    0.2207574  37.51 0.0004284608    1.654    0.396
        32  -9.8075    132.2616    223.2161   1.1863103449e+02   1.1615289775e+01    0.2183046    0.1848672  73.02 0.0006121008    1.120    0.107
        33 -12.7205    135.5285    241.0410   1.2024069066e+02   8.1626235449e+00     1.095553    0.3555767  54.85  0.004243998    3.424    0.708
        34 -12.8565    135.3234    236.2462   1.1970449615e+02   8.9520380895e+00    0.7249639    0.5667607  53.07  0.003279389    1.050    0.048
        35 -11.2749    134.8500    231.5297   1.1921129691e+02   9.7916017177e+00    0.3647764    0.2682603 -24.48   0.00138806    2.428    0.588
        36 -11.4074     84.7403    230.7400   1.2790997431e+02   1.7839029414e+01    0.5139053    0.2437499 -74.40  0.002787634    2.346    0.574
        37 -11.5469     98.7995    232.5040   1.2567343395e+02   1.5446509036e+01     1.125861    0.4146265 -74.82  0.004016802    5.569    0.820
        38 -11.0772    113.3130    231.3606   1.2301933345e+02   1.3373508668e+01    0.3128695    0.2610225 -66.06  0.001763842    1.419    0.295
        39 -10.5383     79.6826    226.0866   1.2833221854e+02   1.9385456674e+01    0.3622486    0.2312112 -83.63  0.001293319    1.521    0.342
        40 -10.6084     98.3485    223.5390   1.2480814208e+02   1.7082334084e+01    0.3731094    0.2487482  47.64  0.001656575    1.358    0.264
        41 -10.8639     96.8812    239.7011   1.2671881469e+02   1.4518777267e+01    0.2719631    0.2393083 -41.73   0.00138231    1.816    0.449
        42 -10.8578     91.5008    242.1246   1.2784583529e+02   1.4913519092e+01     0.391723     0.212229  67.29   0.00139118    1.741    0.426
        43 -10.5952     89.9552    238.0756   1.2772460755e+02   1.5818513933e+01    0.2170166    0.1837501  84.63 0.0009437488    1.224    0.183
        44 -11.4770    176.1789    242.4175   1.1329324940e+02   1.0140900161e+00    0.3392207    0.2055538  53.74  0.001466452    1.506    0.336
        45 -10.8463    135.9930    225.0091   1.1817882878e+02   1.0672712767e+01    0.3379234    0.2271748 -51.26  0.001157032    1.799    0.444
        46  -9.9869     53.8331    240.6558   1.3378223333e+02   2.0293266585e+01    0.1749633    0.1213572 -88.73 0.0006479798    1.266    0.210
        47 -10.6639    116.6948    238.3954   1.2320687009e+02   1.1662245488e+01    0.3340424    0.2524938 -33.53  0.001607174    2.277    0.561
        48  -9.1836     61.5570    238.9161   1.3243552630e+02   1.9603665682e+01    0.1693459    0.1234968  54.06 0.0007312944    1.303    0.233
        49 -11.0723    105.6800    237.1234   1.2496670786e+02   1.3607320048e+01     0.287352     0.270127 -82.55  0.002186436    1.393    0.282
        50 -10.9826    167.5358    242.5055   1.1482257128e+02   2.4964689704e+00    0.2478864    0.1700901  55.47 0.0007431337    1.311    0.237
        51  -9.2302    173.1113    236.1379   1.1296701705e+02   2.4376038502e+00    0.1611466    0.1281886  62.55            0    1.300    0.231
        52  -9.9469    157.9960    242.3318   1.1647322441e+02   4.1637106127e+00     0.206642    0.1321241 -74.12  0.001141142    2.405    0.584
        53 -10.6264    115.0344    250.3894   1.2474731522e+02   1.0014886395e+01    0.4950163     0.178968  43.51  0.001942878    2.318    0.569
        54 -11.2077    122.7616    233.2367   1.2156649230e+02   1.1527578226e+01    0.3467673    0.2877826 -77.54  0.001623447    1.332    0.249
        55  -9.5707     54.9561    235.8478   1.3325055882e+02   2.0976911130e+01    0.2549293    0.1269316  58.14  0.001153953    1.591    0.372
        56  -8.5608     70.6275    235.2153   1.3067084591e+02   1.9036035318e+01     0.132975   0.09263249 -70.03 0.0006655307    1.547    0.354
        57 -10.3210    156.8270    231.7985   1.1529237518e+02   5.9506748716e+00    0.2058756    0.2000129 -78.57 0.0005166023    1.254    0.203
        58 -11.4486    249.0874    231.5035   9.8924240391e+01  -9.9700382984e+00     0.352194    0.2242991   7.58  0.002108483    1.663    0.399
        59  -9.1607     77.4354    220.9316   1.2822690986e+02   2.0632845959e+01    0.1830796    0.1248809  70.37 0.0004937953    1.213    0.176
        60 -10.0213    141.7431    231.2519   1.1793898658e+02   8.6599824450e+00    0.1906525    0.1779803   9.92  0.001103084    1.433    0.302
        61  -9.2056    142.4133    227.2304   1.1729670797e+02   9.1957200555e+00    0.1996091    0.1186213 -69.99 0.0005421942    2.290    0.563
        62  -8.2026     57.4377    231.4475   1.3251344943e+02   2.1430023396e+01    0.1107196   0.07987178  72.85 0.0002812534    1.018    0.018
        63  -8.9733     45.9100    231.1212   1.3433789010e+02   2.2916922646e+01     0.172971    0.1023805  69.87  0.001189088    1.328    0.247
        64  -9.7578    128.4276    228.8109   1.2002926791e+02   1.1323038455e+01    0.1541148    0.1151268 -43.85 0.0009514969    1.819    0.450
        65 -10.4888    117.1244    224.5227   1.2155075923e+02   1.3927523797e+01    0.2448098    0.2187818  68.18 0.0004084346    1.162    0.140
        66  -9.5706     92.5839    225.9835   1.2608366435e+02   1.7522593427e+01    0.2240627    0.1386549  56.07 0.0006413675    1.318    0.241
        67  -9.2256     64.9786    224.5286   1.3069370045e+02   2.1682086026e+01    0.1934861    0.1372725 -60.37  0.001000594    1.733    0.423
        68 -10.9961    245.8645    219.9567   9.7491473112e+01  -8.0957631355e+00    0.3301505    0.1676023 -27.19  0.001738844    2.170    0.539
        69  -9.6047    110.8077    220.0236   1.2216482607e+02   1.5745301912e+01    0.2992072   0.09464877 -66.27  0.001019113    5.220    0.808
        70 -10.2376     70.0812    218.1911   1.2924726203e+02   2.2152818580e+01    0.4773952    0.2496545  88.74   0.00261906    2.114    0.527
        71  -8.7016     88.9858    218.4925   1.2593919122e+02   1.9407668974e+01    0.1708409   0.09970288  48.55 0.0004286643    1.496    0.331
        72  -8.4615     62.3303    218.2342   1.3059130783e+02   2.3178450434e+01    0.0913768   0.08580253  54.04 0.0002497096    1.528    0.345
        73  -9.7523    137.3123    214.6877   1.1655429361e+02   1.2205392580e+01    0.2611024    0.1765662  83.64  0.001322227    1.883    0.469
        74 -11.7519    105.2192    227.9398   1.2406871254e+02   1.5242510493e+01    0.6634355    0.3536286  67.82  0.003196119    2.050    0.512
        75  -9.5379     88.1346    212.9259   1.2549592880e+02   2.0562458489e+01    0.2312082    0.1432669 -87.98 0.0009864082    1.686    0.407
        76  -8.6779     99.2814    218.3320   1.2406688026e+02   1.7874220659e+01    0.1016346    0.0972596 -15.97 0.0003368734    1.610    0.379
        77  -9.2494    106.7136    210.0031   1.2171435267e+02   1.8229522077e+01    0.1710084    0.1463477  88.72 0.0006762326    1.141    0.123
        78  -9.5925    112.6308    208.2762   1.2037837728e+02   1.7584998216e+01    0.2233427    0.1846095  55.29 0.0007895918    1.126    0.112
        79  -9.1310     74.7810    208.2699   1.2743455517e+02   2.3365409503e+01    0.2072605    0.1271185  46.06  0.001254552    1.552    0.356
        80 -10.3817    246.3130    206.3425   9.4970110297e+01  -6.4698559273e+00    0.2659183    0.1669569  13.42  0.001426338    1.755    0.430
        81  -9.0599    125.7516    206.2389   1.1759336746e+02   1.5740476217e+01    0.2077411    0.1537044 -68.08  0.001220478    1.465    0.318
        82  -9.0543     32.9057    207.0003   1.3467866853e+02   2.8817917574e+01    0.1430558    0.1127649 -63.95 0.0004537661    1.590    0.371
        83 -10.6192    250.2901    201.8661   9.3451182600e+01  -6.5744175954e+00    0.4428638    0.1462872 -29.89  0.001741943    3.437    0.709
        84  -8.9713     75.4248    203.3115   1.2679507367e+02   2.4228017379e+01    0.2401309     0.183526  -3.88  0.001290491    3.099    0.677
        85  -9.3650    104.0286    203.1459   1.2136805045e+02   1.9953949044e+01     0.175722    0.1690232  39.91 0.0008570259    1.376    0.273
        86  -9.9129      2.0072    202.0432   1.3942058763e+02   3.2799070173e+01    0.2352583    0.1055835 -79.19  0.001284705    1.728    0.421
        87  -9.9169      1.9863    197.0078   1.3912425463e+02   3.3738107241e+01    0.1628212    0.1090974  84.94 0.0006526398    1.047    0.045
        88 -10.5280      1.4915    192.0243   1.3889931164e+02   3.4719010454e+01    0.3118799     0.104482 -78.53  0.001584089    2.352    0.575
        89 -11.7215      3.9046    186.4191   1.3813279347e+02   3.5581744897e+01    0.7163519    0.2527425 -80.01  0.003443985    2.290    0.563
        90  -9.9784     84.3531    201.1735   1.2488430828e+02   2.3362195762e+01    0.3022467    0.2141661 -46.68  0.001402854    1.945    0.486
        91  -9.5423     44.5766    199.2396   1.3201718326e+02   2.8984084925e+01    0.2559854    0.2170643  32.93  0.001887334    1.702    0.413
        92  -9.9259     90.9492    204.7850   1.2405658573e+02   2.1680844356e+01      0.40405    0.1602942  42.39  0.001252731    2.365    0.577
        93 -10.2778     28.0202    196.6912   1.3472172446e+02   3.1309422795e+01    0.3288747    0.2712552 -69.17  0.002431988    1.455    0.313
        94  -9.6538     25.8370    192.8083   1.3479889221e+02   3.2287854326e+01    0.2235463    0.1310892  77.75  0.001035352    1.438    0.305
        95  -8.6812    145.0255    198.0281   1.1260845195e+02   1.3788252100e+01     0.153063    0.1421585 -89.04 0.0003473091    1.139    0.122
        96 -10.8242    103.1511    195.8787   1.2059801785e+02   2.1500979079e+01    0.2357346    0.2257585 -86.55 0.0003061483    1.266    0.210
        97  -9.7224     96.8820    196.0855   1.2185526270e+02   2.2456890324e+01    0.3883875    0.1925189  56.58   0.00190387    1.949    0.487
        98  -9.6791     53.9991    198.4720   1.3024748633e+02   2.8000331153e+01    0.2490686     0.135524  51.25  0.001495171    1.655    0.396
        99 -11.5805     59.0033    194.3437   1.2891732050e+02   2.8186026761e+01    0.3458629    0.2711222 -58.66 0.0009457906    1.536    0.349
       100 -13.2745     28.9790    246.7838   1.3791224023e+02   2.2203751591e+01     1.168115    0.5924698  48.70  0.008290574    1.694    0.410
       101 -10.6140    249.4499    194.0012   9.2104856364e+01  -5.3893664376e+00    0.3360958    0.2252353  22.50   0.00188769    1.428    0.300
       102  -8.7168     64.5203    201.5665   1.2862616714e+02   2.6050428132e+01    0.1173274   0.09287609  77.81 6.722945e-05    1.019    0.019
       103  -9.0824     20.8497    195.1178   1.3584171730e+02   3.2342579337e+01    0.1466673    0.1080972 -62.82 0.0005747785    1.595    0.373
       104  -9.3657    113.4617    190.8686   1.1785217238e+02   2.0780278467e+01    0.4294116    0.2063695 -40.52  0.001717665    3.503    0.715
       105  -8.7712     72.5400    192.9435   1.2620106882e+02   2.6669760779e+01    0.1389664    0.0953557 -45.37 0.0002796947    2.073    0.518
       106 -10.0526     15.6352    191.9773   1.3650907555e+02   3.3453312446e+01    0.2015039    0.1308204  87.46 0.0003805138    1.154    0.134
       107  -9.5024    191.4857    191.4848   1.0232138219e+02   5.9522473705e+00    0.2335081    0.2113722  38.88 0.0006196019    1.028    0.027
       108  -8.6386     38.4951    192.4036   1.3250796531e+02   3.1016601199e+01    0.1501093   0.08796497 -66.31 0.0001115351    1.602    0.376
       109  -9.2467     40.8325    188.6822   1.3174583874e+02   3.1492717466e+01    0.2083444    0.1483778  69.09  0.001450154    1.194    0.162
       110  -8.5641     20.0129    191.2295   1.3569626125e+02   3.3176637592e+01    0.1524013    0.1102912  88.11  0.001147448    1.041    0.039
       111  -9.3652     31.9288    189.9870   1.3348504779e+02   3.2206675362e+01    0.2843198    0.1026316  50.35  0.001484463    2.507    0.601
       112 -10.1178    250.3137    187.8794   9.0767497661e+01  -4.7097755314e+00    0.3031599    0.1503336 -25.52  0.001416675    2.185    0.542
       113  -9.3023     77.0439    188.5533   1.2481620903e+02   2.6923210814e+01    0.1752425    0.1403003 -86.47 0.0003317847    1.105    0.095
       114 -11.5120     65.7111    186.5096   1.2679827266e+02   2.8889376996e+01    0.3520819    0.2209355 -65.49   0.00161657    1.513    0.339
       115  -9.9191     10.0472    187.8968   1.3718086122e+02   3.4757576462e+01    0.1827012     0.114012 -85.01 0.0004127164    1.211    0.174
       116 -10.1985     83.6742    186.8020   1.2328783494e+02   2.6321487537e+01    0.2091328    0.1662669  76.71 0.0002915028    1.082    0.075
       117  -9.4204     28.6616    184.4629   1.3360796754e+02   3.3641896612e+01    0.2650787     0.193782  26.29  0.001051652    2.042    0.510
       118  -9.1338     24.1184    184.0800   1.3440298309e+02   3.4175697633e+01    0.1675611    0.1269356  86.49 0.0005876009    1.033    0.032
       119  -8.9020    140.1499    183.2027   1.1119312215e+02   1.7496785075e+01    0.1844199    0.1473563  73.67 0.0002742746    1.290    0.225
       120 -10.7060    127.8355    182.6861   1.1366239676e+02   1.9877078845e+01      0.22729     0.203171  83.77 0.0002889992    1.074    0.069
       121  -9.0571     36.5613    182.6828   1.3198627546e+02   3.3166534051e+01    0.1986479   0.08746368 -67.32  0.001093088    1.939    0.484
       122  -8.3786    107.5748    182.4948   1.1783615807e+02   2.3446321618e+01    0.1323925      0.11389  76.86 0.0001726165    1.025    0.024
       123 -10.1165     86.0236    180.2836   1.2196740565e+02   2.7308929565e+01    0.2819891    0.1835818 -89.66 0.0003497683    1.623    0.384
       124 -11.5581    241.1611    120.9571   7.7944294496e+01   7.3874596293e+00    0.7399476    0.4313042  51.97  0.003380021    1.784    0.439
       125 -11.9182    248.2654    172.5554   8.8049925272e+01  -2.1605899129e+00    0.5896664    0.4596598  -7.26  0.003414796    1.260    0.206
       126 -12.8193    246.2803    159.8895   8.5749467749e+01   1.1316401183e-01     1.747504     0.868637 -48.44  0.007233076    2.685    0.628
       127 -10.8369    249.5303    151.1501   8.3312480136e+01   8.2008563693e-01    0.4663339    0.3180147 -32.94  0.002374278    1.423    0.297
       128 -12.5980    247.6571    100.8554   7.2175733563e+01   9.2327974423e+00     1.003035    0.6200789 -43.71  0.004759492    1.571    0.363
       129 -11.8261    247.7242    142.3965   8.1702305209e+01   2.5479954524e+00    0.6931602    0.5575572  25.62  0.003544846    1.256    0.204
       130 -10.7088    192.6381    248.6397   1.1128873488e+02  -2.6354721817e+00     0.246676    0.1617349  34.09  0.001038021    1.311    0.237
       131  -8.6104     92.5350    178.3843   1.2036341731e+02   2.6711332633e+01    0.1280005    0.1095806  75.61 -4.130203e-05    1.026    0.025
       132  -8.6538     12.4995    178.4810   1.3605750337e+02   3.6378480756e+01    0.1077406   0.07936305  89.64 2.847644e-05    1.032    0.031
       133  -8.3575    125.7100    177.2803   1.1322742572e+02   2.1344381970e+01    0.1360711   0.09856376  75.77 0.0001627681    1.526    0.345
       134 -11.8409     65.3959    175.7678   1.2560718076e+02   3.1142289023e+01    0.2527313    0.2002237  69.76 0.0003281428    1.131    0.116
       135 -10.8823     62.3436    172.5486   1.2584019416e+02   3.2211422583e+01    0.2403129    0.2061224  36.14  0.001623822    1.482    0.325
       136 -10.1227    103.0081    176.0364   1.1782877106e+02   2.5527117134e+01    0.1933337    0.1710602  80.13            0    1.023    0.023
       137 -10.7833     75.9063    174.8477   1.2333453397e+02   2.9906457352e+01    0.2508357    0.1990473  80.35 0.0004743327    1.106    0.096
       138 -10.2298     19.0290    173.0486   1.3441711746e+02   3.6869321715e+01    0.3623986    0.1769747  76.76   0.00189947    2.070    0.517
       139 -10.9053     14.5065    166.7838   1.3473716227e+02   3.8542363061e+01    0.2535538    0.2289366  42.92   0.00152797    1.505    0.336
       140 -10.3870     11.9257    173.6154   1.3578230241e+02   3.7395343987e+01    0.3003504    0.1171068 -60.79  0.001419717    2.344    0.573
       141 -10.9019      3.5126    172.9755   1.3726443298e+02   3.8233127111e+01    0.3029091    0.1861042  79.69 0.0007066934    1.314    0.239
       142 -10.3780      1.7804    166.6088   1.3710818953e+02   3.9632347297e+01    0.2917912   0.09200687 -69.63  0.001543319    2.336    0.572
       143  -9.7077    107.5568    172.7019   1.1634983110e+02   2.5463568999e+01    0.2168164     0.187652  60.02 0.0004570849    1.101    0.091
       144 -10.2762     45.9373    172.2391   1.2912580648e+02   3.4262494315e+01    0.4293539    0.2278907 -45.38  0.002158734    2.793    0.642
       145  -9.7689     27.8917    171.4872   1.3259232469e+02   3.6337425260e+01     0.289572    0.1539485 -58.68  0.001321379    1.865    0.464
       146  -8.9930     36.9724    171.4689   1.3082197871e+02   3.5409178680e+01    0.1640965   0.07072295  59.17 0.0006532901    2.500    0.600
       147  -8.4570     52.6193    170.7741   1.2761650445e+02   3.3787966375e+01    0.1007276   0.09183244 -30.59 0.0006882448    1.612    0.380
       148 -11.7465     84.0510    166.0848   1.2040290151e+02   3.0584210716e+01    0.5466232    0.4526669  40.75  0.003399613    1.372    0.271
       149 -10.6730      6.7269    166.7532   1.3620182183e+02   3.9207260664e+01    0.2365104    0.1423302 -87.93  0.001044548    1.277    0.217
       150 -10.4528     44.1605    167.0929   1.2892163987e+02   3.5535798554e+01    0.4753479    0.2347218 -59.50  0.002436281    1.877    0.467
       151  -8.6114     61.0273    164.7791   1.2514833305e+02   3.4019711790e+01    0.1442213   0.09520378  44.60  0.000311274    1.583    0.368
       152  -8.3363     36.7178    162.6830   1.2995678740e+02   3.7262434909e+01     0.108325   0.07864069 -53.17 0.0003152814    1.580    0.367
       153 -10.0187     12.1965    161.5247   1.3472733187e+02   3.9808549165e+01    0.1881759     0.117187  84.55  0.001275165    1.342    0.255
       154  -9.8647     16.1509    158.3226   1.3366388206e+02   4.0126117345e+01    0.1743345    0.1173337 -72.59 0.0003647332    1.216    0.177
       155 -11.2438      9.8383    156.6138   1.3475744553e+02   4.1004708099e+01    0.3960424     0.171748  65.25   0.00210338    2.612    0.617
       156 -11.8683     11.1495    151.2537   1.3400896246e+02   4.1998086242e+01     0.469503    0.2317051  86.28 0.0008927272    1.982    0.495
       157 -12.1443      9.3730    142.8847   1.3357384763e+02   4.3866271316e+01    0.3262401    0.2806194 -26.24  0.002554588    1.697    0.411
       158 -11.7222      2.4605    145.3271   1.3522956956e+02   4.3876765244e+01    0.4682891    0.1795693 -69.63  0.002638263    1.913    0.477
       159 -10.5224     31.9758    155.3264   1.3013701763e+02   3.9288508655e+01    0.3090295    0.1820333 -53.72 0.0009510725    1.779    0.438
       160 -10.6810     24.6128    154.9456   1.3162287830e+02   4.0070569625e+01    0.4136114    0.1476951  40.54  0.001980212    2.844    0.648
       161 -10.2650     22.7126    150.0970   1.3151269109e+02   4.1257445754e+01    0.2590784    0.1700886 -35.17  0.001581077    2.364    0.577
       162  -8.6099    228.3496    155.2556   8.7959530346e+01   4.4499629883e+00     0.190262    0.1283295 -42.59 0.0005170449    1.581    0.367
       163  -9.9420     84.8496    155.1761   1.1857136448e+02   3.2813047795e+01    0.1902229    0.1566471  81.72            0    1.142    0.124
       164  -9.4724     89.9166    153.4789   1.1715095519e+02   3.2414112078e+01    0.2004326    0.1623496 -72.46 0.0004994042    1.141    0.124
       165  -8.5337    104.5610    153.4503   1.1380878220e+02   3.0057545370e+01    0.1374179    0.1227043  86.36 7.563911e-05    1.034    0.033
       166  -8.8818    113.6769    151.0915   1.1129505282e+02   2.8988126957e+01    0.2846431    0.1256464 -61.03  0.001097179    2.570    0.611
       167 -10.2918     96.6206    150.9643   1.1519391129e+02   3.1905012834e+01    0.3227286    0.2501369 -58.71  0.001012361    1.253    0.202
       168  -8.6109     86.0000    149.9001   1.1745702506e+02   3.3789556413e+01    0.2125805   0.06981665 -58.67  0.000568932    2.857    0.650
       169 -11.9904     68.4095    144.4093   1.2064083097e+02   3.7471607930e+01    0.6207542    0.4192603  85.78  0.002217622    1.626    0.385
       170  -9.8900    235.9607    145.9938   8.4548338493e+01   4.3844849063e+00    0.2227902    0.1969713   7.85  0.000560861    1.101    0.092
       171  -9.6803     41.4204    147.4796   1.2718813821e+02   3.9995365131e+01    0.2019126    0.1660679 -80.91 0.0005684801    1.035    0.034
       172 -10.1315     32.5846    144.9833   1.2882357609e+02   4.1421114804e+01    0.2751076    0.1308083 -38.15  0.001171795    4.101    0.756
       173  -9.8001    133.4711    141.3319   1.0478228281e+02   2.7358005991e+01    0.5121709    0.2534699 -56.58   0.00204057    2.237    0.553
       174 -11.5778     16.3017    138.9964   1.3169425679e+02   4.4131958659e+01    0.3021214    0.2047593  41.81  0.002100746    1.713    0.416
       175 -11.0338     60.0771    136.5055   1.2136260779e+02   4.0262298416e+01    0.2774384    0.2115199 -84.85 0.0006017319    1.236    0.191
       176  -8.5441     50.9972    138.2124   1.2375987677e+02   4.0956225893e+01    0.1396382   0.09852437  39.05 0.0003314121    1.618    0.382
       177  -9.6281    109.0689    136.1546   1.0949020059e+02   3.3041991327e+01    0.3445782    0.2588047  -5.29  0.001518255    2.166    0.538
       178  -8.9689    100.2969    146.3399   1.1352241429e+02   3.2313064484e+01    0.2043045     0.160664 -24.29  0.001042117    1.789    0.441
       179 -10.5707     33.0480    141.2732   1.2827026402e+02   4.2168666526e+01    0.2911896    0.1594816  87.38  0.001567602    2.007    0.502
       180 -12.2471      2.7801    130.2592   1.3372252783e+02   4.6954083956e+01    0.6857824    0.2169012 -74.63  0.003307237    2.528    0.604
       181 -12.0473      4.3423    120.3119   1.3230363497e+02   4.8911956603e+01    0.4674985    0.2551952  43.61   0.00302779    2.138    0.532
       182 -10.5973     66.9836    128.5130   1.1836331925e+02   4.1152327277e+01    0.3006572    0.2027528 -62.82  0.001698322    1.306    0.234
       183 -10.2250     59.4484    128.1496   1.2016207631e+02   4.2172597983e+01    0.2519388    0.1807235  62.28  0.001239257    1.540    0.351
       184  -8.8645     75.0432    128.7055   1.1639908083e+02   4.0033142655e+01    0.2087518   0.08225449  55.30 0.0007028674    4.141    0.758
       185 -10.0839     23.5875    127.3364   1.2867715972e+02   4.5998010842e+01    0.2267854   0.09352765 -73.02 0.0006877173    2.094    0.522
       186 -10.3189     29.9649    126.7339   1.2709534103e+02   4.5572433180e+01    0.1596166    0.1357675 -77.40 0.0005440065    1.077    0.071
       187  -9.9172    210.0148    125.6588   8.4667761322e+01   1.3559546977e+01    0.2739461    0.2195993 -34.58 0.0004730184    1.257    0.204
       188  -8.4944     48.2976    126.3253   1.2260750054e+02   4.3847661711e+01    0.1220224   0.08370925 -42.60 0.0003420293    1.629    0.386
       189 -10.3822     44.3018    129.9932   1.2413636216e+02   4.3474407825e+01     0.216599    0.1424667 -80.36 0.0006951526    1.423    0.297
       190 -11.3942     22.4284    120.8262   1.2809950704e+02   4.7479754547e+01    0.2962484    0.1239317  38.75  0.001581876    2.693    0.629
       191  -9.8822    231.8866    116.1764   7.8403437977e+01   1.0231146000e+01    0.2241352    0.2018352 -61.70 0.0006521165    1.217    0.179
       192 -11.7659      9.2914    112.2710   1.3016205071e+02   5.0259175756e+01    0.3472033    0.1912351 -42.37  0.001758178    2.023    0.506
       193  -9.9716    167.8403    112.9798   9.0263529047e+01   2.5776762615e+01    0.3362803    0.2757184 -79.24 0.0008947763    1.479    0.324
       194  -8.7667    203.4167    111.7712   8.2554003604e+01   1.7601463412e+01    0.2087302    0.1474892 -22.95 0.0005330718    1.605    0.377
       195 -11.9154     11.0157    115.7255   1.3018277982e+02   4.9418270336e+01    0.2761135    0.2217239  39.11  0.002095611    1.555    0.357
       196 -11.5857     14.9045    104.9336   1.2775978332e+02   5.1408882840e+01    0.2679572    0.2012031 -67.93 0.0009033054    1.025    0.024
       197 -11.8079      4.1607    108.5372   1.3094423670e+02   5.1367022852e+01    0.3228579    0.2655648 -74.73  0.001478807    1.102    0.092
       198  -8.9157     47.6250    179.8270   1.2959533978e+02   3.2503715011e+01    0.1823302   0.08626091  35.15 0.0005983081    2.492    0.599
       199  -8.4008     71.7688    100.0378   1.1146202464e+02   4.6733520175e+01    0.1659665   0.09877449 -55.32 0.0002687118    1.501    0.334
       200 -10.5190     16.9825     99.1281   1.2634702477e+02   5.2476930061e+01    0.1926373    0.1439514 -71.52            0    1.110    0.099
       201 -10.4277      9.2291     97.6055   1.2817084390e+02   5.3314905468e+01    0.1300398    0.1023471 -16.96 0.0005491603    1.652    0.395
       202  -9.6589      2.0000     88.9809   1.2883505927e+02   5.5512037390e+01    0.1855125   0.04721063 -67.52 0.0007453828    2.922    0.658
       203 -12.4494    248.4055    114.1378   7.5167675794e+01   6.9327636535e+00     1.094195     0.459842 -37.13  0.004343231    2.221    0.550
       204 -10.8983    184.6026    250.2973   1.1290084640e+02  -1.4855375384e+00    0.3541301    0.1343094  42.87   0.00169898    2.049    0.512
       205 -10.7975    169.4244    248.9279   1.1533580088e+02   1.2761395842e+00    0.2580454    0.1977155  22.29 0.0009023773    1.545    0.353
       206 -10.1661     16.2658     25.2083   1.0952014283e+02   6.6655448430e+01    0.1557236    0.1340004  51.04 0.0005576516    1.900    0.474
       207  -9.9695     73.2197    247.0717   1.3122924292e+02   1.6680181758e+01    0.1387236     0.131195  77.66 0.0009281432    1.568    0.362
