#   1 NUMBER                 Running object number                                     
#   2 MAG_AUTO               Kron-like elliptical aperture magnitude                    [mag]
#   3 X_IMAGE                Object position along x                                    [pixel]
#   4 Y_IMAGE                Object position along y                                    [pixel]
#   5 X_WORLD                Barycenter position along world x axis                     [deg]
#   6 Y_WORLD                Barycenter position along world y axis                     [deg]
#   7 A_WORLD                Profile RMS along major axis (world units)                 [deg]
#   8 B_WORLD                Profile RMS along minor axis (world units)                 [deg]
#   9 THETA_WORLD            Position angle (CCW/world-x)                               [deg]
#  10 FWHM_WORLD             FWHM assuming a gaussian core                              [deg]
#  11 ELONGATION             A_IMAGE/B_IMAGE                                           
#  12 ELLIPTICITY            1 - B_IMAGE/A_IMAGE                                       
         1 -15.0638      8.5528    148.0324   1.4720297410e+02   4.1984641054e+01     12.19031     3.857107  65.03   0.04859724    3.546    0.718
         2 -13.5173    197.0074     27.1067   6.8743591998e+01   3.2446042879e+01     1.583236     1.343526   7.56  0.007155662    1.294    0.227
         3 -13.4275    211.6420      8.2816   6.1979221383e+01   3.0864327737e+01    0.9578919     0.853747  32.66  0.005125211    1.276    0.216
         4 -12.4445      2.7902     16.5379   1.3136803138e+02   7.3566534474e+01     1.187269    0.1819134 -65.17  0.003610669    5.117    0.805
         5 -11.7695     34.8586    245.5010   1.4626922463e+02   2.1261579949e+01    0.4726064    0.4341898 -79.40  0.004334182    1.446    0.308
         6 -10.9205    247.9315    249.4182   1.0898733412e+02  -4.0356383779e+00    0.2675697    0.1318845  26.89   0.00186621    1.520    0.342
         7 -10.9250    174.4926    249.4956   1.2112245401e+02   4.6039389620e+00    0.3164396    0.1426016  45.52  0.001689724    2.685    0.628
         8 -12.5541    138.8501    249.8347   1.2755220089e+02   9.0056013024e+00    0.9656335    0.1721841  32.84   0.00334994    4.862    0.794
         9 -10.2917     29.1834    250.1898   1.4744640667e+02   2.1067935875e+01    0.2318279    0.1211489  40.49  0.001285581    1.373    0.272
        10 -10.8009     12.5475    249.7262   1.5027596730e+02   2.2590210296e+01    0.1967015    0.1590372  12.69  0.001706177    1.736    0.424
        11 -10.8909      3.4420    248.5834   1.5177478203e+02   2.3508597559e+01    0.3151836    0.1890726  60.14  0.002602698    1.225    0.183
        12  -9.8108    198.6513    246.3120   1.1654068451e+02   1.9664081614e+00   0.09756383   0.07326956  40.69 0.0007045952    1.717    0.418
        13 -10.5119     51.0143    245.3837   1.4336565879e+02   1.9713070442e+01    0.1907234    0.1417697  37.81  0.001530325    1.174    0.148
        14 -11.0316     21.1056    244.0116   1.4863596156e+02   2.2736935217e+01    0.3031789    0.1059292  51.00  0.001554673    1.992    0.498
        15 -11.7645    139.3312    245.4944   1.2701493401e+02   9.5015843640e+00    0.3430781    0.2068763  50.98  0.002193579    1.901    0.474
        16 -11.5954     11.6687    239.4695   1.5014535525e+02   2.4256402564e+01    0.3825919    0.1241245  52.05  0.002319877    2.101    0.524
        17 -10.7583    184.8599    239.5130   1.1805628682e+02   4.4329970034e+00    0.1744997    0.1549491 -55.33  0.001344748    1.948    0.487
        18  -8.9574     57.3072    240.3194   1.4193489423e+02   1.9853426795e+01   0.08978249   0.07728212  -2.17 0.0002550956    1.637    0.389
        19  -9.7402     22.4303    237.0878   1.4816400785e+02   2.3716129749e+01    0.1878321    0.1428368 -24.69    0.0012997    2.280    0.561
        20 -11.5413    239.2321    248.9849   1.1027011140e+02  -3.0437372768e+00    0.3207907      0.15158  36.39  0.002064562    2.065    0.516
        21  -9.9451      5.6468    227.7558   1.5089340188e+02   2.6652222080e+01    0.2454421     0.141371 -37.66  0.001460094    3.655    0.726
        22 -10.1565    155.9808    228.5142   1.2194789086e+02   9.5752786996e+00    0.1866007   0.08971407  33.29  0.001042821    1.621    0.383
        23  -8.7923     17.3341    226.3118   1.4871392931e+02   2.5930748705e+01   0.08516922   0.07655826 -28.81 0.0004510841    1.681    0.405
        24 -10.7696    173.6907    222.6518   1.1784193717e+02   7.9517752945e+00    0.3559815    0.2350884  41.58  0.001992964    1.546    0.353
        25  -9.6860      2.0000    219.9669   1.5135539275e+02   2.8254943501e+01    0.1454019   0.04902583 -85.00 0.0007956316    2.895    0.655
        26 -12.8623     33.9785    234.0372   1.4593934768e+02   2.3160703412e+01    0.2473039    0.2365175  74.67 0.0007583955    1.355    0.262
        27 -13.9713     39.0452    227.0475   1.4465915937e+02   2.3833960021e+01    0.7262689    0.5528174  45.26  0.002362536    1.094    0.086
        28  -8.8291    152.5173    213.0531   1.2060757616e+02   1.2204986300e+01    0.1442564    0.1175024 -34.91 0.0002934751    1.455    0.313
        29 -12.5082      9.7357    206.8095   1.4949192788e+02   2.9974761835e+01    0.6845648    0.3533185  28.56  0.002961117    1.860    0.462
        30 -11.6811     60.7077    199.7711   1.3848581235e+02   2.6440294219e+01     0.228418    0.2184764 -26.97 0.0005351224    1.337    0.252
        31  -9.7743    193.0681    195.0090   1.1000241600e+02   8.8516903309e+00    0.5536009    0.3069113 -59.33  0.001629665    9.456    0.894
        32 -10.9600     16.7544    198.1471   1.4774373472e+02   3.1010668835e+01    0.2372461    0.1448414  47.73 0.0003539226    1.307    0.235
        33 -10.5096      2.0798    192.5109   1.5056238118e+02   3.3227591263e+01     0.221856    0.1472875  79.38  0.001606845    1.278    0.217
        34 -11.9506     67.0248    191.3052   1.3635795216e+02   2.7334877854e+01     0.233219     0.221512 -57.67 0.0004238938    1.257    0.205
        35 -10.7349      6.1897    188.8124   1.4958172843e+02   3.3636429552e+01    0.1963047    0.1496992  61.27  0.001402958    1.028    0.027
        36  -9.3986    237.6526    235.3342   1.0858715887e+02  -1.6143007913e+00   0.09037181    0.0767046  26.28 -0.000103613    1.772    0.436
        37 -13.2621     63.9069    176.5347   1.3566259390e+02   3.0642787841e+01    0.4480135    0.2619542 -44.40  0.001623146    2.198    0.545
        38 -10.8443     77.3156    178.3132   1.3264704194e+02   2.8657400454e+01    0.2143281     0.197879  43.94 0.0003486245    1.077    0.072
        39  -9.8245     98.3671    175.3164   1.2725232913e+02   2.6449809579e+01    0.2339033    0.1848223  53.38 0.0008603464    1.233    0.189
        40 -10.8464    140.5252    231.4028   1.2524173220e+02   1.1234227307e+01    0.3369495   0.08702932  34.72  0.001402168    2.996    0.666
        41 -11.8334     85.1860    168.9299   1.2960541136e+02   2.9551347391e+01    0.6851146    0.5387124  16.49  0.004066917    1.424    0.298
        42  -9.8834     54.4388    229.4137   1.4183562118e+02   2.1898998174e+01    0.2073816    0.1395438  51.53 0.0007285398    1.173    0.148
        43  -9.3115    100.3366    148.8616   1.2276511796e+02   3.1611854632e+01    0.2254738    0.1858207 -28.00 0.0005601564    1.389    0.280
        44 -12.1095     86.0981    152.0692   1.2702166099e+02   3.3006181980e+01    0.2782778    0.2411623 -34.69 0.0005948746    1.303    0.233
        45 -10.0389     97.4473    153.0270   1.2420290785e+02   3.1158901144e+01    0.3111571    0.2517001 -42.69 0.0008109564    1.343    0.255
        46  -8.8225    134.0000    146.9404   1.1388936347e+02   2.6462733035e+01    0.3737326   0.08031403 -48.01  0.001050167    4.924    0.797
        47 -12.2962     67.3581    143.6956   1.3087787482e+02   3.7363233303e+01    0.6920844    0.4215841  56.45  0.003293969    1.760    0.432
        48  -9.9738    109.3516    137.7369   1.1836872203e+02   3.2564755025e+01    0.4358014    0.2773626 -17.40  0.001368965    2.530    0.605
        49 -10.4586     96.5228    134.9562   1.2133024782e+02   3.5239375062e+01    0.2550304    0.2243268  -9.04 0.0004930673    1.281    0.219
        50 -10.9790     56.1984    130.1487   1.3217013306e+02   4.1856706556e+01    0.4723795    0.2241917 -88.64  0.001761801    3.288    0.696
        51 -10.9020     32.6329    132.3180   1.3937965554e+02   4.3734298280e+01    0.4155023    0.1550764  44.03  0.001466263    2.560    0.609
        52  -8.9944    106.6156    124.1383   1.1635457482e+02   3.5989686725e+01     0.186493    0.1713263 -37.35   0.00034135    1.102    0.093
        53  -9.4027    167.7126    112.8479   9.8296041985e+01   2.6453645998e+01    0.2627644     0.218109 -72.13  0.001320129    1.700    0.412
        54  -9.3213    203.3690    111.7508   9.0971532508e+01   1.9400855943e+01    0.2014948    0.1219842 -20.13 0.0006233985    1.660    0.397
        55  -8.6724     38.2579     94.6545   1.3249802634e+02   5.2409270657e+01     0.164985    0.1286591   6.29 0.0009227925    1.523    0.343
        56  -9.4971    157.2312     76.8060   9.0632939952e+01   3.5117343180e+01    0.2173299    0.1757985  12.32 0.0009146861    1.348    0.258
        57  -9.4548     39.1683     65.7026   1.2603831479e+02   5.9452172864e+01    0.2883546    0.1854579  49.94 0.0007949905    1.919    0.479
        58 -10.7904      2.4137     61.3811   1.4165315739e+02   6.3040497025e+01    0.2225296    0.1876957 -48.22  0.001086542    1.158    0.136
        59 -11.6215     12.9303     54.5995   1.3556763672e+02   6.4212232022e+01    0.4457351    0.1875932  31.33   0.00170742    2.668    0.625
        60  -9.4963     46.5560    249.5302   1.4437078637e+02   1.9526197794e+01    0.1006008   0.07282333  48.42 0.0001174526    1.005    0.005
        61 -10.7148     98.3878    249.5752   1.3495814933e+02   1.3928885781e+01    0.2003885    0.1589817  10.82  0.001547104    1.482    0.325
