#   1 NUMBER                 Running object number                                     
#   2 MAG_AUTO               Kron-like elliptical aperture magnitude                    [mag]
#   3 X_IMAGE                Object position along x                                    [pixel]
#   4 Y_IMAGE                Object position along y                                    [pixel]
#   5 X_WORLD                Barycenter position along world x axis                     [deg]
#   6 Y_WORLD                Barycenter position along world y axis                     [deg]
#   7 A_WORLD                Profile RMS along major axis (world units)                 [deg]
#   8 B_WORLD                Profile RMS along minor axis (world units)                 [deg]
#   9 THETA_WORLD            Position angle (CCW/world-x)                               [deg]
#  10 FWHM_WORLD             FWHM assuming a gaussian core                              [deg]
#  11 ELONGATION             A_IMAGE/B_IMAGE                                           
#  12 ELLIPTICITY            1 - B_IMAGE/A_IMAGE                                       
         1  -9.5191    130.4119     22.4697   5.1766452184e+01   4.9597219988e+01    0.4630781     0.225255 -23.93 4.220083e-05    2.240    0.554
         2  -8.3054    235.8486     10.6571   3.5112229345e+01   2.5583235232e+01    0.2063913    0.1797832 -79.22 0.0003781023    1.112    0.100
         3  -8.5969    233.2226      5.8920   3.4263450136e+01   2.6671745522e+01    0.4175383    0.2527588 -22.80  0.001778284    2.016    0.504
         4  -7.4122    122.8899      8.1425   4.8108280642e+01   5.2804455741e+01    0.1821897    0.1369935  34.88 0.0002742025    1.293    0.227
         5  -8.6774    247.9578      3.9765   3.2835097387e+01   2.3731304389e+01    0.2899864    0.2117457 -44.93 0.0008335627    1.260    0.207
         6  -7.1646     28.4613    236.5179   1.2342113329e+02   2.1485836301e+01    0.1117247   0.08328768  71.10 0.0008090527    1.021    0.020
         7  -8.6503    216.3552    233.3382   8.6986596357e+01  -5.4023776982e+00    0.2076351    0.1833186  25.69 0.0001123824    1.290    0.225
         8  -9.2339    214.6836    215.2889   8.4202301853e+01  -2.5862117033e+00    0.3151965    0.2691872 -84.09  0.001298648    2.138    0.532
         9  -7.1201    245.6595    215.6747   7.8716223501e+01  -7.2617240342e+00    0.1300079   0.07902917   2.33 0.0007051239    1.730    0.422
        10  -9.1888    203.3285    210.1241   8.5431822039e+01   2.6383275468e-02    0.2646387    0.2105746  44.69  0.001573414    1.415    0.294
        11  -9.0285    204.2361    205.4919   8.4417538556e+01   6.1325770789e-01    0.2280723     0.199797  -5.22  0.000275808    1.075    0.070
        12 -10.3568    234.6246    208.9013   7.9410735589e+01  -4.7207988217e+00    0.2302388    0.1945499   5.13 0.0003790279    1.092    0.084
        13  -7.2951    126.4104    207.8231   1.0090058762e+02   1.3552947864e+01    0.1751837    0.1261488 -42.43 0.0004988492    1.610    0.379
        14  -7.1499    214.5120    201.4571   8.1708497775e+01  -4.4317169438e-01    0.1303921     0.115008   5.91 0.0001115671    1.071    0.066
        15  -8.3495    204.9437    200.9534   8.3441685696e+01   1.2285222968e+00     0.197058    0.1722164   4.83 0.0003895945    1.015    0.015
        16  -7.5139    231.2961    196.9822   7.7766151766e+01  -2.4565743008e+00     0.174254    0.1454509 -10.49 0.0003343888    1.065    0.061
        17 -10.2342    172.4083    195.9296   8.9071631531e+01   7.7879116631e+00    0.2547417    0.2447073  78.90 0.0004699132    1.234    0.189
        18  -7.5067      2.6603    197.3177   1.2585302645e+02   3.1968466549e+01    0.1236273   0.06185238  66.24 0.0007049009    1.708    0.415
        19  -8.1319    124.6911    194.5884   9.9235194559e+01   1.6545405300e+01    0.2070194    0.1909079  22.43  0.001103072    1.177    0.150
        20  -9.2190     57.0135    187.5652   1.1362341989e+02   2.8387131438e+01    0.2219106    0.1662933 -74.81 0.0003381984    1.227    0.185
        21  -8.7261    193.8725    180.5945   8.1683277624e+01   6.6883248166e+00     0.238283    0.2070189 -19.64 0.0003541446    1.110    0.099
        22  -7.5081    179.1381    178.1440   8.4238025655e+01   9.8972120733e+00    0.1873112    0.1722529 -81.56 0.0003613634    1.347    0.257
        23  -7.2183    103.0045    173.3406   1.0080543571e+02   2.4925302593e+01    0.1562941    0.1298768  45.71 0.0008396364    1.190    0.160
        24  -8.8117     58.0129    172.0127   1.1153066038e+02   3.1875820579e+01    0.1930091    0.1666174  86.64  0.001184191    1.011    0.011
        25  -7.2149    121.5150    171.4468   9.6003067278e+01   2.2146985150e+01    0.1441394    0.1388394  67.62 0.0001078338    1.010    0.010
        26 -10.3479     31.0006    166.0551   1.1729389315e+02   3.6368197053e+01    0.5075424      0.40874 -70.40  0.001666039    1.179    0.152
        27  -7.5283    126.4899    167.6908   9.4103825707e+01   2.2087692904e+01     0.195051    0.1397573 -41.34 0.0009279799    1.499    0.333
        28  -9.8305     42.5252    159.0600   1.1369233886e+02   3.6821050590e+01    0.5309385    0.3194133 -56.48  0.002807283    1.594    0.373
        29  -7.1788    152.0019    151.9248   8.4748289970e+01   2.0636770694e+01    0.1751594    0.1720424  23.54 0.0003262121    1.018    0.018
        30  -9.6574    197.5065    126.8144   6.8936086366e+01   1.6176859412e+01      0.29797    0.2538987 -32.70 0.0003255255    1.105    0.095
        31  -8.6535    141.0557    127.9367   8.1778971224e+01   2.8231153324e+01     0.225572    0.2195445 -42.17            0    1.003    0.003
        32  -7.4036    241.4492    127.5108   6.1371873977e+01   7.1336032236e+00    0.1404824    0.1208859 -30.01 0.0001179813    1.007    0.007
        33  -7.9234    202.3193    123.5793   6.7220060903e+01   1.5759675856e+01    0.2486555    0.1861586  34.74 0.0009148194    1.468    0.319
        34  -7.5811    103.9467    121.6675   9.0104989135e+01   3.7074633999e+01     0.196215    0.1914877  30.57  0.000298768    1.087    0.080
        35  -7.2997    200.5607    116.6200   6.5838332231e+01   1.7457036342e+01    0.3001892      0.12226  38.05 0.0009620201    3.368    0.703
        36  -7.4785    186.0474    107.2267   6.6261156641e+01   2.2507214779e+01    0.1967523    0.1287218  49.86 0.0004290896    1.601    0.375
        37  -7.7137    144.8727    101.8937   7.3951861046e+01   3.3061545955e+01    0.2257518    0.2044422 -11.96 0.0003060402    1.176    0.150
        38  -8.4152     87.3071    101.0049   8.9781343376e+01   4.4881294762e+01    0.2164831     0.210109  43.66 0.0004590829    1.118    0.106
        39  -8.6704    248.9255     94.3521   5.2738506066e+01   1.1174512594e+01    0.2076374    0.1625083 -73.20  0.001161489    1.491    0.329
        40  -7.0468    144.4647     90.5682   7.0808386845e+01   3.5471018680e+01    0.1540876    0.1515345 -27.41 0.0001338081    1.007    0.007
        41  -8.3087    120.2247     87.6545   7.6223595175e+01   4.1479846247e+01    0.3216272    0.2266712  16.67  0.000921516    1.899    0.473
        42  -8.5770    180.7297     85.5258   6.1471532796e+01   2.7819198112e+01    0.2782165    0.2169129  34.24 0.0008619156    1.459    0.315
        43 -10.6387    241.2919     82.0720   5.0912898084e+01   1.4677411282e+01     0.792583    0.2266419 -33.20  0.002611818    3.415    0.707
        44  -9.2494    236.0639     82.9710   5.1819238020e+01   1.5628806946e+01    0.2664009    0.1948344 -49.87 0.0004236346    1.244    0.196
        45  -9.0814    233.4106     79.2587   5.1294266718e+01   1.6786737759e+01    0.2853867    0.2335962 -48.98  0.001097811    1.085    0.078
        46 -10.3408    103.9370     81.2614   7.8938797737e+01   4.6164458670e+01    0.2547388    0.2257475 -37.34 0.0002649617    1.082    0.075
        47  -9.5921    199.7220     78.2940   5.6100992670e+01   2.4558508210e+01     0.615765    0.3096863 -44.49  0.001879034    1.891    0.471
        48  -8.7221    204.3972     72.6808   5.3866379635e+01   2.4387413217e+01    0.4572088    0.2173701  47.74  0.001823928    2.349    0.574
        49  -7.9036    187.4896     81.2609   5.9029558794e+01   2.6958212045e+01    0.2570205    0.1778903  44.28 0.0004381292    1.567    0.362
        50  -8.7589    160.6997     85.3426   6.5538341333e+01   3.2658059253e+01    0.2955056    0.2541062 -12.46 0.0005970424    1.288    0.224
        51  -7.5444    115.5778     79.8110   7.5099981998e+01   4.4064890203e+01    0.1991714    0.1422711 -50.24 0.0009136325    1.465    0.318
        52  -9.7671    180.0736     71.4244   5.7648530755e+01   3.0438418067e+01    0.4699177    0.3510285  -3.50  0.002170091    1.794    0.443
        53  -7.8980    228.9157     72.9793   5.0387003242e+01   1.8754843794e+01    0.2246391    0.1499648 -63.76 0.0007034522    1.641    0.391
        54  -9.5836    239.4413     70.9603   4.8550303927e+01   1.6795984476e+01     0.314836    0.2146621  36.96  0.001593394    2.000    0.500
        55  -7.8468    174.9105     69.0862   5.7938476180e+01   3.2092720311e+01    0.2272362    0.1904403 -65.05            0    1.258    0.205
        56 -10.8271    222.3371     63.2354   4.8875504044e+01   2.1726376057e+01    0.6747479    0.6436965  -9.53  0.003586269    1.224    0.183
        57  -9.2637    235.0134     63.6980   4.7382988853e+01   1.8845344554e+01    0.1903413    0.1722088 -75.83 0.0006792804    1.100    0.091
        58  -7.1828    161.7069     64.3742   5.9115533281e+01   3.6119613529e+01     0.159927    0.1132158 -65.58 0.0005641485    1.734    0.423
        59  -8.0879    250.6394     60.8425   4.4933715089e+01   1.5966067580e+01    0.1967406   0.09743851 -44.54 0.0004792166    1.691    0.409
        60 -10.8083    233.7838     56.7693   4.5888140525e+01   2.0134980070e+01    0.6203843    0.4394194  44.21  0.003321844    1.769    0.435
        61  -8.1489    150.0490     56.0714   5.8949246047e+01   4.0318197636e+01    0.2215086    0.2118722  62.09 0.0004193858    1.035    0.034
        62  -9.3402    227.1891     50.3388   4.5121287604e+01   2.2520543733e+01    0.3194762     0.194867 -14.50  0.001433465    2.427    0.588
        63  -7.8071    241.0139     46.9839   4.2812292342e+01   1.9948717555e+01    0.1868094    0.1592525  23.07 0.0005504256    1.631    0.387
        64  -8.1360    188.1772     46.7875   4.9362710232e+01   3.2252853213e+01    0.1992814     0.171694  26.05  0.001085199    1.392    0.282
        65  -8.2986    147.1467     44.7905   5.5930920855e+01   4.2713735222e+01    0.1971086    0.1670896  26.77 0.0004056302    1.270    0.212
        66 -10.5928    221.9404     38.2729   4.2794976380e+01   2.5360460577e+01    0.8364015    0.4223815  64.04  0.003968686    1.982    0.496
        67  -9.5429    233.3406     35.3880   4.0919788630e+01   2.3171094812e+01    0.4456722    0.1908273  55.67  0.001979414    2.563    0.610
        68  -9.1029    249.1323     35.8102   3.9527559240e+01   1.9718362880e+01    0.3026516    0.2382226  79.41  0.001014282    1.315    0.240
        69 -10.6197    245.6627     32.4402   3.9096607873e+01   2.0881121004e+01     1.018903    0.3031487  57.93  0.004035497    3.547    0.718
        70  -8.3643    211.9513     34.9451   4.3095024055e+01   2.8112535515e+01    0.2786615    0.1807986   9.75  0.001216254    2.872    0.652
        71  -8.0458    131.8592     34.8400   5.5793704174e+01   4.7775322668e+01    0.2044905    0.1824372  26.59 0.0004240699    1.120    0.107
        72  -8.0709    232.6866     30.0094   3.9739982597e+01   2.4000437301e+01    0.1844932    0.1467002 -52.11 0.0006395779    1.111    0.100
        73  -8.2200    162.8757     26.5345   4.7341164768e+01   4.1152905386e+01    0.1967581     0.186424  25.30  0.000335961    1.158    0.136
        74  -7.5336    221.4349    249.5061   8.8665337279e+01  -8.2126720551e+00     0.117005   0.09020023  13.30 9.221591e-05    1.009    0.009
        75  -8.4923    248.5643     20.2644   3.6213133354e+01   2.1766024721e+01    0.3360396    0.1569059  72.46  0.001709815    2.153    0.536
        76  -9.5735    245.3645    243.8896   8.3615728909e+01  -1.0750473676e+01    0.2121364    0.1957793 -22.19  0.001055277    1.655    0.396
        77  -8.4011    229.0130    245.0155   8.6621385335e+01  -8.7053289046e+00    0.1820421    0.1120998   7.93 0.0004451152    1.588    0.370
        78  -7.4224    105.5372    239.9857   1.0931438635e+02   1.0770522550e+01     0.154254    0.1185366 -66.49 0.0003850816    1.478    0.324
