#   1 NUMBER                 Running object number                                     
#   2 MAG_AUTO               Kron-like elliptical aperture magnitude                    [mag]
#   3 X_IMAGE                Object position along x                                    [pixel]
#   4 Y_IMAGE                Object position along y                                    [pixel]
#   5 X_WORLD                Barycenter position along world x axis                     [deg]
#   6 Y_WORLD                Barycenter position along world y axis                     [deg]
#   7 A_WORLD                Profile RMS along major axis (world units)                 [deg]
#   8 B_WORLD                Profile RMS along minor axis (world units)                 [deg]
#   9 THETA_WORLD            Position angle (CCW/world-x)                               [deg]
#  10 FWHM_WORLD             FWHM assuming a gaussian core                              [deg]
#  11 ELONGATION             A_IMAGE/B_IMAGE                                           
#  12 ELLIPTICITY            1 - B_IMAGE/A_IMAGE                                       
         1 -14.1884    177.8665     83.0290   1.6819862237e+01   2.8411070335e+01     2.314711     1.538288   2.39   0.00962228    2.591    0.614
         2 -12.3862    232.0889     35.1288   3.5845018502e+02   2.3372317479e+01     1.084274    0.3869714 -62.86  0.002611274    3.976    0.748
         3 -11.2667     35.7123     21.0950   3.9632476234e+01   7.2227276789e+01     1.973791    0.5986319  37.57  0.007049141    3.162    0.684
         4 -10.8977     74.9194      8.1959   1.2599797045e+01   6.5692765356e+01    0.7685365    0.5050232  67.46  0.003836932    1.466    0.318
         5 -12.4073     64.9738      4.3926   1.3782591604e+01   6.8524019257e+01    0.6144753    0.3915392   1.80 0.0003872605    1.961    0.490
         6 -12.6583     48.0975     31.1053   3.7437873595e+01   6.8284112535e+01     1.744761     1.049698  45.06  0.008244105    1.688    0.408
         7 -13.0088     65.1069     15.9774   2.0620486870e+01   6.7151362833e+01      1.61711     1.073058  71.53  0.007664322    1.868    0.465
         8 -14.2930     35.6368     55.8146   5.5155368359e+01   6.4831510747e+01     3.024978       1.6481 -29.74    0.0124746    2.299    0.565
         9 -13.3160      3.8189     54.8325   7.4255851837e+01   6.7605721273e+01     1.166405    0.5993888 -74.11  0.003689411    1.781    0.439
        10 -13.5544     54.8763     58.5123   4.5776445720e+01   6.1393728027e+01     1.487235     1.068931  82.61  0.006532262    2.175    0.540
        11 -13.5051     79.1077     41.4156   2.7821591948e+01   5.9992650314e+01     1.786314    0.7217599  36.11  0.005565268    3.460    0.711
        12 -13.1257     25.5315     39.3363   5.5584047006e+01   6.9838643047e+01     1.836761    0.6412222 -44.28  0.004116533    2.753    0.637
        13 -14.3274     10.4931     34.7803   6.4875793145e+01   7.2171333898e+01     1.562979     1.190563 -60.23  0.005263675    1.250    0.200
        14 -11.9689    188.1593     34.1241   2.0948337945e+00   3.3100017537e+01    0.8608276    0.4296761 -76.67  0.003569544    2.552    0.608
        15 -12.5033    178.6485     38.8331   4.4910088064e+00   3.4808775845e+01    0.7198559    0.5203308   7.42  0.002267711    2.087    0.521
        16 -13.7266      5.7139     69.2699   7.5380075742e+01   6.3830952743e+01     1.215902    0.8628096 -67.07  0.005731386    1.252    0.201
        17 -11.3429    210.7543     21.6642   3.5686509812e+02   2.9364463079e+01    0.5301143    0.4228034 -65.80  0.002269818    1.067    0.063
        18 -12.6656    226.7512     23.0336   3.5607848521e+02   2.5817044387e+01    0.5359915    0.2793714  70.98  0.001078662    2.044    0.511
        19 -12.3601    197.2993     33.1484   9.0824183841e-01   3.1073528188e+01    0.9441911    0.4540588 -29.34  0.004360377    2.036    0.509
        20  99.0000    233.0495      6.6448   3.5205288286e+02   2.6252438221e+01    0.9097171      0.65487 -66.99  0.005307266    1.162    0.139
        21 -12.3049    244.1319     22.5278   3.5490683577e+02   2.2451542335e+01    0.5253587    0.3095772 -85.80  0.002148595    1.785    0.440
        22 -10.3799    249.9809     18.0385   3.5364972763e+02   2.1837462957e+01    0.3193696    0.1694019 -20.63  0.001760396    2.217    0.549
        23  99.0000    228.9572     15.5427   3.5424362613e+02   2.6170544418e+01    0.6678265    0.2820537 -83.26  0.003137297    2.722    0.633
        24 -11.4758    228.4234      9.9011   3.5300521085e+02   2.6860625142e+01    0.6395217    0.2567959 -62.37  0.003082799    2.327    0.570
        25 -11.6134    220.2816     12.2872   3.5400021254e+02   2.8308359621e+01    0.3528052    0.2667395  69.95  0.001030435    1.488    0.328
        26 -12.2916    220.9158      7.4004   3.5283168398e+02   2.8669288448e+01    0.2379067    0.1847675 -52.18 0.0004752033    1.066    0.062
        27 -12.6803    249.7379     11.0100   3.5220869329e+02   2.2605052748e+01    0.3222313     0.222662 -38.34   0.00120084    1.231    0.188
        28 -13.6230    244.4397      8.2656   3.5187622147e+02   2.3872712003e+01    0.6889216    0.3094141 -78.17  0.003703147    2.308    0.567
        29 -11.8411    123.5954     23.8909   7.9229614925e+00   5.1096806008e+01     0.332164    0.2839856  -5.17 0.0008362636    1.410    0.291
        30 -10.7532    112.8578     22.0260   9.3376799650e+00   5.4222521399e+01    0.3924171    0.3682993 -17.92  0.002233396    1.208    0.172
        31 -11.2248    202.9791     18.3973   3.5662975754e+02   3.1458246924e+01    0.4408472    0.3622557 -10.41  0.002154382    1.553    0.356
        32 -13.5025     63.1042     41.7968   3.4858201781e+01   6.3393273949e+01     1.284378    0.8992958   2.43  0.002006999    2.014    0.503
        33 -10.7129    108.8331     10.6952   5.3752499325e+00   5.6538413004e+01    0.3328676    0.2985476 -78.53 0.0009651248    1.122    0.109
        34  -8.9041    111.3656      3.7295   1.9356953830e+00   5.6488240945e+01    0.2518864    0.1835397 -63.36  0.001309904    1.444    0.307
        35 -10.8818    114.3344     12.6602   5.1688956382e+00   5.4850322724e+01    0.4305843    0.2062163 -48.13  0.001756411    2.317    0.568
        36 -12.3039    116.3500      8.3842   3.0517481957e+00   5.4717410666e+01    0.8579783    0.3417402 -35.54  0.003429347    2.513    0.602
        37 -10.7534    160.0178     14.0998   3.5926649767e+02   4.2427099202e+01    0.2188482    0.1939755 -81.94 0.0002732519    1.037    0.035
        38 -10.3559    155.8561     12.5650   3.5923086476e+02   4.3671197000e+01    0.4252618     0.253649   0.45  0.001866804    2.624    0.619
        39 -10.5218    156.6763      7.8706   3.5764595172e+02   4.3916335208e+01    0.2364092    0.2221383  59.90  0.000743993    1.225    0.184
        40  -9.5594    187.1078     14.4477   3.5683493453e+02   3.5592211057e+01    0.2547988    0.1738015  -3.17  0.001312658    2.113    0.527
        41 -12.9086     57.3629     24.6346   2.9033805931e+01   6.7599944932e+01     1.978498     1.194994  74.29  0.007099675    3.729    0.732
        42 -11.8921    148.8603     12.8954   1.3766148708e-01   4.5486310630e+01    0.6859786    0.2925572 -80.74  0.002274946    3.175    0.685
        43 -10.1031     38.0155     12.4441   3.2644317702e+01   7.3285236606e+01    0.1990364    0.1585837  10.34 0.0003356372    1.221    0.181
        44 -10.4277    125.4816     11.5154   2.8246399459e+00   5.1930627345e+01     0.340185    0.2417338  70.06  0.001534657    1.247    0.198
        45  -9.8785    124.6768      8.3635   1.7290500773e+00   5.2451681692e+01     0.150581    0.1313832  78.19 0.0005142494    1.026    0.026
        46 -10.3878     93.0532     11.5471   9.2218213120e+00   6.0678290488e+01    0.3002944    0.2064945 -22.55 0.0009984454    1.643    0.391
        47 -13.9888    172.8690      6.1844   3.5567304301e+02   3.9922499016e+01    0.4835403    0.3363902 -17.85  0.002376986    1.714    0.417
        48 -10.2689    101.2449      8.4109   5.8837988905e+00   5.8806099542e+01    0.4411334    0.1907963 -40.44  0.001777543    2.478    0.597
        49 -10.7775     27.6914      9.0513   3.7741742295e+01   7.5560180312e+01    0.4029206    0.2128429  23.37 0.0008743586    2.117    0.528
        50 -11.8240    193.9655      7.9588   3.5459161816e+02   3.4621220345e+01    0.2641803     0.233068 -68.59 0.0008856737    1.099    0.090
        51 -11.4920     46.1167      2.5641   2.0870844836e+01   7.3017023143e+01    0.2482771    0.1965734   8.41 0.0003511172    1.287    0.223
        52 -10.2374     48.6561      7.1433   2.2753983766e+01   7.1930357161e+01    0.2635384    0.2069595 -12.56  0.001509669    1.346    0.257
        53 -10.1832     44.9725      7.5060   2.5004710421e+01   7.2650667382e+01    0.3682418     0.230839   6.10  0.001738529    2.134    0.531
        54  -9.5556     85.0000      6.9818   9.0052279434e+00   6.3241710552e+01    0.2935056   0.08243018 -22.49 0.0009463525    4.029    0.752
        55 -11.7156     87.7477      1.4980   5.4995569641e+00   6.3013106121e+01    0.4833966    0.1465872  58.98 0.0006111042    2.500    0.600
        56 -10.5784      3.4437      6.0749   5.9140555121e+01   7.8873661591e+01    0.3490661    0.1907696 -18.56  0.001826104    1.845    0.458
        57  -9.7652    210.3308      6.0313   3.5308895382e+02   3.1086961354e+01    0.2023511    0.1552123  70.38 0.0007738404    1.442    0.307
        58 -11.2925    215.2250      2.0225   3.5187212530e+02   3.0408010085e+01    0.4863091     0.201814  76.84  0.002016962    2.357    0.576
        59 -12.8963     79.3136     22.7130   1.8842466725e+01   6.2864040230e+01     1.079816    0.5996848  46.44  0.003777604    1.661    0.398
        60  -9.6156     88.5448     11.9721   1.0593388658e+01   6.1815729734e+01    0.1904646    0.1450308 -17.41  0.000664551    1.498    0.332
        61  -9.7070    189.0378      4.9508   3.5413130375e+02   3.6079826823e+01    0.1501434     0.122756 -65.81 0.0003974804    1.016    0.016
        62  -9.3028    184.4473      3.1700   3.5396211917e+02   3.7351167069e+01    0.3289827    0.1851245  57.19  0.001670659    1.979    0.495
        63 -10.3380    122.4645      3.8501   2.8774005439e-01   5.3457545703e+01    0.2088524    0.1660326 -89.48 0.0003152408    1.140    0.122
        64 -10.9479     56.7449      3.1961   1.6268043957e+01   7.0587755583e+01    0.4363614    0.2579505  42.12  0.002176309    1.522    0.343
        65 -10.3497    154.6956      1.9385   3.5594141273e+02   4.4976030609e+01      0.18372    0.1670796  70.05 0.0008698588    1.189    0.159
        66 -10.1379    250.5108     93.5429   9.4105141697e+00   1.2643167375e+01    0.1611696    0.1404173 -57.43 0.0001046046    1.261    0.207
        67 -10.7014    205.1233     98.3557   1.6246105611e+01   2.0126178522e+01    0.1772976    0.1693459 -55.00 0.0005394544    1.103    0.093
        68 -10.0850    165.4675     96.5042   2.2706205672e+01   2.8886474838e+01    0.2444456    0.1935982  10.90 4.730254e-05    1.607    0.378
        69 -10.4131     17.0080     96.7712   7.3512655337e+01   5.5908858903e+01     0.182676    0.1803643  54.53            0    1.083    0.076
        70 -12.4262     72.3665     73.7162   4.3114323394e+01   5.4729130498e+01     1.221139    0.6337638  49.44  0.003787584    2.097    0.523
        71  -9.6685    218.5118    239.5300   4.0505728945e+01  -2.0503970137e+00    0.1093358   0.07791454   6.19 0.0002404675    1.033    0.032
        72 -10.4181     15.9193    238.8022   8.2704144706e+01   2.2238360922e+01    0.1578502    0.1410093  35.77  0.000667956    1.298    0.230
        73 -14.2109     63.7421     84.3190   5.0007467673e+01   5.3708325673e+01     1.330802      1.22624  35.04  0.007055701    1.077    0.072
        74  -9.8036    236.7425    145.9817   2.1725069460e+01   7.6112862664e+00    0.1661051    0.1304103 -19.95 0.0003854066    1.037    0.036
        75 -13.0005     88.3672     60.1343   3.2003381530e+01   5.4326668301e+01     1.290627     0.827491 -27.40  0.003835353    1.953    0.488
        76 -11.9742    101.2670     54.1637   2.5361136616e+01   5.2404616267e+01     1.026818    0.4620552  54.06   0.00267117    2.145    0.534
        77 -14.1383     41.9768     74.7622   5.7396456912e+01   5.9343581935e+01     1.857023     1.187102 -20.50  0.004668688    2.040    0.510
        78  -9.1651    250.2796    131.7494   1.7110469150e+01   7.5854955485e+00    0.1028073   0.08192915 -47.31 0.0006831694    1.461    0.315
        79  -9.9775    221.6416    122.5981   1.9190465190e+01   1.3366746128e+01    0.3817254    0.1878598 -45.83  0.001796682    2.120    0.528
        80  -9.6949    229.1904    118.8491   1.7314394566e+01   1.2647108717e+01     0.160906    0.1318749   2.13 0.0003925048    1.294    0.227
        81 -12.8901     18.1261     64.0711   6.7526862554e+01   6.4468828914e+01     1.312992     0.430892  46.10  0.004216847    4.192    0.761
        82  -9.7571     73.1314    119.0920   5.4761921158e+01   4.3231799154e+01    0.2074721    0.1725297  66.70            0    1.259    0.205
        83 -10.1747    203.7367    116.3236   2.0599804246e+01   1.7544429129e+01    0.3622264    0.2173644  74.06  0.001481484    3.324    0.699
        84 -12.9414     51.5833     44.6419   4.1928063087e+01   6.4990470565e+01    0.7532662     0.447808   9.91  0.001584257    2.735    0.634
        85 -14.3073     76.2891     58.8472   3.6185503951e+01   5.7243115415e+01    0.9362618    0.6640673  44.13  0.002002324    1.361    0.265
        86 -13.0986     80.6116     47.9159   3.0051981711e+01   5.8468309519e+01    0.9688382    0.4519717  49.49  0.003706683    2.056    0.514
        87 -10.9682    171.9147    116.5454   2.6446659200e+01   2.3823600307e+01    0.2577293    0.2178258 -35.79   0.00138836    1.147    0.128
        88 -10.1947    158.6272     95.5478   2.3865380044e+01   3.0619549706e+01    0.3692802    0.1505935  54.91  0.001292785    2.632    0.620
        89 -11.8028     95.3755     90.2249   3.9578360402e+01   4.6209541370e+01    0.4803496    0.4336799 -86.71  0.001551887    1.201    0.167
        90 -12.7188     48.9423     85.6597   5.6896158956e+01   5.5620392024e+01     0.856162     0.337029  31.31  0.001404729    2.463    0.594
        91 -11.9510     45.4566     93.1147   6.0192768795e+01   5.4122829713e+01    0.4515834    0.2554898  14.79  0.001482402    2.120    0.528
        92 -10.6103    227.1932     92.1133   1.1792977485e+01   1.6854157727e+01    0.1849838    0.1578265 -16.95 0.0004115183    1.195    0.163
        93 -12.0864    213.1479     89.7128   1.3073943899e+01   1.9863885755e+01    0.3028297    0.2650932 -60.36 0.0009293995    1.182    0.154
        94 -12.3573    223.7533     87.4672   1.1180114631e+01   1.8155056447e+01    0.4082137    0.3248643 -10.60   0.00204709    1.412    0.292
        95 -12.0110    106.1982     87.1220   3.5077470307e+01   4.4538397950e+01    0.9306461    0.4235097  50.03  0.003281706    2.224    0.550
        96 -11.0189    112.8873     75.6193   2.9395012260e+01   4.5420826735e+01    0.3411821    0.2695012 -22.75 0.0007154791    1.506    0.336
        97 -11.7031    114.8850     86.3799   3.2195236683e+01   4.2707079726e+01    0.3990612    0.3160073  61.47 0.0009988979    1.310    0.236
        98 -11.9048    115.1935     80.9448   3.0422986574e+01   4.3776860151e+01    0.5523419    0.4615705  13.42 0.0007227357    1.463    0.316
        99 -11.7268    236.7243     86.3840   9.4074956231e+00   1.5939656755e+01    0.4809827     0.311531  87.89  0.001679244    2.353    0.575
       100  -9.8303    237.9062     80.8429   8.0745332272e+00   1.6481127117e+01    0.1638426    0.1405375 -45.00  0.001104927    1.068    0.064
       101 -12.1108    231.2260     79.2698   8.4603766348e+00   1.7908581588e+01     0.444582    0.2685178  60.01  0.002487177    1.941    0.485
       102 -10.9121    156.2755     86.0132   2.1744763077e+01   3.2921821418e+01    0.3432668    0.2179352  60.23  0.001183144    1.660    0.398
       103  -9.9300     30.0671     86.7140   6.5925627329e+01   5.7536778896e+01     0.195555    0.1867906  22.19 0.0005445761    1.097    0.088
       104 -10.6161    125.8603    115.8622   3.7211041581e+01   3.3817520785e+01     0.231699    0.2114569   5.77 0.0002645388    1.190    0.160
       105 -11.2370    202.0037     85.1852   1.3556046614e+01   2.2800650282e+01    0.2509106    0.1775049 -37.55 0.0006411282    1.271    0.213
       106 -11.6729    148.0005     84.5162   2.3106431198e+01   3.5172773084e+01    0.4840749    0.3595989  67.57  0.001222188    1.458    0.314
       107 -11.9345    147.3707     79.3329   2.1735131240e+01   3.6281265729e+01    0.4327292    0.3110185 -53.33 0.0008176161    1.453    0.312
       108 -10.0157    183.6958    115.5982   2.3929742921e+01   2.1576532598e+01    0.3515433    0.1384918  58.92  0.001114397    4.134    0.758
       109 -11.9696    249.0406     83.1406   7.4042475839e+00   1.4250748079e+01    0.2649839    0.1990854 -54.66  0.001752472    1.325    0.245
       110 -10.2814    243.8865     80.6604   7.4062552727e+00   1.5454405069e+01    0.2569255    0.1536435  50.62  0.000758697    2.042    0.510
       111 -12.7318    217.8565     83.9811   1.1123381260e+01   1.9785462940e+01    0.5174206    0.3288679   0.32  0.002356379    2.704    0.630
       112 -11.1783    214.6770     82.6973   1.1231367759e+01   2.0597130229e+01    0.1974016    0.1814236 -22.16 0.0004230182    1.132    0.117
       113 -11.6874    162.3800     83.6304   1.9840876106e+01   3.1903587995e+01    0.4785399    0.3892547  61.96  0.001680069    1.259    0.206
       114 -12.1947    168.8418     80.5153   1.7750444175e+01   3.0920238882e+01    0.4136425    0.3592134  83.61  0.000672112    1.218    0.179
       115 -11.8719    168.2287     75.8994   1.6584952999e+01   3.1841748193e+01    0.6554068    0.4142646 -84.62  0.002041866    2.408    0.585
       116 -11.2445     18.3025     82.3842   7.0851550095e+01   5.9668392681e+01    0.4094796    0.1818513 -24.44  0.001485747    3.199    0.687
       117 -13.4443    104.9531     65.5422   2.8386483582e+01   4.9348382214e+01      1.97378    0.7116727  39.96            0    3.535    0.717
       118 -13.6060    117.3807     61.8701   2.3470533830e+01   4.6971834212e+01    0.9690279    0.7262216 -32.50  0.001869878    1.451    0.311
       119 -12.3928     99.6311     76.2431   3.3762249696e+01   4.8397553158e+01    0.8750415    0.3118762 -44.31  0.002179651    2.908    0.656
       120 -11.0107     96.4819     75.5533   3.4595713102e+01   4.9260087561e+01    0.4019662    0.3050169 -54.53 0.0009940919    1.403    0.287
       121 -11.8203     85.7204     77.1534   3.8972606269e+01   5.1252011961e+01    0.7558111    0.5379034   2.45  0.002407978    2.175    0.540
       122 -11.8919     82.3442     72.2581   3.8622059938e+01   5.3062314432e+01    0.4881845    0.3563067  58.48  0.001158816    1.507    0.336
       123 -10.1986    154.6292     76.8881   1.9479952497e+01   3.4949038239e+01    0.4674359    0.1825528  56.29  0.001634216    2.580    0.612
       124 -11.7732    249.6886     74.1953   5.4672537701e+00   1.5297608715e+01    0.3653936    0.2275642 -36.25   0.00223636    1.272    0.214
       125 -10.8209    104.0652     75.4154   3.2042051121e+01   4.7550401122e+01    0.2495083    0.2231989 -26.41 0.0004108108    1.223    0.183
       126 -10.9004    232.0135     73.7208   7.1377799754e+00   1.8516239057e+01    0.1693095    0.1515139 -42.87 0.0005439768    1.075    0.070
       127 -10.3659    238.9007     67.9993   5.1724850910e+00   1.8001826799e+01    0.2716565    0.2089934  81.31 0.0009742549    1.538    0.350
       128 -11.4840    240.0023     72.8595   6.1227464806e+00   1.7167206406e+01    0.3068525    0.1842434 -44.49  0.001285989    1.391    0.281
       129 -11.0977    154.1488     63.1381   1.5484796434e+01   3.7398602199e+01     1.026411    0.5374246 -54.21  0.004020516    2.210    0.548
       130 -11.0650    144.4081     53.5727   1.4369890237e+01   4.1417573960e+01     0.859666    0.4896896  31.97  0.003202072    2.765    0.638
       131 -10.8699    142.6123     46.3484   1.2342708212e+01   4.2986836971e+01    0.4032307    0.2404492  40.55  0.001691229    2.034    0.508
       132 -10.5805    145.8037     59.1687   1.5887831366e+01   4.0164314399e+01     0.315672    0.2689731 -23.27 0.0003849034    1.317    0.241
       133 -12.0504    138.2937     71.5257   2.1413139398e+01   3.9944746754e+01    0.9120636    0.4419072  58.83  0.003435954    2.114    0.527
       134 -11.3935    144.0883     67.8591   1.8976722776e+01   3.9139269324e+01    0.3662755    0.3336964 -31.95  0.000454509    1.167    0.143
       135 -11.4518    148.5429     65.7449   1.7388526981e+01   3.8378377914e+01     1.047564    0.5822714 -80.44  0.003292987    3.830    0.739
       136 -10.1337    136.3116     62.0520   1.8840156540e+01   4.2115684715e+01    0.4312151    0.2468776  61.01  0.001326665    1.733    0.423
       137 -11.3048    137.0278     57.9521   1.7335706327e+01   4.2622305127e+01    0.4698631     0.284257 -53.09 0.0007082503    1.810    0.447
       138 -12.4603    151.4923     42.1768   9.3948625726e+00   4.1259684579e+01    0.7426894    0.5086133  79.22  0.001449567    1.474    0.321
       139 -10.3305    146.4730     39.5558   9.3878831695e+00   4.2940358713e+01    0.2443115    0.2332256 -26.92 0.0005662142    1.181    0.153
       140 -12.0939     76.0090     52.0469   3.3605481134e+01   5.8691629966e+01    0.3460438    0.3115576  63.18 0.0003469127    1.176    0.150
       141 -10.0629    179.7310     49.4309   7.3398136407e+00   3.3123090751e+01    0.2158031    0.1831962 -75.89 0.0009646698    1.119    0.107
       142 -11.0922    196.4875     55.5108   6.8230670515e+00   2.8356044257e+01    0.2578341    0.2301192  60.59 0.0008606433    1.244    0.196
       143 -11.3945    192.3842     58.8121   8.2039162962e+00   2.8824654202e+01    0.3347539    0.2387628 -13.23 0.0008535394    1.781    0.438
       144 -11.4053    185.3563     53.6999   7.7639712350e+00   3.1181264051e+01    0.3926009      0.23351 -84.64  0.001248271    2.150    0.535
       145 -13.0572    186.7263     61.7243   9.7423473965e+00   2.9705799921e+01    0.7866014    0.4739205 -30.94   0.00218261    1.651    0.394
       146 -10.7834    181.1695     60.8312   1.0296729088e+01   3.1139382702e+01    0.4520397    0.1870588 -50.15  0.001688898    2.597    0.615
       147 -11.8026    124.1980     69.5217   2.4240239511e+01   4.3842104282e+01    0.5278031    0.3645003 -73.15 0.0009942316    1.960    0.490
       148 -10.9054    127.1604     59.0005   1.9962386534e+01   4.4989072038e+01    0.6182041    0.3098142  36.80  0.002127014    2.824    0.646
       149 -11.7214    173.7394     56.7263   1.0257543241e+01   3.3531918792e+01    0.3402951    0.2887984  85.00 0.0005270299    1.170    0.146
       150 -11.3753    167.4910     50.8277   9.5021675986e+00   3.5936388626e+01    0.5705187    0.4389995 -55.16   0.00298934    1.247    0.198
       151 -12.7377    187.5002     44.8252   5.0793946489e+00   3.1888414296e+01    0.6714951     0.532493 -15.46  0.001901062    1.511    0.338
       152 -12.9552    195.4146     43.3441   3.7725971346e+00   3.0232709088e+01    0.7790444    0.5964627 -40.14  0.003917058    1.209    0.173
       153  -9.9985    173.1173    112.2855   2.5172997527e+01   2.4348250721e+01    0.3802733    0.1530774  36.86  0.001254459    3.404    0.706
       154 -10.0593    205.6633     32.8986   6.6594570529e-02   2.9204420320e+01    0.3367327     0.231526  76.15  0.001922395    1.491    0.329
       155 -11.3363    160.5312     51.0774   1.0681865394e+01   3.7653529422e+01    0.4489253     0.368266  -3.75   0.00110494    1.557    0.358
       156 -11.7356    209.0257     46.9228   3.2440218110e+00   2.6722463606e+01    0.6441124    0.3463726  78.47  0.003144307    2.107    0.525
       157 -11.3487    162.5597     56.4456   1.1961111576e+01   3.6338544421e+01    0.5566696    0.3933784  87.65   0.00237319    1.575    0.365
       158 -10.3066    156.0147     54.5239   1.2506183736e+01   3.8285703224e+01    0.2831493    0.1587062  53.06 0.0007170425    1.793    0.442
       159 -11.8391    172.3329     44.4070   6.9158227426e+00   3.5629783472e+01     0.361271    0.2989826 -26.53  0.001383418    1.322    0.243
       160  -9.4426    210.4674    112.0000   1.8562978250e+01   1.6971356175e+01    0.2519854   0.07634133  51.44 0.0009052314    3.700    0.730
       161 -10.4948    176.6727     62.0149   1.1298342150e+01   3.2032343251e+01    0.2561431    0.2047688  57.83 0.0005836397    1.304    0.233
       162 -11.4443    123.2458     53.6174   1.9047348223e+01   4.6914729747e+01    0.3812718    0.2571571  67.30 0.0005508868    1.507    0.337
       163 -11.7743    203.2378     39.5347   1.9718879418e+00   2.8937595445e+01    0.6343722    0.3083384 -33.59  0.002281517    1.852    0.460
       164 -11.0491    196.5966    107.7359   1.9801334511e+01   2.0317236222e+01    0.4661734    0.3594856  -4.43  0.002501635    1.530    0.346
       165 -11.7248    248.4177     43.6396   3.5911825171e+02   1.9280425456e+01    0.6965356    0.1854749 -41.98  0.002134084    2.586    0.613
       166 -11.5003    133.8203     40.2099   1.1947357986e+01   4.6204889342e+01    0.5420039    0.4216948 -66.56  0.002709107    1.346    0.257
       167 -13.0540    201.4657     62.0949   7.8932877644e+00   2.6326265221e+01    0.8778387    0.5884345  48.28   0.00223024    1.739    0.425
       168 -11.2627    125.6484     45.1911   1.5461951140e+01   4.7636640676e+01    0.3162543    0.2481949  53.80 0.0007638136    1.232    0.188
       169 -11.3509     95.7149     42.0429   2.2264832311e+01   5.5886361878e+01    0.5837386    0.2704715  54.36  0.001423301    2.008    0.502
       170  -9.7714    120.2075     42.6310   1.5780929578e+01   4.9464209697e+01    0.2192774    0.1781556  35.98 0.0006532354    1.365    0.267
       171 -10.6365    133.5082     46.7484   1.4297998092e+01   4.5323976997e+01    0.3840257     0.281511 -59.71  0.001395207    1.457    0.314
       172  -9.5166     99.2544     46.6023   2.3024857251e+01   5.4237668585e+01    0.2369149    0.1792379 -56.77 0.0009813099    1.492    0.330
       173 -11.0198    163.1559     29.7325   3.7525322549e+00   3.9854048931e+01     0.538592    0.2412321 -52.26  0.002156449    2.312    0.567
       174 -11.8994    161.0317     40.5377   7.3762931667e+00   3.9012982185e+01     0.583078    0.3338871  57.07  0.002051906    1.731    0.422
       175 -12.2364    160.4657     35.8632   6.0128605542e+00   3.9777289892e+01    0.7261373    0.2765007  66.34  0.002386306    2.472    0.595
       176  -9.8933    113.3706     38.8245   1.5985192177e+01   5.1840453541e+01    0.3158994    0.1124827  62.36  0.001023096    2.783    0.641
       177 -10.7344    131.8620     33.3092   9.8653425271e+00   4.7678266121e+01    0.3490003    0.2136413 -41.43  0.000518585    1.660    0.397
       178  -9.6158    212.7466     33.6473   3.5963453210e+02   2.7557419990e+01    0.2451211   0.09713187  61.77  0.001091073    2.643    0.622
       179 -10.2467    121.7469     33.1244   1.1838880293e+01   5.0419473868e+01    0.2105934    0.1898417 -86.00 0.0005434974    1.081    0.075
       180 -10.3319    112.1740     32.4104   1.3729428490e+01   5.3075512463e+01    0.3871115     0.203249  49.01  0.001592708    1.846    0.458
       181  -8.9618    241.5316     30.0114   3.5667018579e+02   2.2122900055e+01    0.2963468    0.2115182 -51.48  0.001972794    1.099    0.090
       182 -10.6229     71.9822    109.9524   5.3200687990e+01   4.5785491567e+01     0.229091    0.2208319  62.09            0    1.005    0.005
       183 -11.7595    218.5384     29.3469   3.5813239062e+02   2.6819031858e+01    0.4623655    0.4255903 -29.81  0.002391391    1.270    0.212
       184 -10.2728     94.5576    109.4582   4.5103560831e+01   4.1792229503e+01    0.1577217    0.1525593  52.03 -1.878854e-05    1.005    0.005
       185 -11.1594    103.7323     29.0683   1.4450482384e+01   5.5766490050e+01    0.3606433    0.3301543  87.53  0.001596957    1.097    0.089
       186 -10.3386     80.4559     30.5081   2.2271224318e+01   6.1465086626e+01    0.2473649    0.2021845  56.46 7.440022e-05    1.161    0.138
       187 -11.0381     84.4061     29.0000   2.0166725292e+01   6.0725383149e+01    0.5459388    0.2171959  56.08  0.001807438    2.313    0.568
       188 -11.6411    158.8807     26.9538   3.4424035985e+00   4.1296368079e+01    0.3792199    0.2503441 -15.56   0.00170035    1.899    0.474
       189 -11.2768    152.8933     25.2881   3.7074744706e+00   4.3062907416e+01    0.5651217    0.3269106 -61.81  0.002012976    1.838    0.456
       190 -10.7826    148.2524     24.6105   4.1303817852e+00   4.4371456401e+01    0.3611075     0.267513  23.29  0.001786908    1.832    0.454
       191 -11.4422     63.5220    108.1486   5.6008140349e+01   4.7610799986e+01    0.2709676    0.2138007  35.20 0.0003566439    1.247    0.198
       192  -9.7733    114.6029     28.1951   1.1469744736e+01   5.2988947265e+01    0.1693102    0.1444725   3.42 5.876948e-05    1.414    0.293
       193 -12.3670    160.8252    104.5582   2.5768656166e+01   2.8436264786e+01    0.5447428    0.2710316 -41.50  0.000291459    1.971    0.493
       194 -10.7581    234.9650     23.8496   3.5573782661e+02   2.4076905779e+01    0.2849321    0.2560424 -88.89  0.001840937    1.266    0.210
       195 -10.3242     15.8307    106.8358   7.5188835954e+01   5.3282060699e+01     0.217926     0.177555 -47.44 0.0006523296    1.274    0.215
       196 -10.6938    210.3806    105.0795   1.7012397463e+01   1.8061633298e+01    0.3377631    0.2822222 -80.11  0.001991229    1.516    0.340
       197  -9.2146    184.6642    105.7393   2.1388761157e+01   2.3081930726e+01    0.1392952    0.1082687  14.51 0.0002064285    1.579    0.367
       198 -10.3308    191.6716    103.5669   1.9638174193e+01   2.1999375979e+01    0.2565601    0.1202609 -37.41  0.001079104    1.967    0.492
       199 -11.6698    148.9841    104.0086   2.8264478380e+01   3.1192890773e+01    0.3629355    0.2161896  65.90  0.001388826    2.296    0.564
       200 -10.8297    144.6018    102.8716   2.8997536148e+01   3.2410306690e+01    0.3700568    0.3174333  -6.54  0.001722952    1.355    0.262
       201 -11.9047    141.8668     96.2188   2.7845774299e+01   3.4367127134e+01    0.6425305    0.3954262  55.22  0.001356975    1.678    0.404
       202 -13.3986    120.9404     99.8765   3.4364634842e+01   3.8408571327e+01     0.953942    0.4715601 -43.67  0.003573943    2.090    0.521
       203 -11.0958    176.1889     24.2412   5.9482790991e-01   3.7197300058e+01    0.3544471    0.1733522 -36.99 0.0008365802    1.870    0.465
       204 -10.4741    130.5904     19.4073   4.9935084989e+00   4.9715615185e+01    0.2931954    0.1726162  77.18  0.001322104    1.612    0.380
       205 -11.6240    135.3648     23.7616   5.8024304071e+00   4.7926728840e+01    0.5443711    0.3854527 -88.09  0.001827296    1.415    0.294
       206 -10.8861    136.1861     19.8324   4.2608692749e+00   4.8153373385e+01    0.3760738    0.2821135  68.74 0.0008321468    1.216    0.178
       207  -9.6445    202.4749     25.4863   3.5846793613e+02   3.0786617479e+01    0.1319911     0.109016 -61.32 1.945507e-05    1.013    0.013
       208 -13.3255    122.1526     87.7065   3.0510755814e+01   4.0726297000e+01    0.9875211    0.7195188  -0.71  0.004066651    2.127    0.530
       209 -12.0366     97.5986     22.1923   1.3033440303e+01   5.8270821964e+01    0.2966982    0.2871378 -81.53 0.0005918344    1.096    0.087
       210 -10.6679    102.1604     20.0383   1.0914926021e+01   5.7324937095e+01    0.3813662    0.2899368 -16.87  0.001871678    1.530    0.347
       211 -10.2788    189.2836     24.0339   3.5924565836e+02   3.4024921324e+01    0.4971134    0.1204267  65.82  0.001609862    3.596    0.722
       212 -12.0318    133.1567     86.5372   2.7233117914e+01   3.8349704682e+01    0.7306303    0.4617509  47.26  0.003137268    1.561    0.359
       213 -11.9843    137.7022     81.6439   2.4650462715e+01   3.8206829181e+01    0.8751684    0.6327001  80.94  0.003473002    1.754    0.430
       214  -9.7107    159.4855     22.4469   1.9477521595e+00   4.1662464412e+01     0.195284    0.1197199 -44.15 8.135377e-05    1.553    0.356
       215 -11.0140    163.0121     20.5579   9.4238507107e-01   4.0959308199e+01    0.4567984    0.3063235  82.37  0.001662272    1.394    0.283
       216  -9.9880    180.5148     21.0030   3.5923593081e+02   3.6491146484e+01    0.2682984    0.1650387 -77.57   0.00120187    1.609    0.378
       217  -8.7661    170.3483     19.3063   3.5976277441e+02   3.9218664961e+01    0.1375726   0.09945382  43.39 0.0007042572    1.702    0.412
       218 -10.1505    194.2369     17.9293   3.5718843798e+02   3.3527401395e+01    0.2070706    0.1419795 -57.30 0.0007776546    1.261    0.207
       219 -13.7417    129.7967     96.5714   3.1004417149e+01   3.7093659723e+01    0.9990568     0.679249  48.48  0.003913051    1.441    0.306
       220 -10.8793    123.0206     82.9461   2.8827388633e+01   4.1500044964e+01    0.3068778    0.2494392  81.02   0.00141739    1.418    0.295
       221 -11.4394    128.2602     76.0564   2.5287787048e+01   4.1591340766e+01    0.5607699    0.3341765 -34.76  0.001733666    1.820    0.451
       222 -12.8194    126.4295     91.4318   3.0435502289e+01   3.8947268967e+01    0.7758785    0.5034611  17.91  0.002875083    2.585    0.613
       223 -11.5009    169.1111     98.4177   2.2479624946e+01   2.7723577139e+01    0.6466194    0.4468433  -4.08  0.002799578    2.182    0.542
       224 -11.0953     82.8291    101.6104   4.7184109258e+01   4.5981456634e+01    0.2631983     0.213992  66.14 0.0002592122    1.352    0.260
       225 -11.6344     83.3896     97.9962   4.6026914053e+01   4.6769706256e+01    0.5787948    0.3514846  19.13  0.001506971    2.305    0.566
       226 -10.1292     87.9873     97.5319   4.4243106196e+01   4.5989795650e+01    0.3724096    0.3069425  22.61  0.001478953    1.323    0.244
       227 -10.0278     94.1341     16.0751   1.1108971603e+01   5.9904914753e+01    0.2200752    0.1752325  39.13 0.0007621189    1.276    0.216
       228 -10.2776     46.8416    101.8329   6.1409287484e+01   5.1627614599e+01    0.2051881    0.1689175  67.68 0.0003296545    1.274    0.215
       229 -11.4096    216.0217     99.8087   1.4997501126e+01   1.7799375624e+01    0.3114348    0.1728533 -34.64  0.001560884    1.577    0.366
       230 -11.9884    152.0633     98.3049   2.6039407962e+01   3.1604050558e+01      0.71487    0.4318018 -61.82  0.002820628    2.275    0.560
       231 -12.8450    199.5258     96.6339   1.6694961873e+01   2.1521234526e+01    0.5114291    0.3739506 -10.69  0.002658689    1.654    0.395
       232 -12.8000     55.3191     72.2999   5.0220967715e+01   5.8057291289e+01    0.7853443    0.5177994 -54.03 0.0008709187    1.506    0.336
       233 -10.3509     35.6757    249.6747   7.8884166116e+01   1.8361872086e+01     0.100694   0.08393221  -5.91 0.0007048543    1.689    0.408
       234 -11.1394    214.4992     41.5845   1.4081226785e+00   2.6217661974e+01    0.4494054    0.2649111 -59.82   0.00149971    1.630    0.386
       235 -13.8705    195.8792     81.5159   1.3545580382e+01   2.4661983292e+01     1.841837     1.067153 -12.77  0.007003422    2.780    0.640
       236 -13.9829    205.4314     79.7988   1.1764884727e+01   2.2902659768e+01     1.038404    0.6828859 -57.07  0.004251924    1.616    0.381
       237 -10.8739    181.0336    244.0556   4.7828140521e+01   1.6998860107e+00    0.1820701    0.1335184  15.59  0.001072131    1.038    0.037
       238 -12.5533    176.2847     70.4107   1.3681963410e+01   3.0824963148e+01     1.218755    0.6467111  82.79   0.00442709    3.155    0.683
       239 -12.1096    164.5919     65.4977   1.4274784957e+01   3.4421364826e+01    0.9565305    0.4462631  48.41  0.003745233    2.312    0.567
       240 -13.5349    243.2745     61.0424   3.2549703318e+00   1.8096643927e+01      1.31156    0.7006786  62.58  0.001925091    2.203    0.546
       241 -12.5351    245.7189     51.8706   1.0765509229e+00   1.8787754526e+01    0.6389527    0.1915356 -41.85 0.0007396935    2.429    0.588
       242 -13.9961    206.1185     68.8007   8.9837587026e+00   2.4367699616e+01     1.204183    0.5934832  58.71  0.002856218    2.187    0.543
       243 -13.9868    218.6849     69.7926   7.7131967954e+00   2.1633451252e+01      1.09207    0.7249727  47.91  0.004504589    1.800    0.445
       244 -12.4836    209.7742     59.1044   6.1646351871e+00   2.4946088250e+01    0.6186359     0.310063 -54.20  0.001402808    2.053    0.513
       245 -13.6728    219.0150     55.7244   4.3579245100e+00   2.3465897348e+01     1.086815    0.9161018 -74.90  0.005951847    1.187    0.157
       246 -12.6406    221.3715     39.1291   2.1717700701e-01   2.5071645838e+01    0.7126431    0.3343715 -56.93  0.001222661    2.095    0.523
       247 -12.0468    238.2801     51.2349   1.5481630217e+00   2.0242075378e+01     0.406053    0.2172371 -52.89   0.00198811    1.684    0.406
       248 -12.8633    229.9804     47.0523   1.3170391677e+00   2.2360150376e+01    0.6438523    0.4177955  58.52  0.002795702    1.811    0.448
       249 -10.3120    225.6418     99.2873   1.3578460893e+01   1.6104228948e+01    0.1785819    0.1069228 -27.46 0.0009335738    1.559    0.359
       250 -13.0548    102.5504     95.9795   3.8854685960e+01   4.3344619347e+01     0.751364    0.5333641  40.99 0.0004397251    1.377    0.274
       251 -11.5299     57.0365     99.3925   5.6653530218e+01   5.0884150437e+01    0.3484592    0.1449981  30.26  0.001065312    2.392    0.582
       252 -11.2436     11.6237     98.3346   7.6058947640e+01   5.5834664524e+01    0.2559066    0.2332972 -80.68 0.0006227819    1.011    0.011
       253 -10.8604    250.2167     97.6341   1.0283749004e+01   1.2149546160e+01    0.2969671    0.1381779 -35.68 0.0006315452    1.691    0.409
