#   1 NUMBER                 Running object number                                     
#   2 MAG_AUTO               Kron-like elliptical aperture magnitude                    [mag]
#   3 X_IMAGE                Object position along x                                    [pixel]
#   4 Y_IMAGE                Object position along y                                    [pixel]
#   5 X_WORLD                Barycenter position along world x axis                     [deg]
#   6 Y_WORLD                Barycenter position along world y axis                     [deg]
#   7 A_WORLD                Profile RMS along major axis (world units)                 [deg]
#   8 B_WORLD                Profile RMS along minor axis (world units)                 [deg]
#   9 THETA_WORLD            Position angle (CCW/world-x)                               [deg]
#  10 FWHM_WORLD             FWHM assuming a gaussian core                              [deg]
#  11 ELONGATION             A_IMAGE/B_IMAGE                                           
#  12 ELLIPTICITY            1 - B_IMAGE/A_IMAGE                                       
         1 -12.2974    199.8462     42.9365   4.1595947007e+01   3.0416219227e+01    0.8776609    0.8158031 -61.79  0.003514292    1.153    0.133
         2 -12.3718    209.7070     33.5848   3.8272936862e+01   2.9430713821e+01    0.7009241    0.6721516 -47.68  0.001513449    1.285    0.222
         3 -10.7295    234.1259      2.8622   2.9695200083e+01   2.7797077205e+01     0.501765    0.3307521  78.33  0.003341777    1.401    0.286
         4 -11.1417    234.4251     10.8017   3.1231652316e+01   2.6875769066e+01     0.739936    0.3745444 -77.17   0.00404674    1.923    0.480
         5 -10.8294    239.1140      8.3339   3.0418934055e+01   2.6201460622e+01    0.5293106    0.2967059 -40.62   0.00324486    1.669    0.401
         6  -9.8845     21.5673      8.7401   7.7441227604e+01   7.1445181479e+01    0.2141784   0.09401052 -32.95  0.001150519    2.131    0.531
         7  -9.9063     32.9942      3.6983   6.9065673086e+01   7.0596641224e+01    0.3438294     0.127795 -31.69  0.001695942    2.705    0.630
         8  -8.8338     44.3259      4.6668   6.4408552022e+01   6.8792353076e+01   0.09974113   0.09577446 -82.55 0.0007051288    1.713    0.416
         9  -9.8281    137.9836    229.7102   9.4630674069e+01   6.9456574486e+00    0.1956723    0.1587488  36.00 0.0007270717    1.085    0.078
        10  -8.8681     72.2871    250.4487   1.1096845038e+02   1.2606340717e+01    0.2134587    0.1183524  41.55 0.0006412792    1.485    0.327
        11 -12.8386     43.1963    196.6712   1.1231843515e+02   2.7790577583e+01     3.830978     1.383458  67.32   0.01042023    6.466    0.845
        12 -16.3716     11.9432    243.0669   1.2220337530e+02   2.1111239162e+01      4.86707     2.168362  23.73   0.02440867    3.144    0.682
        13  -9.4386    122.5344    198.9283   9.3486905733e+01   1.5740033399e+01    0.3236029     0.240988  87.90  0.001089672    1.748    0.428
        14  -9.1494    194.6127    198.7616   7.7430835885e+01   3.4833349783e+00    0.1817809    0.1264596 -48.55   0.00074299    1.602    0.376
        15  -8.5958     59.1862    196.6839   1.0850883474e+02   2.5829235789e+01    0.2142228    0.1764912 -80.49 0.0004930826    1.155    0.134
        16 -11.6511     55.2637    185.6807   1.0819972575e+02   2.8947181198e+01    0.7722646    0.6338736  71.98   0.00370305    1.124    0.110
        17  -9.2024    191.4765    192.1188   7.6830882963e+01   5.2209374726e+00    0.2982365    0.2022256 -86.10  0.001093048    4.151    0.759
        18  -7.9630    150.2931    193.3470   8.6031815008e+01   1.2138938923e+01    0.1469521    0.1105181 -10.48 0.0007030008    1.668    0.400
        19 -10.1362    120.0366    212.7929   9.6195381441e+01   1.3182571527e+01    0.2947228    0.2398364 -75.68  0.001491306    1.402    0.287
        20  -8.5104     49.5345    250.7113   1.1550846863e+02   1.5444578964e+01    0.1766527   0.08863072  38.19 0.0003217625    1.717    0.418
        21  -7.4787     79.6368    182.2898   1.0156626032e+02   2.6441580068e+01    0.1527191   0.09972519  64.03 0.0007015174    1.698    0.411
        22  -8.7345     99.3412    181.0415   9.6321448872e+01   2.3685154401e+01    0.2459173    0.2006277  23.59 0.0007894246    1.350    0.259
        23  -9.4247     41.9448    177.8205   1.1065303087e+02   3.2443206615e+01    0.4184956    0.2808902 -19.70  0.001448521    2.413    0.586
        24  -8.4811     35.8362    179.3488   1.1235680672e+02   3.2742387406e+01    0.2068779     0.139392  57.13 0.0007032795    1.429    0.300
        25 -15.2657      2.5631    197.5753   1.2157210447e+02   3.1623198333e+01     22.28373          nan -75.52   0.04103283   15.480    0.935
        26  -9.4005    186.6290    174.6820   7.4439880890e+01   9.4045991499e+00    0.3349555     0.299916  51.91  0.001089839    1.267    0.211
        27  -9.2640    113.4660    173.9838   9.1494678541e+01   2.2979072377e+01     0.353397    0.2130128  15.84  0.001368946    2.539    0.606
        28  -9.4312    102.7434    173.2816   9.4142501394e+01   2.4978630335e+01    0.2956172    0.1864753  10.71   0.00116901    2.547    0.607
        29 -10.0696     68.4996    172.0256   1.0299050890e+02   3.0543472690e+01    0.3286217    0.2688159 -28.27 0.0009328043    1.531    0.347
        30 -10.5510     73.1476    167.0872   1.0100415108e+02   3.1115270741e+01    0.4622611    0.3038906 -36.94  0.002140643    1.911    0.477
        31  -8.2853     34.3876    171.5558   1.1189633129e+02   3.4797042526e+01    0.2187964    0.1182951  36.46  0.001080426    1.869    0.465
        32 -10.9211     81.7078    158.7821   9.7295302462e+01   3.1920440387e+01    0.7432219    0.4696497  66.59  0.001110349    2.011    0.503
        33 -11.7849     70.0554    153.4252   9.9662165613e+01   3.4980312178e+01    0.4933036    0.4316245 -31.85 0.0009669378    1.297    0.229
        34 -12.0172     69.0903    144.4316   9.8384469565e+01   3.7387297643e+01     1.029953    0.6523106  73.77  0.004426491    2.153    0.536
        35  -9.2000     53.8326    149.5735   1.0369925696e+02   3.8097483126e+01    0.2877153    0.1809515 -88.18 0.0009680954    1.822    0.451
        36  -9.6693    134.3125    146.5207   8.0616223840e+01   2.5558349168e+01     0.612709     0.227605 -56.22  0.001863208    3.353    0.702
        37  -8.2364     39.0171    146.4751   1.0753329565e+02   4.0569544051e+01    0.1954997    0.1352903  29.74  0.001033313    1.596    0.374
        38  -9.0978     33.1692    143.6593   1.0884537774e+02   4.1872174311e+01     0.244017    0.1677469 -80.24 0.0008957543    1.354    0.262
        39  -9.3110     29.0152    143.4880   1.1003019854e+02   4.2311841887e+01    0.2615601    0.2148621 -88.57  0.001561938    1.125    0.111
        40  -9.3417    102.2745    138.6447   8.7564299902e+01   3.3508737175e+01      0.54132    0.3438433 -16.99  0.002006253    2.781    0.640
        41 -10.5459     89.9760    137.6595   9.0913862062e+01   3.5874101315e+01    0.3051185    0.2630223 -30.23 0.0004955854    1.267    0.211
        42 -11.2830     58.6184    131.9327   9.9281733293e+01   4.1957417764e+01     0.989321    0.4229668 -74.91  0.003245553    3.498    0.714
        43  -9.0784     28.5151    130.4398   1.0838847620e+02   4.5624554212e+01    0.2663364   0.08750536 -57.27  0.001041527    2.426    0.588
        44  -9.4544    135.0994    129.2274   7.6441097424e+01   2.9371302789e+01    0.3961785    0.2017993 -40.34  0.001494593    2.079    0.519
        45 -10.2415     88.7944    152.1273   9.4112707584e+01   3.2467945786e+01     0.600572    0.4187907 -14.24  0.002164446    2.189    0.543
        46  -9.2186     98.8510    124.9861   8.5497665709e+01   3.7438340959e+01    0.2892233    0.2262856  18.53 0.0009064774    1.481    0.325
        47  -9.2196    105.7379    131.1691   8.4915970053e+01   3.4693352440e+01     0.406905    0.2818024 -55.89  0.001409008    1.441    0.306
        48  -7.8441    163.6879    121.3385   6.7612673067e+01   2.5008323086e+01    0.1577467    0.1215736 -81.68  0.000545837    1.692    0.409
        49  -9.6970     33.7510    118.5907   1.0485679167e+02   4.8089705033e+01    0.3619257    0.1248275 -49.33  0.001386701    2.600    0.615
        50  -9.0752    111.7279    128.9532   8.2699720964e+01   3.4098391713e+01    0.3386417    0.2270414  18.49  0.001074346    1.998    0.499
        51  -7.5996     86.6411    119.7035   8.7966975666e+01   4.0836845691e+01    0.1554622    0.1168531 -15.48 0.0007033424    1.704    0.413
        52  -8.2527    107.9315    118.4749   8.1269500229e+01   3.7296010967e+01     0.219913    0.1523337  39.84 0.0003377346    1.467    0.318
        53  -8.7418    231.2708    113.8481   5.3337426107e+01   1.2465925403e+01    0.2100111    0.1848833  85.63 0.0007189621    1.293    0.227
        54  -8.4131    205.7811    110.3579   5.6660431480e+01   1.8147156760e+01    0.1892737    0.1330422  43.39 0.0008926681    1.594    0.373
        55 -10.2081     26.8542    108.1247   1.0536180711e+02   5.1280608788e+01    0.2060415    0.1755474  82.57  0.001245774    1.288    0.224
        56 -13.8697      9.2775    207.2747   1.2073700740e+02   2.8871292376e+01     1.152548    0.9412071 -47.46  0.004386337    1.628    0.386
        57  -9.1627    115.0000    105.4702   7.5892585679e+01   3.8859723055e+01    0.3363405   0.08687825 -46.92 0.0009233081    3.843    0.740
        58 -10.6059     42.2703    104.0930   9.9212473489e+01   5.0773945868e+01    0.5569633    0.1943431  41.26  0.002038179    3.365    0.703
        59  -8.1353     46.3223    211.1277   1.1296664624e+02   2.4108595956e+01    0.1851931    0.1423571 -58.62 0.0004451874    1.460    0.315
        60  -9.6939     33.8845    100.1578   1.0138054973e+02   5.2567533536e+01    0.2623381     0.176464 -48.40 0.0007562623    1.307    0.235
        61  -9.8714     32.5139     93.9992   1.0059828803e+02   5.4154696063e+01    0.5051977    0.1662822 -44.52  0.001894775    2.851    0.649
        62  -9.7502     32.4313     87.5888   9.9218256108e+01   5.5651415286e+01     0.372245    0.1608349 -67.90  0.001499961    2.640    0.621
        63  -8.9763    125.4834     92.9930   6.9567549828e+01   3.9310511152e+01     0.234063    0.1496688 -45.33 0.0009644505    1.575    0.365
        64  -9.5773     49.0746    217.6177   1.1294219723e+02   2.2336111215e+01    0.4502488    0.2624243  14.00  0.002110734    2.804    0.643
        65  -9.0032    113.4767     83.3941   7.0121010080e+01   4.3820412886e+01    0.3394835    0.2367143 -87.29  0.001377653    2.481    0.597
        66  -8.1416    158.5247     83.4515   5.8979434730e+01   3.3660812136e+01    0.1483817    0.1418693 -87.60 0.0001472772    1.020    0.019
        67  -8.4276     41.3743    213.7175   1.1429314833e+02   2.4112324995e+01    0.3623432    0.1314669  53.54  0.001510336    2.704    0.630
        68 -10.0746    110.3335    203.6221   9.7112857280e+01   1.6721359077e+01    0.3460096    0.2394871  21.08  0.001213086    1.684    0.406
        69 -11.7444    188.7583     51.2517   4.5122307880e+01   3.1804967571e+01    0.7033625    0.4657835  47.03  0.001485017    1.728    0.421
        70 -10.5282    119.2194    246.0456   1.0079637890e+02   6.7905310569e+00    0.3248572    0.1691775  46.98  0.001139822    1.748    0.428
        71  -9.0740     41.3211    207.6649   1.1377748517e+02   2.5476255483e+01    0.3318596    0.1907765  85.68  0.001259391    1.762    0.432
        72 -11.6923     19.6800     33.9749   8.9268802746e+01   6.7752660508e+01    0.4813314     0.440367  89.81  0.002977125    1.754    0.430
        73 -10.0337    140.6682    216.2890   9.2042372433e+01   9.1050106568e+00    0.3548273    0.2113194  16.77  0.001557058    2.249    0.555
        74  -8.7275     64.5809    205.2519   1.0818631955e+02   2.3137766509e+01    0.2415194    0.1829383 -89.96  0.001379732    1.285    0.222
        75  -8.9661     72.2663    245.1681   1.1050169197e+02   1.3629191447e+01    0.2645836    0.1790014  65.32   0.00158703    1.391    0.281
        76  -9.1263    101.4163    243.6304   1.0426643170e+02   9.8590227292e+00    0.2638472    0.1276741 -68.37  0.001236158    2.621    0.618
        77 -10.2222     78.8033    239.5240   1.0860800257e+02   1.3859153856e+01    0.4478503    0.2484795 -43.62  0.002197269    2.625    0.619
        78 -10.0561     94.1656    236.7701   1.0504859966e+02   1.2241425556e+01    0.4188486    0.2231522 -78.44  0.001902158    2.565    0.610
