#   1 NUMBER                 Running object number                                     
#   2 MAG_AUTO               Kron-like elliptical aperture magnitude                    [mag]
#   3 X_IMAGE                Object position along x                                    [pixel]
#   4 Y_IMAGE                Object position along y                                    [pixel]
#   5 X_WORLD                Barycenter position along world x axis                     [deg]
#   6 Y_WORLD                Barycenter position along world y axis                     [deg]
#   7 A_WORLD                Profile RMS along major axis (world units)                 [deg]
#   8 B_WORLD                Profile RMS along minor axis (world units)                 [deg]
#   9 THETA_WORLD            Position angle (CCW/world-x)                               [deg]
#  10 FWHM_WORLD             FWHM assuming a gaussian core                              [deg]
#  11 ELONGATION             A_IMAGE/B_IMAGE                                           
#  12 ELLIPTICITY            1 - B_IMAGE/A_IMAGE                                       
         1 -14.7117     68.3859    144.3651   1.0614588103e+02   3.7232700906e+01     4.513967     2.102075  70.28  0.004700623    3.863    0.741
         2 -13.9732    221.9220     16.9092   4.0529510763e+01   2.7723360153e+01     1.153193    0.9380533  14.30  0.002690357    1.534    0.348
         3 -13.6738    197.4875     39.3507   4.9218836235e+01   3.0854148607e+01     1.409604     0.978927  19.98  0.003231887    1.939    0.484
         4 -14.1082    206.0304     33.1505   4.6464353553e+01   2.9584151655e+01     1.783532     1.314857  -1.78  0.007142056    1.615    0.381
         5 -11.1868      2.2780     10.7182   1.0230063840e+02   7.6389702880e+01    0.5528324   0.02218441 -58.51  0.001562073    5.788    0.827
         6 -10.6361     47.4575      2.2562   6.6695615638e+01   7.1858625509e+01    0.2272292    0.2103851  67.45 0.0007669004    1.381    0.276
         7 -12.4912    213.8617     25.5097   4.3546447589e+01   2.8637733066e+01    0.5008128    0.4237258  21.55  0.001123809    1.438    0.305
         8  -9.5286     61.5052      1.4738   6.0297215776e+01   6.9124043007e+01    0.1352756    0.1183279  11.71 -6.297292e-05    1.047    0.045
         9  -9.2653    157.3929    201.1595   9.4272546497e+01   1.2649780713e+01    0.1521755    0.1162169 -59.56 0.0009520382    1.753    0.430
        10 -15.5575     81.0903    247.2519   1.1361740181e+02   1.5887729358e+01     8.711054     2.547398  27.39   0.02836069    6.809    0.853
        11 -14.0650     87.2387    227.2050   1.1093055196e+02   1.8258969475e+01     1.564621    0.6568943  45.86  0.001185866    1.883    0.469
        12 -13.1020     27.8583    215.5258   1.2172457687e+02   2.6998234234e+01     1.081636    0.3872976  76.84   0.00377663    3.228    0.690
        13 -16.1491     36.7072    187.6240   1.1831381848e+02   3.1486196420e+01     8.148889     2.768516  70.49   0.03009528    4.321    0.769
        14 -13.5708     65.5542    160.4818   1.0899046987e+02   3.3931955853e+01    0.5813152    0.4554827 -41.78  0.001916067    1.627    0.385
        15 -11.7875     78.1933    164.5174   1.0635783873e+02   3.1341148029e+01    0.4042305    0.2900766  78.61 0.0003680612    1.454    0.312
        16 -12.8656     85.0891    158.0078   1.0377024242e+02   3.1774048194e+01      1.08836    0.8342342 -78.62   0.00165115    1.329    0.248
        17 -10.0671    174.0938    248.5998   9.7453724133e+01   4.1355113818e+00     0.157823    0.1473711  59.60 0.0009170856    1.584    0.369
        18 -15.8416      9.1830    239.6544   1.2604400276e+02   2.4582799450e+01     2.920766     1.597769  87.44   0.02151631    1.736    0.424
        19 -14.8527      9.4081    207.3138   1.2501158614e+02   3.0243622170e+01     1.099242     1.086047  86.24  0.007452534    1.493    0.330
        20 -11.4827    193.1809    192.8545   8.6378013913e+01   8.4650285525e+00     0.631315    0.3869711 -48.67  0.003552947    2.232    0.552
        21  -8.5262    126.2671    155.2735   9.3392816236e+01   2.5738434784e+01    0.1268785    0.1057583  -4.68            0    1.475    0.322
        22  -9.7034    174.8838    149.1286   8.1757293039e+01   1.8174973156e+01    0.1964022    0.1905646  77.91 0.0006867508    1.248    0.199
        23 -10.1152    134.0000    147.5412   9.0162741318e+01   2.5921737868e+01     0.399654    0.1840305 -51.41  0.001653308    2.311    0.567
        24 -10.9298    133.5812    141.2800   8.9013559920e+01   2.7254935611e+01    0.5260694     0.248987 -55.87  0.002092754    2.483    0.597
        25 -10.1891     66.9877    195.4071   1.1228312738e+02   2.6456752032e+01    0.2883683    0.1555046  52.48  0.001029679    1.609    0.378
        26 -10.4592     99.4628    143.4720   9.7807441389e+01   3.2755678861e+01    0.3001455     0.255373  67.52 0.0009315662    1.167    0.143
        27  -9.9129    102.0255    139.9745   9.6516844473e+01   3.3108395987e+01    0.3819499    0.2500618 -21.21   0.00160924    2.680    0.627
        28 -12.3380     87.2401    142.0441   1.0074571639e+02   3.5023566002e+01    0.2708483    0.2517267 -54.44   0.00049693    1.174    0.148
        29 -10.3191     81.5780    141.3827   1.0214420688e+02   3.6036995148e+01    0.3396914    0.2012003  59.21 0.0005889783    1.861    0.463
        30  -9.9815     28.7890    136.2085   1.1614551681e+02   4.3800893039e+01     0.164136    0.1365927 -63.12 0.0002600734    1.295    0.228
        31  -9.7084    150.4186    188.7713   9.3780966477e+01   1.5664289412e+01    0.1665631     0.115309 -31.31 0.0009544457    1.672    0.402
        32  -8.8879     37.6727    133.2786   1.1329412634e+02   4.3616674491e+01    0.1377981   0.08439705  63.92 0.0002369445    1.595    0.373
        33 -10.2143    109.9707    131.5314   9.2821571046e+01   3.3611651307e+01     0.309795    0.2397643  -7.16 0.0008501164    1.849    0.459
        34 -10.3060    106.0112    131.0162   9.3748016963e+01   3.4425757192e+01    0.3395509    0.2907666  74.16  0.001240341    1.221    0.181
        35 -10.8609     97.2740    127.9099   9.5455848084e+01   3.6640038525e+01    0.2970009    0.2497278 -33.49 0.0005877283    1.382    0.277
        36 -10.2261    137.3327    170.9172   9.3634199790e+01   2.0869068001e+01    0.1774726     0.173035 -17.33 0.0008125723    1.097    0.089
        37  -9.9922    160.6255    127.7860   8.0031006212e+01   2.4695601151e+01    0.2085971    0.1306662 -49.55  0.000955114    1.706    0.414
        38  -9.3740    125.6343    127.3112   8.7956954542e+01   3.1642170602e+01    0.1516265    0.1139439  79.90 0.0007038575    1.759    0.432
        39 -10.1563    116.3631    125.6316   8.9923088822e+01   3.3749067416e+01    0.2888749    0.2278435 -66.07 0.0009207989    1.341    0.254
        40  -8.9365    162.4507    167.5140   8.7796570585e+01   1.7240861830e+01    0.1289041    0.1192719  22.14 0.0001201488    1.040    0.039
        41 -10.4876    135.5297    123.4991   8.4688641578e+01   3.0523263412e+01    0.2197956    0.1382368 -56.09 6.010546e-05    1.745    0.427
        42 -10.0018    106.9785    120.0167   9.1152984930e+01   3.6730991181e+01    0.2080857    0.2040499 -70.71  0.001187886    1.048    0.046
        43  -9.0484    192.6701    165.3114   8.1590627585e+01   1.2490366163e+01    0.1162146    0.1044494  87.53 0.0007042669    1.670    0.401
        44  -9.9605    168.2762    113.1890   7.4930529476e+01   2.5832319854e+01    0.3320846    0.2232537 -58.40  0.001142657    1.867    0.464
        45  -9.9799     39.9423    113.3172   1.1000117958e+02   4.8322258268e+01    0.1822144    0.1661166  71.39 0.0005284211    1.116    0.104
        46  -9.9707    205.6237    110.1432   6.7329189048e+01   1.8687097718e+01    0.2447172    0.1975351  33.05 0.0005998519    1.314    0.239
        47  -9.9499     33.0042    109.0043   1.1164715042e+02   5.0130855638e+01    0.2211597    0.1384919  67.94 0.0004833533    1.666    0.400
        48 -10.1677     29.1549    107.0881   1.1266491606e+02   5.0987617887e+01    0.2172385    0.1903291  62.00 0.0007881233    1.172    0.147
        49 -10.5046    134.6130    104.1162   8.0102747943e+01   3.4724946870e+01     0.490136    0.1758322 -42.29  0.001638039    2.739    0.635
        50 -11.2360    242.5441    102.2709   6.0067985934e+01   1.2827080002e+01    0.2880723    0.1782254 -65.59   0.00129333    3.085    0.676
        51 -10.5364     38.8230    102.0196   1.0860003872e+02   5.1300957645e+01    0.3760883     0.113823  45.17  0.001313398    3.549    0.718
        52  -9.0008    121.6969     98.7046   8.1920003910e+01   3.8578683421e+01    0.1490501    0.1215337  -3.64 0.0002478391    1.578    0.366
        53 -12.0478     63.6197    179.9426   1.1157666548e+02   2.9984861972e+01    0.3771607    0.2846883 -31.25  0.002000291    1.992    0.498
        54 -10.8070    249.7372     87.9506   5.5857904517e+01   1.3408886493e+01    0.1912251    0.1416773 -28.54 0.0004475268    1.096    0.087
        55  -9.2553     73.3593     83.7364   9.2406497430e+01   5.1185348641e+01    0.2254069    0.1655601  83.40 0.0006179633    1.742    0.426
        56  -9.5388    111.3352     81.1882   7.9650141454e+01   4.4525408849e+01    0.4528468    0.2772518 -87.73   0.00140937    4.034    0.752
        57  -9.4335    159.4813     81.4547   6.8081035520e+01   3.3560276157e+01    0.1516386     0.144051 -34.23 0.0001518925    1.007    0.007
        58  -9.3405     61.8891     71.5044   9.3051942319e+01   5.5941875513e+01    0.1967278    0.1464712  34.76  0.000464005    1.495    0.331
        59 -10.2102     13.5435     60.0769   1.1096155213e+02   6.4170774362e+01    0.2201914    0.1984731 -85.79 0.0004375151    1.131    0.116
        60 -13.5951     46.7958    221.5228   1.1835178513e+02   2.3960576631e+01    0.9871616    0.5753868  81.31  0.001487861    1.722    0.419
        61 -11.9785     68.6567    174.3915   1.0982290340e+02   3.0508226627e+01    0.2855308    0.2578142 -40.54  0.001619381    1.418    0.295
        62  -9.5461     99.2441    181.0078   1.0355846645e+02   2.4919221262e+01    0.1796582     0.169468   0.63 0.0006876987    1.274    0.215
        63 -11.0572    139.0261     44.8194   6.0208794092e+01   4.4761102392e+01    0.3973987     0.281441 -69.71 0.0009575128    1.744    0.427
        64  -9.9202    141.2129     38.8072   5.7553728722e+01   4.5102767165e+01    0.2733952    0.1459601 -63.42 0.0009570426    2.848    0.649
        65 -10.5410    189.8078     15.1452   4.2692325545e+01   3.5530109826e+01    0.2228283    0.1705701 -54.00 0.0006203502    1.211    0.174
        66 -11.6929     40.7250    178.3080   1.1673361021e+02   3.2997167524e+01    0.2604536    0.2177767  58.97 0.0007921744    1.094    0.086
        67 -13.4642     37.7924    207.9022   1.1934659305e+02   2.7396749847e+01    0.6528409    0.3705851  43.11   0.00179047    1.415    0.293
        68 -12.7792     39.7421    233.9241   1.2035088340e+02   2.2585532133e+01    0.7340263    0.2752108  44.71  0.004310457    1.843    0.457
