#   1 NUMBER                 Running object number                                     
#   2 MAG_AUTO               Kron-like elliptical aperture magnitude                    [mag]
#   3 X_IMAGE                Object position along x                                    [pixel]
#   4 Y_IMAGE                Object position along y                                    [pixel]
#   5 X_WORLD                Barycenter position along world x axis                     [deg]
#   6 Y_WORLD                Barycenter position along world y axis                     [deg]
#   7 A_WORLD                Profile RMS along major axis (world units)                 [deg]
#   8 B_WORLD                Profile RMS along minor axis (world units)                 [deg]
#   9 THETA_WORLD            Position angle (CCW/world-x)                               [deg]
#  10 FWHM_WORLD             FWHM assuming a gaussian core                              [deg]
#  11 ELONGATION             A_IMAGE/B_IMAGE                                           
#  12 ELLIPTICITY            1 - B_IMAGE/A_IMAGE                                       
         1 -14.8318    172.2465     42.4600   6.7443078557e+01   3.6754959904e+01     1.355848     1.094007   1.72  0.003925557    1.353    0.261
         2 -15.1747    194.9418      9.2030   5.3825447312e+01   3.4563438542e+01     3.060324     1.097192  65.11    0.0107798    2.472    0.595
         3  -9.6987      7.6012    196.5134   1.3971318089e+02   3.2850503730e+01    0.1004329    0.0790569  75.14  0.000474368    1.092    0.084
         4 -10.9179    139.6445    249.7003   1.1883313605e+02   8.5063363787e+00     0.256909    0.1655323  36.39  0.001097815    1.151    0.131
         5 -10.3483    138.6802    246.3266   1.1865292766e+02   9.0860120364e+00    0.1506588    0.1268631  65.37 0.0005767587    1.436    0.304
         6 -14.0977    100.6252    245.9868   1.2553628036e+02   1.4298575969e+01    0.7241188    0.6314981  46.42  0.005182492    1.186    0.157
         7 -16.9432     87.8505    181.1695   1.2158270909e+02   2.7139877895e+01      6.69663     2.451872 -46.36   0.02593984    3.909    0.744
         8 -17.2157     70.6973    230.1609   1.2976982442e+02   2.0497586140e+01     8.670746     5.722182  85.79    0.0484852    1.638    0.390
         9 -12.1266    175.8761    231.6513   1.1002417401e+02   5.5801849977e+00    0.4298327    0.1545222 -41.49  0.002055979    3.527    0.716
        10 -10.3665    180.5031    193.0112   1.0327650641e+02   1.0164868641e+01    0.1747074    0.1278141 -34.43 0.0006158967    1.562    0.360
        11 -10.8256    176.0197    186.9997   1.0315273167e+02   1.1842861144e+01    0.1932173    0.1623984  65.97  0.001006835    1.662    0.398
        12 -11.5949    164.3094    186.9926   1.0557189268e+02   1.3867267423e+01    0.3023768    0.1691459  49.81  0.001450499    1.923    0.480
        13 -10.5743     35.1839    205.7042   1.3488345247e+02   2.8666492388e+01    0.1288151    0.1034093  28.87 0.0009617964    1.493    0.330
        14 -12.4466     39.1376    183.5573   1.3261435145e+02   3.2495372488e+01    0.2054759    0.1797668  87.26 0.0009636943    1.158    0.137
        15 -10.8114     30.4149    205.4532   1.3578866723e+02   2.9179820297e+01   0.09998945   0.08681124  72.86 0.0002221982    1.186    0.157
        16 -11.7297    188.9648    176.3686   9.8601576746e+01   1.1200062892e+01     0.621384    0.3751793 -57.29  0.002725526    3.076    0.675
        17 -11.0392    185.1379    169.7383   9.8114622707e+01   1.2922863459e+01    0.3792551    0.2369745 -48.57  0.001219356    2.084    0.520
        18 -10.5260    162.5243    233.9385   1.1280724273e+02   7.2774194935e+00    0.1419958    0.1171868 -35.80 0.0006039853    1.555    0.357
        19 -11.7602    204.3620    175.1586   9.5334360174e+01   8.6468699311e+00    0.3668417    0.3430588  38.04   0.00151361    1.373    0.272
        20 -11.4816    196.5313    175.5256   9.6932955686e+01   9.9789105025e+00     0.341129    0.2811527  41.23  0.002037481    1.312    0.238
        21 -10.1264     33.4949    210.5820   1.3548656875e+02   2.7950832460e+01     0.150957   0.09325207  31.43  0.001013754    1.693    0.409
        22 -10.0415    150.8687    244.9481   1.1628028203e+02   7.5397312652e+00    0.1619384    0.1248698  21.68 0.0006568041    1.247    0.198
        23 -11.4874    230.5658    167.9818   8.9067704258e+01   5.0878731045e+00    0.3817027    0.1743326 -48.11  0.001335662    4.873    0.795
        24 -19.1651     51.0017     97.7469   1.1904668446e+02   5.0382912533e+01     16.41185    0.8421491 -62.78   0.02485422   17.232    0.942
        25 -11.1969    192.3653    164.6203   9.5633106766e+01   1.2396696063e+01    0.3553563    0.2597051 -44.50    0.0013979    1.673    0.402
        26 -11.9112     25.1959    165.7432   1.3438677005e+02   3.7440195794e+01    0.2185679    0.1817039  16.54 0.0007459802    1.559    0.359
        27 -11.6680    131.2146    158.6545   1.0799551501e+02   2.4761517283e+01    0.2727376    0.2507491 -44.17  0.000753283    1.186    0.157
        28 -12.0061    189.1571    154.5969   9.4230764322e+01   1.4599091716e+01    0.5200656    0.4362917  27.16  0.002704264    1.079    0.073
        29 -14.0842    133.9291    146.1092   1.0494627617e+02   2.6759470463e+01     1.544669    0.4768347 -55.24  0.004331676    5.157    0.806
        30 -11.7656    134.6489    109.1488   9.6340694408e+01   3.4173603941e+01     1.116315    0.1813741 -44.45  0.002504485    6.314    0.842
        31 -14.0051    135.7361    127.8897   1.0060164090e+02   3.0110011080e+01     2.050859    0.5646393 -52.52  0.005155526    5.717    0.825
        32 -12.8882    152.3389    151.9688   1.0174238030e+02   2.2158305416e+01    0.5785505    0.3965189  88.33  0.002305123    3.159    0.683
        33 -14.2224    145.1449    146.2776   1.0226911274e+02   2.4615400389e+01    0.9699067    0.6780605 -70.53  0.004435261    2.167    0.539
        34 -12.0937    163.9502    152.1821   9.9144073872e+01   1.9889292052e+01    0.3450684    0.3052198  54.57   0.00101062    1.281    0.219
        35  -9.4702    177.9634    156.0360   9.6877611302e+01   1.6513070173e+01    0.1702716    0.1466879  23.51 0.0003111474    1.029    0.028
        36 -11.3123    174.3371    148.7984   9.6139530527e+01   1.8460914122e+01    0.3197227    0.2912446  48.36  0.001086067    1.237    0.191
        37 -12.1285    160.5060    127.8003   9.4536578102e+01   2.5084976978e+01     0.412748    0.3610166 -69.68  0.001710719    1.457    0.314
        38 -12.6702    113.8472    118.7561   1.0432129742e+02   3.6216203409e+01    0.4546182    0.3275836 -61.84  0.001169344    1.568    0.362
        39 -11.6914    168.3469    113.2847   8.9149066715e+01   2.6102549902e+01    0.4054422    0.3379881 -63.62  0.001189449    1.537    0.350
        40 -10.5945    113.7400    208.3403   1.1923509489e+02   1.8427242225e+01      0.28044    0.2074993  82.49  0.001541521    1.702    0.413
        41 -15.6210     76.1104    213.6945   1.2741818505e+02   2.2621889685e+01    0.9599278    0.5656466  51.69  0.006008854    1.407    0.289
        42 -12.4907    121.4987    111.9996   1.0060252631e+02   3.6225030098e+01    0.4067214    0.2293914 -44.53  0.001559818    1.794    0.443
        43 -13.0746    117.6675    109.3159   1.0100146669e+02   3.7540633847e+01    0.4242902    0.3980311  79.72  0.002017922    1.189    0.159
        44 -10.9547    205.3397    110.2956   8.0722262242e+01   1.8459486171e+01    0.3472911    0.2367647  35.16  0.001094754    1.459    0.315
        45 -11.9056    130.3695    109.5988   9.7592447097e+01   3.4961552720e+01    0.2976368    0.2626652  -8.68 0.0008913919    1.193    0.162
        46 -12.1266     81.2017    102.8772   1.1032717569e+02   4.5272180000e+01    0.2618063    0.2218389   4.10  0.001435782    1.353    0.261
        47 -10.6919    120.9300    197.0603   1.1631486364e+02   1.9294297041e+01     0.187969    0.1548028  40.76 0.0004175998    1.030    0.029
        48 -11.0580     75.9252     86.5571   1.0809575085e+02   4.9800652099e+01     0.257848    0.2189187  83.97  0.000737809    1.438    0.305
        49 -10.4998    148.0429     81.4897   8.5107210128e+01   3.6609876232e+01    0.2366154    0.1515605  47.43 0.0004219578    1.539    0.350
        50 -11.4193     89.2585     78.4139   1.0132195278e+02   4.9472770747e+01     0.316304    0.2443561  47.16  0.001612341    1.424    0.298
        51 -10.9071    114.0048     76.6430   9.2903903807e+01   4.5124628929e+01    0.4596012    0.2493951  54.07  0.001749882    2.235    0.553
        52 -14.4755    159.3255     57.2877   7.4826066514e+01   3.7950558433e+01     1.451859     1.264876  41.93  0.001019055    1.110    0.099
        53 -10.1704    133.7844    246.8304   1.1959667760e+02   9.7034305406e+00    0.1439032    0.1203242  31.86 0.0004634303    1.158    0.137
        54 -12.9601    176.6931     35.4262   6.4412885446e+01   3.6494589883e+01    0.4374131    0.3798378  19.34 0.0009044991    1.206    0.171
        55 -11.3485     14.3625     59.0383   1.2510715150e+02   6.2416708280e+01    0.3497045    0.1972037 -32.32  0.001537925    1.833    0.454
        56 -10.7496    169.7965    195.7858   1.0589515826e+02   1.1553967811e+01    0.1656634    0.1438657  51.79 0.0004883233    1.353    0.261
        57 -11.8654    187.9741     31.0259   6.1289070161e+01   3.4087029640e+01     0.226849    0.2215791  66.14 0.0007773512    1.008    0.008
