#   1 NUMBER                 Running object number                                     
#   2 MAG_AUTO               Kron-like elliptical aperture magnitude                    [mag]
#   3 X_IMAGE                Object position along x                                    [pixel]
#   4 Y_IMAGE                Object position along y                                    [pixel]
#   5 X_WORLD                Barycenter position along world x axis                     [deg]
#   6 Y_WORLD                Barycenter position along world y axis                     [deg]
#   7 A_WORLD                Profile RMS along major axis (world units)                 [deg]
#   8 B_WORLD                Profile RMS along minor axis (world units)                 [deg]
#   9 THETA_WORLD            Position angle (CCW/world-x)                               [deg]
#  10 FWHM_WORLD             FWHM assuming a gaussian core                              [deg]
#  11 ELONGATION             A_IMAGE/B_IMAGE                                           
#  12 ELLIPTICITY            1 - B_IMAGE/A_IMAGE                                       
         1 -13.1840    208.6658     49.8813   2.0313074582e+01   2.6436009112e+01      1.12098     1.006736  -4.07  0.003524655    1.252    0.202
         2 -13.3269    220.6641     40.6399   1.6390589161e+01   2.4820541263e+01    0.9413057    0.7941998  30.23   0.00262919    1.457    0.313
         3 -11.3214    249.5100     19.5996   8.5627014917e+00   2.0882425269e+01    0.6605434    0.1950316 -27.02  0.002550524    2.973    0.664
         4 -12.0868    246.5723     16.2702   7.9590695067e+00   2.1873509817e+01    0.8073298    0.4893141 -17.34  0.004266974    1.836    0.455
         5 -10.3183      2.6351     10.5644   7.1029921364e+01   7.5617583144e+01    0.2237662    0.1504259 -44.41 0.0009749269    1.150    0.131
         6  -9.5602    158.1553      8.8359   1.3828049809e+01   4.4393592011e+01    0.2233262    0.1826064 -62.04 0.0005036314    1.211    0.174
         7 -10.7367     70.6312    227.0970   8.4879834152e+01   1.9803304108e+01    0.3196282    0.2983207  55.59  0.002506848    1.315    0.239
         8  -9.0001    139.3340    250.3165   7.4288869615e+01   6.9087897381e+00    0.1070607   0.07573012  15.26 0.0007047573    1.692    0.409
         9  -9.8034     75.7503    246.2989   8.5337479104e+01   1.5965980344e+01    0.3819245    0.1521603 -54.77  0.002037003    3.468    0.712
        10 -11.1013     71.5557    242.2506   8.5812139782e+01   1.7136197654e+01    0.4818671    0.2596138  86.93  0.002933838    2.238    0.553
        11 -13.4502     44.7094    178.5269   8.6378381506e+01   3.2530584970e+01     1.916533    0.8929516  79.47  0.008928278    2.420    0.587
        12 -15.7145     31.7517    185.6479   8.9821893672e+01   3.2435858793e+01     9.716604      3.33115  78.62   0.02750858    4.188    0.761
        13 -14.6799      4.1960    239.5192   9.7543667124e+01   2.4919884607e+01    0.7381983    0.3265454  88.31   0.00331569    2.030    0.507
        14 -14.7019     11.7365    240.4039   9.6293424247e+01   2.4059807078e+01    0.9612711    0.3753771  48.92  0.003106336    1.692    0.409
        15 -16.1312      9.4085    228.8778   9.6321551835e+01   2.6275062544e+01     4.589862     1.619407  25.07    0.0192121    4.449    0.775
        16 -11.6715    110.9865    228.7863   7.7279448630e+01   1.4065753560e+01    0.5475513    0.2972691  48.20  0.003200043    1.513    0.339
        17  -9.7159    167.0242    225.5217   6.6334532218e+01   6.3010988528e+00    0.1677506    0.1534011  -0.80  0.000739001    1.217    0.178
        18 -10.3425     94.9437    219.7758   7.9499159717e+01   1.7840945658e+01    0.2005526    0.1769587 -85.84  0.000534087    1.272    0.214
        19  -8.8462    172.3002    220.2965   6.4647784438e+01   6.2318197940e+00    0.1166522    0.0816178  11.82  0.000264918    1.575    0.365
        20  -9.6111     76.3190    231.1046   8.4106284142e+01   1.8385970178e+01    0.2997075    0.1396781  34.30  0.001636394    1.988    0.497
        21  -8.8705    142.7145    217.9799   6.9912254056e+01   1.1091488884e+01    0.1535687    0.1464207  56.83 0.0007449985    1.188    0.158
        22  -8.9616    132.4682    213.0448   7.1283244244e+01   1.3454955336e+01     0.157361    0.1473128  66.77 0.0006212069    1.174    0.148
        23  -9.2828    131.4121    209.1946   7.0998420475e+01   1.4258960226e+01    0.2011735    0.1280948 -63.76  0.001130471    1.995    0.499
        24  -8.2276    168.0017    205.0097   6.3217633267e+01   9.1231955885e+00    0.1418088    0.1267693  21.22 0.0003145699    1.070    0.065
        25 -10.8804    102.1588    200.7444   7.5974520568e+01   2.0244820261e+01    0.4136171    0.3016337  67.64  0.002505808    1.376    0.273
        26 -10.5352     75.1566    199.5497   8.1581337017e+01   2.4325004837e+01     0.238277    0.1899867  85.09  0.001572718    1.208    0.172
        27 -11.1099    110.3727    198.1807   7.3924369198e+01   1.9478664305e+01    0.4160976    0.2737345   9.12  0.001979007    2.751    0.637
        28 -10.4481     82.9358    195.8778   7.9536089137e+01   2.3977152929e+01     0.334433    0.2457478 -72.30  0.001509116    1.443    0.307
        29 -10.2220    191.7165    192.6654   5.6755514450e+01   7.1212811997e+00    0.5561977    0.3152149 -63.20  0.001990496    5.541    0.820
        30 -11.4448    117.9197    195.3527   7.1955976737e+01   1.8826822860e+01    0.3619405    0.2727452  -7.83  0.001979434    2.082    0.520
        31 -10.9787    163.5173    192.8235   6.2182483660e+01   1.1774838655e+01    0.4789923    0.2399101 -55.93  0.002155858    2.868    0.651
        32  -8.8632    107.3188    194.6682   7.4131394518e+01   2.0611865836e+01    0.1342544   0.08750258  66.01 0.0007048225    1.692    0.409
        33 -10.3513     76.4300    183.3103   7.9601795689e+01   2.7452335402e+01    0.4404267    0.2454083  67.79  0.001642822    1.982    0.496
        34  -9.3568     80.3699    182.2041   7.8578409930e+01   2.7128947577e+01    0.2272569    0.1759982  88.71 0.0004397593    1.262    0.208
        35 -10.5253     99.0281    180.8878   7.4163667017e+01   2.4622795574e+01    0.2821259    0.2301122  53.11 0.0006662269    1.081    0.075
        36  -9.5529    179.9881    175.9911   5.6029849212e+01   1.1691510264e+01    0.1954613    0.1665784  81.56 0.0009900688    1.670    0.401
        37  -9.4253    199.8570    173.8369   5.1863807796e+01   8.5626990243e+00    0.1621606    0.1595901  82.71  0.000376591    1.343    0.255
        38 -10.5708    103.3689    171.3168   7.1813797781e+01   2.5925458660e+01    0.3933476    0.2091833  55.85  0.001779226    1.999    0.500
        39 -10.5338     54.8513    169.6484   8.3166903742e+01   3.3271985300e+01    0.3974398    0.2129583 -80.88  0.002013163    1.850    0.459
        40 -13.0591     60.7792    129.2514   7.6400161247e+01   4.2040711813e+01     2.050345     1.177651  86.38  0.008412678    2.133    0.531
        41 -11.4433     61.1207    165.5328   8.1201793194e+01   3.3399702831e+01    0.3733872    0.2984855  -2.01  0.002129126    1.948    0.487
        42 -11.7699     66.2202    161.2406   7.9431867354e+01   3.3698233173e+01    0.6067019    0.3979028  37.11  0.001568283    1.546    0.353
        43 -12.7824     63.1363    148.6850   7.8599852964e+01   3.7032295194e+01    0.7044836    0.5571383  40.83  0.001574709    1.319    0.242
        44  -8.8647     66.4892    168.9399   8.0289088301e+01   3.1925622802e+01     0.185317    0.1195088 -76.19 0.0005925289    1.512    0.338
        45  -8.8599    110.8333    167.7704   6.9522951739e+01   2.5442752896e+01    0.1923578    0.1495306  74.09 0.0005976994    1.378    0.274
        46 -10.7411    245.3414    158.9822   4.1277807535e+01   3.0916260456e+00    0.4025651    0.1438981 -38.29  0.001723614    2.775    0.640
        47 -10.7423    230.6512    165.9190   4.4980886593e+01   4.5241163347e+00    0.2279573    0.1588069  23.24 0.0007190845    1.379    0.275
        48 -10.7215     52.5265    158.8341   8.2582113319e+01   3.6016602855e+01     0.707334    0.2688957  54.94  0.002799759    2.793    0.642
        49 -10.4442    134.1922    147.4559   6.0365578733e+01   2.5525240851e+01    0.7399958    0.2321941 -55.60   0.00217261    4.350    0.770
        50 -10.7795     81.9948    149.0394   7.3699363199e+01   3.4248175605e+01    0.3292183    0.2944074  74.89 0.0004769827    1.015    0.015
        51 -11.2625     85.1286    145.8582   7.2370195403e+01   3.4505816761e+01    0.7241386    0.4095018 -86.97  0.002991732    2.473    0.596
        52 -10.6049     23.1114    147.3430   8.8987162881e+01   4.1878145852e+01    0.3557484    0.2379843  52.61 0.0008990404    1.383    0.277
        53 -13.2275     69.1690    144.5387   7.6407559542e+01   3.7188638771e+01     1.499563    0.7986676  68.76  0.005048725    2.422    0.587
        54  -9.1200     40.2795    145.6310   8.4300523192e+01   4.0546682349e+01    0.2465649    0.1395948 -88.77  0.000981829    1.686    0.407
        55  -9.8331     29.4731    142.6671   8.6884325806e+01   4.2380147880e+01    0.3183366    0.1955656  50.38  0.001010715    1.534    0.348
        56 -10.4909     98.9951    135.4597   6.6831864806e+01   3.4649183006e+01    0.5040052    0.3505366  -2.53  0.002097085    2.715    0.632
        57 -11.6257     85.7843    134.3767   7.0209501175e+01   3.7112005623e+01    0.2997694    0.2612566 -63.41 0.0004281594    1.142    0.124
        58 -10.3507     18.4942    134.2438   8.9086695570e+01   4.5408955656e+01    0.2645617    0.1911209 -64.70 0.0009477022    1.360    0.265
        59  -9.6493    105.2506    130.2607   6.4116290329e+01   3.4747486203e+01    0.3555734    0.2732905  59.82  0.001420286    1.337    0.252
        60  -9.3878    109.1705    127.7605   6.2540960869e+01   3.4604281964e+01    0.2749784    0.2168355 -43.73 0.0007431406    1.345    0.256
        61  -8.8544    136.0000    130.0024   5.6208313591e+01   2.8863232950e+01    0.2471717   0.08468239 -47.27 0.0008021462    2.940    0.660
        62  -9.5152     44.1478    129.1615   8.1219542479e+01   4.4114344383e+01     0.199741    0.1686791 -65.34 0.0005525715    1.196    0.164
        63 -12.9989      5.3158    178.4638   9.5168626269e+01   3.6470139465e+01    0.8032971    0.4488623  72.39  0.005013912    1.406    0.289
        64 -10.8386     96.0909    123.1934   6.5139596202e+01   3.8042131228e+01    0.3119223    0.2784086 -10.74 0.0006574307    1.406    0.289
        65  -9.1158     41.0622    124.0019   8.1425154259e+01   4.5733830381e+01    0.2173423      0.13696  67.41 0.0006288751    1.637    0.389
        66  -9.2591     32.4895    118.2154   8.3243649480e+01   4.8061945445e+01    0.2045301    0.1515376  70.70 0.0005027071    1.293    0.227
        67  -8.9917    106.2348    117.0026   6.0931917420e+01   3.7647231367e+01    0.1995475    0.1849258 -67.66 0.0002697092    1.041    0.039
        68 -15.5775      7.1755    207.7180   9.5989896713e+01   3.0388151267e+01     1.635156     1.305537  88.69    0.0113001    1.296    0.228
        69  -8.1781    183.5174    116.4788   4.2495260634e+01   2.1424083133e+01    0.1491633    0.1386906  -5.89  8.03223e-05    1.068    0.064
        70  -9.7930    205.4023    110.2558   3.6930586933e+01   1.7794487720e+01     0.286221    0.2455521  33.93 0.0009872775    1.228    0.186
        71 -10.2851     37.8342    108.1620   8.0095243696e+01   5.0035134909e+01    0.4819772    0.2599504  77.43  0.002109247    2.324    0.570
        72  -9.4504     33.6771    110.1407   8.1746163843e+01   4.9961473401e+01     0.374144    0.1659677 -74.81  0.001631711    2.041    0.510
        73  -9.3425    134.4841    105.4863   5.0540023463e+01   3.4446029004e+01    0.2990274    0.1406215 -54.81  0.001036433    2.522    0.603
        74  -9.4540     24.5441    104.3532   8.3910507268e+01   5.2254604539e+01    0.2935405    0.1725169 -57.75  0.001547884    1.540    0.351
        75 -13.1763     75.4567    154.1826   7.6156515195e+01   3.4027088161e+01     2.217866     1.263691  69.95  0.004264461    2.118    0.528
        76 -10.0185    129.9138    101.3517   5.0584727707e+01   3.6332531264e+01    0.3031567     0.245998   5.55  0.001086672    1.612    0.379
        77 -10.3022     53.5025     94.3260   7.2200906378e+01   5.1686781383e+01    0.3572351    0.2171449  84.38  0.001545363    2.258    0.557
        78 -10.0378     46.2825     91.1803   7.4074935147e+01   5.3357501976e+01    0.2709309    0.1581519  58.99  0.001230194    2.126    0.530
        79  -8.6271     72.4668     84.4529   6.3138967124e+01   5.1361234840e+01    0.1470392    0.1339752 -72.37 0.0001365242    1.067    0.063
        80  -9.4577    152.2743     72.8303   3.6749816083e+01   3.6813894522e+01    0.4819191    0.2589917 -70.98  0.001290182    4.965    0.799
        81 -11.4678      6.8291     65.1317   8.4505879201e+01   6.3194833336e+01    0.4932091    0.1557859 -48.36  0.002064394    2.748    0.636
        82 -11.2310     13.2782     60.2598   8.0700848510e+01   6.3978091703e+01     0.309332    0.2350274 -61.83  0.000601845    1.063    0.059
        83  -9.7359    112.0223    245.0145   7.8667243019e+01   1.1411844452e+01    0.1699865    0.1503008 -83.34 0.0006205757    1.386    0.279
        84  -8.9316     66.0291     59.9964   5.7898307855e+01   5.8032537626e+01    0.2141059    0.1730046  86.94 0.0004631272    1.623    0.384
        85 -13.1587     12.9247    218.2402   9.5305051991e+01   2.7866990698e+01    0.4889712    0.2147459  56.18  0.001224565    1.644    0.392
        86 -12.4467    198.1947     56.8831   2.3704667829e+01   2.7979760086e+01    0.8352814    0.6170778   6.65  0.001013769    1.798    0.444
        87  -8.5224     84.5380     50.0425   4.7287969010e+01   5.6737019436e+01    0.2134392    0.1375906 -41.90 0.0002884581    1.471    0.320
        88 -13.1364      1.8275    249.5014   9.8194215839e+01   2.3484517019e+01    0.2561054    0.1596354  86.14  0.001025224    1.468    0.319
        89 -14.0204     12.5099    248.7620   9.6425728441e+01   2.2598545724e+01     1.049941    0.1220085  36.82  0.003447506    3.992    0.750
        90  -8.3519     83.2855     61.6752   5.2126142040e+01   5.4622645555e+01    0.1459866     0.116191 -79.12 0.0004685993    1.603    0.376
        91  -8.4659    111.6422    239.2624   7.8194475380e+01   1.2329313699e+01    0.1178959   0.06770214  55.24 0.0003735002    1.627    0.385
        92  -9.2528     62.7704    235.3865   8.6954002684e+01   1.9353847991e+01    0.1773595    0.1194472  74.18 0.0006041453    1.371    0.271
        93  -9.1176     60.4958     21.0090   4.3219024154e+01   6.6439920901e+01    0.1937677    0.1723608  18.82 0.0003632352    1.116    0.104
        94  -9.3065    189.6647     14.9951   1.2283981077e+01   3.5504323010e+01    0.2020362    0.1737678 -44.43 0.0006849986    1.101    0.092
        95 -12.6633    129.0282    228.6076   7.3819973341e+01   1.1491452675e+01     1.145735    0.3931485  45.62  0.005216592    2.466    0.594
