#   1 NUMBER                 Running object number                                     
#   2 MAG_AUTO               Kron-like elliptical aperture magnitude                    [mag]
#   3 X_IMAGE                Object position along x                                    [pixel]
#   4 Y_IMAGE                Object position along y                                    [pixel]
#   5 X_WORLD                Barycenter position along world x axis                     [deg]
#   6 Y_WORLD                Barycenter position along world y axis                     [deg]
#   7 A_WORLD                Profile RMS along major axis (world units)                 [deg]
#   8 B_WORLD                Profile RMS along minor axis (world units)                 [deg]
#   9 THETA_WORLD            Position angle (CCW/world-x)                               [deg]
#  10 FWHM_WORLD             FWHM assuming a gaussian core                              [deg]
#  11 ELONGATION             A_IMAGE/B_IMAGE                                           
#  12 ELLIPTICITY            1 - B_IMAGE/A_IMAGE                                       
         1  -8.8712    238.0049    125.5256   8.9415458742e+01   7.7208799843e+00    0.2076989    0.1389258  49.91 0.0006250061    1.584    0.369
         2  -8.3478    202.6549    250.6805   1.1912746211e+02  -3.6010001956e+00    0.1187556   0.07317159  19.46 0.0007049369    1.727    0.421
         3  -9.4156    146.0889    249.9102   1.2885081494e+02   5.4777262165e+00    0.2959148    0.1162127  52.50  0.001390887    2.436    0.590
         4  -8.9643     89.8213    250.2686   1.3864827517e+02   1.3947723146e+01    0.2737549    0.1125009  45.22  0.001512602    1.836    0.455
         5  -9.5245     75.0191    250.5062   1.4116062389e+02   1.5953432653e+01    0.3802161   0.08314028  41.03  0.001572824    3.615    0.723
         6 -10.5019     65.4514    249.2005   1.4265803592e+02   1.7431514159e+01    0.4956749    0.1661813  45.48  0.002459469    2.177    0.541
         7  -8.9314     57.5349    247.5034   1.4385101680e+02   1.8724634075e+01    0.2264925    0.0827803  51.96 0.0009201745    1.982    0.495
         8 -10.4583     50.9283    249.9266   1.4507892291e+02   1.9145582276e+01    0.4425517    0.1564142  41.21  0.002429382    2.371    0.578
         9 -10.7299     12.7095    216.3707   1.4955786260e+02   2.9291963692e+01    0.6637711    0.1139835  51.87  0.002952985    3.617    0.724
        10 -11.0388      4.1596    214.4879   1.5090929046e+02   3.0456868241e+01     1.111539    0.2929771  65.40  0.004979197    3.658    0.727
        11 -10.3989     44.3868    236.9213   1.4536319933e+02   2.2135317228e+01    0.6045458    0.1177603  48.18   0.00271632    3.205    0.688
        12 -11.8876     21.6436    227.9527   1.4864262269e+02   2.6274852501e+01    0.8378268    0.3430657  40.03   0.00504931    2.233    0.552
        13 -10.7014     44.6157    244.8496   1.4580040326e+02   2.0752778900e+01    0.7525744    0.1668525  49.97  0.003579806    2.930    0.659
        14 -11.0682     34.2181    248.6083   1.4766975940e+02   2.1335167071e+01      0.62698      0.20892  48.45  0.003402203    2.075    0.518
        15 -11.5929      4.9008    228.8729   1.5139889140e+02   2.7793264947e+01    0.7712933    0.3208282  86.87  0.004851454    1.988    0.497
        16 -13.6916     10.1091    244.1465   1.5120090147e+02   2.4658370102e+01     1.828808     1.339167  48.73    0.0154486    1.488    0.328
        17 -10.3808    233.2593    244.8677   1.1314833286e+02  -7.6146085757e+00    0.3766681    0.1900116   2.04  0.001728601    3.592    0.722
        18  -8.6259    100.1882    247.3738   1.3661993502e+02   1.2913407443e+01     0.167821   0.07741469  50.50 0.0007136278    1.641    0.391
        19  -8.9232    218.4477    245.8764   1.1577070886e+02  -5.4947930946e+00    0.2220657    0.1188844  17.42  0.001180057    2.288    0.563
        20  -8.4202    210.8069    246.3969   1.1713994784e+02  -4.3767495379e+00     0.168876   0.08354669  32.97 0.0006748047    1.657    0.396
        21  -9.7777    135.1048    245.6443   1.3031168058e+02   7.8360380188e+00    0.1868469    0.1494768  80.22  0.001312456    1.411    0.291
        22 -10.6559    128.2353    248.9290   1.3187633394e+02   8.4276449132e+00    0.3650539      0.12756  42.53  0.001747169    2.209    0.547
        23  -9.1623    121.4925    248.4966   1.3301344956e+02   9.5354504562e+00    0.1180426   0.08738437  54.19 7.588545e-05    1.032    0.031
        24  -9.4721     82.8572    244.3615   1.3935675883e+02   1.5880645910e+01    0.3564046     0.116386  42.53  0.001740756    2.413    0.586
        25  -9.9674    115.0206    242.7118   1.3357062673e+02   1.1422907158e+01    0.1742319    0.1207127  51.66  0.001156318    1.099    0.090
        26 -10.1913    225.9927    241.0434   1.1378340803e+02  -6.1136769145e+00     0.270336    0.1722782   9.50  0.001687393    1.670    0.401
        27 -10.1189     53.6939    239.9017   1.4399303292e+02   2.0486481711e+01    0.3681391    0.1724679  60.76  0.001865434    1.695    0.410
        28  -9.3460    104.5563    241.6739   1.3532643452e+02   1.3177234779e+01    0.2066168   0.08547781  43.11   0.00106576    1.922    0.480
        29  -9.8318     72.2900    239.8361   1.4082011501e+02   1.8086189008e+01    0.4580665    0.1613637  44.78   0.00237735    2.162    0.538
        30  -9.4695    109.2295    239.3654   1.3426824312e+02   1.2843845901e+01    0.1775679   0.08155992  50.12  0.000949025    1.702    0.412
        31 -10.7726    115.6136    237.8926   1.3296929000e+02   1.2098743820e+01    0.4958787   0.09240294  45.29  0.001752694    3.897    0.743
        32  -9.4128     80.9494    236.1658   1.3901116156e+02   1.7521918629e+01    0.3980712    0.1320227  46.41  0.001950894    2.263    0.558
        33  -9.6981    231.0163    234.9739   1.1200588364e+02  -6.2095795020e+00    0.1946694    0.1165088  15.21  0.001144922    1.723    0.420
        34  -8.3743    142.3260    235.6443   1.2785422816e+02   8.1760164079e+00    0.1247011   0.08089672  66.63 0.0007045682    1.773    0.436
        35  -9.0574     93.2879    235.5755   1.3676207980e+02   1.5855526601e+01    0.2313679   0.08447669  45.79  0.001137455    2.101    0.524
        36  -9.9107    119.4640    233.6195   1.3181111853e+02   1.2187218620e+01    0.2966184    0.1471187  68.83  0.001314309    3.125    0.680
        37  -8.6377    135.1864    237.4081   1.2936551054e+02   9.0681506748e+00    0.1815521   0.08765971  50.50 0.0009500881    1.709    0.415
        38 -10.0748     62.1126    231.4050   1.4195014672e+02   2.0895028333e+01    0.5526411     0.193746  52.41  0.002824444    2.221    0.550
        39  -8.9884    110.5049    232.9706   1.3338393099e+02   1.3697464027e+01    0.2033265    0.1284004  48.17  0.001251736    1.255    0.203
        40  -8.3121    124.3058    232.6483   1.3081269143e+02   1.1573843320e+01    0.1248389   0.07867399  67.57  0.000704193    1.709    0.415
        41  -9.6324     47.6110    229.5986   1.4434721892e+02   2.3038159339e+01    0.3553602    0.1426439  57.27  0.001696158    1.991    0.498
        42  -8.3200     87.0025    231.0000   1.3747479797e+02   1.7553022038e+01    0.1920708   0.05432621  41.07 0.0008032071    2.948    0.661
        43  -9.7703     39.3108    229.0941   1.4573909734e+02   2.4113830207e+01    0.2900394    0.1191748  53.65  0.001189752    1.834    0.455
        44  -9.0814    235.9705    227.1993   1.0993185907e+02  -6.0977318633e+00     0.265798    0.1450063  -9.19  0.001395375    2.422    0.587
        45  -8.7982    113.5030    227.5199   1.3224417422e+02   1.4144645701e+01    0.1225395   0.09689493  56.36 0.0007147339    1.018    0.018
        46  -8.3363    108.3334    227.7018   1.3322779745e+02   1.4923962309e+01    0.1266655    0.0752985  64.66 0.0007031162    1.648    0.393
        47  -8.8116     94.1981    227.3654   1.3581490988e+02   1.7133810830e+01    0.1813544    0.0833777  50.38 0.0007736486    1.734    0.423
        48  -8.5127    224.1632    224.7998   1.1155516303e+02  -3.9570132865e+00    0.1717999    0.1178635  17.99  0.001067098    1.339    0.253
        49 -11.2018     21.3547    243.1550   1.4942349839e+02   2.3663039660e+01    0.5656979    0.2986321  80.03  0.004027918    1.507    0.336
        50  -9.2224     83.3149    222.6209   1.3737621286e+02   1.9569853185e+01     0.250505    0.1340756  38.17   0.00138922    1.869    0.465
        51  -9.5528     29.4079    221.2932   1.4696887333e+02   2.6647770610e+01    0.2165127   0.08391864  57.99  0.001210726    2.034    0.508
        52  -9.9750     73.9671    222.2422   1.3907268241e+02   2.0954732599e+01    0.3945829   0.05033631  42.67  0.001325768    4.733    0.789
        53  -9.5063     53.9137    221.6833   1.4267928060e+02   2.3698400613e+01    0.3377023       0.1256  46.63  0.001784492    2.097    0.523
        54  -9.8083     44.6415    220.0475   1.4422062781e+02   2.5135144161e+01    0.2622312     0.104115  52.81  0.001439888    1.967    0.492
        55  -9.3018    240.7378    218.5579   1.0769453204e+02  -5.8453705608e+00    0.2395151    0.1307929 -14.73  0.001285712    2.163    0.538
        56  -8.3792    111.0051    218.4988   1.3170126517e+02   1.6107613484e+01    0.1665097    0.1045356  23.14 0.0007515209    2.611    0.617
        57  -9.8549    248.3816    216.3877   1.0604954910e+02  -6.7783222518e+00    0.2582203    0.1860092  11.63  0.001709655    1.181    0.153
        58 -10.6582     34.2628    215.7544   1.4578127617e+02   2.7138547687e+01    0.3269166    0.2335241  36.57  0.002318183    1.717    0.417
        59  -9.5632     24.0710    216.4884   1.4761542135e+02   2.8111314083e+01    0.2392445    0.1178122  62.27   0.00119813    1.574    0.365
        60  -9.5609     19.2726    215.5622   1.4839436268e+02   2.8783064768e+01    0.2534802    0.0698294  47.94  0.001221587    2.578    0.612
        61  -9.4530     28.1784    213.8809   1.4674300175e+02   2.8161212534e+01    0.2202674    0.1049882  56.01 0.0009094528    1.637    0.389
        62 -10.4277     21.9832    210.5468   1.4764141924e+02   2.9447250318e+01    0.3578953    0.1254354  46.80  0.001991251    2.216    0.549
        63  -8.6213     44.2329    212.4091   1.4375394667e+02   2.6620544460e+01    0.1610393   0.07821831  52.26 0.0007813852    1.650    0.394
        64  -9.6748      6.4823    204.8702   1.5006335007e+02   3.2045201788e+01    0.2294444    0.1329211  78.72 0.0009551136    1.278    0.217
        65  -9.2251     12.9739    211.4429   1.4926524676e+02   3.0184371660e+01    0.2050059    0.1061605  57.69 0.0006276811    1.481    0.325
        66  -9.1709      8.9430    209.9222   1.4988440587e+02   3.0858501476e+01    0.2405731   0.09658235  58.94   0.00107834    1.923    0.480
        67  -8.7513    168.6551    249.8001   1.2488455205e+02   1.8890694333e+00    0.2280031    0.0722544  40.61  0.001007517    2.463    0.594
        68  -8.8487     96.9814    210.5057   1.3351910020e+02   1.9769501037e+01     0.193728    0.1054211  43.63  0.001037163    1.605    0.377
        69  -8.7239     35.5847    207.8973   1.4502219745e+02   2.8486729063e+01     0.237614   0.09665114  54.68  0.001299155    1.995    0.499
        70  -8.1125    116.6603    206.3253   1.2910816892e+02   1.7394236446e+01    0.1365042   0.08597079  68.45 0.0007051316    1.728    0.421
        71  -8.6317     17.8907    206.1605   1.4811755630e+02   3.0701145438e+01    0.1765914    0.1029508  68.38  0.001153361    1.303    0.233
        72  -9.5692     12.4920    203.8487   1.4895160760e+02   3.1674745535e+01    0.2781236    0.1323415  64.86  0.001211677    1.666    0.400
        73  -8.7720      1.4923    204.9756   1.5093444997e+02   3.2477912377e+01     0.154432   0.07806189 -87.14 0.0007562065    1.557    0.358
        74  -8.7901     87.3201    204.3190   1.3474709176e+02   2.2416158620e+01    0.1077274   0.09989954 -12.84 0.0003392157    1.664    0.399
        75  -8.7577     40.3267    204.6706   1.4391223982e+02   2.8573562208e+01    0.1246107   0.06366186  67.32 0.0007050807    1.705    0.414
        76  -8.1915    111.6699    202.3248   1.2960056388e+02   1.8970902582e+01    0.1366797   0.08639652  69.14 0.0006901931    1.702    0.413
        77  -8.5206    235.6751    201.6656   1.0560009957e+02  -2.9622659201e+00    0.1321549   0.08376619  11.34 0.0007051154    1.713    0.416
        78  -8.7437    153.3014    249.5631   1.2754529926e+02   4.3778069534e+00    0.2326591   0.08605666  46.21  0.001037457    2.092    0.522
        79  -8.0190    105.3262    198.3360   1.3038600705e+02   2.0775763667e+01    0.1175588    0.1036609  -4.81  0.000705158    1.721    0.419
        80  -9.4414      3.5209    196.5127   1.5017312575e+02   3.3922150780e+01     0.253559   0.09324074  65.83  0.001162441    2.333    0.571
        81  -8.6016     19.2023    194.3898   1.4717559089e+02   3.2872331701e+01      0.15282   0.07669682  51.80  0.000863089    1.670    0.401
        82  -9.1701     90.7797    195.6090   1.3304915324e+02   2.3609561953e+01    0.1925298   0.09854231  50.50 0.0009669528    1.699    0.411
        83  -9.2045    115.2094    192.6451   1.2757053740e+02   2.0244926526e+01    0.3487332    0.1259896  50.68  0.001358147    2.655    0.623
        84  -8.4820     39.2896    193.6360   1.4326759463e+02   3.0890904068e+01    0.1258484    0.0666605  70.72 0.0007025402    1.700    0.412
        85  -8.4547    113.9969    181.9927   1.2628840162e+02   2.2581141814e+01    0.2264027    0.1501581  72.47  0.001138385    1.706    0.414
        86  -8.0955     91.4968    180.4558   1.3098405204e+02   2.6607661153e+01    0.1328732    0.1118867  71.81 0.0003757004    1.011    0.011
        87  -9.8723    100.9799    175.9716   1.2826362584e+02   2.6030197069e+01    0.1945367     0.164739  72.03  0.001165804    1.042    0.040
