#   1 NUMBER                 Running object number                                     
#   2 MAG_AUTO               Kron-like elliptical aperture magnitude                    [mag]
#   3 X_IMAGE                Object position along x                                    [pixel]
#   4 Y_IMAGE                Object position along y                                    [pixel]
#   5 X_WORLD                Barycenter position along world x axis                     [deg]
#   6 Y_WORLD                Barycenter position along world y axis                     [deg]
#   7 A_WORLD                Profile RMS along major axis (world units)                 [deg]
#   8 B_WORLD                Profile RMS along minor axis (world units)                 [deg]
#   9 THETA_WORLD            Position angle (CCW/world-x)                               [deg]
#  10 FWHM_WORLD             FWHM assuming a gaussian core                              [deg]
#  11 ELONGATION             A_IMAGE/B_IMAGE                                           
#  12 ELLIPTICITY            1 - B_IMAGE/A_IMAGE                                       
         1 -10.5476     54.7276     18.1628   1.0203118894e+02   6.4790766918e+01     0.490451    0.2795601  -7.68  0.001901262    2.136    0.532
         2 -11.8816     58.4031     70.0948   1.1937451735e+02   5.4942194136e+01     1.725314    0.7708781 -62.20   0.00623018    2.970    0.663
         3 -12.0612     53.3443     32.8961   1.0877680111e+02   6.2671989017e+01    0.9732367     0.733057 -49.10   0.00481276    1.539    0.350
         4 -10.5108    167.4194     26.4476   7.5514674930e+01   3.9845005338e+01     1.067461    0.6870747  15.91  0.004801545    2.004    0.501
         5 -12.3655     86.7896     52.3303   1.0430341356e+02   5.4172431462e+01     1.817424    0.6322606 -36.31  0.005063552    2.830    0.647
         6 -12.2906    135.0523      5.2029   7.3932711625e+01   5.0091333749e+01     1.515475    0.6788624  68.49  0.006234023    2.366    0.577
         7 -10.5932    125.2989     33.4738   8.6490544846e+01   4.9272976470e+01     1.079409    0.3387751 -22.88  0.003199356    4.295    0.767
         8 -11.8879    147.6444     21.3110   7.7323899341e+01   4.5398873573e+01     1.795277    0.9980699  -2.00   0.00745642    2.412    0.585
         9 -12.1850    163.7926      9.6260   7.0660976238e+01   4.2534867535e+01     1.330511    0.9740244  -1.98  0.007024499    1.551    0.355
        10 -12.5553     71.1684     31.2449   1.0154291158e+02   6.0318774123e+01     2.190969    0.8617845  41.07  0.009386123    2.671    0.626
        11 -12.0762     70.2388     19.9958   9.7108399729e+01   6.2119254729e+01     1.431586     0.545325  35.51  0.005946133    2.833    0.647
        12 -11.9616     87.9484     26.5319   9.4043020531e+01   5.8068053506e+01     1.593831    0.5289803 -34.21  0.001575673    2.849    0.649
        13 -11.9652    111.8619     22.4036   8.5609643402e+01   5.3700219415e+01     1.167666    0.6355256  58.56   0.00531157    1.985    0.496
        14 -12.0426    130.3946     20.0189   8.0345160402e+01   4.9732744171e+01     1.177322    0.5227293  55.30  0.004916083    2.055    0.513
        15 -11.0921    117.1653     15.7339   8.1685981637e+01   5.3276180071e+01    0.3408709     0.329726 -11.33 0.0004425186    1.166    0.142
        16 -11.5815    113.4908      9.0252   7.9876621591e+01   5.4797020168e+01     1.348632    0.6673957  41.34  0.006180174    1.854    0.461
        17 -11.7759    127.1374     15.2731   7.9269277385e+01   5.1016152641e+01     1.287546    0.2914905  45.40  0.003877566    4.047    0.753
        18 -10.7803    123.6366     10.1498   7.8064224806e+01   5.2355644047e+01    0.3509861    0.3225119  68.12  0.001105366    1.215    0.177
        19 -13.0873     99.7999      5.9499   8.1940780260e+01   5.8097305429e+01    0.8125785    0.4109302 -29.95  0.000357258    2.032    0.508
        20 -11.7444     93.1758      8.7219   8.4909288950e+01   5.9200668049e+01    0.4533584    0.4135373 -16.01 0.0008329097    1.226    0.184
        21  -9.7325     26.5968      4.7686   1.0782643559e+02   7.0248558273e+01    0.6796962    0.4246912   3.32  0.004294206    1.608    0.378
        22 -11.7267     77.9502      7.4868   8.8876260899e+01   6.2302137147e+01    0.6339937    0.3850679  -5.94  0.001427525    1.672    0.402
        23 -11.6112     28.8190     25.9366   1.1611191160e+02   6.6664595978e+01     1.943811    0.6154668 -35.47  0.007937174    3.140    0.682
        24 -12.1652     18.7810     13.6755   1.1567793633e+02   6.9645120063e+01    0.6210483    0.4269294 -29.96  0.004284417    1.095    0.087
        25 -12.1807      9.7956     26.6268   1.2482411015e+02   6.8074689667e+01     1.029713    0.4440341  12.69  0.005506521    2.909    0.656
        26 -12.5448     50.3825     11.0505   1.0046724767e+02   6.6404614950e+01    0.4018028    0.3221043  29.97 0.0003790763    1.392    0.282
        27 -11.3951     67.9139      5.2598   9.1141173689e+01   6.4347866570e+01    0.7593209    0.3791287  27.18  0.003328594    2.130    0.531
        28 -12.3847     57.4789      4.1089   9.4330577679e+01   6.6209170746e+01     1.126204    0.4212414  48.86   0.00489621    3.218    0.689
        29 -11.1854      2.9438     18.7919   1.2529825486e+02   6.9916853458e+01    0.3762542     0.161852 -44.90  0.001179192    1.634    0.388
        30 -13.3020      5.6384      8.8988   1.2013418226e+02   7.1450190751e+01     1.132457    0.7049797 -39.66  0.007846172    1.202    0.168
        31 -11.4828     40.8909     21.0536   1.0892598701e+02   6.6175800979e+01    0.3309571    0.2013582 -32.16  0.001365915    1.361    0.265
        32 -11.5049     41.6965     14.6045   1.0572298436e+02   6.7064837143e+01    0.6307924    0.5125027  48.41  0.004126888    1.907    0.475
        33 -11.8233    184.7936     26.2432   7.2718451574e+01   3.5441051366e+01    0.6827232    0.4353299  11.78  0.001080996    2.148    0.534
        34 -10.0729    243.1495     12.6078   6.2421989099e+01   2.2680831761e+01    0.3760024    0.2717829 -29.94  0.001328358    1.377    0.274
        35 -10.8455    247.7632      6.1848   6.0540789448e+01   2.2305779439e+01    0.5171463    0.3828783 -70.86  0.002816035    1.269    0.212
        36  -9.2546    226.7241      9.1558   6.3051974893e+01   2.6863118299e+01    0.3074564    0.2249964 -65.74  0.001608403    1.340    0.254
        37 -12.1756    223.3342      2.0251   6.1572889608e+01   2.8371572694e+01    0.4550936    0.2637086  72.47  0.002357081    1.629    0.386
        38 -10.8260    243.3593     19.4595   6.4037740395e+01   2.1892562140e+01    0.7078629    0.3364368  78.91  0.003200557    2.334    0.572
        39 -10.4845    234.4911     12.4971   6.3163624600e+01   2.4688047164e+01    0.8095751    0.3430755 -65.29  0.002663893    3.411    0.707
        40  -9.1979    221.9749     11.2949   6.4048509997e+01   2.7781830956e+01     0.382743    0.1981722 -49.25  0.001645606    1.925    0.480
        41  -9.7044    212.3025     14.1771   6.5801357922e+01   2.9839900616e+01    0.3958705    0.1903748 -28.33  0.001778942    2.064    0.516
        42  -9.7672    217.3756     14.3705   6.5312210528e+01   2.8577359126e+01     0.372111    0.2871626  -0.46  0.001223892    1.586    0.370
        43 -10.5380    202.1287     19.2852   6.8369879780e+01   3.1826945148e+01    0.5139452    0.3546579  41.14  0.001783509    1.586    0.369
        44 -10.6001     92.8231     15.9702   8.8137224557e+01   5.8469318222e+01    0.3126735     0.211102 -21.51 0.0002890593    1.430    0.301
        45  -9.9668    185.6086     14.3572   6.9049920525e+01   3.6519909162e+01    0.4163443    0.2452464  62.33  0.001666812    1.562    0.360
        46  -9.8467     31.3583     11.4386   1.0880583794e+02   6.8753624783e+01    0.2933084    0.1919883 -17.72  0.001871195    1.301    0.232
        47  -9.0373    180.5345      7.4302   6.7640940832e+01   3.8485448277e+01    0.3669353    0.1678865 -29.28  0.001590978    2.202    0.546
        48 -10.9423    173.5558      8.5310   6.8907257506e+01   4.0157252671e+01    0.3601117    0.2392608 -28.27 0.0003320724    1.580    0.367
        49 -10.1090    175.2344      4.4291   6.7416336744e+01   4.0105855453e+01    0.5406763     0.343644 -73.41  0.002586757    1.919    0.479
        50 -10.2278    190.7743      7.9386   6.6519510124e+01   3.5841564460e+01    0.5312636    0.1973789  53.06  0.001192641    2.475    0.596
        51  -9.8902    196.8664      3.6191   6.4596228835e+01   3.4712281131e+01     0.757066    0.2644832 -36.93  0.003014434    2.699    0.629
        52 -11.5250    204.2312      6.6278   6.4631998802e+01   3.2592007162e+01    0.5232077    0.4011765  41.32 0.0005554463    1.425    0.298
        53 -11.5246    209.0152      3.5195   6.3302168311e+01   3.1703698599e+01    0.5978369    0.3331379  87.91  0.001247905    1.922    0.480
        54  -9.5049    157.7913      7.3883   7.0844009545e+01   4.4259775931e+01    0.2761935    0.2025099 -69.21 0.0009889031    1.647    0.393
        55  -9.5024    230.3590      2.6381   6.1116694072e+01   2.6649527950e+01    0.3472975    0.1820796  36.73  0.001538528    2.790    0.642
        56  -7.9926    189.3775      1.2759   6.4763507310e+01   3.6804455420e+01    0.1444172   0.08903594  43.90 0.0004593723    1.700    0.412
        57  -8.9394    149.8408      1.2941   7.0028215073e+01   4.6783110654e+01    0.1927718    0.1034801  56.93 0.0003383132    1.611    0.379
        58  -8.7229    146.0168      1.3567   7.0658284621e+01   4.7728675901e+01    0.1928758    0.1189979  64.39            0    1.487    0.328
        59  -8.4797    110.4198      1.3824   7.7470031684e+01   5.6188064427e+01    0.1307283    0.1141514  33.03 7.274339e-05    1.035    0.034
        60 -10.5896     27.3483    102.0646   1.3607169567e+02   5.1101245026e+01    0.8555822    0.3782769  38.31  0.004368893    2.583    0.613
        61  -8.8045    173.5105    250.4811   1.2546304467e+02   1.9256982038e+00    0.1150864   0.08762772  36.28 0.0001727638    1.024    0.024
        62  -8.8401    125.1671    249.8379   1.3363178620e+02   9.3291454638e+00     0.145496    0.1184348  32.74  0.001075231    1.333    0.250
        63 -12.0550     28.3870     84.3186   1.3260893766e+02   5.4949855361e+01    0.9447379    0.6333624 -37.55   0.00455995    1.512    0.339
        64 -10.7230      3.7507    100.1217   1.4241610863e+02   5.3180343056e+01    0.4827329    0.2689428 -72.44  0.001343843    1.376    0.273
        65 -11.2057      3.2307     89.3305   1.4113023287e+02   5.5560217764e+01    0.6174465    0.3516977 -65.39  0.003567395    1.304    0.233
        66 -12.4437      5.5558    115.0782   1.4369866287e+02   4.9806359034e+01     1.165836    0.2122419 -57.51  0.004664267    3.563    0.719
        67 -11.8652     17.3663    102.5620   1.3896626417e+02   5.1760675187e+01    0.9012982    0.4985568  76.31  0.004723458    2.362    0.577
        68 -11.7241     13.3209     88.9457   1.3807498824e+02   5.5039248147e+01    0.3931109    0.2639873 -66.05 0.0007973748    1.155    0.135
        69 -10.3016      9.7294     85.2454   1.3857278504e+02   5.6074017761e+01    0.2349076    0.1668275 -55.08 0.0006457645    1.166    0.142
        70  -9.8728    106.7392    119.5771   1.1757881375e+02   3.6902580915e+01    0.2741671    0.2272091  47.54   0.00148806    1.253    0.202
        71 -10.1502     40.4707    116.7296   1.3477495790e+02   4.6623567585e+01    0.4361845    0.2273939  76.58  0.001868503    3.147    0.682
        72  -8.5989     51.2964    117.3044   1.3195603271e+02   4.5358935583e+01    0.1258966   0.08842687 -39.81 0.0002386169    1.583    0.368
        73  -9.7627     12.7701    117.0625   1.4208820588e+02   4.8886944682e+01    0.2238928    0.1658303  37.87  0.001012473    1.615    0.381
        74  -9.7362     97.6461    114.7301   1.1888048876e+02   3.9518715094e+01    0.2974842    0.2851702  16.68  0.000864708    1.134    0.118
        75  -8.7764     27.8451    115.8793   1.3801300993e+02   4.7975099159e+01    0.1752292     0.128213 -59.38 0.0002775062    1.198    0.165
        76 -10.2386    132.4738    109.8443   1.0864800328e+02   3.4087584667e+01    0.9911541    0.4364258 -38.26  0.003632522    2.421    0.587
        77 -11.3254     21.9137     96.4158   1.3672903906e+02   5.2787210890e+01     0.489932     0.337049 -49.53  0.001852709    1.323    0.244
        78  -9.7221     81.3092    102.2068   1.2051363737e+02   4.4867832814e+01     0.492799    0.1887999  34.54  0.001891105    2.976    0.664
        79 -10.4736     88.3276     99.1897   1.1778336854e+02   4.4450921340e+01    0.6878258    0.4640734  -5.88  0.003062248    2.405    0.584
        80 -10.8407     89.0467     89.4464   1.1507078111e+02   4.6441478237e+01    0.5947801    0.4656922 -23.83   0.00297055    1.389    0.280
        81  -9.8540     82.5336     90.4584   1.1726156693e+02   4.7253579306e+01    0.2745931    0.2660016  28.52 0.0009294075    1.132    0.116
        82 -10.9480     67.3101    107.9399   1.2576000140e+02   4.5542922669e+01    0.9678548     0.581722 -22.28  0.004208141    2.831    0.647
        83 -10.1737     73.9072    108.2109   1.2395786857e+02   4.4594596015e+01    0.3449515    0.3045346 -38.13  0.001004859    1.163    0.140
        84  -9.6771    105.3836    109.4831   1.1558058601e+02   3.9340337167e+01    0.3171586     0.272793 -63.00  0.001192545    1.181    0.154
        85  -9.3328     34.5394    109.6518   1.3526906655e+02   4.8778168691e+01    0.2526812    0.1782926 -52.45  0.001563219    1.294    0.227
        86  -9.2600    120.5306    109.0164   1.1147420431e+02   3.6635766775e+01    0.2234962    0.2035612  41.95 0.0006280003    1.130    0.115
        87  -8.8353     38.7699    107.2102   1.3368874950e+02   4.8930233599e+01    0.1798572    0.1179131 -49.64 0.0008867466    1.408    0.290
        88 -10.5486     55.7359    101.7751   1.2781330593e+02   4.8355954056e+01    0.3334601    0.2169659 -41.41 0.0006784959    1.550    0.355
        89  -8.5965     97.5804    104.0335   1.1637662564e+02   4.1875589009e+01    0.3035001    0.1745816  58.50   0.00125905    2.433    0.589
        90  -9.0215     92.6934    111.5146   1.1948705564e+02   4.1039765211e+01    0.2815028    0.2160077  29.40  0.001496699    1.466    0.318
        91  -9.9461    114.5105    100.4608   1.1085536108e+02   3.9596694230e+01    0.4712836    0.2587772 -57.73  0.001902643    2.180    0.541
        92 -10.4540    117.4913     98.0242   1.0941112542e+02   3.9533397268e+01    0.5885447    0.4058138  66.97  0.001792313    2.022    0.505
        93  -9.4072    159.4510     96.8801   9.8723862497e+01   3.0789202026e+01    0.3097869    0.2259373  40.46  0.001237415    1.386    0.278
        94  -9.3925    187.9696     93.5126   9.1751858049e+01   2.4727760533e+01    0.3064997    0.2548743 -77.89  0.001188647    1.523    0.344
        95  -8.4654    206.4996     92.0085   8.7869592585e+01   2.0614560942e+01    0.2234009    0.1151428 -52.33 0.0008105881    2.585    0.613
        96 -11.1779    122.7277     54.3528   9.4581822300e+01   4.6725414092e+01    0.9505549    0.6743916   7.22  0.004440974    1.731    0.422
        97  -9.9158    114.4082     51.7104   9.5891857256e+01   4.8948562971e+01    0.5944818    0.3304775 -27.39  0.002581423    1.858    0.462
        98 -10.1130     89.4586     78.1229   1.1177852760e+02   4.8746090080e+01    0.5742084     0.253294  35.53  0.002302562    2.552    0.608
        99 -11.4822    124.7874     66.9230   9.8231305025e+01   4.4112332822e+01     1.381925    0.6362063 -35.27  0.005363881    2.150    0.535
       100  -9.4716    129.6997     46.6971   9.0157627779e+01   4.6375685094e+01    0.3450077    0.2504027 -14.42  0.001073858    1.460    0.315
       101 -10.9810    141.3996     40.4850   8.5264666462e+01   4.4531523090e+01     0.734532    0.6501405  81.05  0.003092695    1.320    0.242
       102 -10.4136    148.0086     35.1521   8.2021857340e+01   4.3642473184e+01    0.9887843    0.1755549  54.71  0.002712801    4.356    0.770
       103 -10.2729    102.2382     70.4106   1.0561961312e+02   4.8018505994e+01    0.5496451    0.3247583 -53.50  0.001615737    1.975    0.494
       104 -11.9104    112.4220     65.6781   1.0118085763e+02   4.6924252788e+01     1.375348     1.049921  -2.19  0.006850751    1.514    0.339
       105 -11.0932    118.0881     86.4819   1.0602743741e+02   4.1777411567e+01    0.7495843    0.6019036  77.61   0.00315248    1.671    0.402
       106 -10.6602    130.6055     40.1601   8.7633526915e+01   4.7127024514e+01    0.5472111    0.3719542 -14.00  0.001511671    1.595    0.373
       107 -10.6571    135.0868     34.1824   8.4464199609e+01   4.6893719754e+01    0.3610428    0.2452613  48.44 0.0004275148    1.395    0.283
       108 -10.4744    112.8505     83.1565   1.0648766175e+02   4.3479122753e+01    0.3866664     0.340066  74.38 0.0009014025    1.385    0.278
       109 -11.3465    105.3638     87.1058   1.0972057403e+02   4.4098644463e+01    0.7464779    0.7133216  64.61  0.003863811    1.169    0.144
       110 -11.6950    100.3447     78.9638   1.0879556453e+02   4.6678734655e+01     1.018975    0.7876559  72.86   0.00505082    1.840    0.457
       111  -9.3119     74.5268     89.1603   1.1932926907e+02   4.8721403006e+01     0.252078    0.2356079  47.47   0.00153978    1.207    0.171
       112  -9.6703    152.8488     87.1840   9.7496379090e+01   3.4117182959e+01    0.3147999    0.2390697  40.79 0.0009841938    1.327    0.246
       113  -9.5955     17.6914    249.5348   1.5074363601e+02   2.2769911242e+01     0.162372   0.08010679  38.75  0.001053632    2.046    0.511
       114  -9.9944     25.4471     66.7701   1.2983974786e+02   5.8977041473e+01      0.41247    0.1797592 -40.34  0.002023137    2.170    0.539
       115 -10.8497     57.4451     48.6371   1.1303435486e+02   5.9326160144e+01     1.801438    0.7083441  32.42  0.007772933    2.884    0.653
       116  -8.7142     25.7653    248.6481   1.4951481689e+02   2.2093672090e+01    0.1347501   0.06238311  50.71 0.0006551734    1.602    0.376
       117 -10.7352     32.0085     70.7602   1.2850832165e+02   5.7585230262e+01    0.6665947    0.3343042 -54.46  0.003545727    1.567    0.362
       118 -11.2358     48.8440     25.4929   1.0754066324e+02   6.4478629443e+01    0.4098746    0.2029895  32.29   0.00145414    2.180    0.541
       119 -11.0608     68.6691     75.8165   1.1760749995e+02   5.2397136740e+01    0.6958988    0.3761963 -45.30  0.002540706    1.624    0.384
       120 -11.1355     77.6929     75.2147   1.1456418754e+02   5.1217576045e+01    0.8579482    0.4913787  39.90  0.004137741    1.933    0.483
       121 -10.8392     44.2434     38.5480   1.1446389276e+02   6.2804881816e+01    0.6961634     0.409245  -6.36  0.003508799    2.297    0.565
       122  -9.8510    141.9194    243.6991   1.3008786754e+02   7.6913703427e+00    0.2258442     0.158204  26.49 0.0007604503    1.590    0.371
       123 -11.3515     46.3006     69.4160   1.2328591295e+02   5.6485726262e+01      2.54759     0.697613  44.23  0.007524961    6.944    0.856
       124 -11.5379     40.7236     63.3752   1.2360631610e+02   5.8327071345e+01    0.5922134    0.3704848 -13.94  0.002542147    2.081    0.519
       125 -10.6868     30.8463     43.0792   1.2132449781e+02   6.3334663892e+01    0.4325284    0.3608852 -72.14  0.001957607    1.569    0.363
       126 -11.3456     40.8800     49.8143   1.1957509473e+02   6.1046984372e+01     0.644653    0.3689985  12.82  0.002839744    2.233    0.552
       127 -11.3197     38.6196     44.7968   1.1882451335e+02   6.2251005472e+01     0.417493    0.3335913 -77.18   0.00194401    1.833    0.455
       128  -9.5633    217.3648     80.3512   8.2936460911e+01   1.9917031739e+01     0.632312    0.2858801 -11.36  0.001503957    6.766    0.852
       129  -9.4218    160.4554     82.2705   9.4336193334e+01   3.3237954451e+01     0.320347    0.2690649 -65.19  0.001580499    1.412    0.292
       130 -10.4078    134.2688     80.4526   1.0000910179e+02   3.9557124961e+01    0.6617044    0.3140841 -37.19  0.002552774    2.083    0.520
       131  -9.7627     17.4161     82.4730   1.3572021303e+02   5.6181125208e+01    0.2647629    0.1536056   6.35  0.001513066    2.409    0.585
       132  -9.3505    123.2921     81.2368   1.0308775108e+02   4.1751746359e+01    0.3377032    0.2299109  24.35   0.00151364    1.778    0.438
       133 -10.2259    143.1100     77.2338   9.6850411392e+01   3.8176941664e+01    0.4858193    0.3091596  15.52  0.001894879    2.401    0.584
       134  -9.9276    149.9842     75.8446   9.4799512393e+01   3.6841352713e+01    0.6028249    0.3916055  -4.64  0.002405568    2.269    0.559
       135  -8.9052     13.4801     77.4526   1.3606735337e+02   5.7533370787e+01    0.2236514   0.09950221 -78.09  0.001029092    2.596    0.615
       136  -8.7440    194.4228     89.7834   8.9491115400e+01   2.3831835153e+01    0.2193963    0.1445074 -18.89 0.0009483191    1.709    0.415
       137 -10.0806    138.5505     74.7138   9.7190143832e+01   3.9667935049e+01    0.3624203    0.2592788 -33.91   0.00082787    1.376    0.273
       138  -9.7196    132.2851     68.2506   9.6724828092e+01   4.2232005752e+01    0.4594729    0.2788602  62.26  0.001633528    2.117    0.528
       139  -9.4443    143.8542     70.8590   9.4707556127e+01   3.9145196179e+01    0.3397043    0.2403555 -45.11  0.001069573    1.479    0.324
       140 -10.4095    139.5390     67.9707   9.4837209800e+01   4.0642979642e+01     0.510045    0.3983859   6.99  0.001993674    1.477    0.323
       141  -9.9109     36.8238     75.5956   1.2801365987e+02   5.6113657749e+01    0.2319266    0.1874672 -44.61 0.0005654832    1.084    0.077
       142  -8.1995     24.3883     75.2716   1.3207243046e+02   5.7238933120e+01    0.1247254   0.07496247 -35.17 0.0006991743    1.716    0.417
       143  -9.5994     18.3676     74.2271   1.3385464685e+02   5.7904629650e+01    0.2760304    0.2094248 -82.20  0.001488112    1.393    0.282
       144  -9.5189     21.2824     72.2109   1.3246904076e+02   5.8131044749e+01    0.2154496    0.1867901  69.41  0.001515205    1.430    0.301
       145  -9.8676      4.8077     70.6468   1.3767867467e+02   5.9503496613e+01     0.405398    0.3095011  82.43  0.001877653    1.522    0.343
       146 -11.9404     15.9356     61.6869   1.3203506497e+02   6.0737654932e+01    0.7036405    0.3933949   1.37  0.003746606    2.434    0.589
       147 -11.1702     13.8170     56.7892   1.3167793671e+02   6.1896220617e+01    0.2756916    0.2139106  25.19  0.001936918    1.622    0.383
       148  -9.4503    215.0592     71.4750   8.0944034385e+01   2.1808317923e+01    0.3319205    0.2039686 -24.97  0.001249744    1.658    0.397
       149  -8.9108    155.3585     70.7519   9.2017791267e+01   3.6459893716e+01    0.3006109    0.2050113 -31.61 0.0007855844    1.462    0.316
       150 -10.2560    151.8339     66.8646   9.1605153611e+01   3.7958089780e+01    0.7406969    0.2627837  50.47  0.002491459    2.735    0.634
       151 -10.4588    250.2244     67.5321   7.4970516054e+01   1.4337372912e+01    0.6076772    0.1993451 -25.03  0.001996418    3.583    0.721
       152 -11.5030    164.8302     62.5909   8.7464360228e+01   3.5508716122e+01    0.7401854    0.6156062  -0.24  0.002912472    1.306    0.234
       153 -10.5706    164.7541     56.4375   8.5567028676e+01   3.6484978264e+01    0.5268552    0.4528693  31.09  0.001906964    1.174    0.148
       154 -11.1302     96.8285     62.3015   1.0460060920e+02   5.0559428720e+01    0.9859141    0.5412754 -20.93  0.003903103    2.557    0.609
       155 -10.6190    104.1545     54.2028   9.9664067519e+01   5.0619669168e+01    0.3429618    0.2725009  -8.72 0.0003787079    1.288    0.224
       156  -9.9351    108.1458     53.0000   9.8093640133e+01   5.0027805982e+01    0.2812407    0.2064674  46.55 0.0007033873    1.429    0.300
       157 -11.0995     34.8608     58.2109   1.2429871644e+02   5.9957791499e+01    0.7218736    0.4464209 -27.63  0.004089653    1.697    0.411
       158  -8.8154     76.0552     46.5088   1.0574020709e+02   5.6999449632e+01    0.2081289     0.162425 -30.02 0.0005550666    1.144    0.126
       159  -9.9994     76.4150     51.9258   1.0755256071e+02   5.5970931303e+01     0.439526    0.3570797 -82.85   0.00169136    1.993    0.498
       160  -9.9508     77.9125     61.4316   1.1026149099e+02   5.3946029113e+01    0.5192841    0.2989886 -39.58  0.002325631    1.570    0.363
       161 -10.5948     71.7963     55.0042   1.1016733123e+02   5.6112439314e+01    0.4770266    0.3925705  79.25  0.001307318    1.919    0.479
       162  -8.3132    135.5204     63.5076   9.4388384895e+01   4.2330443615e+01    0.1489413     0.143824  -6.19 0.0001401222    1.041    0.039
       163  -9.2680    103.6118     61.3640   1.0227298364e+02   4.9454522997e+01    0.3383895    0.1745145 -43.54  0.001439565    1.920    0.479
       164 -10.9326     81.3672     69.2226   1.1161298156e+02   5.1867890553e+01     0.856391    0.4284071  24.95  0.003283663    2.809    0.644
       165  -8.3132      4.3031     62.5964   1.3634640924e+02   6.1234632746e+01    0.1127187   0.07788854  82.41 0.0003977287    1.843    0.457
       166  -9.6114    178.2303     60.2398   8.4104051614e+01   3.2553247980e+01     0.297716    0.2463276 -42.07 0.0006164583    1.233    0.189
       167 -10.7642    174.1782     57.2202   8.3958526393e+01   3.4021361096e+01     0.592348    0.4792813   3.13  0.001473995    1.386    0.279
       168  -8.7961    210.8327    240.3717   1.1770582587e+02  -2.6365072293e+00    0.1819011   0.08366143 -38.01 0.0009825747    2.680    0.627
       169 -10.0927    156.7010     24.4009   7.6706749509e+01   4.2790386327e+01    0.8304327    0.3894292  65.30  0.003131234    2.173    0.540
       170 -10.3303     99.5838     38.9393   9.5434473615e+01   5.4010626324e+01    0.5384703    0.3408257   7.70  0.002434785    2.082    0.520
       171  -9.0638    113.3396    238.6758   1.3451892174e+02   1.2722511700e+01    0.1189131   0.07178407  64.63 0.0007051119    1.725    0.420
       172 -10.7415     96.0044     47.3985   9.9660714392e+01   5.3350581943e+01    0.5581338    0.3665414  24.30  0.002144955    1.703    0.413
       173  -9.6434     12.9389    238.5177   1.5095212538e+02   2.5003929049e+01    0.1352203   0.07682183  45.49  0.001028124    1.581    0.368
       174 -10.5459    118.7532     41.6903   9.1143385620e+01   4.9583725841e+01    0.5243879    0.5009471 -38.93  0.003058469    1.185    0.156
       175  -9.5086     12.3025    232.1522   1.5075642463e+02   2.6119496613e+01    0.2077769   0.07290801  58.02  0.001249386    2.193    0.544
       176  -8.3401    227.1836    231.6173   1.1359251683e+02  -4.1595582127e+00    0.1674975   0.08561086  30.85 0.0005261591    1.626    0.385
       177  -9.5100    136.5887    225.2322   1.2882148660e+02   1.1273934181e+01     0.198731    0.1176768 -60.39  0.001132514    2.124    0.529
       178  -8.3922    244.6895    204.6387   1.0605295200e+02  -3.7678841512e+00    0.1309477    0.0789485   9.08 0.0007041015    1.745    0.427
       179 -10.4994     26.7327    191.2866   1.4592808673e+02   3.2109223828e+01    0.2915445    0.2147189 -89.46  0.002015313    1.116    0.104
       180 -11.2932     17.9777    186.3284   1.4719780402e+02   3.3909268331e+01    0.3509341    0.3112132   0.86  0.001964856    1.836    0.455
       181  -9.9309     11.6836    184.4901   1.4823761357e+02   3.4831941299e+01    0.2222411    0.1273111  88.47 0.0009463757    1.407    0.289
       182 -10.6213      5.3748    185.3094   1.4943927239e+02   3.5210785963e+01    0.4098015    0.1437203  58.05  0.002195892    2.603    0.616
       183  -9.5491     39.0987    176.8174   1.4234835368e+02   3.3726279979e+01    0.2677677    0.1657441 -74.31  0.001262786    1.414    0.293
       184  -9.1400      1.5996    177.7813   1.4967829174e+02   3.6983146872e+01    0.1522469   0.07471427  87.26 0.0009428826    1.675    0.403
       185  -8.4661     79.3501    177.3265   1.3405521208e+02   2.8713856760e+01    0.1172476   0.09734049 -26.19  0.000704864    1.759    0.431
       186  -9.3705     62.7715    167.6255   1.3640948734e+02   3.2912129524e+01    0.2395019    0.1719681  87.54  0.001056957    1.317    0.240
       187  -9.0458      9.1329    167.8392   1.4758769443e+02   3.8362028399e+01    0.1745158    0.1164206  75.06  0.001236856    1.241    0.194
       188  -9.0156     13.3272    164.8618   1.4653084970e+02   3.8622526996e+01    0.1833871    0.1258565  58.82  0.001049027    1.364    0.267
       189 -10.3798    221.9431     57.4484   7.6171378596e+01   2.2189046585e+01    0.3807523    0.3207299 -50.76  0.001101168    1.181    0.154
       190  -9.2999    149.6269     59.6494   8.9814179713e+01   3.9672569003e+01    0.3391769    0.2161514 -47.15  0.001486233    1.743    0.426
       191  -8.1881    239.3158     59.2787   7.4312428734e+01   1.7889063223e+01    0.1356433    0.1046939  23.25 0.0002253809    1.571    0.364
       192 -10.3450    201.2773     57.1047   7.9182283208e+01   2.7271127826e+01    0.5792504    0.3794611  10.14   0.00245817    2.196    0.545
       193  -9.1747    158.0706     58.7391   8.7677286120e+01   3.7773785760e+01    0.4324472    0.2454856  18.46  0.001494656    3.080    0.675
       194  -9.9737      3.1204     57.6860   1.3578190877e+02   6.2321498802e+01    0.2893396    0.2240833 -87.68  0.001773778    1.479    0.324
       195 -10.1433    157.3431     50.4113   8.5166047940e+01   3.9220982630e+01    0.5988444    0.3961801 -25.35  0.002481721    1.555    0.357
       196  -9.1595    135.1327     51.7164   9.0564557684e+01   4.4351230985e+01    0.3762619    0.2401373  29.60  0.001660738    1.780    0.438
       197  -8.5939    152.4576     56.2787   8.8101070061e+01   3.9524945635e+01    0.3133178    0.1696323 -41.59  0.001089809    1.922    0.480
       198 -11.2283    141.6158     51.5772   8.8989662134e+01   4.2853378954e+01    0.5745677    0.3658836  39.43  0.001232896    1.590    0.371
       199 -10.8497    149.9910     51.1057   8.6954473687e+01   4.0916336303e+01    0.5126588    0.4120275  29.54  0.001337547    1.270    0.213
       200 -10.0219     60.8613     54.3020   1.1371720210e+02   5.7798332502e+01    0.3377945    0.2425048 -48.01  0.001436856    1.323    0.244
       201  -8.6649    192.7574     53.8197   7.9632267804e+01   2.9862798587e+01     0.197934    0.1674744 -68.52 0.0003485501    1.314    0.239
       202 -10.0338    186.3657     53.3043   8.0565388841e+01   3.1540045704e+01     0.330898    0.2058568  15.47 0.0008286188    2.412    0.585
       203  -9.6485    188.9484     49.3704   7.8964167737e+01   3.1445307478e+01     0.340539    0.2538109 -59.19 0.0008547766    1.530    0.346
       204  -9.6729     28.5361     49.5023   1.2419657467e+02   6.2281569688e+01    0.2804936    0.1831342 -52.31 0.0005191754    1.278    0.217
       205  -7.1295      7.9550     50.6552   1.3242673829e+02   6.3510178305e+01    0.3934475    0.3049728  66.14  0.002696269    1.833    0.454
       206  -8.9882    238.3036     52.3299   7.2690847351e+01   1.9053131337e+01    0.1380556    0.1049296  19.62  0.000623022    1.652    0.395
       207  -9.1828    236.8933     48.8030   7.1973641159e+01   1.9840995316e+01    0.2008049    0.1861032  16.81 0.0005607043    1.200    0.167
       208 -10.7165    222.3717     48.0206   7.3613529072e+01   2.3364216520e+01    0.4495379    0.2948831 -68.34  0.002098825    1.887    0.470
       209  -9.4125    175.1337     48.0991   8.0983323879e+01   3.5108114037e+01    0.2748452    0.2117447  67.72  0.001342589    1.360    0.265
       210  -9.1742     12.6109     41.8087   1.2829574490e+02   6.5001213543e+01    0.4610594    0.2828884  -9.68  0.002868673    1.912    0.477
       211 -11.2260     22.2556     45.2160   1.2539808013e+02   6.3644117788e+01    0.4754971    0.4083053 -59.13  0.002583846    1.270    0.213
       212 -11.0461     15.8071     33.9676   1.2460175672e+02   6.6295935204e+01    0.6714559    0.3844668 -68.07  0.003659522    2.311    0.567
       213 -10.2440    206.8323     43.7753   7.4597191675e+01   2.7719962798e+01    0.4900465    0.3944866 -66.03  0.001937558    1.343    0.255
       214 -10.2721    199.8401     31.4710   7.2109130494e+01   3.1013210210e+01    0.3816336    0.2734402 -65.43 0.0003180344    1.577    0.366
       215 -10.3125    194.7691     31.0083   7.2684085732e+01   3.2348150226e+01    0.4144356    0.3757431  20.86  0.002364235    1.189    0.159
       216  -9.7267    105.3843     44.7367   9.5916280138e+01   5.1944136375e+01    0.4125205    0.3489914  20.19  0.002064631    1.142    0.125
       217  -8.7213     80.2889     46.5790   1.0435001869e+02   5.6293226309e+01     0.173806    0.1237333  22.50 0.0003611518    1.494    0.331
       218 -10.4871    232.8866     41.6490   7.0638050375e+01   2.1691604633e+01    0.5338029     0.311831  -7.19  0.002299689    2.448    0.592
       219 -10.7946    202.7773     37.8770   7.3517463585e+01   2.9488252162e+01    0.5193457    0.3531315  42.36  0.002248654    1.578    0.366
       220 -10.9117    162.3038     38.9900   8.0481024524e+01   3.9583421638e+01    0.5454817    0.3109699 -24.88  0.002376836    1.830    0.454
       221 -10.5197     26.2275     53.3297   1.2616112178e+02   6.1705317150e+01    0.2724283    0.2054665  -9.05   0.00116165    1.473    0.321
       222 -10.4905    192.2452     39.5545   7.5549532833e+01   3.1925870737e+01     0.575179    0.4801202  63.42  0.001433414    1.181    0.153
       223  -9.2377     77.0565     41.2165   1.0343381439e+02   5.7745278644e+01      0.21577      0.18532  53.84 0.0008012033    1.524    0.344
       224  -8.0900      4.6719     41.0581   1.3132538860e+02   6.5618779631e+01    0.1474846     0.105454 -47.22 0.0007005689    1.034    0.033
       225  -9.8073    180.7127     38.9154   7.7197338610e+01   3.4933489425e+01    0.4530091    0.3008858 -62.71  0.001962912    1.899    0.473
       226  -9.4563    173.7517     39.1764   7.8461162840e+01   3.6667132617e+01    0.2765079    0.2156031 -82.63  0.001366959    1.545    0.353
       227  -9.4829    168.5867     36.6881   7.8587515699e+01   3.8298377383e+01    0.3448094    0.2674083 -43.00  0.001182792    1.357    0.263
       228 -10.1584    109.8419     38.1243   9.2208263184e+01   5.2031638668e+01      0.39195    0.2066771 -34.61 0.0005869014    1.863    0.463
       229  -8.7553    113.9863     36.9699   9.0656404955e+01   5.1312649454e+01    0.2280452    0.1829081  10.88   0.00100154    1.246    0.198
       230 -11.0514    108.7380     30.1113   8.9447251703e+01   5.3393667253e+01      0.60119    0.3295186  59.96  0.001358288    2.217    0.549
       231  -9.5179    102.0720     31.5073   9.1839793509e+01   5.4596268181e+01    0.3103993    0.1549889  49.68 0.0008172584    2.025    0.506
       232  -9.7150     25.4521     38.2025   1.2192782967e+02   6.4740510462e+01      0.17504    0.1409152 -16.70  0.000303447    1.205    0.170
       233  -9.9571    210.5693     33.2821   7.1186011739e+01   2.8116102669e+01    0.4203603    0.2223688 -25.19  0.001332989    1.954    0.488
       234  -9.8693    246.2770     33.4626   6.7128881238e+01   1.9617741838e+01    0.4298746    0.2164727  50.16  0.001533552    2.228    0.551
       235 -10.9066    237.1657     32.7027   6.7896916201e+01   2.1793607096e+01    0.4903729     0.368577  74.70  0.001777518    1.368    0.269
       236  -8.8046    242.4556     31.4708   6.7036028602e+01   2.0722433637e+01    0.2563242    0.1227714 -29.01 0.0006419474    1.987    0.497
       237  -8.7121     38.2437     33.2519   1.1492227295e+02   6.4421301522e+01    0.3241313    0.1929467 -12.56  0.001357497    1.989    0.497
       238  -9.9901      2.5097    161.4894   1.4845093343e+02   4.0172750072e+01    0.3193747    0.1849766  75.58  0.002128273    1.481    0.325
       239  -9.9896      1.8449    157.7377   1.4832106572e+02   4.0989628671e+01    0.3172591    0.1530337 -80.35  0.001940086    1.618    0.382
       240 -10.2625     21.5843    138.6664   1.4236081084e+02   4.3474608734e+01    0.5156642    0.1385239 -54.12  0.002114308    3.512    0.715
       241 -11.2011     37.7327     27.3646   1.1286429650e+02   6.5500377453e+01    0.3685018    0.2648856  17.86   0.00145858    1.485    0.327
       242 -10.5647     16.5956    158.7942   1.4537027778e+02   3.9602826547e+01    0.4006843    0.2467382 -49.96  0.002536956    1.958    0.489
       243 -11.8405     19.4903    148.0292   1.4378042347e+02   4.1632356342e+01    0.6525687    0.4836439 -64.57  0.003111864    1.290    0.225
       244  -8.6479     10.4070    157.7473   1.4657035105e+02   4.0330620490e+01    0.1551801   0.08003917 -68.50 0.0007094123    1.609    0.379
       245  -9.3521     33.9244    155.7240   1.4136942694e+02   3.8665818970e+01    0.1526101    0.1310473  73.09 0.0004471867    1.141    0.124
       246  -8.8748     52.8368    151.8431   1.3666761217e+02   3.7488663073e+01    0.1745489    0.1575852 -64.06  0.001097258    1.215    0.177
       247 -10.3769     34.8032    150.1742   1.4057958249e+02   3.9772300665e+01    0.2844841    0.2484692  78.19  0.001261822    1.128    0.114
       248 -10.6424     39.0139    145.9561   1.3913418338e+02   4.0268729470e+01    0.4141376    0.2831253 -80.29  0.001600935    1.257    0.204
       249  -9.9238     67.0091    148.5088   1.3290430190e+02   3.6493592990e+01    0.2559172    0.1667529 -85.38  0.001380444    1.626    0.385
       250 -10.0105      4.7090    147.4260   1.4694505887e+02   4.2921333252e+01     0.496865    0.1654171  50.99  0.002451501    3.078    0.675
       251 -10.4735    226.4334     28.5875   6.8029301238e+01   2.4810794016e+01     0.628404    0.2944483 -48.44  0.002694336    2.185    0.542
       252 -10.5663    177.3951     29.4847   7.4840051507e+01   3.6948638825e+01    0.5391165    0.3934834 -17.59  0.002238708    1.473    0.321
       253 -10.8874     27.2431    126.2300   1.3954974691e+02   4.5723729851e+01    0.6530295    0.4255253 -62.93  0.004089291    1.294    0.227
       254  -9.0979    193.2487     24.8052   7.1093797915e+01   3.3455782032e+01    0.3181939    0.1798346  10.60  0.001194279    2.903    0.655
       255  -9.9713     18.8036    120.0372   1.4090805569e+02   4.7785347041e+01    0.4749293    0.2115958 -55.84  0.002026712    1.919    0.479
       256 -10.3279      3.7648    135.2429   1.4612346103e+02   4.5568625366e+01    0.5747673    0.2808397 -72.06  0.003449903    1.563    0.360
       257  -9.6000    241.2417     23.6456   6.5248742774e+01   2.1908178483e+01     0.322136    0.1814626 -47.84 0.0008920007    1.671    0.402
       258 -10.0438     19.8092    128.5237   1.4166403927e+02   4.5837116538e+01    0.3452357    0.2252291 -43.66  0.001055665    1.787    0.440
       259  -9.7004      9.0367    134.7228   1.4486949671e+02   4.5309386548e+01    0.1962116    0.1791817  32.90 0.0006708514    1.436    0.304
       260 -11.5657     13.7670    129.7071   1.4325437227e+02   4.6046877264e+01    0.6863922    0.3619587 -88.32  0.003892689    1.770    0.435
       261  -9.7924      7.0602    142.7990   1.4604829567e+02   4.3726778698e+01    0.3432669    0.1853179  62.88  0.002089483    1.865    0.464
       262  -9.2219    219.7541     25.1949   6.7897200182e+01   2.6813613083e+01    0.2289517    0.1763043 -86.36 0.0004029289    1.346    0.257
       263  -8.3757    201.4229     25.4920   7.0202670664e+01   3.1314908320e+01    0.1364954    0.1323564 -84.95 0.0002745077    1.013    0.013
       264  -9.7088    230.9396     21.8779   6.5837036207e+01   2.4506458464e+01    0.4734818    0.2894449 -59.45 0.0008963337    1.720    0.419
       265  -9.8377    231.9207     17.6845   6.4688296998e+01   2.4737089445e+01    0.2981903    0.2277984 -72.78 0.0006206585    1.300    0.231
       266  -8.5668     81.0000    138.9883   1.2800185135e+02   3.6697234082e+01    0.2202999   0.07054422 -58.64 0.0005793896    2.924    0.658
       267  -8.9696    217.4655     21.4852   6.7175871854e+01   2.7788480987e+01    0.2570531    0.2109579 -55.34 0.0007456668    1.187    0.158
       268 -10.1756    214.0311     20.9852   6.7430359210e+01   2.8685106755e+01    0.2942322    0.2038685 -28.54 0.0006833082    1.462    0.316
       269  -9.5155     47.4578    137.5040   1.3604216745e+02   4.1246572097e+01    0.3485214    0.1712818  51.15 0.0009139433    2.235    0.552
       270  -9.1737    215.0528     18.0000   6.6519496153e+01   2.8759625918e+01    0.3952675    0.1721705  80.87  0.001221734    2.816    0.645
       271 -10.7252     54.7583    137.5425   1.3425852235e+02   4.0419341682e+01    0.3495488    0.3235934  87.66  0.002391292    1.108    0.097
       272 -10.1341    177.5698     20.0132   7.1887613917e+01   3.7976908396e+01    0.3289303    0.2446245 -40.65  0.001119252    1.401    0.286
       273 -11.2945     55.4259    129.1392   1.3281374896e+02   4.2222739841e+01    0.8996289    0.2293051 -55.99  0.003349664    3.153    0.683
       274  -9.5673    198.1947     16.7734   6.8145271720e+01   3.3083096738e+01    0.2806959    0.2153273  56.96  0.000752778    1.261    0.207
       275  -8.8031     98.3226    135.6663   1.2308850277e+02   3.4788065977e+01    0.1435023    0.1046085  80.34 0.0007050327    1.706    0.414
       276 -10.9530     64.9911    130.5073   1.3058896562e+02   4.0754576913e+01    0.4100665    0.2584755  32.19  0.002200287    1.821    0.451
       277  -9.2399     78.3476    127.6844   1.2664897058e+02   3.9597914864e+01    0.2588545    0.1642641  75.77  0.001195746    2.233    0.552
       278  -8.6421     64.4572     13.5460   9.6264646425e+01   6.3930473804e+01    0.1295067    0.1025831   0.62 5.416736e-05    1.056    0.053
       279  -8.4312    192.4379     12.4745   6.7625934443e+01   3.4977633084e+01    0.1353201    0.1279955  79.26 0.0001160821    1.007    0.007
       280 -10.7557     72.3138    129.4728   1.2853210315e+02   4.0030258900e+01    0.5873345    0.3101738 -55.82  0.002124065    1.711    0.415
       281  -9.2716     95.9582    129.9760   1.2256525343e+02   3.6423666580e+01    0.2574825    0.1891862 -34.41  0.001327714    1.588    0.370
       282 -10.5313     38.0407    127.0073   1.3693028212e+02   4.4556885945e+01    0.2948153    0.1629957 -52.59  0.001245075    1.704    0.413
       283 -10.7278     48.1917    125.6393   1.3412821024e+02   4.3820482386e+01    0.3161364    0.2251381 -76.85   0.00188913    1.271    0.213
       284 -10.9352     67.6798    122.6530   1.2851731091e+02   4.2178230470e+01    0.6821062    0.3222035 -41.83  0.002905097    2.557    0.609
       285 -10.2201     67.0471    114.9921   1.2724688835e+02   4.3988557309e+01    0.5621752    0.2069612  44.27  0.001626823    3.058    0.673
       286  -9.9658     92.0394    119.8280   1.2149128835e+02   3.9300201868e+01    0.4209165    0.2804073 -32.00  0.002021231    1.859    0.462
       287 -10.8587     37.8493     97.8895   1.3230434179e+02   5.1107577100e+01     1.104771    0.3592194  27.53  0.004610993    3.672    0.728
       288 -10.6638     21.4668    109.3531   1.3880381995e+02   4.9947723950e+01    0.6856549     0.385744  -5.71  0.003483618    3.193    0.687
       289 -11.8940     52.8749     87.1391   1.2550758734e+02   5.1939514569e+01     1.468649    0.7318441 -46.90  0.007150208    1.757    0.431
       290 -11.1552      4.9522     80.0855   1.3922447234e+02   5.7469348167e+01     0.595612    0.3276773 -61.95  0.002544117    1.342    0.255
       291 -11.8657     38.3922     89.5627   1.3053193570e+02   5.2909811413e+01     1.893961     1.079329 -61.56   0.01035242    1.466    0.318
