#   1 NUMBER                 Running object number                                     
#   2 MAG_AUTO               Kron-like elliptical aperture magnitude                    [mag]
#   3 X_IMAGE                Object position along x                                    [pixel]
#   4 Y_IMAGE                Object position along y                                    [pixel]
#   5 X_WORLD                Barycenter position along world x axis                     [deg]
#   6 Y_WORLD                Barycenter position along world y axis                     [deg]
#   7 A_WORLD                Profile RMS along major axis (world units)                 [deg]
#   8 B_WORLD                Profile RMS along minor axis (world units)                 [deg]
#   9 THETA_WORLD            Position angle (CCW/world-x)                               [deg]
#  10 FWHM_WORLD             FWHM assuming a gaussian core                              [deg]
#  11 ELONGATION             A_IMAGE/B_IMAGE                                           
#  12 ELLIPTICITY            1 - B_IMAGE/A_IMAGE                                       
         1 -14.2335     68.7615    144.1789   1.0138094160e+02   3.7467186173e+01     5.074076     2.082629  59.91  0.002975862    6.428    0.844
         2 -12.2028     54.8913    147.4513   1.0592387672e+02   3.8470832890e+01     4.995728    0.7366426 -59.19   0.01386402    4.506    0.778
         3 -13.2932    198.4008     41.8317   4.3210792042e+01   3.0601231397e+01     1.103154    0.9731583 -60.35   0.00323078    1.082    0.076
         4 -13.7902    208.0801     32.4833   3.9759936838e+01   2.9562346919e+01     1.345658    0.9261427 -17.70  0.001428589    1.963    0.491
         5 -12.5418    235.2761      6.1939   3.1523669121e+01   2.6627881964e+01    0.7205446    0.5688317 -47.70  0.004998835    1.267    0.211
         6 -12.1192    229.4912      6.5143   3.1998364882e+01   2.7818391708e+01    0.6731427    0.2887003 -42.33  0.003169479    1.999    0.500
         7  -9.6800     60.8399      7.8154   6.1010864408e+01   6.6030906837e+01    0.1514751    0.1448107  30.42 0.0004270985    1.343    0.255
         8  -9.3587     89.5471    211.7187   1.0611981213e+02   1.8169633192e+01    0.2451245    0.1977109 -83.53 0.0009401697    1.265    0.210
         9 -11.1519    140.0620    248.1982   9.9923879495e+01   3.2896878802e+00    0.5219678     0.259174 -57.18  0.002577375    2.594    0.614
        10 -12.2273    117.4601    245.9339   1.0425874676e+02   7.1316375652e+00    0.6668483    0.4879138  29.60  0.004029334    1.326    0.246
        11 -13.9538     43.7465    196.5083   1.1488420352e+02   2.7791659457e+01     3.306735     1.202036  61.90  0.009095198    3.957    0.747
        12 -17.4099     13.7586    243.2091   1.2427748391e+02   2.1121436262e+01      9.21691      5.53056 -85.84   0.02273994    1.479    0.324
        13 -10.0157    111.7328    197.5424   9.8987743257e+01   1.7770432694e+01    0.2825299    0.1368203  32.38  0.001150591    2.153    0.535
        14 -16.2949      6.3498    206.6798   1.2371468665e+02   2.9365596227e+01     9.245314    0.9156275 -73.80   0.01262478    6.121    0.837
        15 -11.3121    111.6097    204.4235   1.0005493168e+02   1.6281460486e+01    0.4717277    0.2891403  63.75 0.0007681316    2.017    0.504
        16  -9.0005     69.6793    183.9044   1.0725525526e+02   2.7447760283e+01    0.2145511    0.1808913  63.67 0.0003370611    1.105    0.095
        17 -12.9834     55.9874    185.8935   1.1086579121e+02   2.8795737000e+01    0.9096156    0.7071255  56.75   0.00529299    1.207    0.172
        18 -10.5217     65.7837    179.2776   1.0761438887e+02   2.9102646422e+01    0.3545431    0.3148613  87.79 0.0007601356    1.019    0.018
        19  -9.0159     72.1029    188.3560   1.0724380230e+02   2.6044792815e+01    0.1916945     0.158862  55.75 0.0004212948    1.134    0.118
        20  -9.3384    147.5660    187.2563   8.8773440832e+01   1.3702218123e+01    0.2019756    0.1377679 -37.15 0.0009473261    1.599    0.375
        21  -8.6530     77.3058    185.7009   1.0560878062e+02   2.5929495511e+01    0.2128396    0.1368383 -71.02 0.0005602452    1.549    0.355
        22  -8.7326     80.0182    183.7277   1.0465860379e+02   2.6001665831e+01    0.2230071    0.1969453  83.73 0.0006006065    1.053    0.051
        23 -10.7982    121.3372    196.6597   9.6574358044e+01   1.6339695222e+01    0.4625001    0.2702061 -75.15  0.001349594    2.537    0.606
        24  -9.9677     99.4320    180.8842   9.9356704417e+01   2.3638768024e+01    0.2697878    0.2593782 -80.23 0.0006145503    1.068    0.063
        25  -8.8488     38.4050    181.7327   1.1466143658e+02   3.1884737712e+01    0.1943529    0.1771596  46.33 0.0005001446    1.248    0.199
        26  -9.7130     42.8372    179.8790   1.1338997431e+02   3.1831740040e+01     0.217096    0.2045765 -38.96 0.0003487023    1.339    0.253
        27  -9.6349     45.9841    176.6830   1.1225538965e+02   3.2242265518e+01    0.2560063    0.2083116  72.01 0.0006639734    1.124    0.110
        28  -8.8107     90.0750    181.2419   1.0176851144e+02   2.5059264109e+01    0.1966406     0.174703  54.93  0.000395658    1.082    0.076
        29  -8.6647     92.8200    178.8323   1.0069754132e+02   2.5200865614e+01    0.2035089    0.1597747  78.32  0.000476821    1.357    0.263
        30 -10.0759    240.3959    178.2230   6.7991332741e+01  -9.3598623346e-01    0.1891125     0.110739 -43.33 0.0009564003    1.719    0.418
        31  -9.9984    187.5425    175.8736   7.7626141488e+01   8.5820637089e+00    0.3381009     0.309493 -51.53  0.001272475    1.231    0.188
        32  -8.6078    148.3782    175.1131   8.6255581116e+01   1.6168926006e+01     0.208428    0.1424072 -62.33 0.0009301393    1.742    0.426
        33 -13.0534     71.1795    154.0617   1.0240531654e+02   3.4619564419e+01    0.6266153    0.5503926 -60.54  0.001087974    1.109    0.098
        34 -10.8911    129.2383    248.8512   1.0220654897e+02   4.8319520760e+00    0.3215131    0.1956177  57.15  0.001713101    1.843    0.457
        35  -8.6642    193.4918    170.5155   7.5272968283e+01   8.5130247312e+00    0.1441266    0.1351321 -11.01 1.683347e-05    1.037    0.036
        36 -10.1104     92.7841    249.0341   1.0960182962e+02   1.0204120769e+01    0.2560018    0.1413848  46.37 0.0009003822    1.481    0.325
        37  -9.6340    240.4605    169.4833   6.6224320557e+01   4.9382384524e-01    0.1348312    0.1119385 -17.73 4.018088e-05    1.030    0.029
        38  -8.9022    185.0472    168.4991   7.6618674254e+01   1.0505657316e+01    0.2172259    0.1432884  41.30 0.0006840149    1.540    0.350
        39  -9.2555    110.9428    167.9600   9.4169225781e+01   2.4755598303e+01    0.2304015    0.2188517 -81.78 0.0005079011    1.040    0.039
        40 -10.4621     33.8245    165.9070   1.1410338704e+02   3.6224796353e+01    0.4630416    0.2258842  49.28  0.002010948    2.082    0.520
        41  -8.3587    135.9629    164.7481   8.7183810031e+01   2.0871268572e+01    0.1950325    0.1295742  38.58 0.0004539982    1.494    0.331
        42  -8.2292    132.6303    160.7160   8.7188861589e+01   2.2444723959e+01    0.1572708    0.1222547  -1.92 0.0007017308    1.700    0.412
        43  -9.9155     32.1655    156.3278   1.1343437866e+02   3.8766480375e+01    0.2350254    0.1585137 -61.94  0.001045687    1.343    0.256
        44 -11.5957     89.9123    152.1288   9.6837075791e+01   3.2236003438e+01    0.7372374    0.5090285 -27.57  0.003267278    1.968    0.492
        45 -10.5177    134.3146    147.0076   8.3803217066e+01   2.5309327549e+01    0.8290653    0.2760547 -53.02  0.002474051    3.319    0.699
        46  -9.9727    133.0000    140.9945   8.2773806412e+01   2.6980224201e+01    0.4921298    0.2122975 -52.75  0.001693463    2.436    0.589
        47  -9.2574    174.9251    149.1340   7.4571255329e+01   1.6487522135e+01    0.2313205    0.2103181 -79.69  0.000554063    1.280    0.219
        48  -8.7998    110.7164    149.1174   9.0507071024e+01   2.9361216938e+01    0.2659896    0.1656463  76.47 0.0009484173    2.808    0.644
        49 -10.0541     38.7909    146.4640   1.1035034958e+02   4.0563911635e+01    0.3281097    0.2159802  51.86 0.0008813777    1.614    0.381
        50 -10.2407    103.2443    138.3345   9.0265379155e+01   3.3371838893e+01    0.5741271    0.3429466 -27.38  0.002133933    2.575    0.612
        51 -11.6477     90.7149    137.9248   9.3773341607e+01   3.5660011474e+01    0.2957158    0.2576953 -44.07 0.0004265236    1.158    0.136
        52 -11.1927     43.9302    130.5908   1.0642619130e+02   4.4032282317e+01    0.5284101    0.2635557 -81.10  0.001726208    2.471    0.595
        53 -10.0926    105.8916    130.8944   8.7828711544e+01   3.4709486389e+01    0.3716469    0.3350867 -73.03   0.00121221    1.141    0.124
        54  -9.9044    135.7715    129.7875   7.9381929476e+01   2.9008896517e+01    0.3922034     0.130576 -48.46  0.001185892    3.005    0.667
        55 -11.0075    193.2728    195.4069   8.0301350190e+01   3.8831520618e+00     0.935537    0.4801999 -62.23  0.002797365    5.728    0.825
        56  -9.7015    112.1482    129.2664   8.5665819479e+01   3.3916618169e+01    0.3123913    0.2583043 -14.89 0.0009684746    1.446    0.309
        57  -9.2643    161.1120    127.6799   7.2613189700e+01   2.4011582983e+01    0.2939448    0.2148283 -55.03 0.0007174074    1.444    0.308
        58 -10.3134     99.2714    125.2391   8.8426007582e+01   3.7306526825e+01    0.3103828    0.2619403 -21.96  0.000688329    1.338    0.253
        59 -10.9397    119.3046    122.7506   8.2063752852e+01   3.4052181644e+01    0.6351042    0.4254646 -16.44  0.002471639    2.310    0.567
        60  -8.9132     92.3581    125.0483   9.0439991618e+01   3.8578894411e+01    0.2188869    0.1835238 -59.31 0.0007158685    1.157    0.136
        61 -11.5095     70.2715    172.1878   1.0548043636e+02   3.0217552132e+01    0.4313963    0.3169892 -26.06   0.00213005    1.930    0.482
        62  -9.2341    108.1028    118.3716   8.4150434950e+01   3.7305646121e+01    0.2380242     0.206914 -33.76 0.0003438343    1.174    0.148
        63 -11.9661     50.5536    107.5200   9.9884523281e+01   4.9053284397e+01    0.5681133    0.5353137  88.84  0.002450773    1.153    0.133
        64 -12.3484     43.5529    109.1071   1.0259327586e+02   4.9454842846e+01    0.8243219    0.3387848 -49.62  0.003398043    2.120    0.528
        65 -10.0512    134.8018    111.9502   7.5062361380e+01   3.3252752816e+01    0.5502754    0.1230135 -45.69  0.001373436    4.429    0.774
        66  -9.4520    205.2451    110.0797   5.9198926795e+01   1.7834848331e+01    0.3008687    0.2169243  39.89 0.0007538074    1.573    0.364
        67 -11.4155     74.6012    167.3964   1.0362606348e+02   3.0783980105e+01    0.4075541     0.361076   5.01  0.001471762    1.401    0.286
        68 -10.4930    115.3081    108.8431   7.9573514300e+01   3.8089257902e+01    0.3709202    0.2652754 -32.78   0.00165864    1.507    0.336
        69  -9.9800    119.5031    103.9527   7.7041879901e+01   3.8317919587e+01    0.2480166    0.1527473 -46.11  0.001034826    1.597    0.374
        70  -9.3486    128.9547     96.1997   7.2249549044e+01   3.7949283831e+01    0.4450283    0.2710305  69.39  0.001619726    2.634    0.620
        71 -10.0749     51.9331     92.9150   9.5993680861e+01   5.2398333117e+01    0.3303796    0.1445404 -36.32  0.001230958    2.758    0.637
        72 -10.6065    107.5326    203.4989   1.0086866306e+02   1.7149114585e+01     0.327797    0.1948192  60.27  0.001226705    1.954    0.488
        73  -9.9361    231.3339    113.8059   5.5752023472e+01   1.1780476565e+01     0.253807    0.2487938  52.70 0.0007538261    1.162    0.139
        74  -9.4787    156.0979     88.1066   6.3249880445e+01   3.3306856929e+01     0.389707    0.2506858 -76.61 0.0009709168    2.596    0.615
        75  -8.3664    116.9341     85.7944   7.2497176337e+01   4.2742275534e+01    0.2054113    0.1217253  44.15 0.0008536621    1.694    0.410
        76  -8.9088     75.0044     84.8127   8.5523723098e+01   5.0962683185e+01    0.2032191    0.1952784  77.24 0.0004110112    1.219    0.180
        77  -9.3909    158.1166     83.0795   6.1378128771e+01   3.3772268184e+01    0.2320374    0.2115735   3.79 0.0005299027    1.241    0.194
        78  -8.8670     57.5813     67.1315   8.6473487519e+01   5.7351459265e+01    0.3031409    0.1465435  46.56  0.001235194    2.802    0.643
        79 -12.9897    187.5082     50.2580   4.6893410262e+01   3.2028730710e+01    0.9362782     0.850147  17.20 0.0009952128    1.375    0.273
        80 -10.6657     60.9844    198.4334   1.1111081458e+02   2.5200272191e+01    0.2824129     0.262729 -25.86 0.0004756777    1.416    0.294
        81 -11.0255     24.3989     34.5396   8.9440986460e+01   6.7482234983e+01    0.2401344    0.2046181  15.62 0.0008891101    1.327    0.246
        82 -11.2259    109.9830    241.7207   1.0530516829e+02   9.0285761768e+00    0.3284374    0.2130731  37.84  0.001864142    1.334    0.251
        83 -12.2113     82.6882    159.3201   1.0012851816e+02   3.1585068444e+01     1.201827    0.7246361  72.51 0.0005300801    2.355    0.575
        84  -9.2535    198.0450     23.5342   3.8688450692e+01   3.2989739399e+01    0.2193786    0.1873259  -6.41 0.0006948484    1.574    0.365
        85  -8.6052     35.6755     37.7192   8.5264893766e+01   6.5717339749e+01    0.1288581   0.08265168 -12.21 0.0002487692    1.593    0.372
        86  -9.1570    189.8505     14.8953   3.7425531316e+01   3.5893223363e+01    0.1889407    0.1686641  64.28 0.0007324448    1.220    0.180
        87  -9.5975     31.6768    203.1178   1.1816212940e+02   2.7643190657e+01    0.3116987    0.1859269  85.24  0.001735835    1.537    0.349
        88  -9.4215    154.7568    214.3976   9.1883272369e+01   6.9722706164e+00    0.2001491    0.1213686  28.49 0.0009544999    1.635    0.389
        89 -11.3310    135.7105    211.9568   9.5699006629e+01   1.0676562558e+01     0.412857    0.2873497  51.71  0.002136107    1.453    0.312
