#   1 NUMBER                 Running object number                                     
#   2 MAG_AUTO               Kron-like elliptical aperture magnitude                    [mag]
#   3 X_IMAGE                Object position along x                                    [pixel]
#   4 Y_IMAGE                Object position along y                                    [pixel]
#   5 X_WORLD                Barycenter position along world x axis                     [deg]
#   6 Y_WORLD                Barycenter position along world y axis                     [deg]
#   7 A_WORLD                Profile RMS along major axis (world units)                 [deg]
#   8 B_WORLD                Profile RMS along minor axis (world units)                 [deg]
#   9 THETA_WORLD            Position angle (CCW/world-x)                               [deg]
#  10 FWHM_WORLD             FWHM assuming a gaussian core                              [deg]
#  11 ELONGATION             A_IMAGE/B_IMAGE                                           
#  12 ELLIPTICITY            1 - B_IMAGE/A_IMAGE                                       
         1  -8.7184     12.8964     30.4437   1.0858786854e+02   6.8579450973e+01    0.2592835    0.1511018 -68.41  0.001166528    1.746    0.427
         2  -8.4918     55.7731     10.1478   7.9647683172e+01   6.7350068105e+01    0.1814155    0.1596431 -32.64 0.0006616058    1.283    0.221
         3  -8.5483     90.6679      9.1329   6.6771157790e+01   6.0919921075e+01     0.209912    0.1582803 -38.20 0.0006774577    1.462    0.316
         4  -7.7504    101.4408      8.4450   6.3452374142e+01   5.8618724696e+01    0.1358661    0.1256238  18.36 0.0001212077    1.040    0.038
         5  -8.5866     33.3548      4.9341   8.7278657500e+01   7.1293807972e+01    0.2900749     0.161864 -53.59  0.001438432    2.704    0.630
         6  -8.6818     79.1479      3.9761   6.7781906686e+01   6.3899335169e+01    0.3007552    0.1578698 -35.03  0.000971294    1.969    0.492
         7  -7.5960     44.5272      3.4784   8.1022666361e+01   7.0005979607e+01    0.1223611    0.1015984 -12.06 0.0001239489    1.054    0.051
         8  -7.7207    115.3210      2.6463   5.7549433517e+01   5.5930311163e+01    0.1423826    0.1034305 -58.14 0.0007046968    1.753    0.430
         9  -8.2710     62.1337      1.4597   7.2441622923e+01   6.7416423773e+01     0.172051    0.1191141  44.13  0.000434907    1.499    0.333
        10  -8.7935    147.2153    246.0423   1.0958544229e+02   7.7393117920e+00    0.2489302    0.1599106  74.74  0.001107067    2.433    0.589
        11  -8.6084    249.1473    249.0459   9.3466824315e+01  -7.4348593863e+00     0.219344    0.1207807 -11.88  0.001489508    2.004    0.501
        12  -9.9889    248.6066    242.0318   9.2547716606e+01  -6.7668032532e+00    0.3362436    0.1943592 -23.90  0.001479555    1.946    0.486
        13  -9.4047    242.4407    247.3981   9.4255143708e+01  -6.3900632758e+00    0.3478802      0.16435 -13.13  0.002017018    2.801    0.643
        14  -8.9359    232.6700    247.1859   9.5733970917e+01  -5.0214897410e+00     0.216374      0.13898 -28.86  0.001203839    1.939    0.484
        15  -8.4583     93.8140    249.6144   1.1887001162e+02   1.4868035961e+01    0.1942498    0.1035658  69.82   0.00120584    2.082    0.520
        16  -7.5268     86.2793    250.6411   1.2018413934e+02   1.5716758919e+01     0.107877   0.05877059  64.22 0.0005860931    1.664    0.399
        17  -9.0230    120.2663    245.6674   1.1410934617e+02   1.1747741386e+01    0.2906663    0.1656634  71.61  0.001712763    2.375    0.579
        18  -8.8291    169.3152    244.2162   1.0565107159e+02   4.6330028783e+00    0.2285743    0.1786072 -64.95  0.001392301    1.925    0.480
        19  -8.7923     67.5749    245.2150   1.2287202749e+02   1.8898618181e+01    0.1631861   0.09011977 -82.56 0.0008208402    1.996    0.499
        20  -8.3390     13.0285    247.0000   1.3152568369e+02   2.4646792079e+01    0.1428705    0.0406831  37.87 0.0008005456    2.929    0.659
        21  -8.7563    201.9905    242.8159   1.0004473945e+02  -1.4695800171e-01     0.231781    0.1595723 -31.71    0.0010729    1.856    0.461
        22  -8.2680    139.3408    244.6706   1.1077520749e+02   9.0906882806e+00    0.1133944   0.06945034  61.05 0.0007051534    1.741    0.426
        23  -8.9131     78.5006    243.8444   1.2097811088e+02   1.7727096074e+01    0.3086997    0.0946342  54.92   0.00148261    2.906    0.656
        24  -9.4010    160.1700    240.4230   1.0675547980e+02   6.4922801280e+00    0.2906235    0.2062598  87.71  0.001536992    2.440    0.590
        25  -8.5425    214.0063    241.6801   9.7937676127e+01  -1.8137758568e+00     0.159463    0.1092883  33.84 0.0005699897    1.100    0.091
        26  -9.2953    194.4901    240.0834   1.0092237857e+02   1.2786188793e+00    0.3009567     0.194201 -39.51  0.001420301    2.057    0.514
        27  -9.2435    183.2623    240.2716   1.0282256522e+02   2.9699450548e+00    0.3519731    0.2090151  61.24  0.001948792    2.615    0.618
        28  -8.8701    132.6095    248.1344   1.1226344685e+02   9.6254835210e+00    0.2502359    0.1482001  61.49 0.0008364354    1.784    0.440
        29  -8.2595     88.2559    242.0616   1.1921299510e+02   1.6716112497e+01    0.1433289    0.1099874  68.86 0.0005111629    1.167    0.143
        30  -8.4974    146.7139    239.9494   1.0900849762e+02   8.6054991681e+00    0.2797579    0.1664767  73.72  0.001359034    3.045    0.672
        31  -9.2096    240.9077    239.2358   9.3327377538e+01  -5.4548374162e+00    0.3069591    0.1450205  -6.88  0.001567467    3.309    0.698
        32  -9.1652    231.1915    237.4957   9.4599826886e+01  -3.9106757806e+00     0.226838     0.200106 -87.35  0.001632508    2.405    0.584
        33  -9.0357    135.7170    238.9059   1.1079236731e+02   1.0406577387e+01    0.1853125    0.1350379  71.58   0.00098288    1.587    0.370
        34  -8.3700    129.2449    238.2165   1.1184111392e+02   1.1469773244e+01    0.1979169     0.131576 -78.49  0.001180216    2.117    0.528
        35  -8.4239    209.1534    237.7920   9.8194236893e+01  -6.9109868763e-01    0.2653357    0.1594985  -2.35  0.001588312    2.292    0.564
        36  -8.6981     25.9795    237.4622   1.2916223108e+02   2.4838880063e+01    0.2154945   0.06188275  65.58  0.001037478    3.478    0.713
        37  -7.9992    189.5525    237.0051   1.0134359419e+02   2.3801551474e+00     0.136876    0.1115377 -30.27  0.000607232    1.572    0.364
        38  -9.7411    175.7612    233.7253   1.0326241733e+02   4.9113627192e+00    0.3809906    0.2166259 -55.37  0.002151582    2.777    0.640
        39  -8.3454     58.1241    237.0083   1.2391131164e+02   2.1320558377e+01    0.2951008   0.04701326  43.48  0.001274956    3.541    0.718
        40  -8.8018    217.2472    235.9908   9.6622291402e+01  -1.7157511299e+00    0.1941842    0.1485963  30.82 0.0006622468    1.110    0.099
        41  -9.4252    213.8102    231.9107   9.6603736323e+01  -7.7324768000e-01    0.2675476    0.2271119  85.63  0.001369676    2.256    0.557
        42  -9.1236    203.3786    233.9945   9.8623467741e+01   5.9321450722e-01    0.3496927    0.1887233 -35.19  0.001876038    2.328    0.570
        43  -8.2240    170.0452    235.7287   1.0449763150e+02   5.5553923035e+00    0.1662886    0.1436248 -83.69 0.0007308729    1.664    0.399
        44  -9.3568    247.6409    234.8931   9.1646251779e+01  -6.0033226348e+00    0.1958523    0.1392384  27.48 0.0006700754    1.131    0.116
        45  -9.6158    246.4740    229.3456   9.0989809170e+01  -5.3307447576e+00    0.2891239    0.1708148 -25.39   0.00114883    1.882    0.469
        46  -7.7211    152.7049    235.3490   1.0744992195e+02   8.2957167404e+00    0.1110108   0.07639237  63.56 0.0004286271    1.677    0.404
        47  -9.3085    108.9133    234.5036   1.1501750038e+02   1.4985599845e+01    0.3749504    0.1744939  54.34  0.001033688    1.852    0.460
        48  -8.5983     99.5351    234.3481   1.1664036222e+02   1.6339547927e+01    0.2318336    0.1294203  67.24   0.00107704    1.897    0.473
        49  -8.8363     78.6738    234.5600   1.2026728923e+02   1.9131412167e+01    0.2088526    0.1259936  75.19  0.001175648    1.641    0.391
        50  -8.4739    133.1285    233.3717   1.1065281240e+02   1.1568709889e+01    0.2529554    0.1418595  72.47  0.001275071    3.030    0.670
        51  -8.2460    122.9336    234.1673   1.1252787700e+02   1.2985521456e+01    0.1761348    0.1200806  58.88  0.000631156    1.305    0.234
        52  -8.4587     92.5849    232.3498   1.1767969882e+02   1.7611779681e+01    0.2613196    0.1390069 -77.78  0.001576454    2.359    0.576
        53  -9.1849     68.4485    232.4390   1.2186490343e+02   2.0778986283e+01    0.4035823    0.1404538  63.88  0.001752655    3.834    0.739
        54  -8.6121    194.4006    232.6755   9.9947076861e+01   2.1268268009e+00    0.1779536    0.1736791  35.91 0.0008623399    1.392    0.282
        55  -8.0011    144.6706    233.3051   1.0861742310e+02   9.8118546858e+00    0.1979227    0.1097515  55.90  0.001146013    1.784    0.440
        56  -8.7076    140.2094    230.1324   1.0904276788e+02   1.0942466107e+01    0.2940012    0.1439922  58.41  0.001294185    2.408    0.585
        57  -9.1233    186.5199    230.9644   1.0105457106e+02   3.5587740039e+00    0.2525502    0.1942404  77.56  0.001249824    2.204    0.546
        58  -8.4708    158.1720    232.2339   1.0612596844e+02   7.8571015451e+00    0.1542061    0.1135409  56.77 0.0005015755    1.367    0.268
        59  -9.2874    236.1234    230.7624   9.2829602482e+01  -3.9771745048e+00    0.1944229    0.1581172 -13.31 0.0005671267    1.414    0.293
        60  -8.8658      1.9451    231.0247   1.3268828478e+02   2.8204998388e+01    0.2035058   0.08404725  62.69 0.0009306943    1.682    0.406
        61  -9.4137    148.8266    224.7206   1.0686591291e+02   1.0356738326e+01    0.2770843    0.1976313  72.88  0.001015903    1.826    0.452
        62  -8.9757    229.9339    228.5615   9.3488533473e+01  -2.8502792149e+00    0.2230744    0.1382144 -21.68  0.001251119    1.812    0.448
        63  -8.6341    162.1368    227.7395   1.0487230919e+02   7.8275644867e+00    0.2188132    0.1583764  67.07  0.001020091    1.756    0.430
        64  -8.7965    127.9476    227.3508   1.1091935839e+02   1.3229624413e+01    0.2703303    0.1625045  64.63  0.001237675    1.876    0.467
        65  -8.3232    119.9634    227.7759   1.1239568889e+02   1.4373766626e+01    0.2077655    0.1261735  73.11  0.001204679    2.116    0.527
        66  -9.0735    151.5180    229.0340   1.0690964926e+02   9.3314995618e+00    0.2360613    0.1750966  82.41  0.001390487    1.915    0.478
        67  -7.6264    223.6190    227.3023   9.4323157303e+01  -1.7751885992e+00    0.1039572   0.08231182  54.61 0.0007023361    1.776    0.437
        68  -8.2024    215.0632    227.0146   9.5686504545e+01  -4.4007395710e-01    0.1612425    0.1220157  26.40 0.0003978339    1.013    0.013
        69  -8.6504    216.5240    223.6722   9.4948060374e+01  -3.0214582286e-01    0.2055151    0.1753749  60.58 0.0009012211    1.737    0.424
        70  -8.6557    206.1997    225.8798   9.7000474164e+01   1.0605418349e+00    0.2306225    0.1567829 -37.45  0.001332575    1.881    0.468
        71  -8.1880     49.3677    227.1012   1.2477527074e+02   2.3960019288e+01    0.1454134   0.07669555  82.75 0.0009348007    1.840    0.456
        72  -7.9724    200.3699    226.3031   9.8046706139e+01   1.9272318167e+00    0.1284501    0.1097762 -43.09 0.0004060794    1.621    0.383
        73  -8.7932    180.5298    224.4691   1.0120825275e+02   5.3092856332e+00    0.2144648    0.1673504  49.52 0.0006351172    1.276    0.216
        74  -9.0658     94.4869    224.6265   1.1666221092e+02   1.8568660214e+01     0.424751    0.1697976  60.08  0.001973289    2.923    0.658
        75  -8.9153    104.8330    223.8482   1.1472284864e+02   1.7215478455e+01    0.2885853    0.1717569  77.03  0.001510452    2.090    0.522
        76  -8.5332    173.0210    223.2717   1.0236545362e+02   6.6731005904e+00    0.1830231    0.1503948  66.38 0.0005646731    1.513    0.339
        77  -8.1040    113.9970    224.0385   1.1308243681e+02   1.5837334326e+01    0.1821258    0.1129001  65.50 0.0006291737    1.666    0.400
        78  -7.9365     38.0000    224.0075   1.2652978000e+02   2.5761335013e+01    0.1482257   0.05091146 -76.30 0.0007976598    2.909    0.656
        79  -9.1482    160.2083    221.2685   1.0438417631e+02   9.0149884638e+00    0.4511689     0.202786  57.05  0.001962711    3.147    0.682
        80  -7.7271     59.3732    223.6882   1.2282467758e+02   2.3337454939e+01    0.1195231   0.05737012  61.98 0.0007032575    1.781    0.439
        81  -9.1490    238.9018    221.5038   9.0970438587e+01  -3.4736201125e+00    0.1738036    0.1496271 -22.94  0.000699195    1.534    0.348
        82  -9.2848    225.6176    221.8015   9.3164124294e+01  -1.5014261776e+00    0.2220992    0.1731135  45.97 0.0009526007    1.505    0.336
        83  -9.3092    192.3928    221.4300   9.8715515220e+01   3.7776063070e+00    0.2396467    0.1958452  63.50  0.001065487    1.639    0.390
        84  -8.4717      8.5129    222.4820   1.3135364839e+02   2.9009438529e+01   0.09791643   0.06866516  68.76 0.0001725497    1.060    0.057
        85  -9.2790    120.3555    219.1899   1.1140241365e+02   1.5633955227e+01    0.3824621    0.2123241  70.17  0.001652616    2.529    0.605
        86  -8.5287     82.7830    220.6377   1.1841980404e+02   2.0834515400e+01    0.2145116    0.1139205  72.35  0.001214047    2.110    0.526
        87  -8.0849     73.1950    220.8001   1.2016080808e+02   2.2079738265e+01    0.1945261   0.08133546  65.26 0.0009408613    2.782    0.641
        88  -8.0518     27.5824    221.2204   1.2814618467e+02   2.7345411455e+01    0.1280154   0.08082371 -74.40 0.0009494338    1.680    0.405
        89  -8.3865    210.1597    219.5565   9.5395307387e+01   1.1562931508e+00    0.1645724    0.1505634 -11.19  0.000651014    1.347    0.258
        90  -8.4991    202.8924    220.2003   9.6727724526e+01   2.2392077257e+00    0.1697061    0.1385648  43.23 0.0007657518    1.278    0.218
        91  -8.9260    248.6930    218.3197   8.8918319076e+01  -4.5993532344e+00    0.3238307    0.2168116  61.00  0.001747549    3.338    0.700
        92  -9.7015    133.2208    216.3549   1.0869788109e+02   1.4068994673e+01    0.4958393    0.2735189  72.79  0.002244113    3.377    0.704
        93  -8.7112    179.4228    218.1912   1.0052916556e+02   6.2963721066e+00    0.1384141    0.1160481 -62.04 0.0009423674    1.684    0.406
        94  -9.0039     51.4251    217.3946   1.2379742005e+02   2.5360246482e+01    0.2434313    0.1366536  77.04  0.001022856    1.632    0.387
        95  -8.8047    169.4376    216.2479   1.0204495808e+02   8.1986958366e+00    0.2363404    0.1823993  84.07 0.0009469897    1.987    0.497
        96  -8.6769    142.8238    216.5614   1.0694785224e+02   1.2502586704e+01    0.2074708    0.1509832 -88.83 0.0009457252    1.934    0.483
        97  -8.2967    111.6867    217.3381   1.1280256764e+02   1.7243209360e+01    0.1843763     0.110648  64.76 0.0008737922    1.730    0.422
        98  -8.7795    232.3117    214.8294   9.0976828330e+01  -1.7883976352e+00     0.210623    0.1888608 -64.74  0.001149983    2.009    0.502
        99  -8.2815     18.5027    215.9980   1.2943138468e+02   2.9157315251e+01    0.1476063   0.08048282 -86.21  0.001042337    1.619    0.382
       100  -8.6116    185.7531    214.5406   9.8878607792e+01   5.7301972016e+00     0.190252    0.1580043 -70.13 0.0007917446    1.835    0.455
       101  -8.0760    154.2026    215.1687   1.0467372844e+02   1.0858125585e+01    0.1625061    0.1255473  62.09 0.0005498929    1.383    0.277
       102  -8.8331     93.3531    214.2202   1.1589251192e+02   2.0442215077e+01    0.3376265    0.1455497  58.90  0.001248045    2.418    0.586
       103  -7.7863     41.6493    215.3618   1.2539640318e+02   2.6835960452e+01    0.1205634   0.05494963  63.95 0.0007023489    1.865    0.464
       104  -9.5099    214.2903    212.4807   9.3602784587e+01   1.3135442267e+00    0.3674191    0.2381233  57.95  0.001960037    2.268    0.559
       105  -9.5151     73.2614    211.9510   1.1942265617e+02   2.3584071260e+01    0.6051411    0.1930667  59.30  0.002334595    4.156    0.759
       106  -8.1783    224.8624    212.8611   9.1887767094e+01  -4.1421836770e-01    0.1557862    0.1393147  59.87 0.0009989473    1.681    0.405
       107  -8.5331    161.5131    212.5055   1.0297019215e+02   1.0035889034e+01    0.1891371    0.1711039  79.38 0.0006656696    1.348    0.258
       108  -8.4970    106.4720    212.5532   1.1326585144e+02   1.8807612869e+01    0.1800858    0.1073338 -80.89 0.0007496979    2.174    0.540
       109  -7.6181    242.6487    212.2409   8.8889524056e+01  -3.0937039261e+00    0.1007295   0.08196246  44.81 0.0002950995    1.577    0.366
       110  -8.9441    204.3521    211.1108   9.5093178398e+01   3.0938931035e+00    0.2110183    0.1944738 -84.77 0.0008285635    1.666    0.400
       111  -9.3942    175.5148    210.1981   1.0008143057e+02   8.0190233787e+00    0.3357989    0.2351796  73.00  0.001343907    2.325    0.570
       112  -8.2976    192.1788    210.7093   9.7165474964e+01   5.1592503741e+00    0.1736535    0.1651211 -43.48 0.0007343937    1.393    0.282
       113  -8.5412    148.0723    210.6489   1.0521008413e+02   1.2536523202e+01    0.2376297    0.1688309  73.31  0.001170871    1.837    0.456
       114  -9.0391    116.3680    210.6196   1.1118326028e+02   1.7623479424e+01    0.2889038    0.1609785  62.90  0.001400349    1.972    0.493
       115  -8.1624     33.2217    211.2372   1.2664076944e+02   2.8481427593e+01    0.2342183   0.06542055  52.95  0.001164132    2.679    0.627
       116  -9.1339      6.6126    209.4187   1.3116446207e+02   3.1425154510e+01    0.3677491   0.09948318  71.75  0.001603559    4.122    0.757
       117  -8.5005     85.8531    209.8202   1.1687651878e+02   2.2251015125e+01    0.2589117    0.1307206  69.51  0.001334867    2.352    0.575
       118  -8.1824     46.8268    210.0281   1.2412881796e+02   2.7185714833e+01    0.1911441   0.08797755  69.92  0.001072437    2.103    0.525
       119  -9.4329    236.6809    207.6548   8.9095657208e+01  -1.6952505838e+00    0.3832795    0.2536106 -19.21  0.002155687    1.576    0.365
       120  -9.6827    246.1239    207.0795   8.7480557285e+01  -3.0858494415e+00    0.2514974    0.2157128  -0.23  0.001194117    1.269    0.212
       121  -9.3905    250.0858    202.0103   8.5992341387e+01  -3.1598214539e+00    0.3075851    0.1562882 -26.16  0.001349265    2.030    0.507
       122  -7.8782    156.4212    208.2284   1.0332045540e+02   1.1511303472e+01    0.1433824    0.1183907 -73.12 0.0005416783    1.583    0.368
       123  -8.2798    139.0693    208.0493   1.0656261873e+02   1.4418071843e+01    0.1876134    0.1307244  68.18 0.0006449788    1.660    0.397
       124  -8.6401     62.6737    217.7928   1.2181802496e+02   2.3929020714e+01     0.360658    0.1186801  61.35  0.001517465    3.715    0.731
       125  -9.2854     99.4225    206.2159   1.1392998319e+02   2.0929893421e+01    0.3510699    0.1973843  76.07  0.001414882    2.326    0.570
       126  -8.3621     12.2388    206.9717   1.3009779738e+02   3.1339447438e+01    0.1276305   0.06772499 -87.95 0.0007304267    1.597    0.374
       127  -8.4325     56.5926    205.6153   1.2201463622e+02   2.6819442189e+01    0.2338092    0.1103712  65.70 0.0008763039    2.030    0.507
       128  -9.3178    194.9173    203.7123   9.5588782306e+01   5.6097082416e+00    0.3400237    0.2701574  63.53  0.001648569    1.679    0.404
       129  -9.1322    192.4403    197.4622   9.5026889775e+01   6.8736938117e+00    0.3250666    0.2529798  82.23  0.001282093    2.199    0.545
       130  -8.9289    183.7556    203.9146   9.7634760996e+01   7.4867920167e+00     0.249163     0.197712  64.61 0.0008813858    1.609    0.378
       131  -8.5722    131.4723    204.3672   1.0753673578e+02   1.6249657349e+01    0.2733015    0.1586803  68.82  0.001099699    2.421    0.587
       132  -8.0914    109.3512    205.3022   1.1191726880e+02   1.9594035851e+01    0.1485474    0.1062809 -82.75 0.0004963979    1.602    0.376
       133  -9.6315    163.9215    203.0923   1.0117998088e+02   1.1004630140e+01    0.4065862    0.2341541  57.96 0.0009904078    2.044    0.511
       134  -8.5466    210.9883    202.2121   9.2513678810e+01   3.0889690064e+00    0.1852783    0.1714197 -76.96 0.0005997781    1.666    0.400
       135  -9.1683    243.0117    200.8164   8.6915580721e+01  -1.9420648820e+00    0.2575563    0.1582519 -28.61 0.0008130007    1.758    0.431
       136  -8.0865    222.0322    201.9541   9.0576626613e+01   1.2904061855e+00    0.1607177     0.148353  70.05 0.0008521585    1.657    0.397
       137  -9.0082    140.4072    201.0451   1.0537171905e+02   1.5312989689e+01    0.3066126    0.2004732  77.70  0.001232588    2.293    0.564
       138  -8.5286     79.7431    201.0986   1.1721191713e+02   2.4642374777e+01    0.2525412      0.13657  84.37  0.001339591    2.278    0.561
       139  -8.3632     11.1639    202.6680   1.3009311117e+02   3.2209297094e+01    0.2028766    0.0550793  42.47  0.001096238    2.617    0.618
       140  -9.1778    237.0254    198.7517   8.7532413344e+01  -7.6898574834e-01    0.2656962    0.1574707 -34.69  0.001080346    1.960    0.490
       141  -9.4192    149.6614    198.8498   1.0327612376e+02   1.4098544914e+01    0.3520716    0.2333844  73.98  0.001477818    2.230    0.552
       142  -8.9302    124.1077    199.3500   1.0832224644e+02   1.8282219616e+01    0.2847255    0.1932893  84.75  0.001306938    1.936    0.484
       143  -9.1592    112.8535    198.5698   1.1043985630e+02   2.0213222195e+01    0.3947793    0.2210567  69.21  0.001489996    2.334    0.572
       144  -9.2049     88.7276    198.4031   1.1518355997e+02   2.3871512814e+01    0.3487864    0.1979265  78.35  0.001518002    2.151    0.535
       145  -8.4453    176.9410    199.1067   9.8140423141e+01   9.3399517539e+00    0.1825111    0.1544944  60.56 0.0005654893    1.352    0.260
       146  -8.3970    202.3982    198.0465   9.3333353266e+01   5.0752027125e+00     0.207711    0.1613489  57.24  0.000898571    1.595    0.373
       147  -9.2744     61.4695    197.1457   1.2040186675e+02   2.7769486250e+01    0.3488746    0.1657345  68.22  0.001524183    2.232    0.552
       148  -8.7528     13.1243    197.9443   1.2952505198e+02   3.2886316443e+01    0.2391035   0.08875273  63.68  0.001333938    2.243    0.554
       149  -7.9342     53.4990    196.9791   1.2192958209e+02   2.8778267660e+01    0.1596155   0.07467014  76.57 0.0008084735    2.411    0.585
       150  -8.2960     36.1310    196.9295   1.2523317143e+02   3.0766218433e+01    0.1885158   0.08789867  71.86 0.0007359751    2.019    0.505
       151  -8.6968    215.8504    195.5707   9.0553238871e+01   3.0963259697e+00    0.2052736    0.1596251 -52.00 0.0007282136    1.922    0.480
       152  -8.8804    185.2260    194.8784   9.5926755070e+01   8.4957403419e+00    0.2330179    0.2080388  79.27 0.0007267571    1.496    0.332
       153  -8.7249    132.9810    195.8007   1.0610372041e+02   1.7421762841e+01    0.2024492    0.1546355 -84.81 0.0005772752    1.613    0.380
       154  -9.4540    245.6536    193.5433   8.5221234926e+01  -1.5609715068e+00    0.2549338    0.2200025 -37.29  0.001428526    1.642    0.391
       155  -8.6987    224.4106    194.0450   8.8820686176e+01   1.8428095433e+00    0.2146211    0.1749008 -43.52 0.0008689652    1.685    0.407
       156  -9.1157    161.1976    194.5938   1.0041933868e+02   1.2769398822e+01    0.2660413    0.1908869  68.71  0.001263178    1.800    0.444
       157  -8.9038     43.9116    193.5110   1.2351280515e+02   3.0547606413e+01     0.376563    0.1566493  65.01  0.001923611    2.402    0.584
       158  -8.1932    230.7363    194.0595   8.7757083653e+01   7.9097804541e-01    0.1682654    0.1372526   4.31 0.0006224115    1.121    0.108
       159  -8.7669     76.9102    193.7868   1.1705302841e+02   2.6375439836e+01    0.2149142    0.1497409  85.84 0.0006591236    1.391    0.281
       160  -8.0387    205.1998    191.9627   9.1805616207e+01   5.3921103889e+00    0.1501897   0.09791691 -32.83 0.0005208534    1.729    0.422
       161  -8.2318    198.8705    192.0681   9.2960617992e+01   6.4860278659e+00    0.1790129    0.1613988  44.21 0.0005825462    1.242    0.195
       162  -8.5853    172.3503    191.8215   9.7847321760e+01   1.1224345541e+01    0.2229833    0.1836374  73.55   0.00108736    1.558    0.358
       163  -9.1902    139.5356    190.6192   1.0406931589e+02   1.7185743992e+01    0.3468062     0.236669  83.31  0.001052814    2.150    0.535
       164 -10.4052     92.3180    188.8395   1.1341041278e+02   2.5113616276e+01    0.8689112     0.215594  49.90  0.003034796    3.986    0.749
       165  -8.8178    148.4222    189.2132   1.0209193164e+02   1.5877225529e+01    0.2459957    0.1243321 -60.04 0.0009732961    2.813    0.644
       166  -8.9533    129.3119    188.7377   1.0585287538e+02   1.9252533173e+01    0.2783388    0.1880064  75.50 0.0008575337    1.891    0.471
       167  -8.3128    237.1491    188.3811   8.5682125149e+01   4.0144299197e-01    0.1957157    0.1435879  -5.51 0.0005250584    1.298    0.230
       168  -8.8594    216.5956    187.8630   8.9076923682e+01   3.9452522068e+00    0.2256671     0.213559 -62.84  0.000787145    1.530    0.346
       169  -9.3009    156.0167    187.4752   1.0031992690e+02   1.4819934059e+01    0.2893187    0.2118172 -65.05 0.0009400112    1.780    0.438
       170  -9.8129    120.9228    186.8478   1.0729623848e+02   2.0990814272e+01    0.4737034    0.2631519 -78.61  0.002128158    2.967    0.663
       171  -8.9269     34.4066    188.4458   1.2499227698e+02   3.2555247259e+01    0.2652921    0.1079836  65.63  0.001034879    2.401    0.583
       172  -9.2729    242.3310    188.0693   8.4777421712e+01  -4.1085608569e-01    0.1660413    0.1336408  -2.18 0.0005013096    1.144    0.126
       173  -8.8410    191.3795    187.5153   9.3552027848e+01   8.4526631164e+00    0.2535858     0.195944  74.11 0.0009903442    1.977    0.494
       174  -8.8735    164.8059    186.6751   9.8467261536e+01   1.3373464881e+01    0.2784699    0.1857941 -63.09 0.0009053221    2.136    0.532
       175  -9.1875     54.7125    186.9773   1.2086337910e+02   3.0533223526e+01    0.3540025    0.1684555  71.16  0.001702479    2.289    0.563
       176  -8.1539    230.4478    187.2761   8.6598707517e+01   1.6500490564e+00    0.1710698    0.1157213 -25.66 0.0008241154    1.548    0.354
       177  -8.3437    230.8580    183.3210   8.5809429062e+01   2.0638734141e+00     0.182712    0.1522536  -0.63  0.001101437    1.129    0.114
       178  -9.2982    109.5314    186.1955   1.0954930543e+02   2.2961186102e+01    0.3403237    0.2112349  69.82    0.0011179    1.864    0.464
       179  -8.5937    249.0911    185.5321   8.3227200014e+01  -1.2143070038e+00    0.1972504    0.1589254 -32.14 0.0008480699    1.542    0.352
       180  -8.9349    182.7908    185.1208   9.4748690075e+01   1.0354822382e+01    0.2756921    0.2098586 -28.08  0.001051712    1.503    0.334
       181  -8.7720    202.7755    184.7191   9.0974440528e+01   6.8013050095e+00    0.2156606    0.1735211 -46.65 0.0007316875    1.591    0.371
       182  -8.9812     66.6481    184.4698   1.1820707267e+02   2.9522085242e+01    0.3312058    0.1692022  69.02  0.001069521    2.118    0.528
       183  -8.5281    224.0639    183.6090   8.7017230856e+01   3.1943647533e+00    0.2065665    0.1705951 -41.33 0.0007339524    1.572    0.364
       184  -8.5772    210.1888    184.2047   8.9551037828e+01   5.5494930875e+00    0.1862036    0.1503031  16.11 0.0005202825    1.117    0.105
       185  -8.9954    174.2315    183.6318   9.6131188757e+01   1.2141524711e+01    0.2430004    0.1987233  76.20 0.0006852184    1.616    0.381
       186  -8.1558      2.0723    183.8256   1.3089144721e+02   3.6494543885e+01    0.1809266   0.08920345  47.73  0.001210253    1.689    0.408
       187  -8.9947    241.3059    181.9480   8.3822769738e+01   4.7101981027e-01    0.3123005    0.2454241 -71.44  0.001709547    2.804    0.643
       188  -9.0076     44.2026    182.2740   1.2258916219e+02   3.2680755094e+01    0.2838706    0.1482355  77.02 0.0008620897    1.873    0.466
       189  -9.3224    147.5472    180.6703   1.0093280476e+02   1.7476016863e+01    0.3195818     0.238113  86.69  0.001219802    1.839    0.456
       190  -9.5553     25.5142    178.8864   1.2609575490e+02   3.5324599335e+01    0.5990167    0.2020729  76.32  0.002362066    4.237    0.764
       191  -8.7437    137.5318    179.3514   1.0277608320e+02   1.9491176474e+01    0.2735441    0.1874457  76.54 0.0008574398    1.969    0.492
       192  -9.3062    191.5667    178.4707   9.1921830305e+01   9.7360319105e+00    0.2761303    0.2154725  59.36 0.0006357797    1.520    0.342
       193  -9.0670     35.8603    176.6174   1.2384156761e+02   3.4715509140e+01    0.4161303    0.1560398  76.74  0.001696996    3.775    0.735
       194  -8.4917    250.5146    172.8614   8.0622745523e+01   1.3022153531e-02    0.1991318    0.1532065  17.38 0.0004900946    1.090    0.082
       195  -9.0873    248.9960    177.4849   8.1745293661e+01  -2.7709477043e-01    0.2335887    0.2077204  14.87  0.001170973    1.227    0.185
       196  -8.6345    247.3204    174.2930   8.1406742797e+01   3.7564173789e-01    0.2457058    0.1516998  -7.14 0.0009860739    1.688    0.408
       197  -8.8474    231.2249    177.3059   8.4628294847e+01   2.7491934588e+00    0.2486561    0.1850132 -33.47 0.0007459662    1.521    0.343
       198  -8.6112    217.5748    177.2331   8.6964866191e+01   5.1655222092e+00    0.2488051    0.1852643 -48.62  0.001223448    1.832    0.454
       199  -8.5902    205.1033    177.6524   8.9271210385e+01   7.3648418727e+00    0.2104707    0.1722229 -38.12 0.0006799196    1.433    0.302
       200  -8.0033    169.2369    178.4527   9.6217844232e+01   1.3880817986e+01    0.1790073    0.1140163  52.16 0.0004629036    1.542    0.352
       201  -8.7241    129.1252    177.5806   1.0425161145e+02   2.1282918989e+01    0.2680802    0.1894089  82.25  0.001102532    1.824    0.452
       202  -9.0875     89.0793    177.1540   1.1269356615e+02   2.7837370262e+01    0.2695661    0.1798233  81.83  0.000868908    1.611    0.379
       203  -8.4149     85.8663    173.1245   1.1288593542e+02   2.9109153867e+01    0.1812074    0.1568012  68.88 0.0002608396    1.045    0.043
       204  -9.2629    183.1879    176.1837   9.3100581206e+01   1.1640269641e+01     0.272591    0.2267986 -67.91 0.0006486494    1.643    0.392
       205 -10.8557    101.6711    175.7572   1.0981739454e+02   2.6185924196e+01    0.4155565    0.2439324  39.09            0    1.640    0.390
       206  -9.9483     57.3102    173.1793   1.1904852971e+02   3.2949926737e+01    0.7320178    0.2968398  78.57  0.002525138    4.999    0.800
       207  -9.1058     12.8372    176.4891   1.2845972785e+02   3.6984119719e+01     0.281106    0.1205932  70.54  0.001436544    2.077    0.519
       208  -9.4243    158.7128    175.0022   9.7725068891e+01   1.6404777365e+01     0.326865    0.2421569  83.75 0.0009408223    1.971    0.493
       209 -10.7248     75.9809    170.2874   1.1469487193e+02   3.1091688564e+01      1.09492    0.4171873 -78.49  0.003854226    4.498    0.778
       210  -8.2629    224.5006    174.4850   8.5240905328e+01   4.2923808094e+00      0.19834    0.1157524 -42.08 0.0007226903    2.103    0.524
       211  -8.0128    241.2309    174.5473   8.2441869676e+01   1.3714251786e+00    0.1756397    0.1005905  31.10 0.0007381072    1.590    0.371
       212  -9.6682    175.7642    172.1622   9.3815714934e+01   1.3672651505e+01    0.3153503    0.2284466 -37.19 0.0008490549    1.548    0.354
       213  -8.6267    152.4723    173.0403   9.8662124414e+01   1.7899092017e+01    0.2232163     0.168191  33.44 0.0005340038    1.294    0.227
       214  -8.6528    149.8094    169.7640   9.8649463310e+01   1.8969789848e+01    0.2502169    0.2040169  86.54 0.0007107343    1.509    0.337
       215  -8.3928    143.0138    172.8052   1.0058306175e+02   1.9677861378e+01    0.2196725    0.1711423 -79.44 0.0005785545    1.602    0.376
       216  -8.4372    134.8656    172.0868   1.0217831020e+02   2.1279224270e+01     0.208192    0.1645533  69.14 0.0006492791    1.338    0.252
       217  -9.6948    121.3946    170.3941   1.0478989258e+02   2.3964494425e+01    0.3636702    0.2492188 -80.55  0.001058698    1.840    0.457
       218  -8.9144     45.1674    171.1967   1.2144931120e+02   3.4788091347e+01    0.3016476    0.1542331  76.83  0.001140301    2.024    0.506
       219  -8.9974    230.3302    170.3801   8.3455336490e+01   3.7900994695e+00    0.2217163    0.1507377 -28.36 0.0005949102    1.513    0.339
       220  -8.4659    205.7022    170.0997   8.7740717984e+01   8.3288485013e+00     0.252545    0.1702609 -52.83  0.001003308    2.103    0.524
       221  -8.5418    198.4039    170.3696   8.9139772570e+01   9.6604618797e+00    0.2127672    0.2018828  49.83 0.0006571474    1.235    0.190
       222  -8.2605    237.1121    169.6926   8.2184274243e+01   2.6827483396e+00    0.1996789    0.1621974 -29.42 0.0006166755    1.374    0.272
       223  -8.2819    244.4210    169.2659   8.0903471178e+01   1.4714475199e+00    0.1584957    0.1110429 -33.97 0.0004125384    1.581    0.368
       224  -9.1543    166.9144    168.5587   9.4923893366e+01   1.5950262507e+01    0.2750199     0.212871  67.84 0.0008112639    1.562    0.360
       225  -8.4159     88.9408    169.0017   1.1168682037e+02   2.9482617556e+01     0.210782    0.1319628  69.13  0.001115917    1.700    0.412
       226  -8.2879    218.8183    168.1670   8.5013522077e+01   6.1665918376e+00    0.1805353    0.1729925  15.02 0.0005379507    1.230    0.187
       227  -7.9670    211.3857    168.2112   8.6345166760e+01   7.5369326331e+00    0.1705868    0.1212044 -43.21 0.0004818572    1.687    0.407
       228  -8.9359    191.8945    166.7410   8.9673502872e+01   1.1448171681e+01     0.253545    0.1900916 -41.36 0.0007199142    1.509    0.337
       229  -9.0071    111.5212    167.5479   1.0650475856e+02   2.6192676601e+01    0.3137466    0.2040578  70.11  0.001147113    1.786    0.440
       230  -8.2580     13.4761    167.9780   1.2782943530e+02   3.8617526708e+01    0.1557958   0.06474392  73.89 0.0005963545    2.290    0.563
       231  -8.5273    185.1131    166.6662   9.0963774326e+01   1.2764395453e+01     0.211436    0.1859833 -57.09  0.000767239    1.400    0.286
       232 -10.1177     95.1920    163.2025   1.0949956625e+02   2.9705460681e+01    0.7601911    0.3736517  72.87  0.002685236    4.119    0.757
       233  -9.1413     20.4280    166.0153   1.2626256935e+02   3.8388365665e+01    0.3137232    0.1244871  62.71  0.001147657    2.397    0.583
       234  -8.4944    140.6557    166.3193   9.9984167867e+01   2.1290209398e+01    0.2654021    0.1456874  51.92 0.0008095381    1.761    0.432
       235  -9.7801    135.6489    163.9584   1.0065379048e+02   2.2650926444e+01    0.3827712    0.2587157  62.29  0.001128806    1.614    0.380
       236  -7.9311    250.6429    165.2333   7.9116311558e+01   9.0091586085e-01    0.1703104    0.1044261 -14.91 0.0006451127    1.601    0.375
       237  -8.2384    233.9423    164.9514   8.1781262576e+01   3.8499008457e+00    0.1927369    0.1669063   4.60 0.0005420347    1.069    0.064
       238  -8.7023    159.6368    164.3333   9.5638003202e+01   1.8069924999e+01    0.2670953    0.2072129  77.06  0.000795049    1.668    0.401
       239  -9.4664     33.6402    163.5123   1.2325768641e+02   3.7612538315e+01    0.4939105    0.1496431  54.87  0.002054261    3.310    0.698
       240  -8.0986    240.1833    164.1919   8.0595264996e+01   2.8390764418e+00    0.1604457    0.1478671 -26.31 0.0005640411    1.344    0.256
       241  -8.5897    212.9046    163.6890   8.5183882375e+01   7.8946735257e+00    0.2339996     0.184715 -35.03 0.0006108143    1.400    0.286
       242  -8.8273    246.0437    162.9711   7.9400626538e+01   1.9673364520e+00    0.1926968    0.1612375   9.41 0.0004445569    1.025    0.024
       243  -8.4172    204.8597    163.0163   8.6514532278e+01   9.5225569137e+00    0.1861597    0.1821882  84.12 0.0005103177    1.301    0.231
       244  -9.3935      3.3015    162.3593   1.2958946609e+02   4.0594954778e+01    0.3470463    0.1283018  57.42  0.001890125    2.311    0.567
       245  -9.1161    177.5604    160.9899   9.1358114590e+01   1.5155094227e+01    0.2786452    0.2271472 -80.81   0.00104962    1.723    0.420
       246  -8.9661    151.4826    160.8978   9.6714063617e+01   2.0247545607e+01    0.3004336    0.2234621  84.83  0.000947458    1.875    0.467
       247  -8.7767     60.6570    160.2853   1.1694518942e+02   3.5197843579e+01    0.3279024    0.1719978  74.05  0.001474822    2.237    0.553
       248  -8.5927    245.2118    158.2996   7.8594824139e+01   2.6980194073e+00    0.2811311    0.2007245   2.53 0.0007866394    1.351    0.260
       249  -9.5708    242.9744    154.9875   7.8279638522e+01   3.5191076567e+00    0.6120567    0.1875196 -26.28  0.002144639    3.855    0.741
       250  -9.7784    105.8532    158.1317   1.0632047632e+02   2.9024431571e+01    0.4754231    0.2823396  75.01  0.001235959    2.396    0.583
       251  -9.7101    250.2038    157.7841   7.7695182759e+01   1.8879384532e+00    0.3027842    0.1622709 -27.71 0.0008141953    1.786    0.440
       252  -8.3820    237.1823    159.1373   8.0075105824e+01   4.0242344667e+00     0.163964    0.1513932 -33.09 0.0005355995    1.358    0.263
       253  -8.3537    128.0172    159.0185   1.0147461377e+02   2.4989615543e+01    0.2186209    0.1577685  77.37 0.0006854274    1.700    0.412
       254  -8.4001    196.8930    157.9556   8.6991287356e+01   1.1836657185e+01    0.2006369    0.1701925  87.36 0.0006771293    1.686    0.407
       255  -8.2618    188.0320    157.9963   8.8702135800e+01   1.3578990491e+01    0.2005564    0.1701384 -88.23 0.0005509856    1.641    0.391
       256  -9.2131    167.6952    157.3169   9.2642943525e+01   1.7724804670e+01    0.3074941    0.2343646  87.74  0.001153567    1.935    0.483
       257  -8.0064     79.2259    158.5882   1.1249515011e+02   3.3053490146e+01    0.1691656    0.1205957  29.38 0.0009479087    1.702    0.412
       258  -8.5403    217.8740    156.6359   8.2873380708e+01   7.9576298171e+00    0.2477092    0.1842016 -37.03 0.0008616498    1.475    0.322
       259  -9.1641    157.5603    155.9076   9.4485464636e+01   1.9973341441e+01    0.3419109    0.2314814 -56.24  0.001298908    1.747    0.428
       260  -9.2991    119.5881    155.3522   1.0273506910e+02   2.7227464060e+01     0.394208    0.2607557 -87.46  0.001505165    2.115    0.527
       261  -9.4241     81.9197    155.0733   1.1139101801e+02   3.3405224673e+01    0.4760674    0.2479071  72.79  0.001902929    2.826    0.646
       262  -9.0718     49.4043    155.0806   1.1893801653e+02   3.7664591043e+01     0.362622    0.1842954  75.29  0.001781982    2.251    0.556
       263  -7.7193    204.5272    155.4989   8.5059438761e+01   1.0712730512e+01     0.135451     0.123483  23.16 0.0001311755    1.056    0.053
       264  -8.6368    144.7078    155.0933   9.7091564942e+01   2.2622809344e+01    0.3125394    0.1820655  57.56  0.001199568    1.903    0.474
       265  -9.7221    132.8163    153.0339   9.9337880518e+01   2.5275153623e+01    0.4533701    0.3124953  77.41   0.00137153    1.964    0.491
       266  -8.8646    133.4992    148.5099   9.8339955745e+01   2.6036569078e+01    0.2977023     0.216841 -43.59  0.001554387    1.513    0.339
       267  -9.3554     67.8804    153.7714   1.1449745829e+02   3.5644395052e+01    0.3810883    0.2082123  70.40  0.001301688    2.146    0.534
       268  -7.8208    239.7076    153.3134   7.8466027523e+01   4.3281761167e+00    0.1159748    0.1041395 -58.73 0.0002241445    1.593    0.372
       269  -8.8994    151.6613    152.5266   9.5092149548e+01   2.1752225421e+01    0.3930571    0.1888087 -48.16  0.001092509    2.282    0.562
       270 -10.2623    148.9400    145.0587   9.4205271145e+01   2.3697925229e+01    0.5517932    0.3736317 -89.82  0.001608576    2.516    0.603
       271  -9.0582    150.3194    136.7629   9.2170970959e+01   2.5010639007e+01    0.5703738    0.3562482  13.17  0.002129947    3.152    0.683
       272 -10.5090     54.6205    144.1921   1.1645265730e+02   3.9404091439e+01    0.8601127    0.3959539  78.91  0.003154783    3.477    0.712
       273  -9.4288     19.9813    152.5117   1.2537201546e+02   4.1225324420e+01    0.2252808    0.1217555  80.80 0.0006839315    1.640    0.390
       274  -8.6796     98.2698    150.8388   1.0691917706e+02   3.1781095570e+01    0.2930694    0.1913291 -89.54 0.0009199397    1.900    0.474
       275  -9.5463     29.5104    150.8511   1.2308352526e+02   4.0688002338e+01     0.413768    0.1695847  67.75  0.001869856    2.842    0.648
       276  -9.0127      3.0119    150.7032   1.2898168063e+02   4.2998655546e+01    0.3186169    0.1146609  89.60  0.001573757    2.501    0.600
       277  -9.5166    248.8324    149.4993   7.6207829494e+01   3.1724111944e+00    0.3292244    0.1726286 -27.34 0.0007110287    1.813    0.449
       278  -9.0504    246.9305    143.7660   7.5299795172e+01   4.2574318151e+00    0.2713542    0.1721385 -26.07 0.0005821167    1.484    0.326
       279  -8.1849    250.4816    140.9676   7.4147456383e+01   3.9717357900e+00    0.1861794    0.1543849  -6.99 0.0004693181    1.059    0.056
       280  -8.4040    227.4426    159.2555   8.1740247624e+01   5.7909070452e+00    0.2389692    0.1471129 -43.37   0.00121388    1.978    0.495
       281  -8.9599    189.4396    150.3548   8.6865789148e+01   1.4535810822e+01    0.2921851    0.2301041 -60.31 0.0009216605    1.658    0.397
       282  -8.0257    182.4153    151.2395   8.8435794414e+01   1.5813191717e+01     0.183056    0.1334265 -51.29 0.0006236596    1.625    0.384
       283  -8.5077    162.5728    150.7528   9.2410740150e+01   1.9908463749e+01     0.185599     0.135855 -57.48 0.0009074163    1.620    0.383
       284  -9.6317    238.1743    150.0297   7.8033472436e+01   5.0443865365e+00     0.342495    0.1365536  37.54  0.001275679    2.549    0.608
       285  -8.2157    212.9231    149.9326   8.2364319693e+01   9.8947938217e+00    0.1902866    0.1687159 -79.64 0.0003896613    1.596    0.373
       286  -9.9979     39.9303    147.9082   1.2038558055e+02   4.0259293492e+01    0.5016293    0.2162497  66.70  0.001972556    2.836    0.647
       287  -8.2773    198.8305    149.0717   8.4789329536e+01   1.2841110258e+01    0.1959723    0.1856352 -70.36 0.0005266671    1.310    0.237
       288 -10.1661     89.2210    146.4126   1.0837154970e+02   3.4155742935e+01    0.6099142    0.3274189  86.31  0.002345736    3.334    0.700
       289  -9.0832    233.3965    147.6147   7.8315968893e+01   6.2647184479e+00    0.2453022    0.1883199 -24.29  0.001047398    1.271    0.213
       290  -9.1272     78.1473    147.4178   1.1119254693e+02   3.5591233793e+01    0.2853891    0.1722348  75.67  0.001397767    1.986    0.497
       291  -8.0860    223.3035    146.9625   7.9896272214e+01   8.2932661035e+00    0.1861285    0.1613578 -14.96 0.0004339588    1.130    0.115
       292  -9.5943    139.1232    145.0173   9.6390652508e+01   2.5643158598e+01     0.445884    0.2888654 -74.85  0.001216774    2.316    0.568
       293 -10.3129    106.4897    144.0845   1.0382917782e+02   3.1836372930e+01    0.7318826    0.4421034  84.85  0.002161478    2.663    0.624
       294  -9.2802     13.1116    146.2340   1.2644100636e+02   4.3140741272e+01    0.2964165    0.1282292  64.03  0.001089255    2.238    0.553
       295  -7.8404    206.5354    146.5009   8.2801024749e+01   1.1686705220e+01     0.138247    0.1259579  17.48 0.0002693668    1.024    0.023
       296  -8.2443    175.4514    146.3030   8.8815490240e+01   1.8077466782e+01    0.2292919    0.1705287  66.80 0.0006630518    1.667    0.400
       297  -8.6052    240.2107    145.2391   7.6688885493e+01   5.3058320231e+00    0.1805152    0.1596164  13.94 0.0005582139    1.075    0.070
       298  -9.5232    243.1171    142.2903   7.5590324836e+01   5.1572010925e+00    0.3667292    0.2106779 -14.47  0.001779734    1.898    0.473
       299  -8.8142    165.7293    144.3373   9.0425913897e+01   2.0425634601e+01    0.2864452    0.2227093  60.39 0.0007139868    1.387    0.279
       300  -9.9277    125.2173    142.4405   9.9086385522e+01   2.8817963950e+01    0.6522492    0.3819779 -68.09  0.002203139    2.264    0.558
       301  -7.9042    194.3763    144.1578   8.4592639883e+01   1.4536178851e+01    0.1908683    0.1293568 -47.45  0.000519433    1.710    0.415
       302 -11.0488     69.2879    140.5027   1.1235480461e+02   3.8339970964e+01    0.6720061    0.4297576 -84.29  0.002441893    1.615    0.381
       303  -9.5276      2.5876    141.4674   1.2849682229e+02   4.4960365754e+01    0.4121311    0.1535859  79.52  0.001965677    2.723    0.633
       304  -8.4692    182.1127    141.7885   8.6498099020e+01   1.7476313793e+01    0.2329979    0.1926512 -52.07 0.0005587801    1.387    0.279
       305  -8.4468    134.3242    139.7939   9.6444151662e+01   2.7615045090e+01    0.1999907    0.1290264 -39.77 0.0008882679    1.753    0.429
       306 -10.0189     23.4999    138.2357   1.2334741851e+02   4.3969895461e+01    0.5222162    0.2222443  67.62   0.00239804    2.677    0.626
       307  -8.8656    172.1092    138.3236   8.7795436038e+01   2.0180428405e+01    0.3206168    0.2217124 -66.13 0.0008767906    2.086    0.521
       308  -8.6491    240.9938    137.4960   7.4893138600e+01   6.2019691503e+00    0.3643673    0.1666918 -12.96  0.001214163    3.645    0.726
       309  -7.9029    218.5364    138.5539   7.8904860542e+01   1.0465735624e+01    0.1383178    0.1244023  11.15 4.236989e-05    1.006    0.006
       310  -8.2171    207.6692    138.1239   8.0765654063e+01   1.2751698774e+01    0.2113844     0.171878 -52.69 0.0007989439    1.507    0.337
       311  -8.4711    197.3981    137.6029   8.2575642745e+01   1.4972994549e+01    0.2594107    0.2065492 -46.50  0.000815211    1.417    0.294
       312  -9.1245    139.7121    137.6366   9.4759948389e+01   2.6984915034e+01    0.3183368    0.2136507  18.90  0.001157775    2.208    0.547
       313  -8.6771     80.9992    137.7614   1.0901310444e+02   3.7284342826e+01    0.1868058    0.1645343  60.72  0.001149429    1.108    0.097
       314 -10.3143     83.3512    132.8613   1.0760539932e+02   3.8015256403e+01    0.4954967    0.2948931 -77.90  0.001221411    1.939    0.484
       315  -9.7227     83.8277    124.1325   1.0593144200e+02   3.9889020125e+01    0.6696447     0.442562  -9.12   0.00272102    3.434    0.709
       316  -8.3513    162.6235    136.7078   8.9455649698e+01   2.2467677127e+01    0.2391927    0.1828947 -55.33 0.0007120071    1.478    0.323
       317  -9.2880     39.2880    136.5617   1.1931023178e+02   4.2810110438e+01     0.265001    0.1561025  68.25 0.0008826511    1.706    0.414
       318  -8.8627    248.3909    135.4003   7.3268968254e+01   5.0866904316e+00    0.2338538    0.1752908 -26.15 0.0006954439    1.261    0.207
       319  -8.0561    187.8471    135.8210   8.4036718903e+01   1.7284863119e+01    0.1856504    0.1695687 -65.88 0.0004774806    1.303    0.232
       320  -8.7417    179.4459    133.8273   8.5279655087e+01   1.9419546492e+01    0.3217807    0.2248169 -53.29 0.0007966633    1.698    0.411
       321  -7.9119    237.5640    133.8194   7.4637657099e+01   7.3668492187e+00     0.182642    0.1180217 -39.67 0.0008843256    1.655    0.396
       322  -8.2099    231.4820    134.0062   7.5677913407e+01   8.5352959865e+00    0.2004723     0.126936 -28.16 0.0004392901    1.525    0.344
       323 -10.0138    132.6518    131.4956   9.5113932644e+01   2.9624439681e+01    0.6271399    0.4028139  80.07  0.001696074    2.624    0.619
       324 -10.9265    132.0366    120.0139   9.2717190388e+01   3.2107680372e+01    0.8275821    0.5257388 -82.61  0.002815556    2.881    0.653
       325  -9.2768    112.7144    133.2785   1.0030106905e+02   3.3033860076e+01    0.3288801    0.2283298  83.07 0.0008749086    1.899    0.474
       326  -9.1310    143.0558    131.8227   9.2752868342e+01   2.7465135136e+01    0.3300006     0.249376 -82.30 0.0008045278    1.751    0.429
       327  -8.3047    102.9585    118.7589   9.9808982453e+01   3.7923679799e+01    0.2778033    0.1132635  38.09  0.001039487    2.639    0.621
       328 -10.4893     98.1834    130.1723   1.0333682619e+02   3.6240576626e+01    0.6793794    0.3137061 -59.43  0.001649323    2.221    0.550
       329  -8.8351    250.7303    130.1584   7.1759605529e+01   5.3413085695e+00    0.3923438     0.112574 -27.25  0.001321516    3.676    0.728
       330  -8.3107    246.8912    130.3057   7.2381124562e+01   6.0487619831e+00    0.2194576    0.1636727 -34.82 0.0006126706    1.369    0.270
       331  -9.8105    153.0777    128.2902   8.9684899294e+01   2.6073043752e+01    0.6876158    0.2740189 -46.36  0.002328794    2.654    0.623
       332  -7.6578    220.7379    129.9871   7.6597672854e+01   1.1294170310e+01    0.1733566    0.1163586 -28.63 0.0003729374    1.462    0.316
       333  -7.8536    204.4619    130.2490   7.9580095160e+01   1.4665985977e+01    0.1926998    0.1318028 -46.19 0.0009287852    1.651    0.394
       334  -8.3029    192.8135    130.1658   8.1776195514e+01   1.7174256700e+01    0.2075326    0.1990666 -73.72 0.0004817894    1.214    0.176
       335  -8.1172    186.3906    130.1556   8.3039775707e+01   1.8562427256e+01    0.1995364     0.134563 -48.13 0.0004616615    1.666    0.400
       336  -9.1966    168.3360    129.6152   8.6643202922e+01   2.2562064882e+01     0.293771    0.2330562 -87.44 0.0008062517    1.716    0.417
       337 -10.0758     73.0312    128.6626   1.0956699562e+02   4.0460247141e+01    0.4834205    0.2560685 -66.96  0.001789966    1.831    0.454
       338  -8.1437    211.4518    129.2503   7.8071306692e+01   1.3343315474e+01    0.1912482    0.1303363 -43.35 0.0007604982    1.604    0.377
       339 -10.7787     45.0463    123.6616   1.1621301392e+02   4.5086025033e+01       1.0662    0.4749478  76.09  0.003843294    4.157    0.759
       340 -10.0820    118.0052    125.1037   9.7310853398e+01   3.3795919380e+01    0.5950294      0.41229 -88.33  0.001670657    2.018    0.504
       341 -10.4615     60.0459    125.2227   1.1244251814e+02   4.2968986112e+01    0.6473156    0.3418133  74.37  0.002540277    2.740    0.635
       342  -7.7449    228.3523    125.6629   7.4312413524e+01   1.0367181473e+01    0.1370889    0.1101638 -67.61 0.0007044561    1.794    0.443
       343  -8.8835    179.1161    124.9097   8.3290557798e+01   2.1063614594e+01    0.2904955    0.2322789  55.97 0.0006558079    1.298    0.230
       344  -7.4155    244.2707    124.6389   7.1518312895e+01   7.3232090717e+00     0.130844    0.1008806 -51.65   0.00063254    1.651    0.394
       345  -7.8735    188.4270    124.2048   8.1245307015e+01   1.9138385746e+01    0.1978488     0.137144 -47.56 0.0005360355    1.597    0.374
       346  -7.8700    203.3392    122.1236   7.7890139223e+01   1.6214415397e+01    0.2061862    0.1256219 -44.41 0.0004863742    1.787    0.440
       347  -7.8926    195.1554    122.1988   7.9455062030e+01   1.7996543456e+01    0.1946972    0.1717371 -65.21 0.0004162289    1.366    0.268
       348  -8.8558    172.0107    121.5991   8.3985305317e+01   2.3226148735e+01    0.2621651    0.2053867 -58.33   0.00043291    1.489    0.328
       349  -8.9210    158.4381    121.5467   8.6919466261e+01   2.6218727653e+01    0.3039769    0.2453813 -78.59 0.0008321966    1.568    0.362
       350  -9.7038     71.1332    119.7961   1.0855485082e+02   4.2729037430e+01    0.4068159    0.2189342 -74.45  0.001082357    2.070    0.517
       351 -10.6414     28.1915    121.4772   1.2042040892e+02   4.7259762445e+01    0.8490768    0.3670331  86.82    0.0036626    2.911    0.656
       352 -10.0360    141.6546    117.7865   8.9882842171e+01   3.0565543594e+01     0.738387    0.3697416 -45.61  0.001294945    2.047    0.511
       353  -9.0217     16.0333    119.2637   1.2339124308e+02   4.8776643143e+01    0.3650322    0.1914249 -16.47  0.001558641    4.800    0.792
       354  -9.8642      3.1852    117.5446   1.2658390093e+02   5.0072122769e+01    0.4850946    0.1926652  70.60  0.002252931    2.867    0.651
       355  -7.5228    231.5156    117.5218   7.1900913479e+01   1.0898998466e+01    0.1382672    0.1277305  -8.60 0.0001384994    1.052    0.050
       356  -8.6521     58.3345    116.2225   1.1146271789e+02   4.5231778994e+01    0.3045838    0.1609383 -31.49  0.001150634    3.970    0.748
       357  -8.3719    192.9801    115.4649   7.8244304855e+01   1.9612495398e+01    0.2607193    0.1977135 -50.36 0.0005231019    1.482    0.325
       358  -8.2826    185.5593    116.0471   7.9847140188e+01   2.1184763581e+01    0.2173833    0.1439719 -38.35 0.0004449723    1.534    0.348
       359 -10.0525    109.2083    114.1472   9.7155322677e+01   3.7801790864e+01    0.5332695    0.3269045 -70.72  0.001327329    2.130    0.530
       360  -9.0086    109.3500    107.3445   9.5538212760e+01   3.9254107358e+01    0.2579508    0.1842944  20.70 0.0009381113    1.893    0.472
       361 -10.3228     12.8245    129.3145   1.2515167167e+02   4.6807619160e+01    0.5034882    0.2311763  79.76  0.002514743    2.201    0.546
       362  -9.9911     78.8260    112.4579   1.0505079310e+02   4.3282449062e+01    0.5481921    0.3470149  84.10  0.001850572    2.200    0.545
       363  -8.7522     78.3208    105.6119   1.0378662467e+02   4.4911929142e+01    0.2817964    0.1941346 -35.13  0.001019288    1.790    0.441
       364  -8.1498    167.4122    114.2676   8.3180219049e+01   2.5601329183e+01    0.2019294    0.1420609 -49.79 0.0004546371    1.538    0.350
       365 -10.2336     92.6994    112.3290   1.0118519065e+02   4.1112164548e+01     0.621412    0.3463747 -72.23  0.001340036    2.379    0.580
       366  -9.0022     93.9373    104.5220   9.9102770092e+01   4.2644647582e+01    0.3157678    0.2329389  -8.00  0.001378805    2.143    0.533
       367 -10.2807    133.4628    110.0186   8.9980059791e+01   3.3874042360e+01    0.6776751    0.3500492 -46.33  0.002204157    1.958    0.489
       368 -10.1866    121.9366    112.5906   9.3497730713e+01   3.5692808943e+01    0.3657562    0.2843558 -84.28 0.0008955869    1.574    0.365
       369 -10.8608    109.4897     99.1868   9.3489898707e+01   4.0992943546e+01    0.9386486    0.4838314  64.89  0.002462374    3.693    0.729
       370  -8.9952    108.0235     92.6140   9.2181279036e+01   4.2686504871e+01    0.4489692    0.2787155  24.68  0.001871797    2.290    0.563
       371  -9.9280     14.3181    111.4966   1.2304445750e+02   5.0640964291e+01    0.4083315    0.1974062  64.46  0.001753966    2.294    0.564
       372  -8.5218    174.7523    111.9060   8.1028419057e+01   2.4370562331e+01    0.2726866    0.2015974 -56.79 0.0007571654    1.589    0.371
       373  -8.6070    159.1871    111.7430   8.4357130452e+01   2.7924746415e+01    0.2556527     0.200296 -52.75 0.0005485035    1.371    0.271
       374 -10.3321     66.3322    109.8525   1.0807662772e+02   4.5654625305e+01     0.574849    0.3233436 -70.40  0.002217349    1.787    0.440
       375  -7.7416    149.6789    110.2996   8.6162173249e+01   3.0320284764e+01    0.1513526    0.1200933 -89.29 0.0002851954    1.624    0.384
       376 -10.5095    248.9669    107.6270   6.6895007831e+01   8.7197736945e+00    0.5454174    0.2543979 -31.38  0.002425598    1.935    0.483
       377 -10.1731    249.5303    100.9678   6.5245389031e+01   9.5142780783e+00    0.3755289    0.2800417  15.35  0.002039205    1.471    0.320
       378  -8.9597     43.4213    109.5837   1.1460443175e+02   4.8470790106e+01    0.2744395    0.1327915  21.97  0.001262296    2.893    0.654
       379  -8.0378    189.3938    108.2112   7.7129432724e+01   2.1662417136e+01    0.2100135    0.1366136 -45.14  0.000714018    1.629    0.386
       380  -9.7044    140.0403    104.3549   8.6934274072e+01   3.3618210061e+01    0.5078759    0.3334186 -56.69  0.001498943    1.722    0.419
       381 -10.6835     45.6764    102.4794   1.1278241992e+02   4.9860123916e+01    0.7870753    0.4073133  76.11  0.003130723    3.117    0.679
       382  -9.4263     46.0512     92.5981   1.1087360487e+02   5.2089562116e+01    0.4111977    0.2459263   6.42  0.001951858    2.812    0.644
       383 -10.7543     22.9567    102.8904   1.1956966981e+02   5.1914805490e+01    0.6971623    0.3357834  73.24  0.002725453    2.734    0.634
       384  -8.4465    163.0034    104.9667   8.1774892901e+01   2.8339436194e+01    0.2277831    0.2146461  16.58            0    1.084    0.077
       385  -8.6344    166.6383    104.1540   8.0768210810e+01   2.7652588398e+01    0.2594047    0.2253437 -64.39 0.0006601762    1.292    0.226
       386  -9.5247    150.6239    103.3337   8.4151233877e+01   3.1471666192e+01    0.4268315    0.2875692 -67.34  0.001356612    2.071    0.517
       387 -10.0947      6.9245    102.8249   1.2418865621e+02   5.3090987530e+01    0.4186165    0.1969617 -87.61  0.001890805    1.924    0.480
       388 -10.7211    127.9453    102.2618   8.9402997870e+01   3.6633459827e+01    0.5639076    0.3734922  46.40  0.001497158    1.509    0.337
       389  -8.0504    175.5423    102.0982   7.8338817395e+01   2.5952812282e+01    0.2245525    0.1484578 -37.76 0.0005256454    1.522    0.343
       390  -8.2794    159.6887    101.1365   8.1501909736e+01   2.9823159411e+01    0.2375851    0.1834716 -57.89 0.0005025548    1.461    0.315
       391  -9.4039     81.8680     99.8676   1.0149415203e+02   4.5666538088e+01    0.3726851    0.2509289 -81.94 0.0009108557    1.873    0.466
       392 -10.3299     63.8524     96.4081   1.0612146866e+02   4.9063634744e+01    0.7002712     0.370639 -75.02  0.001990836    2.356    0.576
       393  -9.0206     65.4113     88.0149   1.0376890884e+02   5.0763352891e+01    0.6200467    0.3344541  10.87  0.002220405    4.303    0.768
       394  -8.5057    219.6132     98.9256   6.9324261595e+01   1.6245353602e+01    0.2451923    0.1859359  38.07  0.001253323    1.350    0.259
       395  -9.3874     94.8332     97.0684   9.7066337214e+01   4.4142987034e+01    0.3321581    0.2505562 -73.53 0.0006012867    1.479    0.324
       396  -8.6717    151.0971     95.6838   8.1988986396e+01   3.2843723225e+01    0.4225703    0.2549811  -4.95  0.001330129    3.887    0.743
       397  -8.2213    164.8059     94.0960   7.8466786206e+01   2.9934952317e+01    0.2358932    0.2020243 -67.65 0.0005621467    1.333    0.250
       398  -8.0989    182.5399    109.1046   7.8718213577e+01   2.3085402932e+01    0.2317691    0.1455238 -39.18  0.001025598    1.609    0.378
       399  -8.2974    176.2328     93.2234   7.5813409025e+01   2.7365295048e+01    0.2113708    0.1792053 -68.19  0.000547845    1.373    0.272
       400  -9.5584    139.0422     91.9429   8.3838396574e+01   3.6316137685e+01    0.4596987    0.2868128 -48.72  0.001326923    1.659    0.397
       401 -10.9089    124.0253     90.8109   8.7346953653e+01   3.9823273498e+01    0.7828653    0.5793865 -18.61  0.002329089    1.731    0.422
       402  -9.6155      5.4311     92.3575   1.2347333965e+02   5.5524691968e+01    0.3147468    0.1729179  68.75  0.001219005    1.985    0.496
       403  -7.5789    157.7852     91.9798   7.9433593130e+01   3.1986474016e+01    0.1982209    0.1246524 -37.51 0.0008450659    1.604    0.377
       404  -9.7979     34.8848     89.9560   1.1392653759e+02   5.3828031186e+01    0.4399619    0.2341558  89.07  0.001761943    2.481    0.597
       405  -8.2317    150.6493     89.2232   8.0290980722e+01   3.4180914652e+01    0.2133539    0.1445865 -28.94 0.0003310763    1.611    0.379
       406 -10.1300     86.3828     86.2349   9.6797183149e+01   4.7976273554e+01    0.5950006    0.3613628 -64.48  0.001318596    1.861    0.463
       407  -7.8284    164.0000     87.0619   7.6673616125e+01   3.1408104621e+01    0.2469839   0.08766011 -36.65 0.0005055097    2.830    0.647
       408  -9.8998     48.5317     83.9242   1.0830719440e+02   5.3797226991e+01    0.5502781    0.3464807 -84.50  0.002202428    1.921    0.480
       409  -9.8086    104.6678     83.1114   9.0508162062e+01   4.5352655635e+01    0.4560085    0.3226435 -75.82  0.000965181    1.946    0.486
       410  -8.5312    105.0192     77.4850   8.8761812698e+01   4.6458368524e+01     0.344809     0.214492  -2.77     0.001145    3.891    0.743
       411  -8.2442    157.7374     83.9722   7.7164698586e+01   3.3477143851e+01    0.2164108     0.194565 -37.30 0.0003442705    1.115    0.103
       412  -9.2475    140.8930     82.6561   8.0716362881e+01   3.7701994627e+01    0.3967984    0.2096054 -44.72  0.001020473    1.917    0.478
       413  -9.1292     22.6926     90.2330   1.1784524632e+02   5.4816459504e+01    0.2403411    0.1875509 -36.85 0.0008680966    1.486    0.327
       414  -9.7059     24.5961     80.5591   1.1563418801e+02   5.6864441254e+01    0.4118051    0.2182812  87.95  0.001424037    2.419    0.587
       415  -9.7419      9.7283     80.9567   1.2064888663e+02   5.7823539849e+01      0.30444     0.165393  64.44 0.0009908944    2.241    0.554
       416  -8.5401    150.1838     80.5768   7.7888157010e+01   3.5910452908e+01    0.3157559    0.1892122 -53.50 0.0007493778    1.965    0.491
       417  -9.0135    119.3006     80.0763   8.5517950355e+01   4.3009400293e+01    0.4418332    0.2480129 -51.66  0.001319156    1.905    0.475
       418  -8.7700     74.6595     80.6611   9.8986723988e+01   5.1076247301e+01    0.2703629    0.1971567 -72.40 0.0007087743    1.534    0.348
       419  -8.1003    166.8410     79.7753   7.3961853396e+01   3.2012635259e+01    0.2062433    0.1797993 -67.60  0.000415492    1.283    0.221
       420  -7.5508    184.2708     78.3344   7.0051092250e+01   2.7941793168e+01    0.1548429    0.1185111  12.61 0.0003446809    1.594    0.373
       421  -7.4062    174.6942     78.3098   7.1915935802e+01   3.0324392820e+01    0.1561085    0.1207007 -70.37 0.0003628575    1.613    0.380
       422 -10.0665     63.4699     74.1818   1.0095042165e+02   5.4123879350e+01    0.6317028    0.2935504 -66.75  0.002441535    2.867    0.651
       423  -9.2927    128.2602     75.5890   8.1770207190e+01   4.1939805661e+01    0.3788857    0.2504995 -61.47 0.0007574043    1.935    0.483
       424  -7.7560    157.0057     76.5073   7.5121977897e+01   3.5002010055e+01    0.2004177    0.1386608  87.12  0.000425729    2.176    0.540
       425  -8.7073    140.6331     75.5902   7.8653153731e+01   3.9098232681e+01    0.2603195    0.1767889 -56.14 0.0007086012    1.712    0.416
       426  -9.7414     82.3267     72.6264   9.4271619659e+01   5.1602085018e+01    0.4814168    0.2960362 -63.98   0.00129764    1.944    0.486
       427  -8.6751     83.3173     65.3641   9.1730827282e+01   5.2960070322e+01    0.2770427    0.1540672 -19.23 0.0009318339    3.839    0.740
       428  -8.1384    163.3668     73.2193   7.2748086014e+01   3.4010729263e+01     0.225204    0.1376354 -44.63 0.0006400959    1.689    0.408
       429  -8.3160    151.4030     73.2745   7.5400883152e+01   3.6944996710e+01    0.2200885    0.1413872 -46.41  0.000940789    1.622    0.383
       430  -8.8743    115.7018     72.6745   8.4245269330e+01   4.5249320338e+01    0.3414218    0.1903466 -44.22   0.00067586    1.757    0.431
       431  -9.3484    105.9073     71.8699   8.6786465438e+01   4.7429183832e+01    0.3068789    0.2032859 -49.67 0.0006513272    1.508    0.337
       432  -8.4757     42.5844     72.7866   1.0783027935e+02   5.6962131437e+01    0.2456194    0.1753811 -89.44 0.0009057182    1.672    0.402
       433  -7.6990    175.5007     72.5611   7.0067268373e+01   3.1087234846e+01    0.1522633     0.149233  23.87 0.0001712053    1.016    0.016
       434  -9.6379     94.8493     70.2000   8.9584841351e+01   4.9904667498e+01    0.6402855    0.2561255 -50.65  0.002337664    2.583    0.613
       435  -9.4398     51.4924     69.6929   1.0391531237e+02   5.6650733827e+01    0.4724123    0.2461997 -73.32  0.001632148    2.654    0.623
       436  -9.6049     29.5680     69.9317   1.1183463981e+02   5.8849145486e+01    0.5418287    0.2521251 -32.69  0.002358397    3.104    0.678
       437  -9.0640     16.7045     70.0885   1.1649320798e+02   5.9809823516e+01    0.2829827    0.1634284  86.06 0.0009593157    2.081    0.519
       438  -8.0297    156.8510     69.8399   7.3121517776e+01   3.6211660543e+01    0.2089669    0.1829881 -69.22 0.0004120223    1.276    0.216
       439  -8.6506    147.0405     68.4407   7.4899352508e+01   3.8866127281e+01    0.2931148    0.2051156 -51.27 0.0006218223    1.560    0.359
       440  -8.9090    138.4333     66.4213   7.6304509764e+01   4.1297944691e+01    0.3430935    0.2444424 -54.17 0.0009262431    1.578    0.366
       441  -9.0815    121.5344     66.0231   8.0514727120e+01   4.5265870382e+01    0.3487173    0.2412974 -56.06 0.0008631712    1.664    0.399
       442  -8.4448    120.5478     62.5086   7.9618163699e+01   4.6140891779e+01    0.2473926    0.1978075  36.07 0.0006952411    1.297    0.229
       443  -8.8918     64.3587     63.8887   9.7730826097e+01   5.6234968480e+01    0.5141127     0.299046 -16.72  0.002021607    3.304    0.697
       444  -8.8968    110.3040     63.7986   8.2907960294e+01   4.8116254507e+01    0.3125099    0.2310629 -64.71 0.0007298825    1.694    0.410
       445  -8.7196     37.4300     64.4244   1.0768230475e+02   5.9348097634e+01    0.2677103    0.1728842  75.97  0.001056629    2.344    0.573
       446  -7.1354    187.3309     63.6621   6.5214736261e+01   2.9509103916e+01    0.1622307    0.1156719 -65.43 0.0006808778    1.738    0.425
       447  -7.9810    158.2609     61.9551   7.0339719428e+01   3.7193675697e+01    0.2121846    0.1981802 -37.16 0.0003964163    1.076    0.071
       448  -8.0064     52.0366     61.8366   1.0157385401e+02   5.8301478775e+01    0.2098008    0.1421196 -15.19  0.001073975    2.003    0.501
       449  -9.4996     97.7241     60.4442   8.5528350629e+01   5.1312085045e+01    0.3825879     0.301811 -38.84  0.001281002    1.208    0.172
       450  -9.5916     73.2876     59.3980   9.3198626197e+01   5.5839184521e+01    0.4276482     0.227793 -56.65  0.001202086    2.038    0.509
       451  -7.5141    164.3307     60.2738   6.8542603569e+01   3.5927454225e+01    0.1582582    0.1165126  26.56 0.0002826276    1.592    0.372
       452  -8.6994     88.9864     59.7149   8.8040337294e+01   5.3103206035e+01    0.2615966    0.1715497 -54.43 0.0008121018    1.633    0.388
       453  -9.9613     23.5788     56.6451   1.1109193447e+02   6.2282993763e+01    0.4610934    0.2642601  85.71  0.002193542    2.798    0.643
       454  -8.4398    130.8257     58.0971   7.5438050758e+01   4.4575802697e+01    0.2318156    0.2024911 -64.96 0.0004665379    1.290    0.225
       455  -9.5199      7.4693     57.1357   1.1752122857e+02   6.3250353812e+01    0.2802384    0.1716516  87.22 0.0009927563    1.864    0.464
       456  -9.4408    119.1564     55.6565   7.7653419908e+01   4.7695284250e+01    0.4668459    0.2310196 -46.10  0.001293812    2.151    0.535
       457  -9.5197     54.3654     55.7438   9.8885353108e+01   5.9307246374e+01    0.3561254    0.2165455 -65.28  0.001477724    1.899    0.473
       458  -8.3914    139.8756     56.1527   7.2564289976e+01   4.2735478589e+01    0.2321276    0.2043492 -59.07 0.0004494611    1.237    0.192
       459  -8.9725     44.2272     55.7502   1.0276078419e+02   6.0520651166e+01     0.250382    0.2076751 -80.97 0.0009000037    1.401    0.286
       460  -8.6384    105.6711     53.1864   8.0598609910e+01   5.1071578586e+01    0.2284024    0.1761054 -54.79 0.0006213403    1.451    0.311
       461  -9.3913     92.4111     50.7012   8.3779489182e+01   5.4194179784e+01    0.3829762    0.2258704 -52.17  0.001113949    1.918    0.479
       462  -8.4448     75.0847     51.6983   8.9962500239e+01   5.7097385881e+01    0.2826824    0.1690798  11.37  0.001136583    2.960    0.662
       463  -7.8635    216.6814     50.3370   5.6812642216e+01   2.3993950644e+01    0.1562287    0.1039844 -59.56 0.0007049189    1.704    0.413
       464  -7.8696    149.9623     48.9510   6.7838299963e+01   4.1380863369e+01    0.1806463    0.1764342  30.04 0.0004255625    1.006    0.006
       465  -8.4714    144.5528     49.0842   6.9072398232e+01   4.2726207903e+01    0.2298097    0.1482479 -32.68 0.0005760515    1.552    0.355
       466  -8.5008    129.7321     48.9794   7.2540674626e+01   4.6379513231e+01    0.2128388    0.1900305 -29.43 0.0003819342    1.114    0.103
       467  -8.7913    120.8404     47.4797   7.4284073958e+01   4.8718021313e+01    0.2555192    0.2038584 -30.95 0.0005616575    1.239    0.193
       468  -8.6087    112.0834     46.6805   7.6378303322e+01   5.0832934063e+01    0.2783982    0.1934324 -49.88  0.000674019    1.596    0.373
       469  -8.8336     82.0673     46.6530   8.5707929107e+01   5.6864816406e+01    0.2632641    0.2089718 -56.07 0.0006565841    1.416    0.294
       470  -8.4962     45.0911     44.7456   9.8957684104e+01   6.2716782050e+01    0.2108811    0.1577686 -59.61 0.0004436366    1.353    0.261
       471  -8.9404     16.7641     44.7071   1.1091257383e+02   6.5357907423e+01    0.2311345    0.1413386 -72.53 0.0007420462    1.635    0.388
       472  -8.9414    132.9489     43.7348   6.9872097218e+01   4.6438186617e+01    0.2892051    0.2143463 -43.10 0.0007788836    1.402    0.286
       473  -8.5698     92.6999     42.8600   8.0745466759e+01   5.5551667472e+01    0.3194574    0.1743186 -25.28  0.001336072    2.141    0.533
       474  -8.9841     58.2230     42.7198   9.2980299281e+01   6.1426991552e+01    0.2975962     0.198292 -65.69   0.00109254    2.043    0.511
       475  -9.4987      5.2685     42.2919   1.1530462934e+02   6.6570797361e+01      0.32541    0.1755282 -83.25  0.001634433    2.171    0.539
       476  -9.2830     69.4817     41.6445   8.8286280976e+01   5.9933728853e+01     0.351767    0.2261421 -59.82 0.0009045702    2.042    0.510
       477  -8.6160    105.8981     41.3555   7.6132799536e+01   5.3077117958e+01    0.2459172    0.1903253 -43.63 0.0005880002    1.339    0.253
       478  -7.6491    140.2729     41.3331   6.7310074262e+01   4.4987289023e+01    0.1542145    0.1144164  17.89  0.000698898    1.596    0.373
       479  -8.6988     36.8760     41.1036   1.0116571243e+02   6.4365371120e+01    0.1817241    0.1589235 -69.90 0.0005360553    1.311    0.237
       480  -8.6319     95.4085     38.1671   7.8045696281e+01   5.5808246121e+01    0.2622138    0.2025349 -58.27 0.0008685336    1.613    0.380
       481  -8.2149     80.6973     36.9346   8.2397711864e+01   5.8857089169e+01    0.1975595    0.1626736 -33.88 0.0004468085    1.145    0.126
       482  -9.3073     26.1973     35.5564   1.0401662004e+02   6.6515506639e+01    0.2646822     0.194839 -72.33 0.0008272539    1.593    0.372
       483  -7.7527    133.5023     36.4405   6.7068173412e+01   4.7395186932e+01    0.1468312    0.1436181  31.76 0.0001112681    1.031    0.030
       484  -8.4584    111.7970     34.8416   7.1918866963e+01   5.2801088586e+01    0.2588975    0.1893816 -49.56  0.000586078    1.557    0.358
       485  -8.5815    119.2810     33.5650   6.9434852680e+01   5.1258087668e+01    0.2684649    0.1652624 -41.69 0.0007794228    1.706    0.414
       486  -9.0942     48.4678     33.2128   9.3322727374e+01   6.4558478921e+01    0.2802992    0.2015379 -51.81 0.0007823754    1.400    0.286
       487  -8.2911    125.9303     35.7015   6.8592681596e+01   4.9357231899e+01    0.2032473    0.1850787  51.80 0.0003692787    1.106    0.096
       488  -8.5688     72.0170     31.2363   8.3138273629e+01   6.1366151827e+01    0.2256518    0.1814381 -56.70 0.0006453621    1.541    0.351
       489  -8.4879    218.6294    248.1186   9.8067265613e+01  -3.1187069935e+00    0.1753148    0.1290259 -41.17  0.001125824    2.046    0.511
       490  -8.5792     60.7499     32.5985   8.8027113832e+01   6.2948630115e+01    0.2360246    0.1617218 -39.37 0.0004354289    1.313    0.238
       491  -8.8626     81.6466     27.5222   7.8108403716e+01   6.0231960870e+01     0.274127    0.2158659 -56.63 0.0009021215    1.630    0.387
       492  -8.5715      3.7098     27.8746   1.1229819921e+02   6.9647439074e+01    0.1988418    0.1343031 -75.22 0.0006923291    1.554    0.356
       493  -8.7873     91.6570     26.2155   7.4251431315e+01   5.8453581597e+01    0.2941632    0.2133609 -52.42 0.0009025062    1.718    0.418
       494  -8.0104     34.2562     23.3982   9.5684915106e+01   6.8071013848e+01    0.1454108    0.1135665  37.30 0.0003484258    1.588    0.370
       495  -7.5705    104.3429     22.7012   6.8979480501e+01   5.6223123218e+01    0.1386955    0.1117721 -68.71 0.0005440719    1.671    0.402
       496  -9.0625     63.6254     21.0348   8.1800704840e+01   6.4442546814e+01    0.3322657    0.1888546 -47.25 0.0009710178    2.014    0.504
       497  -8.7844     48.4238     21.7765   8.8483275968e+01   6.6613369428e+01    0.2095509    0.1850458 -53.09 0.0007007473    1.400    0.286
       498  -7.7528    120.5270     21.0235   6.4114989021e+01   5.2658764380e+01     0.208817    0.1070552 -48.35 0.0008095494    2.505    0.601
       499  -8.9871     74.1601     19.7854   7.7246058088e+01   6.2802256452e+01    0.3013139    0.1840664 -44.36 0.0008458951    1.825    0.452
       500  -7.7002     19.3918     21.6895   1.0230441806e+02   6.9816767142e+01    0.1076293   0.08984239  76.97 0.0007009862    1.831    0.454
       501  -8.2670    101.7196     29.7277   7.2692816934e+01   5.5807120168e+01    0.1877318    0.1660052 -60.47   0.00103888    1.364    0.267
       502  -8.1155     87.8435     17.7989   7.1696315897e+01   6.0425748924e+01    0.1803314    0.1574958 -44.70 0.0004676552    1.331    0.249
       503  -8.1532     38.6048     17.8329   9.1157076095e+01   6.8556279705e+01    0.2411346   0.09961244 -41.64  0.001137574    2.057    0.514
       504  -8.0341    112.6591     16.8491   6.4290243713e+01   5.5053205243e+01    0.1980381     0.121805 -35.17 0.0003523059    1.674    0.403
       505  -8.0677     30.1835     16.2241   9.4525065580e+01   6.9797539724e+01    0.1512838    0.1328731 -49.88 0.0004727968    1.345    0.257
       506  -7.8161      7.3401     15.6776   1.0636077839e+02   7.1841737776e+01    0.1013802   0.08544265  83.33 0.0007050661    1.721    0.419
       507  -7.3255    119.6952     11.3349   6.0298769949e+01   5.3987899415e+01    0.1428881    0.1074243 -59.38 0.0007038956    1.666    0.400
       508  -8.1656    191.0001    249.4987   1.0269562664e+02   7.7909673378e-01    0.1504316   0.07688653  54.25 0.0008100386    2.493    0.599
       509  -7.7681     47.6783     10.3191   8.3254255178e+01   6.8557676957e+01    0.1121032   0.09841107 -60.62 0.0003287722    1.669    0.401
       510  -9.0226    175.7260    247.8850   1.0501457501e+02   3.2365941176e+00    0.2714794    0.1621867  57.56  0.001288469    2.044    0.511
       511  -8.7483    156.2377    248.2579   1.0830754915e+02   6.1139080349e+00    0.1992565    0.1466341  62.73 0.0009517875    1.537    0.349
       512  -8.3636    113.0496    248.7748   1.1560467694e+02   1.2344769049e+01     0.172512    0.1194638  81.51  0.001179999    1.702    0.412
       513  -9.1559    104.1103    247.2101   1.1696564452e+02   1.3810573384e+01    0.3448779    0.1845628  88.05   0.00188688    2.973    0.664
       514 -10.0308    223.9060    244.1296   9.6689167992e+01  -3.4952627476e+00    0.3488724    0.1994599 -40.86  0.002253341    2.579    0.612
       515  -9.4025    211.0320    246.4031   9.9052125906e+01  -1.8512734469e+00    0.1966769    0.1553185  -7.24  0.000962583    1.435    0.303
