#   1 NUMBER                 Running object number                                     
#   2 MAG_AUTO               Kron-like elliptical aperture magnitude                    [mag]
#   3 X_IMAGE                Object position along x                                    [pixel]
#   4 Y_IMAGE                Object position along y                                    [pixel]
#   5 X_WORLD                Barycenter position along world x axis                     [deg]
#   6 Y_WORLD                Barycenter position along world y axis                     [deg]
#   7 A_WORLD                Profile RMS along major axis (world units)                 [deg]
#   8 B_WORLD                Profile RMS along minor axis (world units)                 [deg]
#   9 THETA_WORLD            Position angle (CCW/world-x)                               [deg]
#  10 FWHM_WORLD             FWHM assuming a gaussian core                              [deg]
#  11 ELONGATION             A_IMAGE/B_IMAGE                                           
#  12 ELLIPTICITY            1 - B_IMAGE/A_IMAGE                                       
         1 -13.6331    140.7590     92.1605   7.4845848484e+01   3.6100206747e+01     2.161712     1.073531 -49.94  0.006239139    2.193    0.544
         2 -14.0436     15.7935     74.5677   1.1094585564e+02   5.9355482008e+01     1.370804    0.8484696 -64.79  0.005408972    1.348    0.258
         3 -12.1909    128.6898     64.6277   6.9464303961e+01   4.4194362404e+01     1.231466    0.7179316 -47.95  0.005181719    1.881    0.468
         4 -12.3013      2.0334     21.3711   1.0262698214e+02   7.0991730679e+01      1.03523    0.1675145 -55.69  0.003756251    4.496    0.778
         5 -13.4524     12.1079     43.5736   1.0487114340e+02   6.6185573889e+01     1.382326    0.5074874 -35.83  0.006109695    2.548    0.607
         6 -13.7779      6.4379     32.0185   1.0400519099e+02   6.8777449197e+01     1.642529    0.4363174 -48.64  0.007588336    2.454    0.593
         7 -12.7337     85.0212     42.0573   7.4350293918e+01   5.7259789251e+01     1.060867    0.7235619 -32.52  0.003992761    1.427    0.299
         8 -13.3683     85.9671     27.2290   6.8049376807e+01   5.9269063190e+01     1.508246    0.9790467  58.57  0.006630991    1.894    0.472
         9 -12.7067     31.3418     39.1710   9.4654159845e+01   6.5499113783e+01    0.8768036    0.4845024 -43.14  0.003901766    1.496    0.331
        10 -13.2155     49.2901     27.9502   8.2188867063e+01   6.5329799573e+01     1.206177    0.7265313  31.30  0.004927717    1.690    0.408
        11 -12.2636    201.2804     39.5521   4.7797884537e+01   3.0001161710e+01    0.5216181    0.4305086  78.79  0.002043095    1.162    0.139
        12 -11.9715     25.2329     23.4196   9.1407107086e+01   6.8883053644e+01    0.6878749    0.3514133 -50.04  0.003721704    2.018    0.504
        13 -12.4431    121.5848     20.3697   5.5607013407e+01   5.2313633532e+01     1.066055    0.8316361 -84.57  0.005684395    1.646    0.392
        14 -12.5982     69.9900     20.8682   7.0789152081e+01   6.3093858032e+01    0.9324672    0.6109461  48.17  0.003381154    1.670    0.401
        15 -11.9932     63.4671      8.3334   6.7345897196e+01   6.5756597838e+01    0.6686279    0.5522959 -37.91  0.003357215    1.551    0.355
        16 -11.7178    226.6888     14.3991   3.8673162169e+01   2.7011755238e+01     0.630442    0.4733139 -67.23  0.003807446    1.168    0.144
        17 -12.4703     80.9615      7.8485   6.1176094628e+01   6.2534360959e+01     0.919551     0.564424 -33.27  0.004463538    1.806    0.446
        18 -10.8272    249.2841      9.5844   3.5788822827e+01   2.2517319485e+01    0.5316176    0.2423498 -38.31  0.002735142    1.911    0.477
        19 -11.4541     41.1855      8.9554   7.6914053638e+01   6.9172236586e+01    0.6701738    0.4155416 -12.66  0.003297706    1.517    0.341
        20 -10.9852     34.7897      8.3476   7.9630086144e+01   7.0097440386e+01    0.4787116     0.263593   4.75  0.002522592    2.197    0.545
        21 -12.6156    123.8266      3.7797   4.8979079283e+01   5.3400475352e+01     1.540882    0.4548995  63.24   0.00566565    2.897    0.655
        22  -9.6474     90.9722      2.9811   5.6115581693e+01   6.0930703966e+01    0.2073679    0.1743199  29.77  0.001082557    1.016    0.016
        23 -10.5778      3.1556    184.3226   1.2686257221e+02   3.4994202828e+01    0.3176223     0.158695  76.80  0.001834483    1.706    0.414
        24 -11.2723    241.6997    249.9423   8.7184914644e+01  -1.0933725985e+01    0.5115358    0.1654076  35.22  0.002451283    2.586    0.613
        25 -10.9707    218.2054    249.6768   9.1238242771e+01  -7.6563114425e+00    0.5917724    0.1893193  35.81  0.002682135    2.579    0.612
        26 -13.0576    161.8528    248.3749   1.0143357896e+02   1.0681621710e+00     1.832877     0.482135  37.92   0.00577143    3.190    0.686
        27 -14.5825    137.8098    241.8062   1.0519457914e+02   5.8865462613e+00      2.56804      1.48637  46.13   0.01447321    1.430    0.301
        28 -14.0254     69.7154    245.7865   1.1846252681e+02   1.5251239867e+01     1.395804    0.7973886 -89.05  0.007405802    1.887    0.470
        29 -14.4274     43.4847    198.2751   1.1962234874e+02   2.7956019642e+01     1.726165    0.9286168  79.06  0.009181209    1.850    0.459
        30 -15.4515     28.7913    177.2943   1.2094324264e+02   3.4193720113e+01     2.845414     1.099185 -81.88   0.01268734    2.508    0.601
        31 -15.0668     74.1164    214.7283   1.1484833143e+02   2.0571211404e+01     2.372165     1.293636  62.28   0.01077715    1.778    0.438
        32 -13.7084     12.5205    216.8410   1.2691376651e+02   2.7416130466e+01     1.718181     0.450898 -75.69  0.007861408    3.220    0.689
        33 -14.3959     27.4514    247.3974   1.2593767684e+02   2.0096159602e+01     1.082754    0.3683878  50.62  0.006027075    2.104    0.525
        34 -15.2897      6.0959    246.2820   1.2936873539e+02   2.2515674165e+01     1.040498    0.9175294  48.27  0.007883335    1.582    0.368
        35 -14.3800      4.1999    233.7511   1.2915890309e+02   2.4974469941e+01    0.8319788    0.3197113  84.38  0.004641098    2.311    0.567
        36  -9.8343     66.1585    175.4117   1.1218089356e+02   3.0227380776e+01    0.2404467    0.1802277 -47.67 0.0008310148    1.594    0.373
        37  -9.4454     76.0469    165.4966   1.0844429294e+02   3.1165839108e+01    0.1991743    0.1732335 -80.74 0.0004921345    1.067    0.063
        38  -9.2591     82.4971    159.1145   1.0585077617e+02   3.1726570526e+01    0.2105961    0.1304433 -62.01 0.0007709899    1.538    0.350
        39 -12.8494    226.6824    136.1026   6.8002096370e+01   8.2300376463e+00     1.901494     0.698042 -41.39  0.006999177    2.563    0.610
        40 -10.4222     70.4044    145.2401   1.0675861546e+02   3.6833980566e+01    0.3803391    0.2822669 -62.69  0.001173506    1.243    0.196
        41 -10.7543     67.5181    142.5054   1.0708600298e+02   3.7898034362e+01    0.4022819    0.3139541  79.08  0.001627057    1.314    0.239
        42 -10.8816      3.4877    145.5304   1.2406215477e+02   4.3639066316e+01    0.3497643    0.2325431  79.19  0.001349159    1.309    0.236
        43 -10.8126    143.1448    142.6573   8.7219799036e+01   2.4570960674e+01     0.464547    0.3972927 -54.81  0.001635645    1.190    0.159
        44 -10.0942     85.8216    142.6105   1.0213926429e+02   3.5189558781e+01    0.2537101    0.2123236 -55.88 0.0003974118    1.172    0.147
        45 -10.1559    248.3203    139.0810   6.5031551652e+01   3.6079714687e+00    0.2511714    0.2130263  51.90  0.001485954    1.412    0.292
        46 -10.0822     42.9461    123.9812   1.1097013637e+02   4.5398006574e+01    0.3629898    0.2105197 -87.14  0.001717344    1.965    0.491
        47 -13.6894     58.5632    174.1856   1.1382099585e+02   3.1507268602e+01     1.849019    0.7990588 -71.72  0.006366419    2.236    0.553
        48 -15.4051    101.1012    240.7241   1.1214888068e+02   1.1731049619e+01     3.139189     1.799409 -85.06   0.01677607    2.353    0.575
        49 -12.7736    208.0893    203.2036   8.5383673634e+01   3.5371804279e-01     1.513663    0.8860755 -54.99  0.006934199    2.753    0.637
        50 -12.0608      2.4871     77.6448   1.1636219520e+02   5.9405807993e+01    0.9766861    0.2368407 -70.23  0.003687367    3.407    0.707
        51 -12.2406      7.3239     62.6005   1.1169176741e+02   6.2487216210e+01    0.5824856     0.405021 -64.40  0.002435694    1.223    0.183
        52 -12.5726    204.2153    221.2404   8.9279618594e+01  -1.7358750202e+00    0.8532647    0.6739691  14.41  0.004095179    1.122    0.109
        53 -13.4326     25.6781     94.1251   1.1124555461e+02   5.4155787872e+01    0.8159787    0.7323044 -84.97  0.003084153    1.175    0.149
        54 -12.5272     24.4678     86.0634   1.1012823209e+02   5.6127120186e+01    0.6097583    0.4412327 -80.70  0.003450077    1.431    0.301
        55 -12.7930    225.1236     88.2035   5.6861328377e+01   1.6854173890e+01     1.351611    0.8938044 -20.89  0.005822216    1.775    0.436
        56 -13.0697    241.6700     81.8869   5.2966455992e+01   1.4271239878e+01     1.314538    0.9919941 -66.34  0.004986754    1.424    0.298
        57 -11.2253    196.4063     88.0695   6.1628389874e+01   2.3541358051e+01    0.5348371    0.3095594 -24.43  0.002145546    2.094    0.522
        58 -11.7456    189.0643     80.5258   6.0943982791e+01   2.6651218909e+01    0.7637415    0.4920571 -52.11   0.00336929    1.634    0.388
        59 -12.8403      2.5736     95.8509   1.1906048638e+02   5.5251510217e+01     1.445527    0.2811602 -73.44   0.00463842    4.612    0.783
        60 -13.4290    196.6935    207.0465   8.8289995901e+01   1.6935483153e+00     1.266273    0.9277402 -37.20  0.007274124    1.485    0.327
        61 -11.7911    130.3130     53.9737   6.5496236324e+01   4.5629402087e+01    0.7745193    0.5313657  -7.23  0.003445123    1.917    0.478
        62 -12.1523     66.5150     67.1219   8.9870682831e+01   5.5708936084e+01    0.7493851    0.6826959  51.62  0.003133407    1.329    0.247
        63 -11.1548     74.6070     63.5045   8.5777598746e+01   5.5200513982e+01    0.5643876    0.4757598  32.01  0.002166031    1.258    0.205
        64 -10.5612     88.6820     60.2702   7.9825538726e+01   5.3393531683e+01    0.5447128    0.3113953  37.82   0.00248322    1.800    0.445
        65 -13.2830    206.0079     53.1122   5.0745991355e+01   2.6920927326e+01     1.070639     0.862715  72.75   0.00444523    1.235    0.191
        66 -13.1927    198.2319    238.6570   9.3197984899e+01  -3.2560096862e+00     0.911593    0.6481979  33.35   0.00366893    1.173    0.147
        67 -13.2363    191.7569    229.2886   9.2966042556e+01  -9.0060975612e-01     1.119286     0.603638  43.88  0.004925827    1.732    0.423
        68 -12.0494    242.7590    224.7924   8.2872462402e+01  -8.1033674291e+00    0.5505182    0.4797379  -8.16  0.003962622    1.288    0.224
        69  -9.2607    112.5861     50.1928   6.8885486435e+01   5.0300257640e+01    0.2089562    0.1374489 -19.40 0.0009502196    1.731    0.422
        70 -10.8363     71.0155     44.8413   8.0390885797e+01   5.9261967382e+01    0.9352313    0.3529938  29.78   0.00324295    3.734    0.732
        71 -11.9168    248.1599    239.4813   8.4410393667e+01  -1.0614066455e+01    0.5063369    0.3234667 -10.53  0.002616723    1.457    0.314
        72 -11.4045    249.2813    231.0880   8.2824100352e+01  -9.7836973394e+00    0.4225258    0.2916155 -18.10  0.001884526    1.345    0.257
        73 -10.6409     81.3761    238.0786   1.1564879596e+02   1.5052968725e+01    0.2879036    0.2214295 -84.67  0.001042736    1.338    0.253
        74 -11.7532     48.9105     37.0211   8.6107454118e+01   6.3878122087e+01    0.5989653    0.4221189 -22.35  0.002650921    1.282    0.220
        75 -12.0791    232.5194    231.5775   8.5817049755e+01  -7.4861755720e+00    0.6419653    0.3601369  35.63  0.003063597    1.591    0.371
        76 -12.5338    163.3534    226.9015   9.8149943415e+01   4.1511591250e+00    0.9471286    0.8941203  20.02  0.005200182    1.132    0.117
        77  -9.2365     39.7955    233.5799   1.2299144711e+02   2.1241099968e+01    0.1523532    0.1035104  59.91 0.0006234608    1.135    0.119
        78 -11.0512    216.4178     25.1312   4.2260424806e+01   2.8164446245e+01    0.3364458      0.24751  42.90  0.001224789    1.692    0.409
        79 -12.5673    181.0392    210.7496   9.2045226028e+01   3.7964141686e+00     1.039341    0.7161844  44.47  0.004781385    1.380    0.275
        80 -13.7636      5.2488    208.6315   1.2780443438e+02   2.9742568768e+01     1.509585    0.7214581 -76.75  0.009206209    1.781    0.439
        81 -12.4291    165.7448    210.9685   9.5194960220e+01   6.4282426105e+00    0.9568404    0.7092078  -2.67  0.005142362    1.754    0.430
        82 -10.9237    247.7276    206.0800   7.8681747041e+01  -6.3887112919e+00    0.4067986    0.2968218   5.77  0.002572557    1.196    0.164
        83 -10.2031    192.5155     17.1822   4.2885724901e+01   3.4939256027e+01    0.2862406    0.2239178  83.93  0.001628125    1.170    0.145
        84 -11.7319     12.9107    192.6713   1.2542837192e+02   3.2352087212e+01    0.6931622    0.2713144  84.11  0.003178903    2.570    0.611
        85 -12.2564     37.6413    156.0647   1.1674838605e+02   3.8202473924e+01     1.077995    0.8919149  85.08  0.006936968    1.047    0.045
        86 -12.7423     48.1140    144.4203   1.1259046997e+02   3.9854042492e+01     1.063538    0.7700896  82.24  0.005575754    1.365    0.267
        87 -12.0022     62.7672    162.0017   1.1124938611e+02   3.3825000408e+01    0.5371672    0.2771454 -51.67  0.001448394    2.043    0.511
        88 -13.3711     56.7128    156.6759   1.1204668790e+02   3.5871144074e+01     1.112729    0.6862009 -89.77   0.00437191    1.708    0.414
