#   1 NUMBER                 Running object number                                     
#   2 MAG_AUTO               Kron-like elliptical aperture magnitude                    [mag]
#   3 X_IMAGE                Object position along x                                    [pixel]
#   4 Y_IMAGE                Object position along y                                    [pixel]
#   5 X_WORLD                Barycenter position along world x axis                     [deg]
#   6 Y_WORLD                Barycenter position along world y axis                     [deg]
#   7 A_WORLD                Profile RMS along major axis (world units)                 [deg]
#   8 B_WORLD                Profile RMS along minor axis (world units)                 [deg]
#   9 THETA_WORLD            Position angle (CCW/world-x)                               [deg]
#  10 FWHM_WORLD             FWHM assuming a gaussian core                              [deg]
#  11 ELONGATION             A_IMAGE/B_IMAGE                                           
#  12 ELLIPTICITY            1 - B_IMAGE/A_IMAGE                                       
         1 -13.6651     68.7718    144.6616   6.9527751603e+01   3.7519764454e+01     3.549835     1.771363  85.23  0.009329366    6.072    0.835
         2 -13.1384    228.8719     42.0143   9.1922661276e+00   2.4118973038e+01    0.9627706    0.7764935  39.46  0.005926618    1.795    0.443
         3 -12.9816    214.0710     52.2744   1.3099814454e+01   2.5888849552e+01      1.00958     0.874899  50.14  0.004489758    1.409    0.290
         4 -11.3629      2.1697     23.1160   6.5882768796e+01   7.0455411587e+01    0.5469475    0.1248182 -51.34  0.002381349    3.348    0.701
         5 -11.5506      2.6660      9.0249   6.0134002443e+01   7.2640099082e+01    0.7260621    0.1757344 -49.28  0.003103477    4.026    0.752
         6  -9.3161    158.0280      8.7509   9.7785499619e+00   4.4262641828e+01    0.1835962    0.1438482  75.38 0.0004684922    1.067    0.063
         7  -9.5984    119.0117    239.7402   7.1051944554e+01   7.9596005177e+00    0.1853328    0.1539406  46.14 0.0005105184    1.037    0.036
         8 -14.3194     45.9595    238.6879   8.6326412551e+01   1.8481375069e+01     7.458163     2.697965  67.61   0.02662872    4.368    0.771
         9 -15.7061     25.9746    183.6053   8.6107305868e+01   3.2975237932e+01     10.10791     3.236338 -87.13    0.0306498    5.136    0.805
        10 -11.6879    125.7208    229.3642   6.8230381897e+01   8.9059572192e+00     0.509455    0.3137512 -46.88  0.002604169    1.877    0.467
        11 -11.7444    131.3599    227.2799   6.6694109475e+01   8.4029445851e+00    0.5512819    0.4059023 -61.65   0.00306123    1.576    0.365
        12  -9.6991     47.4551    230.9933   8.5413666672e+01   1.9892975455e+01    0.2790076    0.1533959 -71.75  0.001405769    1.808    0.447
        13 -10.3608    144.1594    229.8578   6.4256346262e+01   5.8244077984e+00    0.2024646    0.1711251  53.37  0.000560638    1.215    0.177
        14 -11.9566    112.2763    229.0919   7.1168480318e+01   1.1100310031e+01    0.6567649    0.2649391  37.09    0.0027581    2.169    0.539
        15  -8.9624    142.0777    215.8896   6.2605775873e+01   8.8818076301e+00     0.200405    0.1763235  65.54 0.0004551244    1.247    0.198
        16  -8.7879    168.0212    207.0377   5.5376959762e+01   6.1846650101e+00    0.2040594    0.1714618  85.01   0.00072092    1.629    0.386
        17  -9.1199    130.2535    206.3274   6.3810404500e+01   1.2867844017e+01     0.219733    0.2020635 -83.65 0.0006816435    1.185    0.156
        18 -14.4296      9.1596    207.1521   9.1662617281e+01   2.9192630060e+01     1.658302     1.030885  16.87  0.009623949    2.291    0.563
        19 -10.6647     72.7400    203.4769   7.7046172176e+01   2.2632311924e+01    0.3054957    0.2473731  -6.89  0.001673424    1.790    0.441
        20 -10.4550    127.1072    195.3880   6.2782840395e+01   1.5783148913e+01    0.3084569    0.2149361 -60.31 0.0009333101    1.562    0.360
        21 -10.4477    117.4884    196.9867   6.5358348920e+01   1.7090863796e+01     0.228626    0.1852758 -32.34 0.0005549508    1.471    0.320
        22  -9.6381    133.8535    193.8307   6.0906705291e+01   1.4935142461e+01     0.200959    0.1696714  68.34 0.0005814558    1.298    0.230
        23  -9.5820    191.0046    191.5118   4.7641019496e+01   5.1666161109e+00     0.273415    0.1847325 -83.59  0.001043195    3.596    0.722
        24  -9.7486     76.2771    183.4383   7.3578622595e+01   2.6848848563e+01    0.4131197    0.2270946  71.42  0.001085073    2.566    0.610
        25 -10.0121     98.9434    181.2648   6.7451243248e+01   2.3848256160e+01    0.2925695    0.2641663  54.38 0.0006748235    1.054    0.051
        26  -9.0501     61.7624    181.3065   7.6992017800e+01   2.9385132330e+01    0.3108889    0.1394848  44.86  0.001046967    2.135    0.532
        27 -12.4776     57.8252    147.9268   7.3264783605e+01   3.8167223282e+01    0.4993553    0.4438469 -16.48 0.0006285667    1.334    0.250
        28 -11.5448     72.6073    162.8955   7.1488583083e+01   3.2420195933e+01     1.110681    0.3554541 -61.83  0.002814235    2.981    0.665
        29 -11.2294     66.6992    155.1502   7.1893074856e+01   3.5183343407e+01     0.604306    0.3931368  67.05  0.001662655    1.825    0.452
        30 -11.3443     71.5217    152.6743   7.0119244857e+01   3.5125574091e+01    0.4638266    0.3559906  68.91 0.0005452979    1.410    0.291
        31 -14.1769     37.3610    177.2680   8.2690019708e+01   3.3308588218e+01     2.108828     1.072976 -80.29  0.008297388    1.921    0.479
        32 -10.2985    247.8252    166.0727   3.2133365073e+01   2.6500211623e-01     0.281449    0.2084554 -60.10 0.0006561092    1.765    0.434
        33  -8.2462    110.3061    166.7125   6.1982314634e+01   2.5392283047e+01    0.1527976    0.1142703  70.87 0.0002798768    1.569    0.363
        34  -8.4402    141.5502    160.5467   5.2759321273e+01   2.0975444754e+01    0.1516701    0.1474198  63.43 4.500394e-05    1.032    0.031
        35 -11.2094     44.1170    150.1139   7.7525929386e+01   3.9254589482e+01    0.3247466    0.2280836 -31.04  0.001061194    1.800    0.444
        36 -10.4542     33.9991    249.1545   8.9396179307e+01   1.7804451776e+01    0.4025107    0.1887421  49.05  0.002271813    1.673    0.402
        37 -11.6801     80.0092    146.8648   6.6658661657e+01   3.5317836472e+01    0.7642241    0.4908564 -36.42  0.003406958    1.886    0.470
        38  -9.9152     79.4011    137.1918   6.4989285529e+01   3.7815746542e+01    0.2941486    0.2261065  76.54 0.0008261099    1.535    0.348
        39 -11.3613     82.7957    133.7343   6.3278916284e+01   3.8138760029e+01    0.3196213    0.2669987 -54.98 0.0003756213    1.155    0.134
        40 -11.0451     40.4508    146.1388   7.8010999810e+01   4.0643445384e+01    0.3881513    0.2296883 -72.21  0.001002816    1.560    0.359
        41  -8.0736    100.6836    144.2702   6.0237418027e+01   3.2548279399e+01    0.1527734    0.1159864  70.26 0.0002188429    1.557    0.358
        42 -15.3573      7.6595    222.9213   9.2899571378e+01   2.5934665766e+01     5.436854     2.232302  17.60  0.009745977    4.964    0.799
        43  -9.8102     96.2383    135.0923   5.9589728287e+01   3.5567019582e+01    0.4859894    0.3309146   2.89  0.001994284    2.315    0.568
        44 -11.7642     59.6587    159.3604   7.4512183136e+01   3.5072287345e+01    0.5454611    0.3389404  50.40  0.001665079    1.663    0.399
        45  -9.6943    106.5897    129.0437   5.5252150075e+01   3.5157633491e+01    0.5822787    0.3239635 -33.05    0.0021767    2.439    0.590
        46 -10.2102     50.3923    130.7771   7.2623779915e+01   4.3355188841e+01    0.2617479    0.2005784  64.26  0.000839668    1.464    0.317
        47  -9.7564    134.6319    147.5824   5.1763890047e+01   2.5328700964e+01    0.4457486    0.2753499 -56.24  0.001462243    1.714    0.417
        48 -13.6296     12.8722    244.7139   9.3080411479e+01   2.0975452262e+01    0.9966093    0.4737821 -77.89  0.005853048    1.947    0.487
        49  -9.5411     94.7393    122.3725   5.7204456834e+01   3.8898422856e+01    0.3348472    0.2454645   4.95  0.001503983    1.854    0.461
        50  -9.6238     31.8552    118.0836   7.6329151928e+01   4.8409501345e+01    0.1977716    0.1920625  43.20 0.0003064337    1.160    0.138
        51  -8.7898    104.9380    116.8977   5.2863236748e+01   3.8325577627e+01    0.2160334    0.1965639  -8.63            0    1.200    0.167
        52 -10.4640     28.1686    249.9809   9.0543833667e+01   1.8304600826e+01    0.3046609     0.202901  21.33  0.001868068    2.133    0.531
        53  -9.3377    204.9368    110.5480   2.7760622443e+01   1.8173383059e+01    0.2376489     0.199749  47.57  0.001021647    1.282    0.220
        54 -11.3804     55.3763    164.5328   7.6426929171e+01   3.4330938227e+01    0.4659843    0.3436342 -16.29  0.001684484    1.951    0.487
        55 -10.1255     23.7237    105.1357   7.6833950631e+01   5.2204080509e+01    0.2519456    0.2117535  74.30  0.001215959    1.363    0.266
        56  -9.3659     12.4833    101.4851   8.0078901785e+01   5.3865843685e+01    0.1260575    0.1055102 -59.06 0.0008102594    1.007    0.007
        57 -10.0030     53.3907     95.8205   6.4491759812e+01   5.1381765060e+01    0.2113219    0.1118509 -46.67 0.0009595265    1.728    0.421
        58  -8.9056     20.4639     92.4854   7.5685207139e+01   5.5393149912e+01    0.1281953    0.1075877 -49.97 2.068059e-05    1.010    0.010
        59  -8.8275     39.9337     86.9909   6.7302120696e+01   5.4908088071e+01    0.1952126    0.1571886  65.82  0.001111095    1.630    0.386
        60 -10.8763     13.2869     60.8507   7.1659227722e+01   6.2748577089e+01    0.3380592    0.1816918 -53.67 0.0007957962    1.546    0.353
        61 -10.9291      7.8755     60.1868   7.3834421532e+01   6.3217696198e+01    0.2704129      0.13052 -53.08  0.001475629    1.632    0.387
        62  -8.8438     90.5150    247.0361   7.7923443116e+01   1.0841870047e+01    0.1725304    0.1227529 -71.66 0.0007447595    1.576    0.366
        63 -11.9128    204.7450     58.2208   1.5679040620e+01   2.7100019760e+01     0.386098    0.3405554 -86.66  0.001066625    1.038    0.037
        64 -10.9910     71.5771    242.4558   8.1408006911e+01   1.4403556492e+01    0.4257815     0.261759  88.38   0.00128011    1.815    0.449
        65 -10.2357      2.3651     51.7089   7.4231022109e+01   6.5216949864e+01    0.2238875   0.09983689 -64.79  0.001140052    2.212    0.548
        66  -9.0972     49.0733     49.0031   5.2683843183e+01   6.1483087200e+01     0.273643    0.1643525  52.26  0.001291411    2.705    0.630
        67 -14.1957      4.7451    239.2318   9.4294597440e+01   2.2870000843e+01     1.109084    0.4715485 -79.56  0.006219027    2.099    0.524
        68 -10.6273      6.6911     26.1049   6.4518865639e+01   6.9662069295e+01    0.1809673    0.1376541  12.36 0.0006767819    1.372    0.271
        69  -9.3962     60.2738     21.2252   3.7554977710e+01   6.3991995928e+01    0.2120824    0.1387969  29.77 0.0005515653    1.349    0.259
        70  -9.0361    189.4871     15.4665   7.5703283230e+00   3.6185687481e+01     0.127977    0.1049993 -89.39 0.0001855163    1.006    0.006
        71  -8.6660    111.7284    242.3561   7.2931332238e+01   8.5839485013e+00    0.1312801   0.08977576  66.10 0.0003308589    1.642    0.391
