#   1 NUMBER                 Running object number                                     
#   2 MAG_AUTO               Kron-like elliptical aperture magnitude                    [mag]
#   3 X_IMAGE                Object position along x                                    [pixel]
#   4 Y_IMAGE                Object position along y                                    [pixel]
#   5 X_WORLD                Barycenter position along world x axis                     [deg]
#   6 Y_WORLD                Barycenter position along world y axis                     [deg]
#   7 A_WORLD                Profile RMS along major axis (world units)                 [deg]
#   8 B_WORLD                Profile RMS along minor axis (world units)                 [deg]
#   9 THETA_WORLD            Position angle (CCW/world-x)                               [deg]
#  10 FWHM_WORLD             FWHM assuming a gaussian core                              [deg]
#  11 ELONGATION             A_IMAGE/B_IMAGE                                           
#  12 ELLIPTICITY            1 - B_IMAGE/A_IMAGE                                       
         1 -12.4368    213.2968     28.5313   3.9093053897e+01   2.8862466671e+01    0.8880189    0.7334492  16.06  0.003634307    1.575    0.365
         2 -12.6928    201.5817     39.6990   4.3279890385e+01   3.0165472523e+01     1.242691     1.060532  24.55  0.007223268    1.453    0.312
         3 -10.8032    240.9841      4.4692   3.1234170256e+01   2.5520129806e+01    0.4852895    0.4095835  -1.26  0.003284949    1.531    0.347
         4 -10.8358    235.9712      4.7157   3.1546387368e+01   2.6517363824e+01    0.5218252    0.3230679 -45.53  0.003151059    1.271    0.213
         5  -9.0519     33.2309      4.2574   7.1004566340e+01   7.4360778899e+01    0.4119123   0.09923944 -35.46  0.001370868    4.145    0.759
         6 -15.1079      6.7763    246.5892   1.2296793659e+02   2.2503365802e+01     1.819785     1.747248  10.45   0.01222351    1.575    0.365
         7 -15.0394     43.9198    194.6121   1.1295998753e+02   2.8709096273e+01     9.495357     3.428134  52.96   0.04223385    2.508    0.601
         8  -7.9542    113.6408    206.3008   9.8291770279e+01   1.7490179778e+01    0.1307092   0.08434236  56.90 0.0007036813    1.715    0.417
         9  -7.4166    189.3229    178.3042   7.8332487407e+01   1.0724828691e+01    0.1313504   0.08932212   2.55 0.0003976322    1.638    0.389
        10 -10.3691     66.6602    174.7635   1.0561474973e+02   3.0327696106e+01    0.3806789    0.2739435 -31.04  0.001910034    1.983    0.496
        11 -10.2639     71.4288    169.7510   1.0381122044e+02   3.0829650779e+01    0.3521864    0.2582927 -39.62  0.001011653    1.731    0.422
        12  -8.9003    107.7549    204.0006   9.9298662042e+01   1.8738284698e+01    0.1969712    0.1643611  40.12  0.000424268    1.025    0.024
        13 -10.6902     87.1828    154.3911   9.7521661478e+01   3.2109964985e+01    0.5711935    0.4094666 -15.86  0.001554206    2.133    0.531
        14 -11.5722     58.8778    132.2025   1.0225184765e+02   4.1494432140e+01     1.175793    0.4302044 -78.91  0.003420459    4.602    0.783
        15 -11.9700     68.5276    156.1381   1.0285637062e+02   3.4365363029e+01    0.6408306    0.5017973   3.87  0.001301685    1.702    0.412
        16  -9.1981    194.8655    198.0065   8.0697519421e+01   6.9846787325e+00    0.2729584    0.1390627 -51.07  0.001280069    3.143    0.682
        17  -7.6426    154.2932    155.5935   8.1175394543e+01   2.0505498657e+01    0.1386705    0.1113848 -89.37 0.0006987667    1.822    0.451
        18 -13.9243     28.9457    249.6586   1.1899817396e+02   1.9949439134e+01     2.907438    0.7627903  23.49  0.009006991    8.073    0.876
        19  -9.2741    133.6695    144.2652   8.3666741490e+01   2.6499716632e+01    0.5083035    0.1381152 -53.97  0.001366063    5.073    0.803
        20  -9.3734     81.4634    141.3565   9.6999915960e+01   3.6052311044e+01    0.2872842    0.2183015  64.40 0.0006500178    1.364    0.267
        21  -9.2760    101.4931    139.5942   9.1058325947e+01   3.3249488842e+01    0.4963446    0.3191655 -19.63  0.001985532    2.714    0.632
        22 -10.5262     88.8352    139.2810   9.4535201359e+01   3.5405050844e+01     0.282275    0.2659455 -36.08 0.0003762978    1.179    0.152
        23 -14.7715      3.6159    179.9063   1.2161842903e+02   3.5647814298e+01     16.71313    0.5590394 -80.94   0.03298407   14.795    0.932
        24  -8.8675     26.0886    137.3943   1.1297189576e+02   4.3782421086e+01    0.3785615   0.08350383  30.66  0.001340996    3.650    0.726
        25 -11.2506     80.1908    160.6610   1.0032375671e+02   3.1692093117e+01    0.7266444    0.3716838  56.13 0.0005109084    2.204    0.546
        26  -8.9222    106.1292    130.7202   8.8004979785e+01   3.4500924364e+01     0.330307     0.289741  57.88  0.001772203    1.147    0.128
        27  -8.8938    110.7905    130.2192   8.6617396234e+01   3.3776805519e+01    0.2860336    0.2427965  15.39  0.000858937    1.353    0.261
        28  -9.1489     98.2535    126.2470   8.9293377671e+01   3.6940195006e+01    0.3172531    0.2488908 -26.49  0.001132955    1.570    0.363
        29  -8.2426    116.4939    124.4965   8.3810145267e+01   3.4019600732e+01    0.1472846    0.1458252 -18.38 0.0008102724    1.043    0.042
        30  -7.5639    120.3153    122.3268   8.2287286944e+01   3.3775817057e+01    0.1526584    0.1198563  -9.58 0.0007044098    1.672    0.402
        31  -7.6573     88.3163    121.6637   9.1268043002e+01   3.9742390811e+01    0.1562787    0.1127598  75.31 0.0007047947    1.697    0.411
        32  -9.1839     32.6954    119.8275   1.0894279271e+02   4.7635152260e+01    0.2806694   0.09315906 -64.24   0.00107056    2.514    0.602
        33  -8.2853    107.6159    119.0203   8.5014508445e+01   3.6946511974e+01    0.2088625    0.1798569 -53.22 0.0004121191    1.150    0.131
        34 -11.7701     68.5284    144.3513   1.0119955487e+02   3.7194765895e+01    0.8655823    0.5331523  66.60  0.002890524    1.861    0.463
        35  -8.5047    205.5341    110.1557   6.1078478171e+01   1.8860965728e+01    0.2421368    0.1989737  43.85   0.00138753    1.340    0.254
        36  -9.1955     33.2943    107.4710   1.0703486807e+02   5.0781759306e+01    0.2608061    0.1138268 -72.11  0.001075489    2.074    0.518
        37  -9.6462    247.5122    103.3317   5.3537724411e+01   1.2233306588e+01     0.235704    0.1575553 -19.94  0.001210702    1.368    0.269
        38 -11.8350      9.6679    188.0880   1.2053048679e+02   3.3393871690e+01    0.3742065    0.3119426  55.14 0.0005840823    1.137    0.120
        39 -14.0537      9.3231    207.3316   1.2133022893e+02   2.9461938850e+01     1.453652     1.082086  89.04  0.005259196    1.307    0.235
        40  -8.0203     32.6137     86.2056   1.0368473051e+02   5.6381561874e+01    0.2090985    0.1100955 -58.45 0.0009511296    1.648    0.393
        41  -8.5412    112.7006     82.1543   7.3613340522e+01   4.4238745227e+01    0.2685232    0.2092671  62.39 0.0006213451    1.418    0.295
        42  -8.0292     69.5001     81.5037   8.7811098353e+01   5.2737723029e+01    0.1488248    0.1403104 -60.12 0.0008106845    1.004    0.004
        43  -8.2471    189.6608    212.3256   8.3903932431e+01   5.7296036722e+00    0.1060862   0.09058752  54.03 -0.0001012441    1.727    0.421
        44 -11.8355    191.9308     46.8961   4.6455639307e+01   3.1467155905e+01     0.713447    0.5376245  34.51  0.002641248    1.650    0.394
        45 -10.0920    149.3758    227.7753   9.3638659428e+01   9.0323729215e+00    0.2481892    0.1666842 -11.70  0.001491921    1.929    0.481
        46  -8.7085     33.0000     47.9626   9.3532353745e+01   6.5833839784e+01    0.2295953   0.07074334 -58.44 0.0004876136    2.925    0.658
        47  -8.4527    140.4391     38.0542   5.1670007247e+01   4.5495173762e+01    0.2210796    0.1965359  71.34 0.0003886546    1.123    0.110
        48  -9.0649     32.6721     29.4919   8.6227204648e+01   6.9929468046e+01    0.2378139     0.112848 -50.65  0.001071565    1.936    0.484
        49  -9.4823    139.7065     45.2998   5.4399114334e+01   4.4613765148e+01    0.3330425    0.2545129 -82.31 0.0006097998    1.519    0.342
        50 -12.7094     56.9193    238.8471   1.1310915619e+02   1.8869138030e+01    0.6635718    0.4881361  56.89 0.0005630204    1.131    0.116
        51  -9.8392    164.2117    224.6079   9.0387916149e+01   7.4870266078e+00    0.3033036    0.1295004 -39.39  0.001547366    2.725    0.633
        52 -10.0069     40.7735    178.3025   1.1248041458e+02   3.2582363235e+01    0.2429498    0.2238546 -74.21 0.0005902266    1.249    0.199
