#   1 NUMBER                 Running object number                                     
#   2 MAG_AUTO               Kron-like elliptical aperture magnitude                    [mag]
#   3 X_IMAGE                Object position along x                                    [pixel]
#   4 Y_IMAGE                Object position along y                                    [pixel]
#   5 X_WORLD                Barycenter position along world x axis                     [deg]
#   6 Y_WORLD                Barycenter position along world y axis                     [deg]
#   7 A_WORLD                Profile RMS along major axis (world units)                 [deg]
#   8 B_WORLD                Profile RMS along minor axis (world units)                 [deg]
#   9 THETA_WORLD            Position angle (CCW/world-x)                               [deg]
#  10 FWHM_WORLD             FWHM assuming a gaussian core                              [deg]
#  11 ELONGATION             A_IMAGE/B_IMAGE                                           
#  12 ELLIPTICITY            1 - B_IMAGE/A_IMAGE                                       
         1 -14.0829     68.3731    147.1660   8.7482753334e+01   3.6869008470e+01     2.759767     1.346797 -86.95  0.009942947    3.482    0.713
         2 -13.0738    202.8531     47.0120   3.2052656951e+01   2.9254948240e+01    0.9864385    0.8489544 -32.69  0.003131749    1.044    0.042
         3 -12.3527      2.6595     22.2843   8.8913878978e+01   7.5031754717e+01     1.110636    0.2785501 -68.20  0.003642186    4.141    0.758
         4 -10.9885      2.0933      3.6231   7.9475202643e+01   7.9120185124e+01     0.358054    0.2230628 -51.35  0.002060097    1.419    0.295
         5 -12.7174    239.4930     13.8054   2.0686181262e+01   2.5311754927e+01    0.8401167    0.6317067 -36.66  0.004487069    1.061    0.058
         6 -13.4413    212.7532     38.5786   2.8797990381e+01   2.8140931085e+01    0.9038979    0.7524707  20.55    0.0014241    1.474    0.321
         7 -11.7130     11.5229     12.4872   7.6347498166e+01   7.6421781864e+01    0.4647476    0.1757224 -44.86  0.002014555    2.276    0.561
         8 -10.8433    192.6781    194.2622   6.6922579033e+01   9.8079206769e+00    0.6639047    0.3635777 -56.51  0.002701838    5.094    0.804
         9 -11.1758     71.7224    243.2294   9.6383257491e+01   1.7601535427e+01    0.3281993    0.2437613 -77.49  0.001022167    1.668    0.400
        10  -9.2620     72.4517    250.4594   9.6731960754e+01   1.6416257877e+01    0.2129487    0.1180552  44.23 0.0008778352    1.416    0.294
        11 -10.2146     75.4826    246.0786   9.5848276753e+01   1.6761524664e+01    0.4119133    0.1764676 -62.66  0.002414429    2.864    0.651
        12 -14.3390     50.9223    179.8246   9.5986893499e+01   3.1617530389e+01     6.074865    0.7607396  43.36   0.01816271    5.125    0.805
        13  -9.5824    110.1956    197.8737   8.3943455783e+01   2.0630776115e+01    0.2337826    0.1520614   5.39 0.0009830547    2.068    0.516
        14 -10.4337     99.0890    180.9558   8.4259849445e+01   2.5323994313e+01    0.2614717    0.2444508  14.43 0.0006615552    1.108    0.097
        15 -10.4388    120.5672    180.3985   7.9189420022e+01   2.2359702885e+01    0.2477582    0.2123697  59.89 0.0007971863    1.322    0.244
        16  -9.7250     71.6228    176.0882   9.0379037242e+01   2.9971986524e+01    0.2634965    0.1781427  67.08 0.0007953965    1.618    0.382
        17 -11.9300    231.3040    169.5097   5.6282859814e+01   7.8227677498e+00    0.4647705    0.2523999 -11.30  0.002580673    1.929    0.482
        18  -9.3617    137.6100    173.1716   7.4225607155e+01   2.1119197616e+01    0.1813165    0.1157653 -33.70 0.0009441726    1.720    0.419
        19 -10.1668    110.4892    167.3219   7.9511000000e+01   2.6384447030e+01    0.4166817    0.2752376 -42.30   0.00165135    1.653    0.395
        20 -12.6370     96.0478    167.9625   8.3158827339e+01   2.8385796457e+01     1.957702    0.5335764  43.53  0.006582417    3.612    0.723
        21 -11.7609     63.5854    130.4246   8.6300275381e+01   4.1532137734e+01    0.7154738    0.3926055  43.14  0.002018511    1.786    0.440
        22 -11.8920     78.5535    155.7947   8.5914820179e+01   3.3500200326e+01    0.6926909    0.5269076  51.82  0.003215307    1.274    0.215
        23  -9.3855    140.5148    248.9967   8.3800289288e+01   9.0648537771e+00    0.1322957      0.10454 -39.80  0.001033413    1.593    0.372
        24 -11.1713    245.6505    165.5295   5.3476813267e+01   6.4321246868e+00    0.3113836     0.166529 -27.21  0.001904551    1.537    0.349
        25  -9.1726     59.4304    162.8810   9.2025589608e+01   3.4376047932e+01    0.2460642    0.1529264  50.72  0.000917764    1.523    0.343
        26  -8.9651     38.2181    161.6174   9.7671437322e+01   3.7031675503e+01    0.1686345    0.1214358  14.71 0.0009450049    1.643    0.391
        27  -8.1657     99.6089    160.2654   8.1074733940e+01   2.9477064789e+01    0.1423601   0.09640481  59.00   0.00069804    1.708    0.415
        28  -9.0648     89.8104    158.7271   8.3359081345e+01   3.1253787833e+01     0.347873    0.2027901  78.47  0.001229408    3.041    0.671
        29 -11.7175     87.1233    149.5411   8.2616398958e+01   3.3679829286e+01    0.6828485    0.4759963 -26.55  0.002028063    1.930    0.482
        30 -10.4379    141.7371    221.2655   8.0378035083e+01   1.2707660292e+01    0.3287963    0.1218035  36.67  0.001608306    2.240    0.554
        31  -9.7499     60.1299    154.6789   9.0839587254e+01   3.6172261084e+01    0.2557355    0.2007964  70.45 0.0007303589    1.261    0.207
        32 -11.1522    134.0668    146.1335   7.0046637013e+01   2.6785550209e+01     1.203292    0.3329491 -54.16   0.00307735    6.380    0.843
        33  -9.0579    174.8028    149.0828   6.1951072687e+01   1.9268366791e+01     0.192027    0.1778612 -42.00 0.0007800586    1.273    0.214
        34 -10.7498     54.4242    147.2469   9.1523361122e+01   3.8617940759e+01    0.4394455    0.3342923 -72.18  0.002476966    1.290    0.225
        35  -9.8667     32.3767    144.2146   9.7700462675e+01   4.1749739791e+01    0.4592955    0.2133894  50.86  0.002084967    2.075    0.518
        36  -8.5674    179.6770    141.3310   5.9398763035e+01   1.9711925160e+01    0.1252698    0.1076703 -73.09 0.0007049949    1.700    0.412
        37 -10.3950    102.0158    135.8072   7.6065041478e+01   3.4417300464e+01      0.53333    0.3438633 -20.21  0.002254421    2.440    0.590
        38  -9.8259    105.4932    130.4612   7.4025452134e+01   3.5016313328e+01    0.3713639    0.2678541 -54.18  0.001238258    1.402    0.287
        39 -11.6120     88.7324    135.4085   7.9686986491e+01   3.6658024522e+01    0.2755523    0.2501554 -50.59 0.0003319891    1.127    0.113
        40  -8.7387     23.3094    136.6449   9.9747522409e+01   4.4449670246e+01    0.1641946    0.1255934  10.29  0.000670475    1.586    0.369
        41 -10.2700    135.6661    130.1000   6.6259362522e+01   2.9671353056e+01    0.4188756    0.1633813 -45.00  0.001561619    2.540    0.606
        42  -8.9658     22.7788    129.3813   9.9228842386e+01   4.6314080914e+01    0.1675798    0.1290288   5.65 0.0004312832    1.610    0.379
        43  -9.4037    110.8148    127.9210   7.2044683460e+01   3.4645372137e+01    0.2973253     0.205891  18.19 0.0009767158    1.819    0.450
        44 -10.0767     44.6793    123.9436   9.1359848709e+01   4.5508142089e+01    0.3087108    0.2221942 -49.32  0.001176424    1.468    0.319
        45  -9.6427    141.3024    123.4102   6.3397999316e+01   2.9933000014e+01    0.2560648    0.2179458 -60.85 0.0006197512    1.332    0.250
        46 -10.3154     97.9056    123.6261   7.4680314982e+01   3.7862155913e+01    0.2834303    0.2404654   2.54  0.001091841    1.394    0.282
        47 -10.0784     44.5536    129.4533   9.2183580375e+01   4.4132492614e+01    0.2853447    0.2272786  27.30  0.001215607    1.353    0.261
        48 -10.6029    120.0243    121.1284   6.8077159245e+01   3.4431955687e+01    0.5770469      0.33489  27.86  0.002417195    2.115    0.527
        49  -9.5622     25.8532    120.6319   9.7273565893e+01   4.8271348688e+01    0.3239689    0.1589831  45.34   0.00148002    1.991    0.498
        50  -9.2589    162.4999    119.8548   5.7927175608e+01   2.6523130780e+01    0.2495051     0.216814 -74.17 0.0007089837    1.480    0.324
        51  -9.7299    158.9300    115.1206   5.7514026212e+01   2.8070472130e+01    0.3544614    0.2361804 -64.21 0.0005046272    2.247    0.555
        52 -11.4558     66.6155    167.5590   9.0663814826e+01   3.2447214683e+01    0.3796219    0.2972901 -26.73   0.00210428    1.652    0.395
        53 -11.5591     71.2467    163.0342   8.8876060115e+01   3.2860157073e+01    0.3550155    0.3166561 -14.32 0.0008979526    1.345    0.256
        54  -9.0384    107.2215    117.4945   7.0662328548e+01   3.7593785094e+01    0.2008244    0.1450392  38.98 0.0003897048    1.405    0.288
        55  -9.8106    134.5584    107.3105   6.0996865207e+01   3.4447469018e+01    0.3718492    0.1354318 -47.13  0.001256017    2.814    0.645
        56  -9.5906     39.8847    113.0499   9.1351582235e+01   4.8831063248e+01     0.210431    0.1881007  88.97 0.0003804352    1.031    0.030
        57 -10.8137     33.0271    108.3909   9.3108448962e+01   5.0757779319e+01    0.5502951    0.2500986 -80.50  0.002017724    2.342    0.573
        58  -9.4646    205.4510    110.2336   4.7938012946e+01   1.9988472360e+01    0.2145609    0.1819676  35.88  0.000616199    1.304    0.233
        59 -10.3228    115.5052    107.9795   6.6041495073e+01   3.8112290027e+01    0.3471749    0.2446508 -18.14  0.001538374    1.913    0.477
        60  -8.9081     45.0194    105.0713   8.8139362506e+01   5.0305202746e+01    0.2313382    0.1559948  65.85 0.0005527217    1.669    0.401
        61  -9.4106    187.6898    169.7342   6.3547115643e+01   1.3985558833e+01    0.2749098    0.1640374 -45.71  0.001468634    1.992    0.498
        62 -10.1850     39.1575    102.0539   8.9780084553e+01   5.1760284789e+01    0.4908506    0.1706126  47.35  0.001614909    3.354    0.702
        63 -17.4984     10.0272    238.4275   1.0822393271e+02   2.4248715836e+01     3.828163      1.70977  19.98   0.01421322    2.464    0.594
        64  -9.6872     98.7242     92.2456   6.6582762874e+01   4.4860430343e+01    0.2959605    0.2323729  80.86  0.001040132    1.634    0.388
        65 -15.6187     35.7237    187.9438   1.0038512219e+02   3.1477961815e+01     8.012028     2.041234  54.36   0.02747133    4.451    0.775
        66  -8.7419    159.9804     84.7326   4.9208200502e+01   3.3234390848e+01    0.1976497    0.1914264  -9.37 0.0004631632    1.055    0.053
        67 -11.7318     12.3816     59.7480   9.3459327297e+01   6.5221018216e+01    0.4807961    0.3640321  32.15  0.001517843    1.481    0.325
        68 -12.4860    191.3163     55.2822   3.5711071483e+01   3.0721665204e+01    0.6686178    0.5417706  45.56 0.0008655248    1.401    0.286
        69 -10.9729     73.0406    202.3729   9.2794021682e+01   2.4512285375e+01    0.4512206    0.2830081 -32.43  0.001955402    2.387    0.581
        70 -15.2994      4.8070    159.0745   1.0662287898e+02   4.0522069038e+01     7.755637    0.7711058 -79.68   0.02002247    7.704    0.870
        71  -9.0425    128.3301    241.2928   8.5248877892e+01   1.1500396171e+01    0.1077112   0.07314328   5.38 0.0002570085    1.629    0.386
        72 -15.7352      8.7549    208.6163   1.0759314591e+02   2.9723786941e+01       1.4784     1.126974 -44.04   0.01044766    1.853    0.460
        73  -8.7603     60.4878     21.0063   5.1576545257e+01   6.6846619235e+01    0.2044206    0.1329181 -32.64  0.000394463    1.492    0.330
        74  -9.3941     86.0395    203.3956   8.9962247191e+01   2.2748612212e+01    0.1990498    0.1693361  82.88 0.0003935715    1.317    0.241
        75  -8.6843     89.8526    202.1820   8.8978626831e+01   2.2497006352e+01    0.1570354    0.1329395   8.51 0.0003586644    1.305    0.234
        76  -8.4235    196.5531     14.5141   2.3525936984e+01   3.4226462369e+01    0.1309756    0.1121129 -46.36 7.515603e-05    1.005    0.005
