#   1 NUMBER                 Running object number                                     
#   2 MAG_AUTO               Kron-like elliptical aperture magnitude                    [mag]
#   3 X_IMAGE                Object position along x                                    [pixel]
#   4 Y_IMAGE                Object position along y                                    [pixel]
#   5 X_WORLD                Barycenter position along world x axis                     [deg]
#   6 Y_WORLD                Barycenter position along world y axis                     [deg]
#   7 A_WORLD                Profile RMS along major axis (world units)                 [deg]
#   8 B_WORLD                Profile RMS along minor axis (world units)                 [deg]
#   9 THETA_WORLD            Position angle (CCW/world-x)                               [deg]
#  10 FWHM_WORLD             FWHM assuming a gaussian core                              [deg]
#  11 ELONGATION             A_IMAGE/B_IMAGE                                           
#  12 ELLIPTICITY            1 - B_IMAGE/A_IMAGE                                       
         1 -10.8199     25.3862     22.1751   8.6350997489e+01   6.9315848430e+01    0.5830793    0.3457115   8.88  0.003423332    1.704    0.413
         2 -11.5968     19.0044     28.2685   9.2193294658e+01   6.8907699648e+01    0.5457676    0.3487027 -53.26 0.0007256698    1.739    0.425
         3 -12.0521    107.3221     29.3844   5.7845328245e+01   5.4306095814e+01    0.5100076    0.4033274 -26.07  0.001056837    1.360    0.265
         4 -10.4896    218.5205     19.1694   3.6795865869e+01   2.8624323203e+01     0.540279    0.2727566  83.35  0.002641047    1.982    0.495
         5 -11.9067      2.0507     25.1588   1.0013063830e+02   7.0656982729e+01    0.2581784    0.1481327 -51.43 0.0005754602    1.502    0.334
         6 -10.4610    182.5566     17.8013   4.0309363694e+01   3.7304045328e+01    0.5399378    0.3346908  31.91  0.001323595    2.368    0.578
         7  -8.7692    112.1684     14.7342   5.1172554527e+01   5.4824828310e+01    0.4372896    0.2023844 -22.88    0.0019636    2.449    0.592
         8 -12.0719    116.9481     22.1004   5.2777965641e+01   5.2941925918e+01    0.3017299    0.2727413  26.81 0.0004613012    1.101    0.092
         9  -9.8625    117.0370     15.2651   5.0279932840e+01   5.3635682407e+01    0.3949579     0.247828  30.30 0.0009406612    1.739    0.425
        10 -10.2832     61.1165     17.7529   6.7941464737e+01   6.4981988326e+01    0.3685597    0.2495852  20.29   0.00138968    1.371    0.271
        11 -10.7710     67.1984     15.5544   6.4637212867e+01   6.4168867731e+01    0.5109373    0.4944585  14.71   0.00182183    1.319    0.242
        12 -12.1621    166.5149     16.9865   4.2180162347e+01   4.1350460622e+01    0.6073954    0.3779878  23.13  0.002835186    2.456    0.593
        13 -10.6172    175.2343     11.0409   3.9389483272e+01   3.9805942145e+01    0.6864715     0.352924  39.28  0.003030138    2.647    0.622
        14  -9.5742    179.6311     13.1795   3.9434132194e+01   3.8510290075e+01    0.2509769    0.1808393  87.58 0.0004166786    1.273    0.214
        15  -8.8006    127.2313     17.2760   4.8856225606e+01   5.1006230835e+01    0.4440562    0.2157839 -44.21  0.001951899    2.466    0.594
        16 -10.2075    198.8461     18.2765   3.8559537663e+01   3.3311751327e+01    0.4333082    0.2802305 -46.06  0.001847113    1.500    0.333
        17 -10.2874    144.7272     17.3162   4.5634488123e+01   4.6725426396e+01    0.4064969    0.2881942  40.90  0.001136036    1.457    0.314
        18  -9.8636    147.2096     12.6139   4.3749169817e+01   4.6580689311e+01    0.3749686     0.175417  51.64 0.0007638662    1.920    0.479
        19  -9.7548    143.0856     10.8976   4.3872541244e+01   4.7761352498e+01    0.3062946    0.2187308 -87.65 0.0002962874    1.516    0.340
        20  -8.5523     48.7216     13.5967   7.1119187453e+01   6.7515723487e+01    0.2442534    0.1415288   2.44 0.0008894496    2.050    0.512
        21  -9.8986     36.5457     19.5937   7.9580482048e+01   6.8421499573e+01     0.532882    0.2623492   2.91  0.002132069    3.732    0.732
        22  -9.1975     43.1441     15.6432   7.4602459856e+01   6.8080488782e+01    0.4517045    0.2405978  49.70  0.002189563    2.887    0.654
        23 -10.7704    230.1257     14.1526   3.4670356897e+01   2.6607143939e+01    0.4051574    0.2435082  -8.62  0.001923384    3.196    0.687
        24 -10.9202     16.9280     17.4378   8.8791532734e+01   7.0887080739e+01    0.5105453    0.3144205   2.12  0.002516216    1.557    0.358
        25 -11.3836      5.7230     14.7448   9.3995903045e+01   7.2218016938e+01    0.6167932    0.3019697 -52.60  0.002171427    2.119    0.528
        26  -9.8886     23.3957      1.4338   7.7298601489e+01   7.2479470677e+01    0.1860666    0.1330078  20.44  0.001296036    1.289    0.224
        27 -11.3866     13.2707     12.0734   8.8414977839e+01   7.2047066296e+01    0.6805772    0.2759632 -22.94  0.003071082    3.081    0.675
        28  -9.9779     14.6538      4.1809   8.3731406609e+01   7.3067429236e+01    0.2941779    0.1545278 -33.65 0.0003119107    1.643    0.391
        29 -10.3214     18.0064      1.7565   8.0502563556e+01   7.3047818821e+01    0.2288183    0.1457029  25.10 0.0006984742    1.522    0.343
        30 -11.6098     24.9360      6.9299   7.9360778209e+01   7.1593652641e+01    0.2058356    0.1605209 -18.62 0.0002913525    1.203    0.169
        31 -11.8696     20.7105      6.3308   8.1371492722e+01   7.2148224251e+01    0.3337131    0.2148805  -7.26  0.000757917    1.352    0.260
        32 -10.0190    218.5392      2.7995   3.3125473430e+01   3.0398099201e+01    0.2819704    0.2139194  75.16  0.001179559    1.256    0.204
        33 -10.6414    208.5470      4.3672   3.4299583458e+01   3.2513784491e+01    0.4064499    0.2990997 -47.59  0.001756719    1.328    0.247
        34  -9.7803    210.8564      9.1244   3.5194015300e+01   3.1489938599e+01    0.3404555    0.2393747 -86.62  0.001236285    1.244    0.196
        35  -9.2416    214.8237      7.1528   3.4399166630e+01   3.0788670667e+01    0.1844621    0.1832403  50.56 0.0002446098    1.346    0.257
        36 -10.3874    243.3329     13.6466   3.3538353417e+01   2.3835713865e+01    0.2521279    0.2112129  50.40 0.0009537215    1.616    0.381
        37 -10.8484    133.1384     12.7380   4.6184132246e+01   5.0022927120e+01    0.2387342    0.2200005  63.69 0.0002841427    1.058    0.055
        38  -9.4481    128.4224      9.0610   4.5805482992e+01   5.1506593256e+01     0.340256    0.2928908  65.26  0.002107267    1.055    0.052
        39  -9.6626    219.0878     12.0908   3.5145088442e+01   2.9292250110e+01    0.3050981    0.2011497 -50.11  0.001804249    1.381    0.276
        40  -8.9797     87.0758      6.4491   5.4215455519e+01   6.1173192446e+01    0.2911446    0.2192222  56.80  0.001757444    1.299    0.230
        41  -9.2110     89.0043     12.7993   5.6344700693e+01   6.0161461206e+01    0.2698076    0.1980963 -27.07  0.001176046    1.503    0.335
        42  -9.5606     91.9980      8.2727   5.3632341507e+01   5.9957520440e+01    0.3853994     0.179833  41.28   0.00131204    1.897    0.473
        43  -8.7803     80.9780      1.5788   5.3834237329e+01   6.2867225538e+01      0.31655    0.1384793  57.55  0.001368822    2.109    0.526
        44  -8.9758     74.4839      7.5584   5.8495906322e+01   6.3636886140e+01    0.2051229    0.1582391  33.43 0.0007542388    1.081    0.075
        45  -9.4838     78.8881     11.6435   5.8901373300e+01   6.2358376834e+01    0.2235864    0.1697995   8.75 0.0001732636    1.283    0.221
        46  -9.3584     77.7317      7.5011   5.7436176105e+01   6.2998597139e+01    0.1989181    0.1816077  78.84 0.0006999951    1.466    0.318
        47 -10.4312     74.2136      2.4369   5.6253471601e+01   6.4161837597e+01    0.3024216    0.2574683   4.83  0.001219472    1.171    0.146
        48  -9.9976     69.2115      2.0339   5.7680182366e+01   6.5173815264e+01     0.352994    0.1765028  32.86  0.001419691    1.850    0.460
        49  -9.5395     32.4781     12.4968   7.8221824299e+01   6.9934377222e+01    0.2029441    0.1688768  -7.20 0.0006826011    1.163    0.140
        50  -9.7022     55.9876     10.9659   6.6802808655e+01   6.6658247025e+01    0.2647474    0.1560363 -17.01 0.0008101062    1.718    0.418
        51  -9.9483    224.5457      9.3378   3.4080256550e+01   2.8369728758e+01    0.2544477    0.1935657 -51.27 0.0007454259    1.228    0.186
        52 -10.5872    192.1396      8.0924   3.6734602357e+01   3.5997545428e+01    0.3610345    0.2996117 -57.20 0.0009241723    1.191    0.161
        53 -10.6561    194.1232      3.8514   3.5488235765e+01   3.5943725340e+01    0.6626387    0.2226541  60.73  0.002809691    2.585    0.613
        54  -8.9460     37.5288      9.7032   7.4342853256e+01   6.9636288276e+01    0.1343559    0.1035628 -26.46 0.0002745691    1.365    0.268
        55  -9.8383     49.3572      2.1864   6.5170513949e+01   6.8705582207e+01    0.3406124    0.1654854  29.93   0.00124163    1.918    0.479
        56 -10.2698     42.6516     10.0611   7.2108938218e+01   6.8864402333e+01     0.422616    0.1864637  28.76  0.001298995    2.273    0.560
        57  -8.9527     45.1800      5.6000   6.8717874527e+01   6.9006616887e+01    0.2093136    0.1454538   1.21 0.0004471876    1.291    0.226
        58  -9.9704    119.9803      9.1041   4.7444489089e+01   5.3522422079e+01    0.3098241    0.2390161  39.13 0.0007616873    1.227    0.185
        59 -10.6168    202.4701      8.4933   3.5816316771e+01   3.3506554186e+01    0.2937499    0.2073376 -75.57  0.001736214    1.280    0.219
        60  -9.4772    165.2908      8.2368   3.9857088336e+01   4.2527302806e+01    0.3004037    0.1665766 -45.62  0.001503832    1.909    0.476
        61  -9.1692     50.6304      8.3626   6.7745708297e+01   6.7835739181e+01    0.3111753    0.1775041  54.37  0.001590803    2.513    0.602
        62  -9.7047    107.1806      5.9927   4.9004533100e+01   5.6779266515e+01    0.4331221    0.2871132 -54.82  0.002285253    2.055    0.513
        63 -10.6250    112.0302      4.9107   4.7547688575e+01   5.5751969172e+01    0.5891808    0.4411727  62.21 0.0004190769    1.196    0.164
        64 -10.1646    119.4628      2.4397   4.5167752221e+01   5.4210379670e+01    0.2455208    0.1944303  54.56 0.0006466134    1.064    0.061
        65 -10.5102    115.7107      1.9753   4.5722272814e+01   5.5131334466e+01    0.2196246    0.1793115  58.03 0.0003206626    1.051    0.049
        66  -9.8083     99.1322     13.0625   5.3696046005e+01   5.7944546654e+01    0.3424647    0.2356848 -75.99  0.001677083    2.442    0.591
        67 -10.7150    248.3959      4.5447   3.1364862316e+01   2.3797508860e+01    0.2993075    0.2705262 -10.24 -5.693649e-05    1.646    0.392
        68 -10.2525     60.5416      4.4345   6.1877951628e+01   6.6560486285e+01    0.4213913    0.3029668  75.94  0.002250857    2.687    0.628
        69  -9.0945     39.8733      4.9615   7.0807820361e+01   6.9876117149e+01    0.2577168    0.2043753 -34.63  0.001744101    1.624    0.384
        70  -8.3722    184.3381      4.7137   3.6687680050e+01   3.8205519976e+01    0.1809798    0.1443574 -75.32 0.0006707198    1.148    0.129
        71 -11.0166    179.7249      2.0965   3.6496800347e+01   3.9566362154e+01    0.3219112    0.1875744  75.73 0.0006858176    1.479    0.324
        72  -9.5224    152.9580      4.1376   4.0308773534e+01   4.5940982259e+01    0.2396455    0.1886058 -29.60  0.001159354    1.461    0.316
        73 -11.0171    160.3465      2.8108   3.8941958131e+01   4.4238793181e+01    0.5059764    0.2539181  64.45  0.001677007    1.659    0.397
        74  -8.8337    168.1252      1.4224   3.7605190195e+01   4.2452273993e+01    0.2584198   0.09940184  64.97  0.001128642    2.108    0.526
        75 -10.5460    237.5211      2.8394   3.1745531015e+01   2.6246618078e+01    0.2709798    0.1494532 -87.24  0.001541251    1.653    0.395
        76  -8.8265     75.3243     12.6135   6.0484696837e+01   6.2961036999e+01    0.2150915    0.1972947  81.67  0.001395933    1.522    0.343
        77  -9.9452     90.3795      1.8642   5.1389879010e+01   6.0860672497e+01    0.4626077    0.1940084  62.95  0.001491108    2.397    0.583
        78  -9.4794      3.1141      2.6501   9.0011013241e+01   7.4286222048e+01     0.303619    0.1414455  -9.02  0.001614729    2.484    0.597
        79  -9.2932    144.0662      3.1608   4.1283202997e+01   4.8209098939e+01    0.3234758    0.1595663  75.35  0.001001481    1.929    0.482
        80  -8.5941    186.0593      1.1817   3.5610996981e+01   3.8122821796e+01    0.1707493    0.0833277  73.02 0.0003535356    1.754    0.430
        81 -10.2206     30.8585      3.2340   7.4311761803e+01   7.1328116471e+01    0.2397667    0.1861552 -37.60   0.00083887    1.726    0.421
        82  -8.5233    128.8056      1.0000   4.2998339130e+01   5.2094264287e+01    0.2051313   0.06414972  66.55 0.0007685009    2.712    0.631
        83  -9.2649      5.8252     94.1488   1.1448475902e+02   5.5910532888e+01    0.2553791    0.1435806 -66.36 0.0009514451    1.409    0.290
        84  -9.3696    201.5498    249.7558   8.9182930762e+01  -5.6817331624e+00    0.2219205    0.1364526  29.62 0.0006566618    1.329    0.248
        85 -10.0859    115.8787    248.7332   1.0601629357e+02   7.4827500266e+00    0.2752482    0.2162763  64.16  0.001417822    1.290    0.225
        86  -9.1564      8.6009     98.8045   1.1423210398e+02   5.4666167351e+01    0.2385349    0.1305214 -72.92 0.0006769808    1.563    0.360
        87  -9.0217      4.5611     98.0767   1.1548880006e+02   5.5057673180e+01    0.2532692    0.2282166  18.17  0.001790539    1.367    0.268
        88 -10.5609      4.1573    110.0210   1.1720065245e+02   5.2258412391e+01    0.3875349    0.3008355  83.84  0.002515028    1.288    0.224
        89  -9.7679      7.7010    106.6589   1.1564074157e+02   5.2857981981e+01    0.3137216     0.172038 -34.46  0.001581972    2.044    0.511
        90  -8.6642    141.9655    117.2326   7.6216785936e+01   3.0601373762e+01    0.2148837    0.1989158  41.54  0.001089071    1.083    0.076
        91  -8.7964     83.5214    117.0770   9.2935290679e+01   4.2053711515e+01    0.2268611    0.1413358 -54.66 0.0007587553    1.529    0.346
        92  -9.1700     63.0106    116.0106   9.9215601779e+01   4.5346960336e+01    0.3066036    0.1643384  70.45 0.0009755414    4.271    0.766
        93  -9.1179     48.2578    115.5585   1.0389874856e+02   4.7270841838e+01    0.3701654    0.1569788  36.28  0.001434809    2.492    0.599
        94  -8.8335     49.2236    112.0086   1.0289378053e+02   4.8032787619e+01    0.2820198    0.1183426 -63.26  0.001095761    2.204    0.546
        95  -8.5268    136.3262    112.6967   7.6497920860e+01   3.2836242097e+01     0.159991    0.1269817  87.73 0.0001967324    1.643    0.391
        96  -8.8908    121.9483    112.1862   8.0264530060e+01   3.6029373035e+01    0.2370153    0.2101092  79.60 0.0004497332    1.279    0.218
        97 -10.2843     73.4659    104.3706   9.3141020837e+01   4.6678773929e+01    0.5707492    0.2321856  39.72  0.002156354    2.581    0.613
        98  -9.6398     62.9544    110.7105   9.8093711430e+01   4.6649593881e+01    0.3079822    0.1823003 -53.72  0.001433846    1.525    0.344
        99  -9.8672     62.7142    104.8837   9.6859432107e+01   4.8089380933e+01    0.2671738    0.2418461  -9.66 0.0008184442    1.183    0.155
       100  -9.2207    129.7690    109.5639   7.7416579353e+01   3.4953632334e+01    0.2155625     0.150926  55.33 0.0004465628    1.550    0.355
       101  -9.5974     42.9303     99.6000   1.0248730723e+02   5.1723226394e+01    0.2911952    0.1695127  17.10  0.001403058    2.068    0.517
       102  -9.4353     36.5962    108.7220   1.0645631992e+02   5.0157205770e+01    0.3341834    0.1510671 -53.36 0.0009456124    1.858    0.462
       103  -9.5611     39.4834    103.0074   1.0438401582e+02   5.1258379742e+01    0.2156267    0.1795664 -22.28 0.0006046367    1.302    0.232
       104 -10.5776    117.9280    105.9369   7.9736921987e+01   3.8269181734e+01    0.4738678    0.3009928 -31.09 0.0009858551    1.844    0.458
       105  -9.9454     96.2769    107.0885   8.6502199162e+01   4.2234964095e+01    0.4086555    0.2863164  78.98  0.001162732    2.252    0.556
       106  -9.4700     91.9764    106.2255   8.7621423972e+01   4.3207446665e+01    0.2419192    0.2058617 -15.33 0.0008954757    1.302    0.232
       107  -9.1359    137.6652    107.2977   7.4708843177e+01   3.3714547484e+01    0.1599828    0.1267456  88.00  0.000703132    1.650    0.394
       108  -8.6131     29.3108    107.3374   1.0864101447e+02   5.1153069359e+01    0.1409602   0.08397447 -40.77 0.0007044785    1.686    0.407
       109  -8.7860     43.4400    106.5134   1.0373341804e+02   5.0005510413e+01    0.2311214    0.1117223  40.74 0.0007919863    2.333    0.571
       110 -10.9761    101.6371    100.5885   8.3111412280e+01   4.2723639389e+01    0.6742639     0.534435 -33.48  0.002809155    1.292    0.226
       111  -9.5526    105.0976     90.9945   7.9335124049e+01   4.4161114697e+01    0.4368198    0.2411686  43.75 0.0006531637    1.838    0.456
       112 -10.5386    109.1850     99.1542   8.0427281076e+01   4.1563142471e+01    0.6430717     0.322028  49.79  0.001827477    2.211    0.548
       113 -10.0991    108.8854     95.1816   7.9395805627e+01   4.2495040616e+01    0.3910792    0.3185564  60.20 0.0004615551    1.389    0.280
       114  -8.6554    166.2964    103.6929   6.6815919419e+01   2.7894107217e+01    0.1563052    0.1230971 -78.71  0.000253047    1.588    0.370
       115 -10.0152     85.8090    102.5694   8.8639746937e+01   4.5126674134e+01    0.4412135     0.248864  48.33  0.001845316    2.025    0.506
       116 -10.3202     49.3286    101.0170   1.0056475657e+02   5.0682606529e+01    0.4689699    0.2920009 -42.15  0.001222176    1.538    0.350
       117  -9.0255    139.2574    101.9951   7.2849973948e+01   3.4486518541e+01    0.2014901    0.1355841 -42.92 0.0003343595    1.488    0.328
       118  -8.7170    149.1682    101.3693   7.0188505840e+01   3.2350238145e+01    0.2141809    0.1482823  58.56 0.0004019391    1.564    0.361
       119 -10.9941     57.3628     99.6293   9.7463702283e+01   5.0043258995e+01    0.2808268    0.2372767 -41.84 0.0004295222    1.097    0.088
       120  -9.4680     77.8449     98.7547   9.0261662944e+01   4.7320020383e+01    0.4530468    0.2174113 -53.15  0.001826445    1.996    0.499
       121  -9.1756     72.5556     99.3091   9.2181271576e+01   4.8009090491e+01    0.2767262    0.1384428 -57.26  0.001127656    1.996    0.499
       122 -10.7283     16.2608     98.3013   1.1153806518e+02   5.4310980561e+01    0.2879069    0.1986187 -45.70 0.0002486772    1.313    0.239
       123  -9.3123     12.8504     95.2462   1.1221864223e+02   5.5251302801e+01    0.4075306    0.1543396 -66.82  0.001796806    2.124    0.529
       124 -10.1009    124.1642     98.4996   7.5921523045e+01   3.8574266039e+01    0.4297021    0.2555334  26.71  0.001637585    2.261    0.558
       125  -9.6151    117.1247     98.6370   7.7953700447e+01   4.0045445728e+01    0.2128106    0.1980648  21.42 0.0005582023    1.096    0.087
       126  -9.6377     48.1091     82.4021   9.6550101722e+01   5.5156303456e+01     0.427301    0.2582549  54.35  0.001148056    2.445    0.591
       127 -11.2708     30.6872     85.1523   1.0379781126e+02   5.6288874331e+01    0.6795689    0.4087547 -22.04  0.003446259    1.970    0.492
       128 -10.2200     33.5326     91.3501   1.0408928933e+02   5.4595878845e+01    0.5979053    0.2617097 -36.43  0.002252619    2.608    0.617
       129  -9.2941     27.4141     91.8453   1.0641620130e+02   5.5008228155e+01    0.2170802    0.1866486  28.61   0.00044118    1.353    0.261
       130 -10.5119     51.8885     92.2396   9.7631864334e+01   5.2456687755e+01    0.5963677    0.2471476 -62.95  0.002283335    2.618    0.618
       131 -10.2870     43.5768     88.2615   9.9703652442e+01   5.4321887904e+01    0.3456212    0.2337191  33.51  0.000490082    1.649    0.394
       132  -9.6145     47.3158     92.1148   9.9251244313e+01   5.3016326709e+01     0.357907    0.1742899 -51.15  0.001295581    1.763    0.433
       133  -9.9801     48.0418     87.8928   9.7967560508e+01   5.3913109268e+01    0.2384947    0.2095071 -48.09            0    1.041    0.039
       134  -9.9502    130.6561     95.9463   7.3422055586e+01   3.7687763682e+01      0.35583    0.2474837  11.89  0.001439708    2.141    0.533
       135  -9.3855     42.1803     95.0708   1.0177290958e+02   5.2877435922e+01    0.2876732    0.1731224 -78.25  0.001227885    2.087    0.521
       136  -9.1809     23.5236     95.2901   1.0847322780e+02   5.4504354624e+01    0.2465088    0.1914022  49.16  0.001485726    1.540    0.351
       137  -8.6141     63.0418     96.4628   9.4725579952e+01   5.0041466763e+01    0.2041507     0.139986  32.07  0.001017958    1.565    0.361
       138  -8.9531     73.6654     94.9533   9.0673402764e+01   4.8851098558e+01    0.2063211    0.1691792 -48.11 0.0003235753    1.146    0.128
       139  -8.3002    166.5320     94.4753   6.4289683543e+01   2.9643718363e+01    0.1524697    0.1509227   7.26 5.566744e-05    1.046    0.044
       140  -8.4798    172.6625     92.3024   6.2394897296e+01   2.8598264667e+01    0.1584244    0.1202749 -79.51 0.0007037659    1.667    0.400
       141  -9.3628    116.9847     91.5384   7.5960404804e+01   4.1594005337e+01    0.2726243    0.2127798 -23.24 0.0003423594    1.428    0.300
       142 -10.8558    129.0164     85.4933   7.0821654000e+01   4.0189148189e+01    0.4634314    0.3706782   8.17  0.001420483    1.530    0.347
       143 -10.1754    123.8724     86.9018   7.2644931067e+01   4.1057048093e+01    0.4869507    0.2173707 -46.07  0.001765102    2.313    0.568
       144  -9.4488     58.4025     88.5831   9.4361139372e+01   5.2484770633e+01    0.3723752    0.1698972 -61.51  0.001465655    2.443    0.591
       145  -8.7441     97.8249     88.7811   8.0952497110e+01   4.6057479880e+01    0.2535662    0.1865843 -68.32 0.0006805612    1.761    0.432
       146  -9.3646     94.0062     87.9118   8.1918561144e+01   4.6965110048e+01    0.4630572    0.2917502 -13.46 0.0002859154    2.573    0.611
       147 -10.2281     87.0301     86.9756   8.3930707781e+01   4.8433382191e+01    0.5800511    0.3348215 -43.09  0.001449777    1.674    0.403
       148  -9.0132      7.1439     89.0541   1.1322491681e+02   5.7024982688e+01    0.2070586    0.1341268  51.79  0.000830845    1.957    0.489
       149  -9.5786     16.5781     86.6874   1.0938062232e+02   5.7010570682e+01    0.3020374    0.2048302 -45.33 0.0009774427    1.276    0.216
       150 -10.3075     80.2612     84.2473   8.5420008286e+01   5.0190620210e+01    0.4706671    0.3382113  10.75   0.00154806    1.683    0.406
       151 -11.0858     73.6418     80.5612   8.6643221463e+01   5.2066096948e+01    0.8646495    0.4032554 -39.90  0.002684545    2.151    0.535
       152 -10.7191     80.2855     76.1838   8.2972157151e+01   5.1900213402e+01    0.4042906    0.3006045  22.64  0.001609841    1.424    0.298
       153 -11.9193     79.6836     69.9870   8.1211245099e+01   5.3266079667e+01    0.3515812    0.2840164  24.47 0.0002544011    1.245    0.197
       154  -9.4592     64.1611     86.7620   9.1800297028e+01   5.2115740565e+01    0.3481798    0.2180541 -28.98  0.001610987    1.809    0.447
       155  -9.8274     33.9849     97.9105   1.0528028536e+02   5.3004667643e+01    0.2253898    0.1718892 -65.05            0    1.186    0.157
       156 -10.2171     56.2119     83.0278   9.3685319496e+01   5.4026164910e+01    0.5358784     0.311175 -38.84  0.002546874    1.659    0.397
       157 -12.5734     52.9737     74.8705   9.2630373703e+01   5.6235143329e+01      0.48071    0.3079102 -52.10 0.0005047425    1.461    0.315
       158 -10.8472     46.3372     68.2595   9.3311200286e+01   5.8453843069e+01    0.6034324    0.3679472  -9.69   0.00156602    2.133    0.531
       159 -10.2005    155.1194     84.4530   6.4042505788e+01   3.4276527283e+01    0.3376104    0.2065622 -44.22  0.001374332    1.654    0.395
       160  -9.5184    118.0167     84.0029   7.3424722912e+01   4.2925511255e+01    0.2535726    0.1911283   5.20  0.001139725    1.731    0.422
       161 -11.5689    149.1359     80.6533   6.4328624603e+01   3.6420612911e+01    0.7049481    0.3676689  42.67  0.002419622    2.012    0.503
       162  -9.9180    143.0010     80.9973   6.5898284368e+01   3.7817719771e+01    0.2240274    0.2215992  61.97  -0.04270636    1.012    0.011
       163  -8.3081     60.3172     83.2871   9.2242169748e+01   5.3425719927e+01    0.1428574    0.1006886 -21.15 0.0007000434    1.590    0.371
       164 -10.5940     20.2253     79.0242   1.0646349656e+02   5.8516048431e+01    0.4760011    0.3005339 -78.56  0.001249343    1.803    0.445
       165  -9.4982     17.3355     73.9314   1.0649781580e+02   5.9860800766e+01    0.2649509     0.183061 -44.36 0.0007488636    1.203    0.169
       166  -9.3632     42.2859     81.1320   9.8435072628e+01   5.6087822828e+01    0.2415513    0.2237021 -72.60  0.001515237    1.218    0.179
       167  -8.5878     38.4398     79.9349   9.9610958311e+01   5.6753977272e+01    0.2144482    0.1691139  89.39  0.001203667    1.663    0.399
       168 -10.5656    180.9037     80.8675   5.7672123818e+01   2.8699815051e+01    0.3984346    0.3041779  88.42  0.001463164    1.549    0.354
       169 -10.0784    181.4757     72.9931   5.5440527140e+01   2.9912764170e+01    0.2425113    0.1853513  11.82 0.0005695326    1.845    0.458
       170  -9.2499      2.4650     80.2143   1.1347443243e+02   5.9282562038e+01    0.2281726    0.1791928 -87.69  0.001136182    1.362    0.266
       171  -9.9721    167.2939     79.4845   5.9990237534e+01   3.2241522058e+01    0.3245329    0.1969306 -22.76  0.001307586    2.142    0.533
       172  -7.3121     13.3032     78.9694   1.0912855598e+02   5.8985765971e+01    0.1947402   0.09251942  89.77 0.0007036881    4.181    0.761
       173  -9.3810    136.0065     78.5227   6.6901851686e+01   3.9929520426e+01    0.2482674     0.148499  48.99 0.0002169396    1.634    0.388
       174 -10.9541     89.3520     73.7316   7.9098511558e+01   5.0786740935e+01    0.4597398    0.3357392 -48.47 0.0009492315    1.422    0.297
       175 -11.2304     94.9470     72.2556   7.6778469238e+01   5.0018291735e+01    0.6714668    0.3880142 -38.25  0.002107847    1.731    0.422
       176  -8.9331     61.6545     76.7291   8.9877369465e+01   5.4680227373e+01    0.2614217    0.1867389 -42.77 0.0006972976    1.279    0.218
       177 -10.2629     68.7572     74.7524   8.6653375195e+01   5.4062936045e+01    0.4954685    0.2575977 -35.88  0.001352724    1.999    0.500
       178  -9.5997     64.5301     75.5202   8.8446629466e+01   5.4529521794e+01    0.3683534    0.2337374  55.80  0.001445918    2.328    0.571
       179  -9.9623    110.5321     76.7975   7.3384712382e+01   4.5961915482e+01    0.2847618    0.2753101  -0.33 0.0008250327    1.013    0.013
       180  -9.9143    184.9240     75.9349   5.5605244257e+01   2.8581238221e+01    0.2197383    0.2137093 -69.56 0.0003842495    1.040    0.038
       181  -9.5323    142.3229     74.0218   6.3978252098e+01   3.9265010350e+01    0.3742016    0.2102574 -18.22  0.001324256    2.887    0.654
       182  -9.5472    145.7316     70.8628   6.2216813235e+01   3.9007997062e+01     0.339795    0.2927847  -7.84 0.0007361448    1.325    0.246
       183 -10.3738    143.9129     66.6066   6.1345805651e+01   4.0183647664e+01     0.331712    0.3042757  33.72 0.0007145198    1.111    0.100
       184  -9.6976    147.5158     64.4930   5.9877125317e+01   3.9664848707e+01     0.272084    0.2317525  40.64  0.000708464    1.184    0.156
       185 -10.5017    170.7241     73.1358   5.7519543288e+01   3.2512890752e+01    0.3486755     0.331964   1.71 0.0006336286    1.166    0.143
       186  -9.4383    173.3169     69.3198   5.5951083299e+01   3.2520148038e+01    0.2688769    0.2001556  45.69  0.001034659    1.398    0.285
       187 -10.0981    152.3710     72.9459   6.1322487314e+01   3.7033245984e+01    0.3234632    0.2718748  86.29 0.0005998039    1.337    0.252
       188  -8.0229    137.3382     74.2814   6.5278807391e+01   4.0401970949e+01     0.155926    0.1180266  20.11 0.0003054269    1.623    0.384
       189 -11.1587    199.6355     71.7833   5.2016809323e+01   2.5755023497e+01    0.2803877    0.2723288  72.66   0.00043761    1.102    0.092
       190  -8.5160    111.6023     71.1871   7.1281190165e+01   4.6809434988e+01    0.2184924     0.140743 -26.99  0.000953194    1.754    0.430
       191  -8.5119    215.4332     70.2257   4.9245347286e+01   2.2343328375e+01    0.2102479    0.1154132 -48.11 0.0009488116    1.721    0.419
       192  -9.4524    102.1834     69.9445   7.3724768962e+01   4.9022079996e+01    0.3239408    0.2407994  26.48  0.001025001    1.424    0.298
       193  -9.6133    106.3273     66.0364   7.1165757265e+01   4.8888380308e+01    0.3501379    0.2107829  45.02  0.000328679    1.626    0.385
       194  -8.7572     63.7519     69.6148   8.6921909874e+01   5.5881350591e+01    0.2875658    0.1684529  37.84  0.001374064    1.819    0.450
       195 -10.1805     10.5906     69.2089   1.0819446651e+02   6.1325688110e+01    0.2292213     0.159367 -44.87 9.378394e-05    1.170    0.146
       196  -9.2350     15.6090     64.4381   1.0502238988e+02   6.2058184596e+01    0.3358806    0.2157044 -23.74  0.001198193    1.561    0.359
       197  -9.4176     15.8672     59.9207   1.0378965954e+02   6.3006380658e+01     0.183096    0.1490601 -40.25 0.0006247101    1.020    0.020
       198  -9.5026     14.6387     55.4420   1.0316124930e+02   6.4026652157e+01    0.3958189    0.1592379 -56.97  0.000497645    2.019    0.505
       199  -8.5811      8.4429     43.8872   1.0282229117e+02   6.6754727666e+01    0.2129735    0.1330858 -52.06 0.0005984696    1.324    0.244
       200 -11.0618      5.0124     35.8260   1.0209778580e+02   6.8516621700e+01    0.6892182     0.468461 -42.04  0.004628419    1.134    0.118
       201 -11.2087      8.6977     50.8391   1.0463062548e+02   6.5339791202e+01    0.6295245    0.4040971 -10.74  0.003105551    1.620    0.383
       202 -10.7742      1.8621     67.3815   1.1137929784e+02   6.2169269470e+01    0.5870042    0.1759094 -49.04  0.002682639    2.327    0.570
       203 -10.3457     12.2040     44.2233   1.0111148513e+02   6.6456133865e+01    0.3181987     0.142052 -50.44  0.001047852    1.743    0.426
       204 -11.5453     14.3435     39.3096   9.8525972977e+01   6.7262687805e+01    0.4662462    0.3303992 -48.66  0.001977031    1.267    0.211
       205  -9.8102      9.1430     61.9411   1.0718084114e+02   6.2986118327e+01    0.3508359    0.2410691 -27.62  0.001413216    1.372    0.271
       206 -10.6927      4.4670     59.6697   1.0867173655e+02   6.3715057625e+01    0.4658212    0.2528145 -24.47  0.002054777    1.881    0.468
       207  -9.1526     28.3059     75.7725   1.0255540864e+02   5.8620723576e+01    0.2660974    0.1487544 -44.45 0.0007335471    1.518    0.341
       208  -8.0853     37.6441     69.7081   9.7239093342e+01   5.9089973798e+01    0.1391414   0.08674394 -25.74 0.0007029214    1.686    0.407
       209 -11.8293     31.7815     63.9754   9.8063212595e+01   6.0882237558e+01    0.6711025    0.3551364 -43.12  0.003452874    1.597    0.374
       210  -9.6748    157.3847     67.7920   5.8711669469e+01   3.6694660665e+01    0.2769338    0.2233285  10.71 0.0009514823    1.569    0.363
       211 -10.2231    120.3505     66.5338   6.7287894911e+01   4.5729616111e+01    0.5407529    0.3789316 -24.62  0.002529079    1.593    0.372
       212 -11.0292    135.3421     65.0167   6.2901550271e+01   4.2512076270e+01    0.6086642    0.4084784  62.73  0.002765559    1.606    0.377
       213  -9.6859     75.0813     66.0140   8.1551102178e+01   5.4833217859e+01    0.2118623    0.1870716 -14.58 0.0003113393    1.051    0.049
       214  -9.9994     25.0735     54.3393   9.8180008242e+01   6.3473256879e+01    0.2848504    0.1673568 -50.68 0.0005194337    1.453    0.312
       215 -10.4054     22.9986     63.4762   1.0164548943e+02   6.1736060762e+01    0.5398711     0.245974 -22.43  0.001439161    2.962    0.662
       216 -10.5488     22.0224     59.4329   1.0098151819e+02   6.2666890225e+01    0.3548693    0.2205423 -48.81 0.0009272676    1.315    0.240
       217 -10.1561    203.9191     63.4749   4.9248912637e+01   2.6060270710e+01    0.4493805     0.281239  79.69   0.00116449    1.846    0.458
       218 -10.3007     82.7391     63.0974   7.7842721605e+01   5.4066111082e+01    0.4212224    0.2729715 -52.99   0.00163753    1.822    0.451
       219 -10.2393     97.1504     63.9142   7.3304381629e+01   5.1167205703e+01    0.2621492    0.2247965  60.64 0.0003174662    1.364    0.267
       220  -9.7331     66.2138     62.8846   8.3800571138e+01   5.6867142231e+01    0.3930738    0.3055516 -57.50   0.00104429    1.529    0.346
       221 -10.4731     70.8487     60.1851   8.1135942516e+01   5.6656250679e+01    0.3530782    0.2689347  48.55 0.0008705521    1.564    0.361
       222  -9.5925    164.4145     51.6115   5.2567517091e+01   3.7508048057e+01    0.2989664    0.2407998  42.85 0.0006314458    1.306    0.234
       223  -9.0339    159.7533     60.3731   5.6038782839e+01   3.7324472182e+01    0.2876922    0.1822619 -54.10 0.0006629703    1.784    0.440
       224 -10.6192    162.9260     57.4001   5.4540300950e+01   3.7003771851e+01    0.7057364    0.3657907 -21.47  0.002674529    2.715    0.632
       225  -9.6593    194.0489     60.5186   4.9991052207e+01   2.8867903891e+01    0.3077729    0.2281189 -35.21  0.001585388    1.385    0.278
       226  -9.7745    140.8749     60.3670   6.0119023396e+01   4.1959952948e+01    0.2628015     0.232001  86.07 0.0008748402    1.237    0.192
       227  -9.2022     53.6198     60.6432   8.7993050556e+01   5.9111570989e+01     0.356078    0.2580194 -66.01 0.0007543063    1.876    0.467
       228  -9.3611     54.2327     53.8607   8.5440033764e+01   6.0345931977e+01     0.436434    0.2504667   7.46  0.001957339    2.407    0.585
       229 -10.4598    150.3706     59.9096   5.7853906068e+01   3.9715106360e+01    0.3522982    0.2392955  69.94  0.001520988    1.615    0.381
       230 -10.2389    170.9932     58.0353   5.3207551552e+01   3.4902642282e+01    0.4348609    0.2460817 -55.50  0.001175554    2.078    0.519
       231  -9.7437    167.0651     56.4852   5.3488733940e+01   3.6116033055e+01    0.2540022    0.2053088 -46.33 0.0003018311    1.260    0.207
       232 -10.0720    172.0124     53.4738   5.1730556180e+01   3.5340764457e+01    0.2655405    0.2504716  50.09 0.0003496452    1.119    0.106
       233  -9.8656    174.9940     50.3327   5.0329901170e+01   3.5061338273e+01    0.3468263    0.2906017 -44.08  0.001159543    1.218    0.179
       234  -9.7383    105.3367     57.6482   6.8623255631e+01   5.0579785216e+01    0.3114671    0.2264902 -26.41 0.0008072765    1.443    0.307
       235 -10.7070     39.6520     57.8493   9.2889459054e+01   6.1357108060e+01    0.2598296    0.2248628 -41.05 0.0009840383    1.146    0.127
       236  -8.9796    180.4897     58.1169   5.1557215340e+01   3.2542156555e+01    0.2136272    0.1423295 -35.49  0.001016193    1.542    0.351
       237  -9.3218    132.5350     58.4718   6.1506784365e+01   4.4271664743e+01    0.2357762    0.1809155  20.30  0.001109325    1.540    0.351
       238  -9.7328    136.4348     56.2570   5.9856900240e+01   4.3693331298e+01    0.3167203    0.2933903 -12.53 0.0009290993    1.150    0.130
       239  -9.1442     48.8034     57.7482   8.9006040750e+01   6.0306190381e+01    0.2266302    0.1616341 -11.78 0.0005784918    1.462    0.316
       240  -9.6125     45.2655     55.1793   8.9631821213e+01   6.1245111971e+01    0.2997678    0.2139051  24.73 0.0009983092    1.462    0.316
       241  -9.1494     42.7732     44.7474   8.7051118537e+01   6.3517284338e+01    0.2666727    0.2039695 -23.55 0.0009529249    1.131    0.116
       242  -9.9665     46.8120     47.5594   8.6313258732e+01   6.2501289611e+01     0.302317     0.240348  -8.86 0.0007336946    1.148    0.129
       243 -10.4468     42.2696     49.2778   8.8898556177e+01   6.2736354771e+01    0.4420861    0.1930479 -45.16  0.001912514    2.034    0.508
       244  -9.8505     38.1518     46.4018   8.9708156008e+01   6.3749491086e+01    0.3020853    0.2643247  40.07  0.001959503    1.487    0.327
       245  -9.1863    127.4987     57.5958   6.2479525372e+01   4.5604717483e+01    0.3641136    0.1268457  48.59  0.001242281    2.672    0.626
       246 -11.5674    119.2204     52.5352   6.2942261077e+01   4.8337796993e+01      1.03262    0.4822586  41.61 0.0007467453    2.175    0.540
       247  -9.7308    127.7253     48.0109   5.9247233057e+01   4.7043053753e+01    0.2178548    0.2016382  55.58 0.0003148679    1.055    0.052
       248 -10.6240    125.7561     44.9943   5.8711847605e+01   4.7951464846e+01    0.4903562    0.3251392  45.80  0.001473186    1.411    0.291
       249 -10.0197     65.0802     56.5828   8.2074569759e+01   5.8251079234e+01    0.3099923    0.2315542  27.45 0.0003035832    1.340    0.253
       250  -9.9472     61.3486     52.0468   8.1920860633e+01   5.9660234796e+01    0.2619954    0.2313404  61.17   0.00109374    1.570    0.363
       251  -8.8372     60.1197     56.8865   8.4122356347e+01   5.8938824436e+01    0.1980547    0.1865465 -52.09   0.00122426    1.294    0.227
       252  -9.0213    111.1848     56.3658   6.6469293042e+01   4.9526590583e+01    0.1987439    0.1728871  49.68 0.0005831758    1.150    0.130
       253  -9.8493    191.5439     54.1473   4.8707368150e+01   3.0432705339e+01     0.277476    0.2541145 -21.79 0.0007853477    1.256    0.204
       254 -10.3762    148.8870     54.5598   5.6533934150e+01   4.0919824410e+01    0.4548964    0.2778518  65.66 0.0007467043    1.712    0.416
       255  -8.6257     98.5237     54.8845   6.9744479291e+01   5.2478510969e+01    0.2013101    0.1395118 -34.26 0.0004335171    1.469    0.319
       256  -9.3857     93.7523     53.8775   7.0904333764e+01   5.3618990079e+01     0.478892    0.2892084 -14.91  0.001599278    2.268    0.559
       257  -8.9867     96.8307     49.1243   6.8210689137e+01   5.3775878877e+01    0.2120061    0.1925684  13.11 0.0003563725    1.023    0.022
       258 -10.3847     90.0306     48.4314   7.0140702247e+01   5.5262464494e+01    0.6396368    0.2656339  49.11  0.002499884    2.500    0.600
       259 -10.1205     93.9941     45.0575   6.7609552605e+01   5.4999412203e+01    0.3882979    0.2791006  21.50  0.000351029    1.475    0.322
       260  -9.7183     90.7921     40.9012   6.7067586247e+01   5.6282024785e+01    0.3787147    0.2946018  65.41  0.002015617    1.655    0.396
       261  -8.9231     90.7985     37.1491   6.5624629009e+01   5.6827955629e+01    0.2002105    0.1757858  17.51 0.0003311724    1.031    0.030
       262 -10.5938     31.3542     52.7842   9.4897397175e+01   6.3220985756e+01    0.5008302    0.2327366  30.92   0.00246017    2.346    0.574
       263  -8.7026    106.7154     52.9440   6.6578170779e+01   5.1066240590e+01    0.1917424       0.1821   3.82 0.0003336999    1.047    0.045
       264  -9.4794     82.7808     52.2371   7.3994588006e+01   5.6016964649e+01    0.3328656    0.2714578 -60.32  0.001221453    1.625    0.385
       265  -9.1558     79.3924     47.9740   7.3611298951e+01   5.7361504519e+01    0.2652634    0.1550451 -38.14 0.0004744647    1.720    0.419
       266 -10.0763     71.6705     51.3020   7.7665903221e+01   5.8146874215e+01     0.380829    0.2805092  -6.19  0.001047016    1.456    0.313
       267 -11.0794     55.3140     33.1582   7.7054122109e+01   6.3768608769e+01    0.5828938    0.3783977  46.15  0.001330878    1.886    0.470
       268  -9.6834     41.5800     22.7092   7.8604393879e+01   6.7308214727e+01    0.3506614    0.2350894 -12.31  0.001474361    1.399    0.285
       269 -10.5247     51.9597     28.9934   7.6718642604e+01   6.4908106584e+01    0.1879675    0.1623119  10.28  0.000307278    1.128    0.113
       270  -9.6888     48.1289     25.4204   7.6836085889e+01   6.5999059098e+01     1.604589    0.3007632  34.78  0.004561451    6.357    0.843
       271  -8.5328    150.7046    249.6567   9.9122226282e+01   1.9885738656e+00    0.1219414   0.08991966   5.05 0.0007031822    1.664    0.399
       272 -11.2729     67.8479     47.0434   7.7528675408e+01   5.9522307923e+01    0.6926902    0.4158285 -23.97  0.001325544    1.797    0.444
       273 -12.7971     61.8547     44.0412   7.8731428347e+01   6.0994116726e+01    0.4368063     0.266303 -37.59 0.0007151499    1.581    0.367
       274 -11.4580     24.8108     30.9025   9.0258616066e+01   6.7923119232e+01    0.9633726    0.3538477  21.49  0.004340762    3.005    0.667
       275  -8.4017    192.3100    248.3098   9.0731416394e+01  -4.1350968545e+00    0.1244531   0.08212283   7.31 0.0003741865    1.622    0.383
       276  -8.3281    212.4593     51.5743   4.5120021286e+01   2.5833175590e+01    0.1366333    0.1212768 -73.91 4.309187e-05    1.008    0.008
       277 -10.2922    180.8436     47.5075   4.8588554105e+01   3.4016009998e+01    0.5553384    0.2122168 -47.67  0.002015399    2.853    0.650
       278 -10.6430    153.5491     48.9071   5.3843828689e+01   4.0609869279e+01    0.5225434    0.2798943  64.45  0.001338164    1.882    0.469
       279  -8.4670     54.7247     49.8402   8.3803014147e+01   6.1026180929e+01     0.370357    0.1707219  26.78  0.001622552    2.391    0.582
       280 -10.6331     17.5474     46.7226   9.9328873680e+01   6.5592948503e+01    0.3115954    0.2928066 -24.20   0.00120829    1.242    0.195
       281  -8.4577     21.5257     46.4144   9.7362195645e+01   6.5346401160e+01    0.1717094   0.09017247 -41.97 0.0009245638    1.545    0.353
       282  -9.8340     25.1153     47.7244   9.6109241296e+01   6.4789205937e+01    0.2441456    0.1726511 -51.81 0.0002341163    1.356    0.263
       283  -8.9568     27.1768     44.2105   9.3982799353e+01   6.5282303605e+01    0.1836457    0.1343463 -25.11 0.0002831299    1.163    0.140
       284  -8.9394    224.8619     48.5239   4.2884531204e+01   2.3439175775e+01    0.1890484    0.1246812  70.48  0.001008642    1.522    0.343
       285  -9.8698     31.8226     47.8370   9.3066194316e+01   6.4143789255e+01    0.1876619    0.1542212  -6.72 0.0005285877    1.144    0.126
       286 -10.2630    114.5869     45.9272   6.1899466036e+01   5.0408386045e+01    0.3608748    0.2557236 -29.68  0.001035757    1.491    0.329
       287  -8.8277    112.8136     41.2275   6.0711496256e+01   5.1493420490e+01    0.1896244    0.1531836  19.19 0.0002550669    1.298    0.230
       288  -8.8082      1.8056     46.6932   1.0675593134e+02   6.6540228429e+01    0.2864835   0.06065132 -51.44  0.001213765    2.728    0.633
       289  -9.4003    204.4067     46.1537   4.4831582490e+01   2.8486559293e+01    0.2403664    0.1735275  52.22 0.0004852634    1.503    0.335
       290  -8.9200    164.1805     46.3219   5.1063787801e+01   3.8329338775e+01    0.2312379    0.1634331  47.15  0.000737382    1.436    0.304
       291  -9.1963     82.2803     44.6225   7.1331876474e+01   5.7372056719e+01    0.3508947    0.2044832 -60.78  0.001310162    3.727    0.732
       292  -8.3638    139.2980     45.2864   5.5677758445e+01   4.4647588611e+01     0.145269    0.1068191  29.21 0.0002541037    1.551    0.355
       293  -9.5165    244.0283     44.0537   3.9854072701e+01   1.9904473652e+01    0.3097506    0.1804926  53.09  0.001635733    2.062    0.515
       294  -8.8498    186.0097     44.0100   4.6846753061e+01   3.3229887328e+01    0.2157817    0.1637471  35.56 0.0004274414    1.628    0.386
       295  -8.6483    175.1794     43.6146   4.8415714648e+01   3.5962840678e+01    0.3339919    0.1310634 -46.06  0.001242989    2.704    0.630
       296  -9.2413    149.8816     43.9685   5.3054607723e+01   4.2223325557e+01    0.2137993    0.1807893  34.74 0.0003454971    1.260    0.207
       297  -8.8370    133.4678     44.2991   5.6657845347e+01   4.6205381441e+01     0.249542    0.1773044  82.89  0.001170833    1.789    0.441
       298 -12.1082    104.3400     39.2971   6.2353703853e+01   5.3656900977e+01    0.4914239    0.4714028 -89.26 0.0007343887    1.240    0.194
       299  -8.7840    199.8685     42.9470   4.4623359305e+01   3.0009214048e+01    0.1942756    0.1814125  57.50 0.0004314592    1.205    0.170
       300  -8.4386    143.8539     42.3397   5.3765167679e+01   4.3940558433e+01    0.2230136    0.1155953  50.37 0.0009490896    1.787    0.440
       301  -9.4993     32.0498     41.6309   9.0793907672e+01   6.5289336638e+01    0.2427792    0.2233219  29.45  0.001666192    1.407    0.289
       302 -11.6203     41.1775     38.3819   8.5360947978e+01   6.4843681955e+01    0.4900322    0.2727704  -7.78 0.0007220023    2.448    0.591
       303 -10.9928    228.4488     38.3861   4.0174500030e+01   2.4015593688e+01    0.4358016    0.2330352 -47.95 0.0008605921    1.663    0.399
       304  -9.6969    222.7820     40.2748   4.1210345439e+01   2.5031791458e+01     0.254307    0.1943646 -62.16  0.001108326    1.168    0.144
       305  -9.6440    191.1882     40.0501   4.5053194709e+01   3.2497762429e+01    0.3396823    0.2385417 -10.35 0.0008673895    2.010    0.503
       306 -10.0145    186.0291     36.7060   4.4888744605e+01   3.4199529890e+01    0.3468356    0.2374455  81.29 0.0008207097    1.446    0.308
       307  -9.9787    181.9331     39.3359   4.6189090495e+01   3.4864578573e+01     0.292603    0.2277026 -58.75 0.0007137432    1.284    0.221
       308 -10.0368    177.4628     36.9741   4.6209449057e+01   3.6280841155e+01    0.4398176    0.2560451  81.90  0.001557684    1.921    0.480
       309 -10.2788    126.8298     38.9269   5.6391448926e+01   4.8542969677e+01    0.4887045    0.3638768 -67.55  0.000911459    1.756    0.430
       310 -10.4471    123.9823     30.1694   5.4030611635e+01   5.0345149567e+01     1.236085    0.5047961  57.82  0.004960871    2.208    0.547
       311 -10.8362    135.8070     35.9169   5.3373921291e+01   4.6771771550e+01    0.5083143    0.2775431 -44.52 0.0003909949    2.060    0.515
       312 -10.5946    131.9013     35.9098   5.4217632560e+01   4.7722169016e+01    0.4012867    0.3108569 -50.89            0    1.463    0.316
       313  -9.3420     24.7467     39.0129   9.3327763077e+01   6.6478307749e+01    0.2892582    0.1431697 -30.50  0.001057383    1.916    0.478
       314  -9.3777    238.4320     38.0419   3.9099861117e+01   2.1887795063e+01    0.2322154    0.2053673  -4.80 0.0009153624    1.584    0.369
       315  -8.3776    165.5891     39.5256   4.8833342727e+01   3.8906515318e+01    0.1400402    0.1300058  81.25 0.0001198321    1.015    0.015
       316  -8.9825    157.8294     39.0231   5.0039798374e+01   4.0912784733e+01    0.2194602    0.1846309 -69.51 0.0007794981    1.256    0.204
       317  -8.5592    120.5795     38.8255   5.7862475606e+01   5.0034788047e+01    0.1965585    0.1283527 -44.68 0.0009400729    1.738    0.425
       318  -8.7405     82.3886     38.7070   6.9009959328e+01   5.8264602615e+01    0.1741573    0.1242981 -20.47 0.0009243216    1.431    0.301
       319  -9.2438     99.9456     26.9226   5.8918163944e+01   5.6243603671e+01    0.4497301    0.1756659  40.90   0.00175811    2.528    0.604
       320 -11.3460    113.7821     32.1098   5.7175034201e+01   5.2494657911e+01      0.41575     0.279605 -45.14 0.0002761862    1.739    0.425
       321  -9.6472    117.3061     32.7037   5.6508300802e+01   5.1603404474e+01     0.234578     0.164938 -29.77 0.0002608238    1.535    0.348
       322  -9.7597     86.5591     35.4128   6.6316277234e+01   5.7928623971e+01    0.5737926    0.2444182 -36.44  0.002424398    2.441    0.590
       323 -10.6424     77.9430     33.8138   6.8603584270e+01   5.9822535209e+01    0.6274634    0.3556361  36.29  0.002363502    1.665    0.399
       324  -9.6080     71.0785     30.0020   6.9507025798e+01   6.1621690517e+01    0.2396539    0.1743493  29.32 0.0005221737    1.253    0.202
       325 -10.1701     74.8326     26.9803   6.6879270742e+01   6.1345312974e+01     0.507336    0.3386475  64.24  0.002515376    2.299    0.565
       326  -9.8875    208.9146     34.1136   4.1311703792e+01   2.9028050580e+01    0.3765525    0.3033186  24.83  0.002133548    1.761    0.432
       327  -8.6880    162.5418     36.3094   4.8407853295e+01   4.0088085000e+01    0.2533616    0.1187288  62.32 0.0007549741    1.946    0.486
       328  -9.6170    146.0372     29.4659   4.9249443599e+01   4.5052522648e+01    0.4210993    0.2268755  72.07   0.00161587    1.966    0.491
       329  -9.3960    143.7725     35.2488   5.1522279679e+01   4.4899919722e+01    0.3035514    0.2251456  27.76  0.001036016    1.574    0.365
       330  -9.7251    141.9713     32.1950   5.0898258738e+01   4.5727648111e+01    0.3346505    0.2697041  -1.62  0.001581338    1.489    0.329
       331  -8.4796     94.6818     35.3046   6.3701302152e+01   5.6283915906e+01    0.1287284    0.1106594 -81.30  0.000248698    1.628    0.386
       332  -8.6967     47.2404     34.5634   8.1116302680e+01   6.4704806757e+01    0.1658227    0.1083777  14.16 0.0005736904    1.547    0.354
       333 -10.8205    185.7701     30.0647   4.3155009181e+01   3.5099248748e+01     0.621942    0.3952965  76.64  0.001654523    1.501    0.334
       334  -9.7243    154.3098     31.4106   4.8359527034e+01   4.2759011193e+01    0.4763499    0.1809301  52.89  0.001581977    2.349    0.574
       335 -10.5833    164.1660     26.5311   4.5277862299e+01   4.0878882608e+01    0.5955694    0.3371806  59.91  0.002041688    1.575    0.365
       336  -8.5289     43.9879     31.9644   8.1501786717e+01   6.5561651673e+01    0.1495876    0.1216485 -12.26 0.0003846597    1.031    0.030
       337  -9.0851    232.6501     31.4152   3.8205006525e+01   2.3990425921e+01    0.2359338     0.115366  78.59   0.00112938    2.124    0.529
       338  -8.9957     30.3357    247.6575   1.2243674281e+02   1.9089024904e+01    0.1249774   0.05905202  62.50 0.0007050344    1.763    0.433
       339  -8.4180     65.4089     29.7194   7.1532049669e+01   6.2654352581e+01     0.186107    0.1126264 -18.45 0.0009442685    1.766    0.434
       340 -10.9262    221.8860     26.6269   3.8171553308e+01   2.6976120865e+01    0.4315315    0.3676611 -31.70  0.001576349    1.371    0.271
       341  -9.2948    163.4643    246.5080   9.6142101702e+01   5.0925583360e-01     0.126988    0.1031925  27.52 -2.511384e-06    1.028    0.027
       342  -9.4399    212.1250     27.5893   3.9391623122e+01   2.9094056529e+01    0.2663517     0.211426  -5.50  0.001207577    1.799    0.444
       343  -8.7323    195.7604     29.0479   4.1615246441e+01   3.2792164446e+01     0.180902    0.1537554 -56.96 0.0004574559    1.144    0.126
       344  -9.1191    247.6002     30.6963   3.6710211275e+01   2.0902441824e+01    0.2065565     0.137554  64.21 0.0009392768    1.629    0.386
       345  -8.7915    207.9501     26.4952   3.9578814691e+01   3.0201212667e+01    0.1954096    0.1182672  72.62 0.0005274384    1.540    0.351
       346  -8.6839    140.1383     26.1367   4.9293946105e+01   4.6900284424e+01     0.178656    0.1509343 -88.16  0.001007438    1.263    0.208
       347  -8.5275      1.3728    244.2079   1.2734379157e+02   2.2715674420e+01    0.1438147   0.07403182  80.50 0.0003954653    1.572    0.364
       348  -9.0495    239.7744     25.4131   3.6269018939e+01   2.3199593028e+01    0.1626822    0.1057192  65.59 0.0009462592    1.604    0.376
       349 -10.7553    172.1127     23.4111   4.3212039810e+01   3.9258304131e+01     0.635414    0.2956432  58.92  0.002724366    1.905    0.475
       350  -8.2948    246.6715    242.3442   7.9794967047e+01  -1.0842948149e+01   0.09634548   0.09147924  25.90 0.0007050744    1.748    0.428
       351  -9.4936    188.8977     22.1948   4.0689640127e+01   3.5265753892e+01    0.3491143    0.2439419  10.76  0.001750885    2.287    0.563
       352 -10.7939    153.7731     22.9375   4.5867004973e+01   4.3879711793e+01    0.2646751    0.2301675  52.72 0.0003573712    1.125    0.111
       353  -9.5489    202.8296    242.2317   8.7781852961e+01  -4.8286423529e+00    0.1774958    0.1401376  24.59 0.0004888408    1.108    0.098
       354  -9.3010    102.1877    240.7731   1.0791817706e+02   1.0961873592e+01     0.222392    0.1105789  64.65 0.0009584721    2.837    0.647
       355  -8.9528    221.7002    237.4407   8.3463073083e+01  -6.8829975628e+00    0.1672851    0.0963843  22.65 0.0009362207    1.544    0.353
       356 -10.0777     62.0081     23.0068   6.9953868144e+01   6.4157199994e+01    0.4277546    0.2728446  30.67  0.002401009    1.433    0.302
       357  -8.2799    139.7000    236.7084   9.9649703070e+01   5.8740646229e+00    0.1233347    0.0951246   8.13 0.0006984288    1.565    0.361
       358  -9.8229    186.5817    231.2116   8.9217841817e+01  -7.2250740716e-01    0.2272012     0.114775 -29.81  0.001058335    2.450    0.592
       359  -9.6105    206.5448     22.4827   3.8763307122e+01   3.1008010355e+01    0.3630528    0.2152433  69.17   0.00191589    1.559    0.359
       360  -8.7879    124.2244     23.2600   5.1563640733e+01   5.1091240805e+01    0.2136853    0.1505661 -89.58  0.001014064    1.845    0.458
       361  -8.8444    103.4616     16.4787   5.3929824866e+01   5.6636152350e+01     0.195073    0.1370457  25.14   0.00105844    1.468    0.319
       362  -9.8049    109.2177     21.7218   5.4487044200e+01   5.4773009738e+01    0.2896601    0.1884674  -6.80 0.0008554643    1.861    0.463
       363 -11.3841    105.0878     20.8394   5.5194733210e+01   5.5806581265e+01    0.2712635    0.2274694  56.54 0.0002769245    1.163    0.140
       364  -8.3598     85.6560     23.2858   6.1712321042e+01   5.9698446437e+01    0.1704704    0.1181318 -11.62 0.0006709654    1.543    0.352
       365  -8.0420     80.0000     22.9812   6.3417547562e+01   6.0864902399e+01    0.1998269   0.07253405 -29.77 0.0007949399    2.891    0.654
       366  -8.3764     32.2644    232.6434   1.2117432942e+02   2.1769925379e+01    0.1231514   0.06575896  67.24 0.0003417651    1.629    0.386
       367  -8.8211    162.2063    225.0964   9.3254020461e+01   4.2297683031e+00    0.3293259    0.2282523 -83.79  0.001541624    2.824    0.646
       368  -8.8692    223.6982    225.1188   8.1026061769e+01  -5.4603344299e+00    0.2015824    0.1463838  29.94 0.0006307775    1.298    0.229
       369  -9.5711    132.2975     21.4315   4.9262593075e+01   4.9343772130e+01    0.2965488    0.2439829  80.42 0.0008316212    1.257    0.205
       370  -8.7304    132.0255    225.3282   9.9717898779e+01   9.1707412914e+00    0.1915932    0.1519033  42.03 0.0004684523    1.087    0.080
       371  -8.4008      1.9733    224.2639   1.2638455911e+02   2.6513106074e+01    0.1266408   0.08081926  44.95  0.000304674    1.454    0.312
       372  -9.7993     93.1593     20.1399   5.8164146496e+01   5.8500149419e+01    0.3673238    0.1711477  47.19  0.001476067    1.852    0.460
       373  -9.1436    150.2861     19.6357   4.5428809464e+01   4.5105634952e+01    0.3211585    0.2123278  46.26  0.001665248    1.497    0.332
       374  -9.1373    196.8119    222.1902   8.5694996545e+01  -9.2655698230e-01    0.1873975    0.1375191   6.05  0.001075488    1.356    0.263
       375  -8.7966    139.6775     13.9597   4.5425705477e+01   4.8305981663e+01    0.2065009    0.1613041  46.69  0.000838386    1.221    0.181
       376  -9.2570     88.6991    221.0214   1.0857430189e+02   1.6814561198e+01    0.2266199    0.1675185  43.80 0.0005248163    1.201    0.167
       377  -9.1483    203.1451    217.8239   8.3695116751e+01  -1.2448371095e+00     0.180261    0.1584299  19.11 0.0002748974    1.130    0.115
       378  -8.0560     51.6936     13.6981   6.9888646973e+01   6.7037819187e+01     0.204026    0.1462552  10.71 0.0007961574    1.242    0.195
       379  -9.0853    230.9820    209.1938   7.6864842410e+01  -4.2177447224e+00    0.1926031    0.1410623   4.14 0.0004379249    1.245    0.197
       380  -9.5213     35.0390    201.0281   1.1831411821e+02   2.8111972908e+01    0.2100653    0.1166605  65.05  0.001024813    1.679    0.404
       381  -8.4776    120.3810    199.1898   9.8496328115e+01   1.6350103018e+01    0.1843088    0.1341163 -74.35 0.0006999767    1.628    0.386
       382 -10.5037    233.1354     17.9940   3.5247605784e+01   2.5511082073e+01    0.3849653    0.2258372 -79.94  0.001883295    1.647    0.393
       383  -9.0351      6.7659    194.2615   1.2385862466e+02   3.2381284871e+01     0.153145     0.121574 -67.38  0.001063802    1.383    0.277
       384  -8.5505      5.7173    182.9825   1.2336958097e+02   3.4975863478e+01    0.1634427    0.1213362  89.67 0.0002814428    1.076    0.071
       385  -9.1452     55.1897    181.3223   1.1172831918e+02   3.0267369297e+01    0.2066908    0.1654104 -69.48 0.0004747589    1.216    0.178
       386  -9.8730     17.2373    174.8429   1.2017168967e+02   3.5852918748e+01    0.2129585    0.1505736 -31.90  0.001150684    2.078    0.519
       387  -9.8216      7.2031    174.8071   1.2247953774e+02   3.6711713503e+01    0.1901362    0.1349572  73.58    0.0009329    1.199    0.166
       388 -10.4929      6.7487    167.1470   1.2202201229e+02   3.8515146144e+01    0.2732403    0.2004835 -27.64  0.001693449    1.980    0.495
       389 -10.4358     17.6593    164.8273   1.1921587090e+02   3.8165625114e+01    0.1847995    0.1766857  10.10 0.0006541777    1.372    0.271
       390 -12.3047     30.5904    154.8325   1.1492429126e+02   3.9387230402e+01    0.8727359    0.4901257  56.87  0.004430487    1.873    0.466
       391 -10.8816     39.3291    160.6733   1.1330938394e+02   3.7076214408e+01    0.4041946    0.2609643  63.14  0.001796051    1.581    0.368
       392  -9.2711    225.9290     16.7257   3.5582736562e+01   2.7240293187e+01    0.2249215    0.1558282 -49.39 0.0005642809    1.307    0.235
       393 -10.7297     35.8240    158.6048   1.1398237978e+02   3.7947259852e+01    0.3888136    0.2225479  24.40  0.001741246    2.088    0.521
       394 -10.3451     24.5929    162.8500   1.1731373390e+02   3.8016567549e+01    0.2125459    0.1850822  73.87 0.0002219682    1.109    0.099
       395  -9.3996    208.0518     16.7677   3.7244341196e+01   3.1309051708e+01    0.2139567    0.1759724 -52.38 0.0007188896    1.194    0.162
       396  -9.4136    209.9761     13.7496   3.6348460408e+01   3.1195823009e+01    0.2263571    0.1695536  77.62 0.0005326525    1.213    0.175
       397 -10.7895      4.2507    147.2061   1.2102390127e+02   4.3382166004e+01    0.4409088    0.2254786 -80.10  0.001362417    1.603    0.376
       398  -9.5203      5.8533    141.4913   1.2009255036e+02   4.4633672015e+01    0.2291321     0.182905 -54.84 0.0009690971    1.300    0.231
       399  -9.9028      1.6719    158.5488   1.2258122424e+02   4.0891144779e+01    0.2997477    0.1377866 -66.88  0.001580812    1.792    0.442
       400  -9.9718      2.1080    153.2965   1.2206851617e+02   4.2090537215e+01     0.316228     0.139872 -74.69 0.0007965342    1.792    0.442
       401  -9.3685    249.3993    153.7792   6.2821649068e+01   1.5936154661e+00    0.1908353    0.1099429 -27.35 0.0005421343    1.639    0.390
       402 -10.9048     12.6314    151.6890   1.1927582412e+02   4.1705461828e+01    0.3224877    0.2761871  75.05  0.002189096    1.132    0.117
       403  -8.5781    154.5821     13.5600   4.2900642636e+01   4.4662638072e+01    0.1333292    0.1168367  71.09 0.0001257514    1.013    0.013
       404  -9.7239     45.9774    151.3929   1.1035555419e+02   3.8626431905e+01    0.2391921      0.17423 -71.38 0.0002554692    1.224    0.183
       405  -8.9720    230.2034    147.8149   6.4776877015e+01   5.9383019528e+00    0.1897766    0.1531097  -2.22 0.0004653578    1.314    0.239
       406 -10.0278     54.2361    145.9214   1.0726276244e+02   3.9018803354e+01    0.2159843    0.2106133 -73.51 0.0002502729    1.126    0.112
       407  -9.9990     12.7966    144.2817   1.1851609436e+02   4.3470399243e+01    0.3456915    0.1959109 -79.53  0.001562118    1.485    0.327
       408 -10.6484     18.9625    141.2659   1.1652914845e+02   4.3720717065e+01      0.42829    0.2097496  26.97  0.002149899    2.322    0.569
       409  -9.2733     41.3611    139.0182   1.0991911241e+02   4.2199050392e+01    0.2251985    0.1773274  58.44  0.001141785    1.329    0.248
       410  -9.1852    236.1335    136.8945   6.1412476410e+01   6.7403095588e+00    0.2032482    0.1776938 -51.32 0.0004477286    1.226    0.184
       411  -8.9330    230.7888    137.1529   6.2362116916e+01   7.6903373527e+00    0.1904799    0.1561687  -3.99 0.0005484475    1.319    0.242
       412 -10.0136     34.4721    136.6182   1.1157153250e+02   4.3490343987e+01    0.2827936    0.2351965  41.68  0.001123841    1.325    0.245
       413 -10.6491      2.4005    134.9651   1.2040782506e+02   4.6412615476e+01    0.4252052    0.2248518 -71.22  0.001577417    1.489    0.329
       414 -10.9257      3.6601    128.7544   1.1945140162e+02   4.7817713430e+01    0.5378091    0.1285437 -57.24  0.002123197    3.064    0.674
       415  -9.8241     14.4270    135.7279   1.1717098210e+02   4.5415373107e+01    0.2449486    0.1851958 -41.93  0.001509526    1.476    0.323
       416 -10.9970     43.1342    130.8029   1.0815138925e+02   4.4053972203e+01    0.5803995    0.3243456 -44.73  0.001499242    1.873    0.466
       417  -8.4098    248.6943    133.7027   5.8731564711e+01   5.0150443918e+00    0.1311368   0.09799386  -4.19 0.0002780062    1.587    0.370
       418 -11.6685     28.6944    132.0022   1.1262281602e+02   4.5166392191e+01    0.2393581    0.2110976 -86.63  0.000313298    1.070    0.066
       419  -8.3888     23.5060    133.4786   1.1432597851e+02   4.5250342714e+01    0.1304906    0.1094783 -74.43 4.975353e-05    1.015    0.014
       420 -10.8310      9.9319    131.4343   1.1796367872e+02   4.6771972171e+01    0.3995328    0.2129814 -44.29  0.002078759    2.024    0.506
       421  -9.3389     61.8556    131.2719   1.0257358183e+02   4.1716519338e+01    0.2403513     0.182509 -78.35 0.0006441552    1.329    0.248
       422  -8.8468     56.3330    131.3381   1.0425638555e+02   4.2402575136e+01    0.1479515    0.1003223 -34.62 0.0003073259    1.744    0.426
       423  -9.0301     20.4782    130.9839   1.1488907765e+02   4.6106691446e+01     0.195196     0.108079 -71.43 0.0006303266    1.508    0.337
       424 -10.2741     34.1527    127.6841   1.1038055959e+02   4.5731008269e+01    0.4726513    0.2828989  58.71  0.002337318    1.975    0.494
       425  -9.8264     32.4753    122.5160   1.1010811495e+02   4.7162797074e+01    0.2836708    0.1499759 -51.49 0.0009722878    1.709    0.415
       426  -9.0202     88.5230    127.9266   9.3846247292e+01   3.8586569859e+01    0.2101043    0.2039645  48.23 0.0003649553    1.068    0.064
       427  -8.7668    218.1433    125.1741   6.1859923507e+01   1.2299168348e+01    0.2002177    0.1695724 -64.74  0.001078104    1.339    0.253
       428  -8.6332     59.5145    125.4996   1.0221590527e+02   4.3457378055e+01    0.1428128    0.1285585 -55.58 5.737369e-06    1.056    0.053
       429 -10.1720     72.3564    123.4682   9.7822729812e+01   4.2205361932e+01     0.453462    0.3067405 -24.35  0.001249638    1.977    0.494
       430  -9.9421      7.9079    123.3540   1.1764779057e+02   4.8849902553e+01    0.1675152    0.1441993 -71.06 0.0004981098    1.077    0.072
       431  -9.6287     72.3126    118.6353   9.6807779637e+01   4.3401636277e+01     0.435446    0.2647576  84.74  0.001638665    2.949    0.661
       432  -8.9395    236.9539    120.8290   5.7758894445e+01   9.3447485952e+00    0.2171971    0.1535369  18.44  0.001072703    1.948    0.487
       433  -9.0674    123.5461    120.9884   8.2076529674e+01   3.3690714048e+01    0.2294232    0.2074974  43.89 0.0003436612    1.112    0.101
       434  -9.8237     20.7612    113.5798   1.1243494742e+02   5.0326347634e+01    0.2635657    0.1979894  62.12  0.001081663    1.507    0.337
       435 -10.0777     20.0190    109.3920   1.1204239664e+02   5.1394598303e+01    0.2601761    0.2111436 -50.69  0.001364873    1.146    0.127
       436 -11.4436     20.8580    119.5903   1.1327024589e+02   4.8857993064e+01    0.7603142    0.3655208  56.98  0.003367253    2.756    0.637
       437  -9.3637     13.6481    113.2980   1.1464766029e+02   5.0898974317e+01    0.2157061    0.1624658  61.88 0.0006428635    1.490    0.329
       438  -9.4790     13.8425    109.8374   1.1410523370e+02   5.1718166925e+01    0.2400072    0.1454567 -77.89 0.0002846022    1.485    0.327
       439  -9.9509     93.5135    119.1229   9.0338513154e+01   3.9876929069e+01     0.282354    0.2528537  14.03 0.0007532293    1.219    0.180
       440 -10.3792     42.8070    119.0245   1.0628512243e+02   4.7008760824e+01    0.2735434    0.2375697  49.80 0.0005013176    1.269    0.212
       441  -9.6361     54.7448    118.0168   1.0228082109e+02   4.5906358080e+01    0.2057334    0.2002471  37.30 0.0002988168    1.133    0.118
       442 -10.8191     28.8115    116.6199   1.1033788289e+02   4.8936174250e+01    0.4315146    0.2727872 -76.93  0.002198727    1.490    0.329
       443 -10.7470      2.9320    115.6200   1.1824462002e+02   5.0994289233e+01    0.4454555     0.270505  78.01  0.002486372    1.761    0.432
       444  -9.1461      3.3630    102.9856   1.1655563976e+02   5.3965677327e+01    0.3438323    0.1358262 -72.47  0.001435544    2.065    0.516
       445  -9.1664      2.0633     92.8664   1.1559416387e+02   5.6398131645e+01    0.2000242    0.1738321  47.67 0.0007319732    1.400    0.286
