#   1 NUMBER                 Running object number                                     
#   2 MAG_AUTO               Kron-like elliptical aperture magnitude                    [mag]
#   3 X_IMAGE                Object position along x                                    [pixel]
#   4 Y_IMAGE                Object position along y                                    [pixel]
#   5 X_WORLD                Barycenter position along world x axis                     [deg]
#   6 Y_WORLD                Barycenter position along world y axis                     [deg]
#   7 A_WORLD                Profile RMS along major axis (world units)                 [deg]
#   8 B_WORLD                Profile RMS along minor axis (world units)                 [deg]
#   9 THETA_WORLD            Position angle (CCW/world-x)                               [deg]
#  10 FWHM_WORLD             FWHM assuming a gaussian core                              [deg]
#  11 ELONGATION             A_IMAGE/B_IMAGE                                           
#  12 ELLIPTICITY            1 - B_IMAGE/A_IMAGE                                       
         1 -17.9192    232.4177     71.6854   4.8612098988e+01   1.9457000300e+01     6.208613     4.512414 -39.88   0.03027317    1.184    0.156
         2 -11.3466    127.9198     25.3790   5.1223601593e+01   4.9180124928e+01    0.6194168    0.2894829 -34.25  0.002734374    2.259    0.557
         3 -10.9937    125.2249     15.7380   4.8418065768e+01   5.0822993864e+01    0.5155511    0.2812693 -12.18   0.00239052    2.385    0.581
         4 -11.7743    119.2396     10.1331   4.7517404755e+01   5.2805957620e+01    0.6870961    0.4372587  51.35  0.003203837    1.388    0.280
         5 -10.7503    141.9207     16.0045   4.5804908741e+01   4.6668838524e+01    0.5523313    0.2571218 -14.19  0.002134689    2.990    0.666
         6  -9.7091    143.4087      8.8637   4.3375231340e+01   4.6952786389e+01    0.3610492    0.1892812 -10.26  0.001618283    2.640    0.621
         7  -9.5455    237.0346      6.7499   3.4682971682e+01   2.6333233955e+01    0.1896329    0.1545886  77.62 0.0006609868    1.345    0.256
         8  -8.5449    248.2655      4.0682   3.3569226915e+01   2.4504398021e+01    0.1472248    0.1159199 -84.74 0.0003046624    1.218    0.179
         9  -9.2968    209.8927    126.9695   6.4112204819e+01   1.5027341406e+01    0.3804704    0.2408029 -31.85  0.001926886    1.434    0.303
        10  -8.9610    225.4939    202.9671   7.6675773892e+01   2.0507991515e-01    0.1810846    0.1054555 -32.55 0.0004165117    1.541    0.351
        11 -10.3085    166.0828    201.0461   8.8272586807e+01   9.0609061557e+00    0.2557743    0.2154489 -22.09 0.0004025312    1.173    0.147
        12  -9.7159    205.0914    200.3300   8.0005440310e+01   3.3775380125e+00    0.2308292    0.1549598 -20.69 0.0006517587    1.337    0.252
        13 -10.4974    192.0997    193.4736   8.1324961326e+01   6.4089494889e+00     0.893868    0.5114003 -62.23  0.002961675    5.522    0.819
        14  -9.1299    188.0264    186.0569   8.0755658858e+01   8.3228048777e+00    0.2292575    0.1978213  10.82            0    1.111    0.100
        15  -8.4507    117.9755    198.9910   9.9349835944e+01   1.6981438971e+01    0.2070625    0.1858037  14.49  0.001190768    1.034    0.033
        16 -10.5637    232.5043    196.2797   7.4226862645e+01   2.8381031139e-01    0.3378272    0.2454032  23.89  0.001624911    1.411    0.291
        17  -9.2711    248.6679    194.9969   7.1292772458e+01  -1.5539361965e+00    0.2569115    0.1638713   2.76   0.00157591    1.506    0.336
        18 -10.3113    224.0357    193.4532   7.5198660617e+01   1.8282471190e+00    0.4391294    0.1514911 -31.68  0.001789515    2.808    0.644
        19  -8.1860    160.4565    195.2366   8.8497582175e+01   1.1020840741e+01    0.1780378    0.1374358 -55.23  0.000934682    1.663    0.399
        20  -9.0137     50.4954    190.2585   1.1577457424e+02   2.8194235453e+01     0.206101    0.1921762  22.51 0.0003002516    1.147    0.128
        21  -7.8230    239.4143    249.4374   8.2003675144e+01  -7.6126597901e+00    0.1116206   0.07872863  -1.71 8.410848e-05    1.054    0.051
        22  -9.7306    204.8027    127.8094   6.5186506574e+01   1.5815916589e+01    0.3551709    0.2801453 -16.38  0.001157384    1.260    0.206
        23 -10.3928    187.6049    132.2773   6.9432463335e+01   1.8258271655e+01    0.3681573    0.3270311  41.51  0.001318318    1.233    0.189
        24  -9.9618    195.8070    124.7415   6.6116545669e+01   1.8051688356e+01     0.408598    0.3198451  31.29  0.002206642    1.374    0.272
        25 -11.6844    184.4759    124.5526   6.8248261364e+01   2.0299304228e+01    0.7774242    0.6133968  42.60  0.004107623    1.345    0.256
        26  -9.5379    183.1744    119.1967   6.7227417248e+01   2.1549607090e+01    0.3795039    0.2426372  49.47  0.001460957    1.698    0.411
        27 -10.9429    198.1378    134.1385   6.7826131083e+01   1.5933302061e+01     0.590956    0.3970646  23.25  0.002895112    1.762    0.433
        28  -9.4152    197.2109    129.3769   6.6920156387e+01   1.6957110959e+01    0.3788668    0.3055504  10.93   0.00112226    1.355    0.262
        29  -9.2388    185.7830    168.9597   7.7821107659e+01   1.1771309771e+01    0.2487313    0.2016205 -54.56  0.001336349    1.586    0.369
        30 -10.6166    160.7708    128.3537   7.4246019394e+01   2.4346499812e+01    0.4108882    0.3949525  81.82  0.001608339    1.220    0.181
        31  -9.8320    203.5437    189.5934   7.8307275153e+01   5.3485506027e+00    0.2386086    0.2259115 -13.26 0.0007391319    1.358    0.264
        32  -8.6628     98.0002    124.2969   9.0395239891e+01   3.7703279567e+01    0.4058372    0.2827339  87.33 0.0007806494    2.469    0.595
        33  -9.8716    192.4430    132.2758   6.8485718217e+01   1.7335782507e+01     0.277344    0.2366102 -33.97 0.0003792897    1.102    0.093
        34 -10.3879    166.6188    116.4519   6.9992191391e+01   2.5487229840e+01    0.3840463    0.2382514  49.53  0.001697897    1.715    0.417
        35  -9.3072    174.0675    114.2069   6.7848613949e+01   2.4352101226e+01    0.3617163    0.3019736  71.78  0.001721541    1.481    0.325
        36  -8.7040    222.4318    163.7630   6.9740895194e+01   6.7548695028e+00    0.2270999     0.171104  27.40 0.0009768523    1.402    0.287
        37 -10.2713    194.7150    173.8618   7.6984279223e+01   9.4102109559e+00    0.3412524    0.2846058 -80.27  0.001802272    2.113    0.527
        38  -8.1259     82.9862    104.4878   9.0349669186e+01   4.5119610191e+01    0.2124446     0.150992  33.51 -5.922859e-05    1.409    0.290
        39 -10.7964    197.1928    179.6384   7.7636704492e+01   8.0042226897e+00    0.4921043    0.3403146  31.56  0.001807132    1.455    0.313
        40  -7.6674    115.4866    175.4982   9.6019259979e+01   2.2518326755e+01    0.1496379    0.1389948  12.17 8.291321e-05    1.014    0.013
        41  -9.6936    127.5305     91.0492   7.2566814348e+01   3.9063634637e+01    0.2455806    0.2051011  43.58 0.0005490762    1.182    0.154
        42  -8.7886    141.6022     89.1976   6.8428068678e+01   3.6237257403e+01    0.3098048    0.1425631 -42.92  0.001152345    2.199    0.545
        43  -8.4948    138.3104     88.4163   6.9008614180e+01   3.7136415306e+01    0.2610897    0.1387671 -40.08 0.0006642476    1.890    0.471
        44  -8.9618    113.5231     87.0775   7.5334295900e+01   4.2950083875e+01    0.2300663    0.1528886 -40.22 0.0006075944    1.528    0.345
        45 -10.1919    157.7048     84.2265   6.3373779509e+01   3.3440035653e+01    0.3879481    0.2370043 -49.45  0.001280793    1.758    0.431
        46  -9.7512    134.2003     85.0316   6.9044094605e+01   3.8714822867e+01    0.5360882    0.1653868 -41.01  0.001651734    3.247    0.692
        47  -9.4227    130.6362     84.9074   6.9921491478e+01   3.9553214580e+01    0.3501423    0.1460665 -38.94  0.001225922    2.437    0.590
        48 -10.2935     99.9518     85.0830   7.8928178207e+01   4.6237118893e+01    0.2362324     0.219782 -11.22  0.001243127    1.049    0.047
        49  -9.2090    148.3900    156.9819   8.3802593766e+01   2.0805929337e+01    0.4065315    0.2132359  43.25  0.001238413    1.975    0.494
        50  -9.2687    158.3264     74.0889   6.0392818067e+01   3.5019785473e+01    0.2579431    0.2132097  64.32 0.0004035799    1.240    0.194
        51 -10.7510    130.9664     70.0284   6.5273981177e+01   4.2165981134e+01    0.5986738      0.22495 -32.80  0.002006152    2.989    0.665
        52 -12.7513     25.1508    145.3322   1.1812332324e+02   4.1915306892e+01    0.9021096    0.8823982  63.70  0.003899843    1.092    0.084
        53 -12.2446     11.5893    138.7615   1.2169967746e+02   4.4615202109e+01     2.098925    0.7692525 -65.37  0.008787266    2.227    0.551
        54  -9.7799    192.3188    153.1786   7.3156312808e+01   1.3538839337e+01    0.3524367    0.2224252 -49.75  0.001661984    1.823    0.451
        55  -8.4285    106.4441     62.0058   6.9271784061e+01   4.9229206175e+01    0.2264062    0.1473228 -35.77 0.0006763948    1.602    0.376
        56 -11.3884    145.1821     60.7095   5.9150450615e+01   4.0284532589e+01    0.5036258    0.3514304 -86.70  0.002274467    1.977    0.494
        57  -8.5869     52.0011    174.5731   1.1358857786e+02   3.1812074928e+01    0.1929248    0.1761217 -79.47 0.0001837583    1.081    0.075
        58  -9.4659    203.4192    151.2603   7.0590084090e+01   1.1952041536e+01    0.2460662    0.2009979 -57.10 0.0008464954    1.582    0.368
        59  -8.3997    157.1593    169.6865   8.4348262566e+01   1.6587341375e+01    0.2280777    0.1815194  50.48 0.0005669103    1.503    0.335
        60  -9.7144    128.9841     39.0136   5.5620234736e+01   4.7305809888e+01    0.2163694    0.1997976  62.76 0.0003453413    1.028    0.027
        61  -8.7324    217.6391    148.9322   6.7527135000e+01   9.9638948137e+00    0.3025455    0.1857161  38.43  0.001571565    1.791    0.442
        62 -10.5904    144.1879     32.2818   5.0542200442e+01   4.4381401427e+01    0.3291586    0.2509699  -1.94  0.001104873    1.658    0.397
        63 -10.2080    148.1452     33.9376   5.0385707398e+01   4.3212176258e+01    0.2795928    0.2295646 -32.18  0.001199489    1.313    0.239
        64 -10.2299    149.7668     30.0096   4.8924106744e+01   4.3270305423e+01    0.2962941    0.1898682 -17.23    0.0011079    1.912    0.477
        65  -8.0984    209.9886    238.6797   8.5606806671e+01  -2.9524808345e+00    0.1633769    0.1198576   6.15 0.0006710477    1.046    0.044
        66  -9.1774    208.7224    221.3906   8.3011654938e+01  -3.4444673978e-01    0.2365787      0.23044  49.40  0.001064746    1.796    0.443
        67 -10.3223    228.4685    214.7026   7.8218439631e+01  -1.8653729316e+00    0.2224351    0.1710988  -8.37 0.0003386845    1.072    0.067
        68  -9.2836    159.9848     31.9065   4.7931772519e+01   4.0557776220e+01    0.1986612    0.1827315  82.54 0.0003071849    1.015    0.015
        69  -8.9250    197.0488    215.5643   8.4293410954e+01   2.0871629748e+00    0.2006059    0.1829402  10.87    0.0006011    1.363    0.266
        70  -8.9053    198.0359    211.0059   8.3305093152e+01   2.6675056986e+00     0.191296    0.1543274  -0.08  0.001200201    1.032    0.031
        71 -10.0078    133.5804    145.9578   8.5161252803e+01   2.5985311762e+01    0.7126642    0.2634582 -51.58  0.002287778    3.056    0.673
        72  -9.5877    123.0433     23.4837   5.1512638535e+01   5.0587310120e+01    0.2243762    0.1884003 -44.32 0.0005782013    1.321    0.243
        73  -9.3112    133.4263    139.1966   8.3653103385e+01   2.7521304506e+01    0.4491616    0.3187768  73.48  0.001818129    2.345    0.574
        74  -9.0676    203.9165    146.8536   6.9550560717e+01   1.2640664390e+01    0.3192979    0.2382928 -88.58  0.001457896    2.755    0.637
        75 -11.6340     50.6130    137.5294   1.0876197363e+02   4.1414821241e+01    0.5181774    0.4779494  28.87 0.0008651998    1.128    0.114
        76  -9.2549    198.8064    206.1807   8.2297917194e+01   3.3280812273e+00    0.2259704    0.1593533   8.22 0.0005777776    1.268    0.212
        77  -8.6152    123.9957    206.0092   9.8960268354e+01   1.4612982268e+01       0.1969    0.1735051  15.37            0    1.027    0.026
        78 -13.3496     62.8983    133.7248   1.0397872206e+02   4.0869801446e+01     2.085814     1.700861   6.89  0.006738996    1.336    0.252
        79  -9.1129    179.1190    120.2080   6.8284805514e+01   2.2184577670e+01    0.2769431     0.211946  18.92  0.001375604    1.500    0.333
