#   1 NUMBER                 Running object number                                     
#   2 MAG_AUTO               Kron-like elliptical aperture magnitude                    [mag]
#   3 X_IMAGE                Object position along x                                    [pixel]
#   4 Y_IMAGE                Object position along y                                    [pixel]
#   5 X_WORLD                Barycenter position along world x axis                     [deg]
#   6 Y_WORLD                Barycenter position along world y axis                     [deg]
#   7 A_WORLD                Profile RMS along major axis (world units)                 [deg]
#   8 B_WORLD                Profile RMS along minor axis (world units)                 [deg]
#   9 THETA_WORLD            Position angle (CCW/world-x)                               [deg]
#  10 FWHM_WORLD             FWHM assuming a gaussian core                              [deg]
#  11 ELONGATION             A_IMAGE/B_IMAGE                                           
#  12 ELLIPTICITY            1 - B_IMAGE/A_IMAGE                                       
         1 -12.2568     49.6339     14.2559   6.4104924825e+01   6.6457650413e+01    0.3127071    0.2147297  27.26 0.0008182363    1.242    0.195
         2 -11.7177     45.5054     12.5166   6.4989828511e+01   6.7327510926e+01    0.2216067    0.1590228  16.97 0.0009925689    1.205    0.170
         3 -11.7837     35.7186     13.0291   6.9505174638e+01   6.8761470853e+01    0.3172635     0.204015  15.25  0.001176155    1.431    0.301
         4 -11.1388     32.0414     10.9931   7.0249344449e+01   6.9528460905e+01    0.1777481    0.1310135   7.68 0.0003345216    1.117    0.105
         5 -13.2179    153.1207      3.6923   3.6064239827e+01   4.5204930997e+01     0.472555    0.3097694 -86.03  0.002711079    1.496    0.332
         6 -13.5506    166.4114      3.3224   3.4415449650e+01   4.2135558108e+01    0.5116805    0.4519629 -47.76  0.003542667    1.282    0.220
         7 -12.1420     14.6435     11.0879   7.9235897710e+01   7.1667943456e+01    0.2906049    0.2023907  21.05  0.001779486    1.348    0.258
         8 -12.5248     98.4202      8.7693   4.6909991724e+01   5.7398653844e+01    0.3182801    0.2317954 -39.75  0.001380384    1.640    0.390
         9 -12.5019    184.1644      2.6409   3.2449195538e+01   3.8123268575e+01    0.3098937     0.216607 -65.49  0.001922239    1.320    0.243
        10 -13.0306    174.7334      3.4158   3.3556978341e+01   4.0203808472e+01    0.3784345    0.3649009 -13.79 0.0009492623    1.364    0.267
        11 -11.1911    125.7730      7.8274   4.1237740510e+01   5.1258741027e+01    0.1722509    0.1379448 -82.51 0.0005443044    1.336    0.251
        12 -11.9148     85.5442      7.7439   4.9638386384e+01   6.0263020033e+01    0.2270487    0.1942351  54.46  0.000231364    1.132    0.117
        13 -12.0413     56.7709      7.9042   5.8511706520e+01   6.5891581180e+01     0.213511    0.1632362  75.42  0.001262666    2.155    0.536
        14 -10.6868      3.4617      8.5158   8.4460407718e+01   7.3108163100e+01    0.2076986   0.09304234  22.81  0.001132537    2.111    0.526
        15 -12.1264     39.8933      8.6443   6.5547680936e+01   6.8641806516e+01    0.2767902    0.1762371 -24.25  0.001140199    1.589    0.371
        16 -11.8902    114.2164      2.0706   4.1385335296e+01   5.4398639776e+01    0.3421978    0.1728127  65.31 0.0005143015    1.657    0.397
        17 -11.5366     89.2090      2.6436   4.6753201598e+01   5.9906445805e+01    0.2322764    0.1765243  31.38 0.0006544492    1.247    0.198
        18 -11.7188    141.0010    229.0150   9.2226550275e+01   6.3515245852e+00     0.213231    0.1891584  24.85 0.0007803998    1.035    0.034
        19 -14.6793    126.5412    237.7917   9.6626555498e+01   6.9637774675e+00     1.253923    0.9064481  -6.75  0.006648878    1.933    0.483
        20 -14.4601    116.6262    240.3537   9.9111153000e+01   7.9988918233e+00     1.219856    0.8526449  15.26  0.006580755    1.721    0.419
        21 -14.7023    123.6833    215.1653   9.4036778410e+01   1.1904267592e+01     1.260942    0.6113462 -66.07  0.004966654    2.965    0.663
        22 -11.8834    103.4265    246.4039   1.0267622276e+02   8.8231232524e+00    0.4691499    0.3224222 -40.65  0.002645139    1.872    0.466
        23 -13.2325    110.1331    226.5389   9.8744248543e+01   1.1721005361e+01    0.9098864    0.3664846 -42.57  0.003408013    3.511    0.715
        24 -14.1329    108.8406    214.0359   9.7313806075e+01   1.4543052241e+01    0.8996909     0.635259 -66.24  0.004713398    1.578    0.366
        25 -11.3264     99.0023    246.6790   1.0364700288e+02   9.4174201675e+00    0.2413502    0.2131366 -37.26 0.0003197685    1.407    0.289
        26 -12.3199    103.1570    239.5576   1.0193222789e+02   1.0180452985e+01    0.7238902    0.4477015 -12.65  0.002914201    3.797    0.737
        27 -10.9409     66.0250    250.4442   1.1090021779e+02   1.3272418697e+01    0.2688836    0.1220576  42.16  0.001363096    1.779    0.438
        28 -13.7684     76.8660    214.6922   1.0487338592e+02   1.9252509307e+01     2.787666     1.205399 -78.65     0.010179    3.546    0.718
        29 -12.5841     31.3201    202.4696   1.1418443251e+02   2.7826542000e+01    0.8255683    0.5352103  36.43  0.004702765    1.554    0.356
        30 -13.6687     74.4415    231.0561   1.0725314886e+02   1.6055366929e+01     1.385039    0.5895966 -68.74  0.006138402    2.620    0.618
        31 -13.8456     63.6710    235.8730   1.1006790863e+02   1.6510013816e+01     1.852272    0.4495269  45.82  0.006728199    3.394    0.705
        32 -13.6856     50.6139    210.5039   1.1049918080e+02   2.3719677437e+01     1.600967    0.6952651 -51.56  0.006920843    2.721    0.632
        33 -15.0475     40.1780    218.5858   1.1359901886e+02   2.3168540474e+01     1.512574     1.100847  67.86  0.009255457    1.202    0.168
        34 -13.4017     16.5085    216.4971   1.1854012401e+02   2.6206699432e+01     1.104935    0.6708149  32.64  0.006526506    1.734    0.423
        35 -13.6676     11.8331    225.5464   1.2008242869e+02   2.4713466147e+01    0.8112223    0.4642889  32.09  0.004805515    1.840    0.456
        36 -15.5568     19.3162    243.4249   1.1967103769e+02   2.0244325258e+01      1.42267    0.7646021  43.34  0.008593637    1.569    0.363
        37 -16.6888     28.7059    234.2187   1.1723058820e+02   2.1113525894e+01     2.918981    0.9915119  45.72   0.01373972    2.330    0.571
        38 -13.5053    113.7116    205.5089   9.4901899776e+01   1.5603848758e+01    0.6672719    0.3806698  48.59  0.002347448    1.743    0.426
        39 -10.3852     54.2909    219.3087   1.1053353077e+02   2.1279473064e+01    0.1687694    0.1211671  63.99 0.0002988343    1.261    0.207
        40 -11.1319      1.3630    218.3013   1.2177570290e+02   2.7253343881e+01    0.1398464   0.08963052  86.02 0.0004939919    1.287    0.223
        41 -14.3877     85.7970    172.0554   9.6604146138e+01   2.7971069294e+01    0.9702877    0.6276762  42.91   0.00456807    1.517    0.341
        42 -12.0445     70.1317    188.4076   1.0317268940e+02   2.6318454987e+01     1.013131    0.2305329  36.00  0.003196771    3.759    0.734
        43 -11.8443     36.7860    185.1049   1.1119305651e+02   3.1339605449e+01      0.45748    0.3057528 -44.29  0.001788777    1.813    0.448
        44 -12.7842     61.1411    174.8547   1.0364047400e+02   3.0876045958e+01    0.8081302    0.3073229  36.00  0.003149165    2.514    0.602
        45 -14.6609     63.1341    168.7024   1.0221279781e+02   3.2139623846e+01     1.676432    0.7001439  31.15  0.006583939    2.504    0.601
        46 -14.7271     49.7255    157.4034   1.0426722257e+02   3.6715185766e+01     1.195918      1.11147 -61.59  0.007165569    1.100    0.091
        47 -12.8146     52.9787    183.1694   1.0687370563e+02   2.9888894545e+01    0.9008342    0.5066401 -68.76  0.003581332    1.686    0.407
        48 -12.5183     44.6232    181.8383   1.0885168059e+02   3.1235536891e+01    0.9891188    0.5065768 -61.04  0.004660936    1.823    0.452
        49 -16.0612     87.9938    188.3817   9.8622072087e+01   2.3670127662e+01     2.712806     1.932553  77.57   0.01324297    1.647    0.393
        50 -11.3970     65.2142    203.3462   1.0628223724e+02   2.3462138549e+01    0.2585438    0.2061783  65.85 0.0001967417    1.166    0.142
        51 -11.2871     23.0926    202.8819   1.1609510677e+02   2.8601793944e+01    0.3705325     0.257867   1.20  0.001981436    2.294    0.564
        52 -12.1780    131.2033    202.0296   9.0199844262e+01   1.3418346748e+01    0.3737981    0.2966445  13.12  0.001481277    1.414    0.293
        53 -13.8484     62.6519    219.6934   1.0869133880e+02   2.0105252477e+01     2.647059    0.8207554 -54.30  0.009970249    3.526    0.716
        54 -10.3486     11.0164    200.5461   1.1862131748e+02   3.0314745021e+01    0.1598824    0.1037435  45.65 4.733402e-05    1.458    0.314
        55 -12.2630    126.5759    198.6080   9.0724977637e+01   1.4950926070e+01    0.3255894    0.2330795 -34.78 0.0008446799    1.616    0.381
        56 -10.7531     17.7180    197.6289   1.1689625841e+02   3.0351024866e+01    0.2473194    0.1530451 -53.71  0.001372401    1.821    0.451
        57 -10.2781     14.7865    197.0214   1.1751601166e+02   3.0772680874e+01    0.3114543    0.1567225 -80.92 0.0008269795    1.769    0.435
        58 -13.8077     69.4295    179.2714   1.0207663514e+02   2.8642511487e+01     1.053847    0.7751462 -61.82  0.005525454    1.329    0.248
        59 -10.5003     36.9178    196.2899   1.1229945257e+02   2.8650206624e+01     0.297635     0.209562 -10.37  0.001529107    2.340    0.573
        60  -9.2783     23.6095    196.7644   1.1547123628e+02   2.9966485763e+01    0.1772891    0.1563745  24.54  0.001158604    1.400    0.285
        61 -10.0131     27.2449    194.2366   1.1440043384e+02   3.0185048360e+01    0.1658978    0.1406598  66.48 0.0002351572    1.085    0.079
        62 -12.7168    113.2730    191.9678   9.2847601777e+01   1.8706811547e+01    0.4984968    0.2365224  54.33  0.001604186    2.729    0.634
        63 -12.4357    111.3917    188.2383   9.2691465996e+01   1.9882468847e+01    0.2907319    0.2471762  72.44 0.0009094525    1.266    0.210
        64  -9.6929     10.3357    196.2746   1.1846675490e+02   3.1357822274e+01    0.1131477   0.08839587 -47.11 0.0006994525    1.604    0.377
        65 -11.4086     41.0972    190.7678   1.1072755982e+02   2.9485747880e+01    0.4017405    0.2881091 -60.00 0.0008493186    1.414    0.293
        66 -10.9566     32.0574    191.3189   1.1298096272e+02   3.0365600606e+01    0.3623736    0.1891675 -87.39  0.001722082    1.955    0.489
        67 -12.3775     24.7018    188.6140   1.1449695846e+02   3.1778410685e+01    0.5406643    0.4116041  40.05  0.003046917    1.365    0.267
        68  -9.8270     18.7504    184.2797   1.1554217482e+02   3.3394957960e+01    0.1258122      0.08132  70.06 0.0002170765    1.459    0.315
        69 -10.3805      1.3952    191.3200   1.2013194901e+02   3.3274536806e+01    0.1131521   0.09655809  87.45 0.0001915064    1.104    0.094
        70  -9.7412     16.7273    189.0094   1.1642936707e+02   3.2462683459e+01    0.1748769    0.1318449 -42.60 0.0001509394    1.679    0.404
        71 -10.4990     60.0128    187.5637   1.0563197057e+02   2.7908987080e+01    0.2377264    0.1781511 -52.92 0.0006150368    1.422    0.297
        72 -10.5596      8.2217    187.2162   1.1827925944e+02   3.3653187362e+01    0.1603735    0.1410798  78.42 0.0006076755    1.111    0.100
        73 -13.1014     79.4514    182.2956   9.9901833705e+01   2.6440958065e+01    0.7922866    0.5078933 -43.73   0.00371732    1.792    0.442
        74 -12.3090     35.1881    175.1895   1.1051552038e+02   3.3936483307e+01    0.7928174    0.5151925  42.71  0.004266724    1.536    0.349
        75 -10.4021     27.9839    177.0069   1.1255964683e+02   3.4246447701e+01      0.24585    0.1700578  84.57 0.0003439362    1.357    0.263
        76  -9.7513     26.6922    173.6844   1.1254440463e+02   3.5189294660e+01    0.2555172    0.1485829 -48.75 0.0008356713    1.902    0.474
        77 -11.0338    101.0208    176.0518   9.3253907030e+01   2.4514550175e+01    0.2117295    0.2041026  62.85            0    1.012    0.012
        78 -10.0806      7.6911    176.6460   1.1757510716e+02   3.6201695872e+01    0.1272188    0.0823829 -50.24 6.744885e-05    1.722    0.419
        79 -11.9009     12.9095    180.9823   1.1666949095e+02   3.4718325476e+01    0.3824105    0.2679624   5.47  0.002188461    2.033    0.508
        80  -9.7088      2.6459    173.8018   1.1857461498e+02   3.7284627279e+01    0.1067726     0.087813 -37.77 0.0006064076    1.536    0.349
        81 -12.3878     30.0275    161.4435   1.1029309013e+02   3.7885079228e+01    0.3193754     0.298026 -29.57  0.001376622    1.278    0.217
        82 -11.0083      8.9793    162.2821   1.1599828219e+02   3.9566813478e+01    0.4561323     0.257011 -41.81  0.002321704    2.162    0.537
        83 -13.1985     22.0387    160.7912   1.1238496088e+02   3.8815954751e+01    0.9188512    0.4867007  51.63  0.004487758    1.985    0.496
        84 -10.2753     22.2787    178.2091   1.1411650817e+02   3.4518747788e+01    0.3274151     0.177982  74.14  0.001580119    1.967    0.491
        85  -9.9680      4.3418    206.2139   1.2044966430e+02   2.9639195800e+01    0.1388302   0.09243226  88.61 0.0003721968    1.249    0.199
        86 -13.8893     20.1987    152.2243   1.1192059898e+02   4.1109999219e+01     1.075815    0.5315063   4.02  0.004468443    3.416    0.707
        87 -13.3759     62.1748    155.2637   1.0038067873e+02   3.5653266869e+01    0.7825421    0.4821694  48.28  0.003658619    1.699    0.412
        88 -11.6177     30.5850    155.5267   1.0941308760e+02   3.9309231670e+01    0.3074884    0.2231816 -12.16  0.001077887    1.898    0.473
        89 -10.0601      7.5070    155.6584   1.1575785041e+02   4.1299275028e+01    0.1721556    0.1203395  24.87 0.0001425307    1.683    0.406
        90 -12.4856     81.3987    150.9936   9.4092930238e+01   3.3906718294e+01    0.3310485    0.2831193  62.37  0.001738627    1.217    0.178
        91 -11.3622     48.6210    195.2086   1.0936817761e+02   2.7527615869e+01    0.8609294    0.4689769 -59.79  0.004225726    1.803    0.446
        92 -13.4308     74.1778    159.5280   9.7682415445e+01   3.2869702339e+01    0.5319548    0.3868474  23.56    0.0016906    1.562    0.360
        93 -11.9971     79.4913    146.7244   9.3832857221e+01   3.5276621503e+01    0.4713382    0.3040937  -2.73   0.00185171    2.671    0.626
        94 -13.5681     49.1023    123.3762   9.8703780155e+01   4.5371383164e+01    0.7571169    0.4536556 -12.17  0.003143457    2.659    0.624
        95 -14.6261     39.2351    138.2270   1.0443051761e+02   4.2770994858e+01     1.486231    0.8786684  -2.38  0.006455575    2.662    0.624
        96 -15.0910     16.9527    135.0105   1.1074660413e+02   4.5667016788e+01     1.237795    0.9982089   7.10  0.007536804    1.511    0.338
        97 -14.4463     20.0435    125.0257   1.0840210321e+02   4.7892495193e+01    0.6847936    0.5505505 -31.82  0.004117571    1.351    0.260
        98 -12.7279    248.9803    117.7282   5.0031811046e+01   8.4014420041e+00    0.4035465    0.1878125 -33.40  0.001838812    2.131    0.531
        99 -13.2034     13.7768    117.9374   1.0937973866e+02   5.0117907536e+01    0.3713308    0.2988391  69.88  0.001407654    1.380    0.276
       100 -13.8715     55.5638    134.2685   9.8704192585e+01   4.1838942615e+01    0.8362054    0.6262871 -13.44  0.004194607    1.707    0.414
       101 -12.9686      3.4259    113.7532   1.1217958484e+02   5.1812332150e+01    0.4335844    0.2958781 -84.72  0.002272956    1.414    0.293
       102 -12.9408     37.2213    121.8451   1.0231155323e+02   4.7087413466e+01    0.4132754    0.3238542  -1.96  0.002292287    1.517    0.341
       103  -9.7618     44.7540    113.6293   9.8214994480e+01   4.8285496773e+01    0.1847665    0.1265613  38.70 0.0007672864    1.594    0.373
       104 -13.7570     30.7285    124.3902   1.0486857933e+02   4.7103584405e+01    0.6583126    0.3626966 -68.25  0.003150667    1.651    0.394
       105 -11.1775      1.9188    105.5208   1.1153687844e+02   5.3866558232e+01    0.2757834    0.1537764 -66.90 0.0005930667    1.460    0.315
       106 -13.5435    247.0224    101.3546   4.6981451841e+01   1.1426346529e+01    0.4838902    0.4622397 -37.49  0.003326947    1.199    0.166
       107 -10.3891      5.5217     95.4820   1.0870339840e+02   5.6025772247e+01    0.1274272    0.1039999 -54.82 1.648121e-05    1.012    0.012
       108 -11.3587     14.1918     94.0108   1.0524410609e+02   5.5810596926e+01    0.2063147     0.139475  80.28  0.001087999    1.966    0.491
       109  -9.7416     64.5266     97.5280   8.7616595345e+01   4.9509327639e+01    0.1454738    0.1312668 -26.79 0.0008086521    1.062    0.058
       110  -9.4393    132.4505     92.5420   6.5576963023e+01   3.7537873560e+01    0.1496679    0.1469975  76.28 0.0001697744    1.017    0.017
       111 -11.1996     16.8388     82.1380   1.0180643445e+02   5.8334341685e+01    0.1869541    0.1263134 -36.96 0.0004667981    1.329    0.248
       112 -11.6210     19.7862     68.8092   9.7395557430e+01   6.1009961658e+01    0.3622952    0.1607233 -25.91  0.001514649    2.892    0.654
       113 -10.5757      7.7634     68.7390   1.0252562128e+02   6.1893089346e+01    0.2296804    0.1497654 -60.95 0.0007037085    1.395    0.283
       114 -10.5959     99.9893     62.8427   6.5480193823e+01   5.0108809987e+01    0.2288917     0.202731 -54.13 0.0003422635    1.277    0.217
       115 -10.1047      3.7646     59.5922   1.0209057707e+02   6.4055221760e+01     0.148217    0.1071891  24.36 0.0006851302    1.613    0.380
       116 -11.8891    248.8527     55.8440   3.7676158877e+01   1.7992577860e+01    0.3788724    0.1910597 -43.45  0.001575703    1.657    0.397
       117 -10.1735     47.1827     57.1373   8.2223945193e+01   6.0367893322e+01    0.2111036    0.1595421 -14.92 0.0009804615    1.279    0.218
       118 -11.2378    169.2567     49.9760   4.6181795409e+01   3.6090627827e+01     0.213185     0.179445  74.95 0.0003445467    1.099    0.090
       119  -9.5833     22.4384     58.4360   9.3340966130e+01   6.2912152005e+01    0.1229463    0.1062063 -28.27 0.0001561999    1.066    0.062
       120  -9.6773     39.4965     44.5785   8.1055286832e+01   6.3622920667e+01     0.127289    0.1061593  -6.72 0.0001293244    1.018    0.018
       121 -10.1282     96.0423     38.3764   5.8257866155e+01   5.4663771030e+01    0.1896854    0.1521442  46.05 0.0003902297    1.135    0.119
       122  -9.8428    161.9701     36.9530   4.3855160247e+01   3.9564233376e+01    0.1611005    0.1438154  82.79 0.0004744254    1.008    0.007
       123 -11.1328    119.9721     34.8387   5.1052100460e+01   4.9782375542e+01    0.1980629    0.1927257  13.86 0.0002935149    1.118    0.106
       124  -9.8583     51.4599     33.0090   7.1438589530e+01   6.3744448271e+01    0.1739171    0.1162957 -31.65  0.000346375    1.496    0.332
       125 -10.1840     17.6625     31.8315   8.6580629354e+01   6.8226954272e+01    0.1564548    0.1252119 -26.26 0.0004018723    1.128    0.113
       126 -11.4550     67.4084     29.5171   6.3938656133e+01   6.1511106845e+01    0.3108307    0.2241639   2.38 0.0004736336    1.473    0.321
       127 -10.4593    144.5035     29.5567   4.4628756404e+01   4.4630972890e+01    0.1342008    0.1178174  72.98 6.654058e-05    1.012    0.012
       128  -9.8200    103.9927     28.6949   5.2724055082e+01   5.4142412303e+01    0.1846814    0.1482739  52.35 0.0002409906    1.112    0.101
       129 -11.1733     46.8635     26.9904   7.0848169638e+01   6.5304961589e+01     0.192167    0.1525948  18.38 0.0002836912    1.093    0.085
       130 -10.7115    250.6436     24.0391   3.1456505333e+01   2.1790169434e+01    0.1560474   0.08880254 -45.02            0    1.504    0.335
       131 -11.2678    215.0569     23.1000   3.4143581540e+01   2.9109715988e+01     0.189825     0.152604 -78.06 0.0005612136    1.013    0.013
       132 -10.9939    142.0833     22.7792   4.3053141506e+01   4.5964993401e+01    0.1980499    0.1611981  88.84 0.0004696514    1.206    0.171
       133  -9.7862     98.4955     22.9838   5.2063653476e+01   5.5994895734e+01    0.1724415    0.1291307 -23.19 0.0004183463    1.494    0.331
       134  -9.7996    159.2709     20.6681   3.9847695880e+01   4.2105286936e+01    0.1313918   0.08857363 -68.20 0.0002056919    1.589    0.371
       135 -10.5935    117.4393     18.4905   4.6221008547e+01   5.2197093259e+01    0.1297593    0.1132917  58.45 5.742624e-05    1.014    0.013
       136 -10.5159     20.0242     16.4522   7.8851075942e+01   7.0338514001e+01    0.1655217    0.1280748  -9.58 0.0003609657    1.053    0.051
       137 -11.9939    132.4332    247.3916   9.6641391372e+01   4.3057306709e+00    0.2574508    0.2368592 -56.75  0.001567211    1.288    0.224
       138 -14.2157    116.6572    227.6420   9.7427796746e+01   1.0478857702e+01    0.8379155    0.5911106 -36.59  0.004475066    1.740    0.425
       139  -9.9885    112.5636     14.5058   4.5879542908e+01   5.3704461077e+01    0.1279512    0.1112053  58.07 8.674435e-05    1.026    0.025
       140 -10.9194     70.4620    246.8947   1.0966768219e+02   1.3377537798e+01    0.2794042    0.1823764  88.81   0.00160542    1.701    0.412
       141 -10.2788     91.5024    247.6328   1.0533717222e+02   1.0315927240e+01    0.2971359   0.09121093  39.40  0.001113516    2.576    0.612
       142  -9.5510     80.0295    247.5096   1.0773351357e+02   1.1952919815e+01    0.1885923    0.1063269  38.38  0.001007552    1.517    0.341
       143 -11.2348     89.5613    242.9282   1.0524442022e+02   1.1506735023e+01    0.2363576    0.2147589 -71.62  0.001358701    1.250    0.200
       144 -12.4376    139.2526    242.2121   9.4498178051e+01   4.1930068203e+00    0.4127286    0.2473174 -22.69  0.001616681    2.633    0.620
       145 -10.6920      1.0000    236.0418   1.2276405983e+02   2.3569516398e+01    0.1709293   0.05434605 -79.56 0.0007864275    2.833    0.647
       146 -11.1053     91.7578     10.5913   4.9162531876e+01   5.8687938370e+01    0.1774762    0.1109224  67.05 0.0009530808    1.653    0.395
       147 -11.2590     85.3943    212.0121   1.0254571199e+02   1.8607081691e+01    0.4547622    0.2070709  56.37  0.001774329    2.689    0.628
       148 -13.6647    101.1994    213.8601   9.9076249943e+01   1.5787821639e+01    0.9005716    0.6127858 -66.22  0.004638145    1.610    0.379
       149 -12.0525     90.5591    215.1980   1.0174361959e+02   1.7129634698e+01    0.4897771    0.3240696  47.19 0.0005218597    1.378    0.274
       150 -11.9608     93.5909    234.2097   1.0339058629e+02   1.2662517080e+01    0.9316838    0.3920905  24.16  0.003369227    3.599    0.722
       151 -13.7568     92.5510    222.3617   1.0219299753e+02   1.5281396700e+01     1.538735     0.653411  52.91  0.006078623    2.669    0.625
       152 -12.9106     95.8152    227.9113   1.0214153277e+02   1.3625024829e+01    0.7006947    0.4968885 -23.53  0.003312607    2.153    0.536
       153 -12.2476     90.0220    229.3499   1.0361121356e+02   1.4185404281e+01    0.4881932    0.3428428 -49.87  0.001768435    1.658    0.397
       154 -11.2833    147.8129    232.7780   9.1308618493e+01   4.5726586684e+00    0.1777679    0.1510696  54.89 0.0009542656    1.313    0.239
