#   1 NUMBER                 Running object number                                     
#   2 MAG_AUTO               Kron-like elliptical aperture magnitude                    [mag]
#   3 X_IMAGE                Object position along x                                    [pixel]
#   4 Y_IMAGE                Object position along y                                    [pixel]
#   5 X_WORLD                Barycenter position along world x axis                     [deg]
#   6 Y_WORLD                Barycenter position along world y axis                     [deg]
#   7 A_WORLD                Profile RMS along major axis (world units)                 [deg]
#   8 B_WORLD                Profile RMS along minor axis (world units)                 [deg]
#   9 THETA_WORLD            Position angle (CCW/world-x)                               [deg]
#  10 FWHM_WORLD             FWHM assuming a gaussian core                              [deg]
#  11 ELONGATION             A_IMAGE/B_IMAGE                                           
#  12 ELLIPTICITY            1 - B_IMAGE/A_IMAGE                                       
         1 -15.1981    142.6446      6.0787   7.0535015236e+01   4.8256763626e+01    0.8859192    0.5166059  76.23  0.003979387    1.810    0.448
         2 -16.2628    165.7348      4.0736   6.6386034159e+01   4.2915460644e+01     3.779341    0.9076884  68.58   0.01235988    3.799    0.737
         3 -14.3499    151.0743      3.2155   6.8295448404e+01   4.6511462108e+01    0.7656134    0.3519053  59.79  0.003558989    1.762    0.432
         4 -12.6719     94.0601      5.6195   8.0590247051e+01   5.8898425912e+01     0.218195    0.1640473   3.31 0.0004032495    1.324    0.245
         5 -11.0880    215.4211    243.6318   1.1385923067e+02  -8.2477771061e+00    0.1232744   0.09819813  24.92 4.549142e-05    1.035    0.034
         6 -17.2479    243.1194    228.0966   1.0617863842e+02  -1.0567928530e+01     3.898248     1.362722 -34.12   0.01691187    2.999    0.667
         7 -13.7444    235.7819    185.1279   9.9323914876e+01  -2.8701587643e+00    0.4813994    0.3259384 -46.86  0.002495337    1.661    0.398
         8 -18.1078     13.1564    223.4959   1.4910409928e+02   2.6710245937e+01      4.91691     2.063972 -70.08   0.02864103    2.061    0.515
         9 -20.3637    124.1032    179.0408   1.2151072063e+02   2.0386664484e+01     9.739182     7.098775  45.31   0.04938479    1.336    0.252
        10  99.0000    176.3302    223.9568   1.1809646714e+02   1.5666301505e+00    0.5353853    0.3959728  74.72  0.002832368    1.873    0.466
        11 -11.3251    217.3604    222.5423   1.0991207659e+02  -5.5445424217e+00    0.2657546    0.1137704  39.76  0.001182893    2.100    0.524
        12  99.0000    191.4997    237.1814   1.1729096288e+02  -3.2787484495e+00    0.2686621    0.1492607 -46.51  0.001380212    2.168    0.539
        13 -12.6879    193.0220    218.5373   1.1388914548e+02  -5.8062104845e-01    0.3587799    0.2350013  23.06  0.001815129    1.706    0.414
        14 -12.3965    208.5866    216.3252   1.1047069266e+02  -3.0398753690e+00    0.2110168    0.1883068  -0.23 0.0006350725    1.107    0.096
        15 -11.1331    214.9530    213.6159   1.0875881425e+02  -3.7449267712e+00    0.1762318    0.1406529  33.15  0.000369485    1.139    0.122
        16 -12.7218    196.4732    211.2674   1.1192071762e+02   2.5303213581e-03    0.4795407    0.2911935  29.91  0.001904613    1.691    0.409
        17 -11.5175    204.7670    212.1206   1.1044897829e+02  -1.6680173324e+00      0.17496    0.1557348  -8.39 0.0002826071    1.144    0.126
        18 -12.4864    210.8680    209.2684   1.0874172149e+02  -2.3119769986e+00    0.3570929    0.2089806 -21.90  0.001649198    2.204    0.546
        19 -11.6688    224.6761    207.1199   1.0570702801e+02  -4.4401881888e+00    0.2334784    0.1913938 -33.36 0.0009959997    1.290    0.225
        20 -12.4247    202.3318    203.9403   1.0941458619e+02   1.5749959135e-01    0.4427474    0.3515215 -86.73  0.002260132    1.955    0.489
        21 -11.1067    191.0377    204.5803   1.1178447354e+02   2.1846897352e+00    0.3776559    0.1541315  38.24 0.0006542884    2.391    0.582
        22 -11.9197    194.3429    202.0074   1.1064258343e+02   2.0090547591e+00    0.3079759    0.2051038 -62.73   0.00122172    2.170    0.539
        23 -11.0943    191.2815    200.6642   1.1100763131e+02   2.8365164036e+00    0.2894356    0.2168372  67.06 0.0007528851    1.726    0.420
        24 -12.0831    191.4375    233.2881   1.1667637449e+02  -2.6680883018e+00    0.1737417    0.1510871  31.25 0.0007375962    1.023    0.022
        25 -12.4666    208.4580    201.6415   1.0777647827e+02  -5.9763081999e-01    0.2392396    0.2028027   2.48 0.0006527785    1.195    0.163
        26 -11.6187    227.5894    200.6586   1.0392434161e+02  -3.9288084142e+00    0.1731782     0.125021 -42.88 0.0007150449    1.528    0.346
        27 -10.0430     72.8804    236.9366   1.3979175870e+02   1.6675064038e+01    0.2742864    0.1209691 -55.92  0.001357676    2.700    0.630
        28 -12.7917    220.1284    198.1854   1.0485542939e+02  -2.1777917469e+00     0.289065    0.2282518  -4.97 0.0006806895    1.326    0.246
        29 -12.2631    217.9057    194.2034   1.0450197323e+02  -1.0993786316e+00    0.2415842    0.2250329 -51.78 0.0005238369    1.275    0.216
        30 -11.9468    199.0927    198.8944   1.0910332257e+02   1.6503311941e+00    0.2251397    0.1896314 -24.14 0.0006278704    1.249    0.200
        31 -12.7085    205.7535    192.5146   1.0654186379e+02   1.4986842853e+00    0.6466454    0.5124462 -57.97  0.003468028    1.553    0.356
        32 -13.0843    231.9839    191.8346   1.0137252283e+02  -3.2866095244e+00     0.279533    0.2555578 -40.60 0.0004609631    1.257    0.205
        33 -11.9549    221.6056    190.7251   1.0310365625e+02  -1.1996760420e+00     0.266885    0.2277552  14.89 0.0007943424    1.117    0.105
        34 -11.5487     60.8356    236.4012   1.4189174838e+02   1.8464166092e+01    0.3481445     0.303213  23.91  0.002407959    1.851    0.460
        35 -11.9052    208.6472    183.9250   1.0425085112e+02   2.4720566084e+00    0.3991613    0.1898855 -49.04  0.001594936    2.457    0.593
        36 -13.1133    213.5597    181.0082   1.0268878638e+02   2.0338838029e+00    0.4941963     0.303984  40.19  0.001118492    1.592    0.372
        37 -12.7539    228.0066    182.3632   1.0020145882e+02  -9.7277918624e-01    0.2397111    0.2212817 -25.03 0.0002706682    1.111    0.100
        38 -13.6157    209.3648    164.8210   1.0009751429e+02   5.8629518720e+00    0.5375217    0.4432343 -18.07  0.001434732    1.282    0.220
        39 -13.4044    213.0713    173.2311   1.0116488867e+02   3.5420048568e+00    0.6198168    0.4081045  -9.06  0.002699838    2.179    0.541
        40 -12.7538    209.3230    170.7333   1.0137407111e+02   4.7606997379e+00    0.3368886    0.2784996 -34.91 0.0008113566    1.206    0.171
        41 -11.8842    244.9459    169.4867   9.4444730661e+01  -1.9307003272e+00     0.215243    0.1739813 -28.44 0.0006825971    1.144    0.126
        42 -13.2132     40.9538    156.9380   1.3744437606e+02   3.8136878581e+01    0.4705544    0.3156384 -49.37  0.002045629    1.623    0.384
        43 -11.2143     21.4822    160.4502   1.4227589558e+02   3.9300456265e+01    0.1213849   0.09436367 -81.97 7.667533e-05    1.018    0.018
        44  99.0000     86.9806    235.7996   1.3710395606e+02   1.4805325167e+01    0.5482363    0.2617648  48.39  0.002852212    1.759    0.432
        45 -12.0560     26.6588    158.4821   1.4090641307e+02   3.9256675965e+01    0.2500733    0.2346827  30.00  0.001490701    1.433    0.302
        46 -12.0873    213.0465    152.4787   9.6655833219e+01   7.4381578374e+00    0.2236484    0.1918279 -37.41 0.0003493218    1.138    0.121
        47 -11.3395     48.4062    149.6118   1.3465502994e+02   3.9000087471e+01    0.1828879    0.1294771  77.70 0.0005679864    1.471    0.320
        48 -12.2469     24.1701    146.9650   1.4011287922e+02   4.2113503135e+01    0.1816417    0.1572736 -86.45 0.0004016588    1.121    0.108
        49  99.0000     69.4421    235.4603   1.4027194857e+02   1.7450247967e+01    0.2637898    0.1669014  30.44  0.001466448    2.277    0.561
        50 -11.8536     52.2369    143.9238   1.3284574757e+02   3.9882757101e+01    0.1947547    0.1735943  86.33 0.0003203992    1.107    0.097
        51 -13.1169    206.7769    137.9801   9.4564421606e+01   1.1603163058e+01    0.4625124    0.3445803 -67.48  0.000300178    1.674    0.402
        52 -13.3791    202.0701    135.6678   9.4952831623e+01   1.3109758757e+01    0.5288866      0.37741  15.08  0.001407127    1.996    0.499
        53  99.0000     69.8343    230.6212   1.3974090566e+02   1.8338870840e+01    0.5177215    0.2362301  87.71  0.002223948    3.145    0.682
        54 -12.8640    222.3214    233.9894   1.1098171275e+02  -8.0433478598e+00    0.2839704    0.2430276 -66.83  0.001404248    1.820    0.451
        55  99.0000    163.8570    233.3780   1.2202840124e+02   2.2292291409e+00     0.363346    0.2391542 -72.46  0.001830828    2.307    0.567
        56 -11.0276    148.1337    234.5205   1.2525996445e+02   4.8367575310e+00    0.2678795    0.1426525  33.93  0.001257985    2.003    0.501
        57 -16.9427    175.6177    188.7933   1.1198661872e+02   8.1539679793e+00     1.701502     1.399488  -9.57  0.008917699    1.479    0.324
        58 -13.3712     79.1130    121.0434   1.2143352471e+02   4.1656830925e+01    0.3223444    0.2846562 -83.17  0.001124261    1.165    0.142
        59 -11.6906    216.2754    234.3031   1.1215350925e+02  -7.0863988688e+00     0.151168     0.128216  42.60 0.0002889064    1.266    0.210
        60 -12.6188     37.3051    233.5155   1.4573644571e+02   2.2046221207e+01    0.1998774    0.1448821  84.69 0.0006318016    1.095    0.086
        61 -10.8822     43.0160    232.8653   1.4470981262e+02   2.1472906206e+01    0.1861473    0.1140879 -82.46  0.001194601    1.417    0.294
        62 -10.7887     45.2905    229.3154   1.4403152451e+02   2.1884876539e+01    0.2067301    0.1060543  47.56  0.001204881    1.735    0.423
        63 -11.1724     54.2752    243.3402   1.4360853854e+02   1.8022111903e+01   0.09717556    0.0853257 -65.35 0.0006999059    1.615    0.381
        64 -13.5478    160.4752    117.3722   9.9391469809e+01   2.6481370414e+01    0.4845007    0.3643289 -52.57  0.002235537    1.355    0.262
        65 -12.4540    158.8990    112.4564   9.8487922603e+01   2.7881671725e+01    0.3390666    0.2583901 -60.23 0.0003460931    1.426    0.299
        66 -11.4679    188.6422    241.4790   1.1850933585e+02  -3.4349805360e+00    0.1243719    0.1058618  25.28 0.0007911569    1.093    0.085
        67 -11.5851     19.9253    116.0352   1.3693373419e+02   4.9492047428e+01    0.1809892     0.146172 -67.63   0.00064962    1.027    0.027
        68 -11.9521    153.3730    115.1531   1.0048559654e+02   2.8586639000e+01    0.2556887    0.2126237  38.83 0.0003507251    1.254    0.203
        69 -12.3846     79.8858    112.2878   1.1925099748e+02   4.3554487504e+01    0.2452493    0.2102706 -70.90 0.0002857952    1.183    0.155
        70 -11.8741     66.7895    113.0595   1.2317853146e+02   4.5249366012e+01    0.2079214    0.1729367 -81.22 0.0008407235    1.288    0.224
        71 -13.1478    139.4388    107.9110   1.0198201330e+02   3.3268946096e+01    0.3530628    0.2828445  12.35  0.001621266    1.587    0.370
        72 -11.6844     78.4247    108.1019   1.1868924766e+02   4.4723176736e+01    0.2134871    0.1929057  -5.13 0.0004044722    1.243    0.195
        73 -12.8972     56.8040    228.2200   1.4188818283e+02   2.0610434944e+01    0.2787226    0.2565519  18.84  0.001974112    1.772    0.436
        74 -11.8383     61.4277    226.5067   1.4089061310e+02   2.0327812138e+01    0.1995191    0.1019799  45.43 0.0004784321    1.782    0.439
        75  99.0000     54.2963    225.3491   1.4208549931e+02   2.1516208342e+01    0.1540949     0.110468  48.14 0.0005011845    1.413    0.292
        76 -12.1292     81.1286    103.2319   1.1671802087e+02   4.5400748611e+01    0.2083816    0.1845548 -24.90 0.0004979168    1.171    0.146
        77 -11.0156    140.7138     99.2716   9.9327352831e+01   3.4791519737e+01     0.196888    0.1556727 -59.35 0.0001838242    1.366    0.268
        78 -12.8172    143.4819     95.7040   9.7657311085e+01   3.4890374900e+01    0.3667666    0.2991564 -23.55 0.0006507688    1.360    0.265
        79  -9.8419     50.6241    229.3207   1.4309034122e+02   2.1203977202e+01    0.1989572    0.1567384  60.79  0.001398505    1.219    0.180
        80 -11.5284     50.6731    225.8264   1.4278217489e+02   2.1892890919e+01    0.1617455    0.1387891  85.03  0.000628635    1.247    0.198
        81 -11.9725     19.6940     95.1404   1.3346360693e+02   5.4119141672e+01     0.181935    0.1632868  61.07  0.001308422    1.375    0.273
        82 -11.2577     97.5207     93.5229   1.0937869211e+02   4.4779273940e+01    0.1440888     0.135485 -33.56 0.0001199734    1.002    0.002
        83 -11.6046     34.2827     93.3534   1.2864332711e+02   5.3304109851e+01    0.1989887    0.1190764 -33.61  0.001077759    1.778    0.438
        84 -11.0256     47.3920    239.7137   1.4449310296e+02   1.9601907521e+01     0.126339   0.06271929  66.26 0.0007004058    1.762    0.433
        85 -11.9603    111.0632     89.0357   1.0426069306e+02   4.3167805442e+01    0.2178808    0.2071455 -21.65 0.0002906097    1.022    0.022
        86 -13.1692     73.0051     88.0870   1.1525586825e+02   4.9887652812e+01    0.3782122    0.2788136  16.01  0.001043563    1.592    0.372
        87 -12.5873    123.2316     86.9453   1.0033978656e+02   4.1101848914e+01    0.3162931    0.2632061  66.79  0.001087741    1.378    0.274
        88 -11.6141     35.9407     88.2457   1.2701052982e+02   5.4249011667e+01    0.1709575    0.1539304 -65.75 0.0004115179    1.176    0.150
        89 -13.1979     89.8542     85.6596   1.0943549758e+02   4.7743748975e+01    0.4188863    0.2718337  55.49  0.001639208    1.988    0.497
        90 -11.4614    116.1909     87.1727   1.0230638591e+02   4.2517181764e+01     0.211753    0.1957464  -4.65 0.0003000983    1.111    0.100
        91 -11.8664     17.1968     86.6521   1.3260566290e+02   5.6113552201e+01    0.1819586    0.1441074 -18.77 0.0006656295    1.421    0.296
        92 -11.5556      6.8173     79.0988   1.3442704185e+02   5.8350971254e+01    0.1677825    0.1457537 -37.05 0.0004170568    1.199    0.166
        93 -12.1990     80.8190     76.6980   1.0959833072e+02   5.1020562227e+01    0.2253893    0.1704151 -31.94 0.0003521761    1.246    0.197
        94 -13.4325     97.1358     72.5615   1.0336333046e+02   4.9029815247e+01     0.488382    0.3819611  -1.36  0.001324169    1.451    0.311
        95 -11.4917     67.0322     73.9287   1.1318732291e+02   5.3613974937e+01    0.2016938    0.1730305 -30.40   0.00041972    1.024    0.023
        96 -12.8082     82.2879     71.0566   1.0743460688e+02   5.1873066524e+01    0.3982069     0.267991 -67.31  0.001846256    2.344    0.573
        97 -11.1722     70.4215     49.4938   1.0425988578e+02   5.7541284853e+01     0.130051    0.1096349 -11.35 0.0008051271    1.034    0.033
        98 -11.0464     41.6701     49.6892   1.1453124411e+02   6.1231387377e+01    0.1268672   0.07863531 -18.93 0.0003108827    1.668    0.401
        99 -10.9728    223.7088    249.6088   1.1332005567e+02  -1.0363810785e+01    0.1631651   0.09833188  43.15 0.0009355804    1.568    0.362
       100 -11.0838     42.9541    248.6089   1.4588931805e+02   1.8497479695e+01    0.2238954    0.1247479 -84.63 0.0007252318    1.595    0.373
       101 -10.7113     42.4404    245.0000   1.4571605080e+02   1.9230327379e+01    0.2905828   0.08070827  39.84  0.001289228    3.459    0.711
