#   1 NUMBER                 Running object number                                     
#   2 MAG_AUTO               Kron-like elliptical aperture magnitude                    [mag]
#   3 X_IMAGE                Object position along x                                    [pixel]
#   4 Y_IMAGE                Object position along y                                    [pixel]
#   5 X_WORLD                Barycenter position along world x axis                     [deg]
#   6 Y_WORLD                Barycenter position along world y axis                     [deg]
#   7 A_WORLD                Profile RMS along major axis (world units)                 [deg]
#   8 B_WORLD                Profile RMS along minor axis (world units)                 [deg]
#   9 THETA_WORLD            Position angle (CCW/world-x)                               [deg]
#  10 FWHM_WORLD             FWHM assuming a gaussian core                              [deg]
#  11 ELONGATION             A_IMAGE/B_IMAGE                                           
#  12 ELLIPTICITY            1 - B_IMAGE/A_IMAGE                                       
         1 -13.4024    243.9103     18.5077   2.1012335846e+01   2.2537458042e+01     1.937472    0.8199535 -44.55  0.009664906    1.962    0.490
         2 -11.4263    177.1755      6.9246   2.4546774528e+01   3.9335877682e+01     0.497566    0.2531664 -70.65  0.002141908    2.465    0.594
         3 -11.1676    169.5696      2.9790   2.4329685416e+01   4.1599357862e+01    0.4023989    0.2770149 -15.20  0.002207414    1.789    0.441
         4 -12.1033    143.2063      2.2182   2.7625737313e+01   4.8283715598e+01    0.8715917    0.1312468  63.54  0.002632268    4.094    0.756
         5 -10.9866    114.1933      2.6731   3.2899550364e+01   5.5380178396e+01    0.4150574    0.1124274  51.65   0.00154255    2.740    0.635
         6 -10.4486    189.5166      2.2928   2.1982141144e+01   3.6729559705e+01    0.3579422   0.07466325  66.10  0.001225414    3.532    0.717
         7  -7.8844    241.6472    233.3137   6.6288514172e+01  -8.3597647475e+00    0.1003536   0.09103277  35.36   0.00070457    1.732    0.423
         8  -9.2941    235.2524    232.0206   6.7201408863e+01  -7.3444280591e+00    0.1717578    0.1305011   4.39   0.00117082    1.035    0.034
         9  -9.4138    229.7897    229.3230   6.7731017520e+01  -6.2503303912e+00    0.1638196    0.1332185   0.63 0.0008666471    1.130    0.115
        10  -9.9115    237.5585    226.6664   6.5892179492e+01  -6.9851522614e+00    0.3067245    0.1334375  42.78  0.001465416    2.725    0.633
        11  -8.1363    143.6878    218.6637   8.3172544570e+01   8.8896306537e+00    0.1323506   0.09920679   2.27 0.0006605821    1.687    0.407
        12  -8.3009    248.5181    217.4994   6.2392270831e+01  -7.3086677080e+00    0.1207099   0.09325094   1.83   0.00081018    1.034    0.033
        13  -8.5657    171.9540    215.4565   7.6689394454e+01   4.7382642149e+00    0.1915185    0.1027383  53.89 0.0008090647    2.619    0.618
        14  -8.2360    250.3194    213.6763   6.1407937485e+01  -7.0624648392e+00   0.09998564   0.09656221 -15.82  0.000704519    1.674    0.403
        15  -8.7526    161.9023    213.0000   7.8407540914e+01   6.8431476500e+00    0.2294084   0.06778599  38.29 0.0008021844    2.941    0.660
        16  -9.1948    149.8322    206.2390   7.9928079067e+01   1.0114838387e+01    0.2277529    0.1435249  68.81 0.0009531307    2.826    0.646
        17  -9.1308    123.9032    206.0875   8.5677274497e+01   1.4537166050e+01    0.1957493    0.1597923  53.89            0    1.172    0.147
        18  -8.2299    176.6835    205.3055   7.3994216178e+01   5.6550186216e+00    0.1282387    0.1056997  63.33  0.000676868    1.626    0.385
        19  -9.1732    161.0380    204.4657   7.7191424213e+01   8.5032413050e+00    0.2161357    0.1218241  36.44 0.0008564096    1.573    0.364
        20  -9.0298    129.1584    204.1368   8.4203816604e+01   1.4043263150e+01    0.1953181    0.1533023  60.29  0.001051236    1.350    0.259
        21  -8.8290    134.4344    203.2450   8.2878642407e+01   1.3323742358e+01    0.1758083    0.1359638 -70.94 0.0009475405    1.600    0.375
        22  -8.7833    124.3960    200.2095   8.4691479798e+01   1.5627881898e+01    0.1824542    0.1338106 -72.39 0.0009502487    1.667    0.400
        23  -8.2923    167.5320    198.5301   7.4764445431e+01   8.4408741447e+00    0.1405281    0.1227313  20.25 0.0001685677    1.033    0.032
        24  -9.2960    157.1303    198.1616   7.6976082211e+01   1.0346310785e+01    0.1884921     0.160844  58.07 0.0005854901    1.328    0.247
        25  -8.8234    144.4966    197.4997   7.9686409413e+01   1.2700510106e+01    0.1410079    0.1260495  29.70 2.135927e-05    1.030    0.029
        26  -8.8567    187.1829    196.0257   7.0141226291e+01   5.4303118679e+00     0.255368    0.1821042  32.72  0.001008356    1.270    0.213
        27  -8.3043    162.3404    195.2989   7.5328210984e+01   9.9553731084e+00    0.1440799    0.1044757   5.68 0.0007034877    1.665    0.400
        28  -8.5397    148.4744    192.4702   7.7932566334e+01   1.2976169196e+01    0.1422149    0.1284151  34.33 8.765619e-05    1.020    0.020
        29  -9.6281    138.1780    191.4024   8.0108060407e+01   1.5023232392e+01    0.2092493    0.1204166  47.29 0.0009026057    1.687    0.407
        30  -9.2582    154.8265    190.3952   7.6131361636e+01   1.2237105934e+01    0.2067929    0.1255956  28.65 0.0007067678    1.671    0.401
        31  -8.8048    130.4986    190.5059   8.1743419478e+01   1.6559237214e+01    0.1421689    0.1296337  39.94 0.0008106608    1.006    0.006
        32  -9.7704    174.9567    189.4979   7.1521945901e+01   8.7580418314e+00    0.2162415    0.1286959  37.96 0.0005288818    1.546    0.353
        33  -9.1087    120.5071    189.0164   8.3854235296e+01   1.8602047834e+01    0.2083497    0.1417924 -58.71  0.001037089    1.615    0.381
        34 -10.3342    184.8150    188.0368   6.9142620956e+01   7.2439360359e+00    0.4603885    0.1797391  51.82  0.001427918    4.320    0.768
        35 -10.0441    158.1329    186.6982   7.4718131640e+01   1.2352106662e+01     0.233901    0.1715701  53.78  0.001068322    1.510    0.338
        36  -9.2206    142.3726    186.8051   7.8344913463e+01   1.5202485675e+01    0.1974255    0.1325685 -37.67 0.0007232057    1.686    0.407
        37 -10.3851    191.5443    186.5983   6.7461010002e+01   6.2917657270e+00    0.3297234    0.1722967  45.84  0.001454856    2.016    0.504
        38 -10.2005    162.9504    184.9927   7.3320736699e+01   1.1796392764e+01    0.2191232    0.1779094  73.50 0.0008569289    1.676    0.403
        39  -9.4833    134.3931    184.2687   7.9770951976e+01   1.7161631641e+01    0.2647284    0.1363533 -46.66  0.001046783    2.104    0.525
        40  -8.7498     96.3525    183.8172   8.8871709911e+01   2.3724456824e+01    0.1978777    0.1228369 -50.72 0.0009510824    1.749    0.428
        41  -8.4315    199.5065    183.4691   6.5221899580e+01   5.4149226158e+00    0.1400472    0.1229145   7.89 9.585141e-05    1.005    0.005
        42  -9.5517    194.8680    182.8466   6.6045926800e+01   6.3510897493e+00    0.1814321    0.1671562  51.55 0.0004856034    1.330    0.248
        43  -9.6407    154.6221    182.7782   7.4792658319e+01   1.3768472079e+01    0.1950903    0.1398267 -58.34 0.0006794078    1.679    0.404
        44  -9.3041    109.0118    182.9942   8.5659323821e+01   2.1848638344e+01    0.1768061    0.1631307  54.68  0.001022198    1.002    0.002
        45  -8.3590    205.2442    182.3860   6.3857822919e+01   4.5853957245e+00    0.1912488    0.1244093  46.41 0.0006805873    1.704    0.413
        46 -10.6599    151.4887    180.5177   7.5092718180e+01   1.4802293160e+01    0.4682723    0.2086573 -32.06  0.001546266    3.670    0.728
        47  -9.7715    121.6519    181.9084   8.2413833143e+01   1.9922517344e+01    0.2853025    0.2421812  23.08  0.001050558    1.240    0.194
        48  -9.5572    145.4751    180.9366   7.6568732644e+01   1.5831598569e+01    0.2141112    0.1453164 -48.59  0.001031864    1.591    0.371
        49 -10.3630    129.7872    175.9453   7.9402463964e+01   1.9758710310e+01    0.5839972     0.128614 -54.22  0.001496377    5.619    0.822
        50 -10.7371    190.2275    178.0730   6.6063568102e+01   8.0408623114e+00    0.2602194    0.1924427  35.61  0.001144562    1.286    0.222
        51 -10.5167    179.1296    177.8684   6.8384338677e+01   1.0139257886e+01    0.2139639    0.2023124  63.92 0.0007399243    1.280    0.219
        52 -10.7125    163.6516    177.6278   7.1761067155e+01   1.3097013685e+01    0.2798111    0.2561871  51.67   0.00129312    1.186    0.157
        53 -11.6381    170.0469    174.7926   6.9769008801e+01   1.2438311074e+01    0.6360784    0.2717052 -55.29  0.002117245    3.657    0.727
        54 -10.4632    158.9457    176.4655   7.2605945555e+01   1.4216229606e+01    0.2726204     0.214224 -66.22  0.001370885    1.625    0.385
        55  -9.6879    100.9944    175.9839   8.6527441266e+01   2.4741581678e+01    0.2027727    0.1873083  61.54            0    1.010    0.010
        56 -10.5581    174.0069    174.4307   6.8819160415e+01   1.1755313632e+01    0.2693716    0.2088915 -60.65 0.0009105555    1.650    0.394
        57  -9.7173    152.9662    174.5042   7.3607530377e+01   1.5745061727e+01    0.2218402      0.20376 -35.21 0.0008364114    1.148    0.129
        58  -8.0719    106.4890    174.4964   8.4910196779e+01   2.4166806085e+01     0.142675    0.1347436  55.64 0.0008105077    1.019    0.019
        59  -9.7140    192.5889    173.2353   6.4595378269e+01   8.4753872417e+00    0.1958662    0.1298448 -26.27 0.0007360586    1.590    0.371
        60  -9.8849    164.8492    172.8824   7.0557119112e+01   1.3804575217e+01    0.2307872    0.1968897   1.65  0.001015222    1.226    0.185
        61  -9.9151    142.5715    171.6748   7.5519664644e+01   1.8301360757e+01    0.2747997    0.1428647 -44.76  0.001133015    2.044    0.511
        62  -9.2053    133.6168    172.1960   7.7783228867e+01   1.9865252334e+01    0.2046064    0.1374733 -40.17 0.0009485802    1.639    0.390
        63 -10.7073    158.3872    170.4123   7.1544374870e+01   1.5541569429e+01    0.3130958      0.24788  -9.03  0.001183733    1.473    0.321
        64  -9.1842    118.5431    170.7160   8.1238389402e+01   2.2930480591e+01    0.2710452    0.1396766 -49.08  0.001049764    2.037    0.509
        65 -10.4012    206.9425    170.3667   6.1095083010e+01   6.3361606538e+00    0.3174019     0.127932  41.42  0.001244918    2.459    0.593
        66 -11.2304    151.8739    168.3251   7.2650119663e+01   1.7226860855e+01     0.620205    0.1957783 -48.56  0.001985884    3.408    0.707
        67 -10.4289    153.0325    162.0276   7.1096724013e+01   1.8315840843e+01    0.2617111    0.2261727 -42.47 0.0007554857    1.206    0.171
        68 -10.5225    179.5067    159.4955   6.4511886678e+01   1.3571546277e+01    0.2851372     0.198204 -54.08   0.00132665    1.715    0.417
        69 -11.6705    179.7096    167.3718   6.6130427414e+01   1.2013239159e+01     0.403593     0.293798  64.49  0.001883015    1.934    0.483
        70 -11.2262    182.3352    163.1297   6.4671296229e+01   1.2313778586e+01    0.2936057    0.2723616  15.02  0.001237095    1.028    0.027
        71 -10.1737    147.8954    168.3450   7.3597871038e+01   1.7988991464e+01    0.2597405    0.2098065 -60.37  0.001318081    1.412    0.292
        72  -9.7127    128.7724    168.6102   7.8302844349e+01   2.1542695848e+01    0.2806814    0.1728124 -42.29  0.001215053    1.776    0.437
        73 -10.2210    165.0199    168.0186   6.9537885470e+01   1.4739591556e+01    0.2305777    0.1888126  81.72 0.0008886821    1.700    0.412
        74  -9.7299    187.5317    164.5152   6.3850565116e+01   1.1040779908e+01    0.2073236    0.1878079  87.96  0.001123772    1.465    0.317
        75 -11.0448    196.8040    164.3015   6.1870403516e+01   9.3008114178e+00    0.2627221    0.2275063  74.41  0.001281867    1.598    0.374
        76 -10.5042    159.5074    160.4666   6.9245308549e+01   1.7359107792e+01    0.2932275    0.1942565 -45.61  0.001289063    1.574    0.365
        77 -11.5287    157.9462    155.1895   6.8488341233e+01   1.8768125748e+01    0.5943316    0.2944362 -31.29  0.002124042    2.713    0.631
        78 -11.0672    138.8263    163.9870   7.4927697314e+01   2.0660856367e+01    0.3803903    0.2607568 -45.77  0.001787982    1.526    0.345
        79  -8.8174    132.7057    163.5039   7.6345624515e+01   2.1932030334e+01    0.2647003    0.1362732 -50.91  0.001067006    2.038    0.509
        80  -8.5783    119.5850    164.2242   7.9788496596e+01   2.4203539741e+01    0.2084955    0.1379557 -42.10 0.0009490542    1.656    0.396
        81  -8.7380    100.0000    163.9926   8.4796671849e+01   2.7667252156e+01     0.238139    0.0820592 -57.28 0.0008053858    2.963    0.662
        82 -11.1587    211.8620    161.1510   5.8204224076e+01   7.0307412802e+00    0.3009829     0.239386  20.02  0.001650058    1.235    0.190
        83 -10.6430    175.8112    157.1873   6.4828425477e+01   1.4760759884e+01    0.2874667     0.191246  14.84 0.0008338055    1.960    0.490
        84 -11.7075    170.2553    150.9541   6.4708836632e+01   1.7133523656e+01    0.4201599    0.4047541  23.11  0.002198212    1.051    0.048
        85 -12.3382    166.3358    156.7839   6.6879406228e+01   1.6746919656e+01    0.5453968    0.5091533 -89.67   0.00295725    1.273    0.215
        86 -10.9073    171.1167    144.8600   6.3142160346e+01   1.8190646044e+01    0.4386609    0.2774209 -55.53  0.001154622    1.916    0.478
        87 -11.9493    174.8365    140.5825   6.1321101628e+01   1.8273521616e+01    0.6433163    0.4561837 -58.56  0.002909216    1.732    0.423
        88 -10.9859    192.0251    157.4943   6.1403189484e+01   1.1479844945e+01    0.2525728    0.2410402  86.12 0.0009356805    1.300    0.231
        89 -12.5634    185.9744    155.4848   6.2243973735e+01   1.3057718788e+01     1.105971    0.6036689 -63.50  0.003492955    4.296    0.767
        90 -13.2667    208.0663    142.3184   5.4813615157e+01   1.1096385529e+01     1.514308    0.6024805 -25.34  0.004262273    4.732    0.789
        91 -13.4601    187.8615    141.8367   5.8782267268e+01   1.5297283003e+01     1.850348    0.4640776 -42.65  0.005285428    3.970    0.748
        92 -13.8053    199.8942    135.9488   5.4955723780e+01   1.3917650365e+01    0.9420126    0.8673919 -52.92  0.005227931    1.205    0.170
        93 -11.3091    182.7750    144.3747   6.0450329134e+01   1.5859832456e+01    0.6644283    0.2341829 -37.62  0.002179442    2.990    0.666
        94 -12.4789    181.4765    136.0082   5.8791026094e+01   1.7775692672e+01    0.7585885    0.5199338 -26.07  0.003444023    1.590    0.371
        95  -9.3201    130.5079    158.4693   7.5898152614e+01   2.3466450288e+01    0.2743297    0.1359496 -39.47  0.001030358    2.364    0.577
        96  -8.4544    114.0000    158.9684   8.0236247868e+01   2.6412129881e+01    0.2467773   0.08495398 -53.88 0.0008091606    2.989    0.665
        97 -11.2038    217.1728    157.7443   5.6465829478e+01   6.6374675795e+00    0.3387931     0.275283 -26.52  0.001901913    1.148    0.129
        98 -13.2796    199.5628    146.6970   5.7473913220e+01   1.1993190280e+01    0.9472126    0.5904512 -38.07   0.00440415    1.561    0.359
        99 -10.1869    151.4872    152.0613   6.9354807211e+01   2.0735474504e+01    0.3298647    0.1516296 -46.11  0.001134144    2.241    0.554
       100 -13.6405    202.9530    125.3080   5.1858459767e+01   1.5243017400e+01    0.9974789    0.8017772 -50.61  0.005148508    1.325    0.245
       101 -11.1157    194.7150    144.6413   5.7995626969e+01   1.3354630639e+01    0.4476264    0.3224498 -13.97   0.00204621    1.597    0.374
       102  -8.6869    147.2916    155.3512   7.1080329743e+01   2.0872930170e+01     0.156114    0.1192039  -7.33 0.0005537917    1.674    0.403
       103  -9.7572    137.8443    152.8964   7.2899007516e+01   2.3283261478e+01    0.2352756    0.2089432  -7.46 0.0006379511    1.239    0.193
       104 -10.2913    163.3752    150.9086   6.6280336648e+01   1.8553569962e+01    0.2933145    0.2214872  32.22 0.0008183743    1.319    0.242
       105  -8.3334    128.6247    151.1992   7.4889974287e+01   2.5463224804e+01    0.2216603    0.1397385 -39.69 0.0009497872    1.727    0.421
       106 -11.0057    215.9211    149.4651   5.4909171334e+01   8.3033930829e+00     0.270468    0.1923973 -48.97  0.001088719    1.592    0.372
       107  -8.7548    122.5734    150.2169   7.6259539830e+01   2.6845255193e+01    0.2244329    0.1405302 -39.80 0.0009584104    1.757    0.431
       108  -8.6075    143.0000    148.8890   7.0747694472e+01   2.3137963672e+01    0.2480319   0.08805864 -47.46 0.0007955609    2.895    0.655
       109  -8.8702    133.0000    148.0418   7.3094256299e+01   2.5321751763e+01    0.2510624   0.08790439 -49.17 0.0008006303    2.930    0.659
       110 -12.6264    177.2896    152.7406   6.3528702620e+01   1.5340445234e+01    0.9620627    0.5542234  66.19  0.003256644    3.565    0.720
       111  -8.8479    117.4095    145.2398   7.6591405065e+01   2.8971046351e+01    0.3031168    0.1426696 -47.61  0.001145759    2.156    0.536
       112  -9.9861    155.5311    144.7090   6.6747803701e+01   2.1473320481e+01    0.2879917    0.1495375 -39.69  0.001118648    2.015    0.504
       113  -9.8892    159.6044    141.2153   6.4975798387e+01   2.1360008505e+01     0.217748    0.1448749 -32.30 0.0009423129    1.629    0.386
       114 -10.4530    167.1341    139.3761   6.2787523762e+01   2.0150151623e+01    0.2674926    0.2124087 -25.54  0.000834938    1.329    0.247
       115 -10.6178    148.6374    142.8576   6.8006215546e+01   2.3301349821e+01    0.3775511    0.2344001 -33.17  0.001313072    1.826    0.452
       116 -10.3852    164.6009    134.2019   6.2153747766e+01   2.1761027984e+01    0.3200701    0.2326842  -7.76  0.001141135    1.825    0.452
       117  -9.2799    138.8655    142.8831   7.0460967056e+01   2.5301310633e+01    0.2460312    0.2145052  -1.58  0.001017391    1.282    0.220
       118  -9.2436    142.8381    137.1765   6.8149557396e+01   2.5748015745e+01    0.2192741    0.1844627 -12.20  0.000729736    1.353    0.261
       119  -9.8913    155.5323    134.7746   6.4442642909e+01   2.3587632777e+01    0.2995352    0.1512906 -38.93  0.001130119    2.072    0.517
       120  -8.1193    132.7117    134.6621   7.0176024959e+01   2.8398062754e+01    0.1583568    0.1233152  -9.70 0.0006918127    1.637    0.389
       121 -13.8080    219.5089    125.4500   4.8843642131e+01   1.1796786531e+01      1.12822    0.6666312 -28.88  0.005162734    1.688    0.408
       122 -13.7641    223.7919    112.4416   4.5085473716e+01   1.3165817232e+01     1.035627    0.7640024  44.91  0.005447526    1.465    0.317
       123  -8.1944    103.6740    131.6694   7.7475986748e+01   3.4710328060e+01     0.157066    0.1199236 -15.93 0.0007050864    1.706    0.414
       124 -10.6100    173.6481    128.8722   5.8804876392e+01   2.0886554960e+01    0.4019468    0.1834851 -33.63  0.001413884    2.485    0.598
       125 -11.3708    181.7271    125.9159   5.6316887004e+01   1.9705981741e+01    0.5880869    0.2266414 -35.90   0.00196031    2.765    0.638
       126 -11.1138    187.2749    122.2277   5.4244872498e+01   1.9204548463e+01    0.3454204    0.2123582 -33.04  0.001491945    1.650    0.394
       127  -9.1375    137.0000    125.9777   6.6977227239e+01   2.9453786713e+01      0.26171   0.08960913 -46.13 0.0007451706    2.945    0.660
       128  -8.5239    122.2883    126.3444   7.1014487335e+01   3.2406242246e+01    0.1592652     0.123126 -12.63 0.0004587056    1.651    0.394
       129  -9.1634    149.0000    159.9378   7.1628812215e+01   1.9552215245e+01    0.2439741   0.08675682 -47.25 0.0008004045    2.928    0.659
       130  -9.3876    164.3775    122.7976   5.9419367883e+01   2.4167571779e+01    0.2246027    0.1459555 -30.46 0.0009427022    1.683    0.406
       131  -9.6039    170.5672    121.7508   5.7740716323e+01   2.3002732531e+01    0.3008574    0.1505206 -35.81  0.001126553    2.094    0.522
       132 -13.2207    193.1248    132.2200   5.5446281701e+01   1.6033473012e+01     1.403371    0.5091918 -34.43  0.004585943    3.035    0.670
       133  -9.5421    157.5233    119.7527   6.0269697071e+01   2.6325440103e+01    0.3760741    0.1528677 -44.89  0.001207121    2.492    0.599
       134  -8.1653    152.6560    120.7038   6.1691116719e+01   2.7206822681e+01    0.1623364    0.1244988   6.95  0.000703291    1.668    0.400
       135  -8.6197    153.4711    129.4820   6.3671015143e+01   2.5159657651e+01    0.1553257    0.1520649  10.52 0.0001349817    1.007    0.007
       136  -8.5948    146.4765    124.0546   6.4069284089e+01   2.7843941527e+01    0.2283028    0.1371406 -21.21 0.0008092893    2.567    0.610
       137  -9.5080    146.4951    163.9497   7.3054536837e+01   1.9188762193e+01    0.2235421    0.1491637 -46.01   0.00090875    1.566    0.362
       138  -8.7895    145.5084    132.4783   6.6368476350e+01   2.6218359300e+01    0.1567729    0.1506701   7.88 0.0008099294    1.039    0.037
       139  -8.3065    140.5017    121.4461   6.4940595744e+01   2.9705867264e+01    0.1569082    0.1524456  11.93 0.0006679288    1.022    0.021
       140 -10.2972    169.1215    126.3929   5.9219583701e+01   2.2381759763e+01    0.2756358    0.2102785 -29.34 0.0008072523    1.363    0.266
       141  -8.0853    146.3008    111.3335   6.0846825229e+01   3.0609231840e+01    0.1620063    0.1257018   0.18 0.0003358338    1.654    0.395
       142  -8.2461    176.7121    110.6471   5.3564571869e+01   2.3816133883e+01    0.1589189    0.1218408   1.76 0.0007024273    1.669    0.401
       143  -9.6133    160.7544    130.9933   6.2286311061e+01   2.3261264884e+01    0.2110705    0.1320262 -42.16 0.0008887827    1.607    0.378
       144 -10.5401    245.4227    101.4322   3.9258299093e+01   1.0651213290e+01    0.3664764    0.2003659 -61.63  0.001502843    2.877    0.652
       145  -8.3698    243.5141    249.5329   6.8584113150e+01  -1.0486779451e+01    0.1151537   0.08227627   9.03 0.0002134688    1.007    0.007
       146 -11.0377    216.7872    246.6356   7.2880427270e+01  -6.6289185883e+00    0.3594845    0.1592588  25.12  0.001807459    2.094    0.522
       147  -9.4594    223.0306    243.4841   7.1253482592e+01  -7.0983730760e+00    0.1792718   0.09466036  31.51  0.001025653    1.570    0.363
       148 -10.5752    219.0935    241.2652   7.1621360712e+01  -6.2785816642e+00    0.2694828    0.1636686  14.04  0.001598287    1.505    0.336
       149 -10.4049    227.1396    234.6481   6.9091479541e+01  -6.5613864326e+00    0.2850412    0.2105243 -47.20  0.001773234    2.139    0.532
