#   1 NUMBER                 Running object number                                     
#   2 MAG_AUTO               Kron-like elliptical aperture magnitude                    [mag]
#   3 X_IMAGE                Object position along x                                    [pixel]
#   4 Y_IMAGE                Object position along y                                    [pixel]
#   5 X_WORLD                Barycenter position along world x axis                     [deg]
#   6 Y_WORLD                Barycenter position along world y axis                     [deg]
#   7 A_WORLD                Profile RMS along major axis (world units)                 [deg]
#   8 B_WORLD                Profile RMS along minor axis (world units)                 [deg]
#   9 THETA_WORLD            Position angle (CCW/world-x)                               [deg]
#  10 FWHM_WORLD             FWHM assuming a gaussian core                              [deg]
#  11 ELONGATION             A_IMAGE/B_IMAGE                                           
#  12 ELLIPTICITY            1 - B_IMAGE/A_IMAGE                                       
         1 -14.9461      6.2654     70.8787   9.8650515286e+01   6.2721593324e+01     1.150489    0.7897997 -65.64  0.006042026    1.239    0.193
         2 -11.8700    194.6311     23.2089   2.6167800015e+01   3.3789047557e+01     0.522344     0.241873 -21.98  0.002333886    2.085    0.520
         3 -13.6951    188.4769     25.4220   2.7369945554e+01   3.4965499595e+01     1.894982    0.4461475 -49.58  0.005319626    5.221    0.808
         4 -13.2911    120.7042     26.0336   3.6793946360e+01   5.1728620131e+01    0.9941579    0.8183523  26.93  0.005252243    1.349    0.259
         5 -14.6876    166.1667     28.2428   3.0638577296e+01   3.9974589939e+01     1.357774    0.9714882  89.19  0.006518514    1.513    0.339
         6 -14.4079    122.1356     36.8751   4.0884963374e+01   4.9929092507e+01     1.296391    0.6049275  49.49  0.005116348    2.194    0.544
         7 -14.7136    146.9065     30.0605   3.3867533536e+01   4.4557997259e+01      1.59651    0.7972844  68.40  0.006755597    2.070    0.517
         8 -13.6974    140.5553     21.5329   3.1687714274e+01   4.7161632825e+01     1.177289    0.4032699  70.64   0.00264224    3.042    0.671
         9 -13.4334    132.1011     32.6701   3.7289950581e+01   4.7982138420e+01    0.7194821    0.5956686 -37.04  0.002560821    1.165    0.142
        10 -13.6129      2.8194     10.2030   8.2936705431e+01   7.7700296194e+01    0.8492602    0.5020369 -61.20  0.004631316    1.620    0.383
        11 -13.2277      7.9628      2.6021   7.2674426734e+01   7.8734199584e+01    0.7197485    0.4361978  44.08  0.003857017    2.167    0.538
        12 -16.0029     13.2154     20.8344   7.9702655187e+01   7.4497848265e+01     2.150047     1.112542 -36.44  0.008772344    1.904    0.475
        13 -14.2536     24.7488     13.6355   6.6642629343e+01   7.4536663049e+01    0.8321428    0.4166742  33.72  0.003956342    2.126    0.530
        14 -13.3179     86.3069     14.6172   3.9285866116e+01   6.1763044141e+01    0.9312807    0.4649533 -51.02  0.003687009    2.572    0.611
        15 -15.2852     98.8461     11.1390   3.4532705712e+01   5.9002952855e+01     1.623412    0.9508633  69.20  0.007274647    1.717    0.418
        16 -12.4414     70.1260     16.0461   4.5016282117e+01   6.5431244302e+01    0.3955227    0.3186359 -57.93  0.001862289    1.467    0.318
        17 -13.7821    223.1083      7.8180   2.0069207974e+01   2.9114712767e+01    0.9185122    0.3773206 -10.53  0.003736596    3.382    0.704
        18 -13.4772    219.0114     15.5052   2.2267911291e+01   2.9246265629e+01    0.3215661    0.2465977  61.64  0.001774543    1.538    0.350
        19 -13.5485    215.0075     10.0472   2.1090019756e+01   3.0601412107e+01    0.6049271    0.2935112 -46.10   0.00217816    1.700    0.412
        20 -12.1587     59.0448     15.9854   4.9197136220e+01   6.7893465569e+01    0.3674389    0.3360556  40.03  0.002186383    1.112    0.101
        21 -11.9660     46.7202     12.6772   5.2696297649e+01   7.0904840675e+01    0.3036399    0.2593518  48.67  0.001584321    1.263    0.208
        22 -13.8486     42.0360      4.2117   4.9049362205e+01   7.3001211667e+01    0.6935406    0.5813177  24.52  0.003392803    1.134    0.118
        23 -12.6110    153.1646      8.5811   2.5421297813e+01   4.5239676374e+01    0.2760328    0.2658675 -21.94 0.0007940772    1.105    0.095
        24 -11.3581     74.9556      8.1877   3.8907188546e+01   6.5234234697e+01    0.4231488    0.1954122 -13.33  0.001112159    2.614    0.617
        25 -12.4636    119.4429      3.1655   2.7308422043e+01   5.4408259145e+01    0.5833199     0.286852 -78.68  0.002286275    2.659    0.624
        26 -13.5390    187.5045     10.9869   2.3179796614e+01   3.6640404090e+01     1.140977    0.5642899 -32.11  0.005522966    1.723    0.420
        27 -11.3765     81.3090      1.3637   3.3287231193e+01   6.4338767534e+01    0.5215233   0.06094991  61.92  0.001440496    4.809    0.792
        28 -11.3959     61.3139      1.4551   3.8993057573e+01   6.9136516157e+01    0.3581696    0.1270338  61.74  0.001365302    2.760    0.638
        29 -10.7196     66.7994      3.6271   3.8616652101e+01   6.7643323167e+01    0.1821227    0.1296508  76.23 0.0004519128    1.621    0.383
        30 -12.3967     21.8351    165.9847   1.0243904237e+02   3.7581272087e+01    0.3313798    0.2141055  15.96  0.001586718    1.812    0.448
        31 -12.4000     51.5377    248.6778   1.0063684511e+02   1.8811260100e+01    0.2992012    0.2658597  76.06  0.002562293    1.295    0.228
        32 -12.6705      2.8332    248.8754   1.0982320477e+02   2.3110254175e+01    0.3779084     0.226173  67.40  0.002629099    1.432    0.302
        33 -13.6167      9.3965    245.3018   1.0852404383e+02   2.3160718744e+01     0.668237    0.2966297  50.53  0.003630505    1.594    0.373
        34 -12.5562     36.6806    194.4855   1.0059420403e+02   3.0031698077e+01    0.3221522    0.1959569 -79.76  0.001922805    1.703    0.413
        35 -13.0170     40.3492    194.8590   9.9755439678e+01   2.9590138822e+01    0.3722157    0.1979173  80.01  0.001985915    2.075    0.518
        36 -11.8439     76.9685    156.6920   8.6474041086e+01   3.3516614801e+01    0.3416747     0.251938  27.08  0.001231801    1.394    0.283
        37 -12.9166     73.3549    153.4642   8.6997623405e+01   3.4740546514e+01    0.6107976    0.4402286  23.98  0.002676643    1.488    0.328
        38 -11.3769    103.2596    149.9908   7.8400256226e+01   3.1107814046e+01    0.3039716    0.2052491 -26.92  0.001446787    1.951    0.488
        39 -12.4620    245.5049    148.9823   5.0381638752e+01   8.4262429564e+00     0.295352    0.1912167 -31.14  0.001910916    1.377    0.274
        40 -11.8734      7.3337    146.1092   1.0525259709e+02   4.3395262741e+01    0.5909747    0.2663555 -67.06  0.002872049    2.087    0.521
        41 -11.9117     60.4951    147.3815   8.9778756506e+01   3.7839640312e+01    0.3833804    0.2624595  16.49  0.001955143    1.747    0.428
        42 -12.0740    246.7454    136.8092   4.7821265866e+01   9.7407763792e+00    0.2310564    0.1589169  39.35  0.001515767    1.710    0.415
        43 -12.0054     44.5058    132.5013   9.2611276820e+01   4.3375003895e+01    0.2957495    0.2200006  48.69  0.001619878    1.302    0.232
        44 -11.7309    135.9012    132.5820   6.6756880075e+01   2.9134665789e+01    0.3760784    0.2092611  49.60 0.0009955695    1.995    0.499
        45 -11.8347    134.6191    125.6437   6.5492758011e+01   3.0757314684e+01    0.2861396    0.2437681 -11.41  0.001197741    1.262    0.207
        46 -13.3744     95.5934    110.4170   7.2326736540e+01   4.1306697466e+01    0.8878404    0.5352384 -60.77  0.003855557    1.794    0.443
        47 -13.3893    108.7153    123.5405   7.1641547184e+01   3.5982464435e+01    0.8036329     0.677332  33.05   0.00430844    1.210    0.174
        48 -13.4010    111.4730    116.3193   6.9211445889e+01   3.7068312176e+01    0.5807956    0.3829584  40.48  0.002542233    1.538    0.350
        49 -14.3964    106.4048    105.7515   6.7993900482e+01   4.0360095476e+01     2.352752     1.148794 -38.30  0.008935975    2.311    0.567
        50 -11.9136     86.5969    114.9176   7.6109791102e+01   4.1812590214e+01    0.3463865    0.2579347  -3.71  0.001364026    1.900    0.474
        51 -12.2637     81.8778    115.1087   7.7617642171e+01   4.2545966562e+01    0.3760456    0.2956114  67.01  0.001834437    1.427    0.299
        52 -12.7439     42.3698     90.5932   8.6279118899e+01   5.4364316341e+01    0.3948918    0.2736762 -80.61 0.0004497315    1.488    0.328
        53 -14.6416     24.4167     92.8147   9.4012211983e+01   5.5646776594e+01     1.304085     1.260419  -9.31  0.008138934    1.189    0.159
        54 -14.8415     15.7323    107.5673   9.9394998600e+01   5.2484887089e+01     1.574164    0.8977057  62.94  0.007658051    1.809    0.447
        55 -13.4467      2.2987     97.0809   1.0347667271e+02   5.6080607378e+01    0.8227569     0.279949 -83.07  0.003197638    2.630    0.620
        56 -11.6686    248.3234    113.3386   4.2784858105e+01   1.2408970409e+01    0.1233146   0.08006471   0.05 0.0007050962    1.720    0.419
        57 -11.0863    122.0234    112.1767   6.5383912497e+01   3.5945527899e+01    0.2251935    0.1974809  -2.52 0.0005258641    1.265    0.210
        58 -11.9874     63.1186    110.3943   8.2757206290e+01   4.6575663344e+01    0.4539966    0.3020701 -79.84  0.002112178    1.686    0.407
        59 -11.9188      4.2793    119.5178   1.0453251213e+02   5.0183363374e+01    0.4980098    0.1273364  16.57  0.001738586    4.409    0.773
        60 -11.2404     42.2289    106.9680   8.9502430255e+01   5.0140349510e+01    0.3229434     0.180297  10.73  0.001267342    2.520    0.603
        61 -12.0569    136.4062    102.9054   5.9387576460e+01   3.4942800164e+01    0.5229446    0.2399561  47.50  0.002028163    2.278    0.561
        62 -12.0149     78.2564    110.0165   7.7636403444e+01   4.4362485367e+01    0.5026801    0.3302801  76.18  0.001651046    2.205    0.546
        63 -11.8268     47.2856     99.5795   8.6236084715e+01   5.1446279616e+01    0.4038048    0.2835746  68.31  0.001972442    1.624    0.384
        64 -12.0461     52.4787     97.5906   8.3863157329e+01   5.1288444229e+01    0.4072795    0.2654267 -18.46  0.001651049    2.320    0.569
        65 -11.8719     60.9369     97.5142   8.0712478177e+01   5.0127232398e+01    0.4041844    0.2760516  69.79   0.00184436    1.846    0.458
        66 -12.9221    136.0138     94.9274   5.7285344413e+01   3.6586992866e+01    0.4639354    0.3468649  35.77  0.001861601    1.443    0.307
        67 -10.8321     81.3324     93.3334   7.2472009911e+01   4.7854877135e+01     0.155454    0.1174793 -18.27 0.0007052228    1.730    0.422
        68 -12.2458     49.0988     93.3668   8.4225180879e+01   5.2812811343e+01    0.3909683    0.3167154  85.00  0.001859054    1.308    0.235
        69 -11.6615     35.4755     86.5756   8.8261021088e+01   5.6192191863e+01     0.267472    0.2431746 -62.11 0.0006643188    1.048    0.046
        70 -12.2823    188.1086     84.2951   4.4160601681e+01   2.7268569541e+01    0.4819448    0.1998933  40.63  0.001802945    3.147    0.682
        71 -13.7161    163.7194     71.6245   4.4681738706e+01   3.4561437236e+01     1.309501    0.9342043  61.69  0.006531466    1.549    0.354
        72 -14.2406    169.5560     76.8397   4.5175623966e+01   3.2419618394e+01     1.131933    0.5485195  50.02  0.004750654    2.199    0.545
        73 -11.9156    158.1938     83.4082   4.9177079196e+01   3.3854446922e+01    0.3495232    0.2686648  66.91 0.0009067317    1.519    0.342
        74 -12.8675    161.4609     79.9585   4.7549293546e+01   3.3711654014e+01    0.6007564    0.4013066  24.26  0.002193826    2.020    0.505
        75 -13.2552     65.4853     51.5145   6.4441528766e+01   6.0238365214e+01     1.338095    0.7394177 -32.90  0.005512965    2.070    0.517
        76 -13.5172     54.3963     67.5167   7.5060891922e+01   5.8516048436e+01     1.816689    0.8406388  32.29  0.007214458    2.391    0.582
        77 -13.2676     91.7780     57.8183   5.7317827650e+01   5.3603173272e+01    0.5444211    0.5178786 -56.37  0.002737922    1.064    0.060
        78 -12.9209     54.8214     81.7485   7.9101236758e+01   5.4969309040e+01    0.6271795    0.4088946 -61.50  0.002965159    1.457    0.314
        79 -14.0738     61.2562     75.5712   7.4737742374e+01   5.5503825718e+01    0.7484077     0.520312 -36.70  0.001244682    1.545    0.353
        80 -13.1413     71.3005     74.9114   7.0624072008e+01   5.3968987338e+01    0.7593173    0.5121831   3.49  0.003122656    2.437    0.590
        81 -12.3403     77.1729     73.0976   6.7858294858e+01   5.3319951936e+01    0.5156057    0.3377525 -28.00  0.001468709    1.918    0.479
        82 -12.6807    135.7447     79.7542   5.2871152317e+01   3.9530013637e+01    0.6180371     0.381522  50.02  0.002164807    1.691    0.409
        83 -11.9608    113.9929     79.8551   5.8391554743e+01   4.4342086026e+01    0.4172423    0.3335249 -43.07  0.001382117    1.205    0.170
        84 -11.4589     41.6208     76.1850   8.3184082394e+01   5.8149275504e+01    0.2894318    0.1926708 -65.35 0.0006346332    1.407    0.290
        85 -12.8600    109.3010    249.0267   8.9596469176e+01   1.2612468816e+01    0.3034121     0.208718  48.01   0.00219411    1.436    0.304
        86 -14.2254      5.0037     63.3960   9.8086372247e+01   6.4735461955e+01    0.6888266    0.6566377 -69.80  0.003699768    1.112    0.101
        87 -12.4576    210.9481     77.3554   3.9103533774e+01   2.3635595674e+01    0.3633157    0.2230894 -57.39  0.001789627    2.020    0.505
        88 -12.1617     36.6110     92.8633   8.9062839859e+01   5.4432392052e+01    0.4403656    0.2645092  12.05  0.001452198    2.143    0.533
        89 -13.1579    199.4896     69.5944   3.8580460512e+01   2.7024225806e+01     0.609149    0.3692682  47.34  0.002776237    1.879    0.468
        90 -12.6955    134.4213     66.3406   4.8881199036e+01   4.2245576741e+01    0.8902372     0.602385  18.83  0.003767959    2.163    0.538
        91 -11.0356    130.4779     61.9762   4.8299944276e+01   4.3931047286e+01    0.2261514    0.2002115 -41.12 0.0009674068    1.082    0.076
        92 -11.4826    117.8181     72.0990   5.4838912234e+01   4.5025608283e+01    0.2509252    0.2234306  47.92  0.000553584    1.166    0.142
        93 -11.6127    214.4883     71.4849   3.7175093688e+01   2.3725196052e+01     0.133348    0.1125792 -30.59  4.57413e-05    1.003    0.003
        94 -11.0849     99.8904     65.1535   5.7500740787e+01   5.0382202824e+01     0.236319     0.210312 -77.35 0.0009357266    1.251    0.200
        95 -11.2854     31.7590     65.0031   8.4766379623e+01   6.2134203816e+01    0.3913579    0.1862333 -51.06  0.001682779    1.869    0.465
        96 -11.9694     31.0000     60.9862   8.4004142500e+01   6.3224796939e+01     0.350926    0.2476017 -61.31  0.001405264    1.277    0.217
        97 -11.8521    199.9899     61.6739   3.6383914748e+01   2.7993598669e+01    0.1850932    0.1770811 -39.18  0.001086274    1.098    0.090
        98 -12.8163     79.0022     60.4709   6.2722333413e+01   5.5733457878e+01    0.6356629    0.4584972 -52.47  0.003051786    1.393    0.282
        99 -12.9915     82.2780     54.4088   5.9190117941e+01   5.6306097845e+01    0.6983296    0.5055327 -14.11  0.003190971    1.788    0.441
       100 -13.5850    177.6040     56.7622   3.8005356979e+01   3.3606735828e+01    0.9292412    0.5162166 -43.72  0.003715592    1.679    0.404
       101 -11.9116     24.9636     58.9384   8.6537709880e+01   6.4368445534e+01    0.5419511    0.2658721 -57.76   0.00243016    1.733    0.423
       102 -13.4042     87.4290     65.2082   6.1515388062e+01   5.3026085782e+01     1.012121    0.6669227  11.07  0.003952019    2.621    0.618
       103 -11.0773    111.5285     58.9607   5.1918038038e+01   4.8928017527e+01    0.2525748    0.2189718 -24.81 0.0005047674    1.175    0.149
       104 -14.6160    120.4268     54.4976   4.8006030470e+01   4.7606767160e+01    0.9795134    0.7147734  51.16  0.002131788    1.408    0.290
       105 -11.4339     17.6824     55.3684   8.9504153546e+01   6.5928732009e+01    0.3708424     0.168555 -71.08  0.001567672    2.110    0.526
       106 -13.6137    102.9370     50.2642   5.0969604989e+01   5.2485773516e+01     1.194848    0.5357437 -50.84  0.002740764    2.767    0.639
       107 -13.1144     97.8693     50.1269   5.2389279829e+01   5.3684056327e+01    0.7085422    0.3901776 -48.84  0.002412605    1.943    0.485
       108 -11.8734     37.5115     52.0737   7.7749696254e+01   6.4606189368e+01    0.4770916    0.2733482 -32.40  0.002085751    2.080    0.519
       109 -11.7175    136.2730     49.4727   4.2686240378e+01   4.4558176698e+01    0.2782644    0.2684691 -25.75 0.0006442227    1.043    0.042
       110 -10.5888     23.6084     50.1248   8.4643833789e+01   6.6687897403e+01    0.1952107     0.107574 -51.04 0.0004764937    1.580    0.367
       111 -12.9974    157.1214     44.5641   3.7279578057e+01   4.0146587158e+01    0.8657057    0.4891285  35.81  0.003590745    2.361    0.576
       112 -12.7759      3.9620     43.0905   9.4536336215e+01   6.9956348241e+01    0.5279019    0.3903605 -17.16  0.003081456    1.487    0.328
       113 -12.1062     11.7101     43.4772   8.9703612965e+01   6.9359900661e+01    0.4502961    0.2416429 -19.49   0.00203894    2.400    0.583
       114 -13.1207     28.3814    245.6859   1.0493952658e+02   2.1468017828e+01    0.3747509    0.2257817  47.54  0.002738602    1.217    0.179
       115 -12.8948    170.7142    242.0015   7.7611109333e+01   6.4584652342e+00    0.1520306    0.1191554   9.66  0.001191742    1.082    0.076
       116 -12.7107    204.7486     40.0518   2.9952192519e+01   2.9677052324e+01    0.6987159    0.3455609 -79.29  0.002836151    3.203    0.688
       117 -12.7689    212.6220     43.0441   2.9992961944e+01   2.7654606086e+01    0.4935383    0.2522115  53.67    0.0022131    2.258    0.557
       118 -13.3735    219.5194     41.5375   2.8963397111e+01   2.6404536923e+01    0.5548735    0.3521213 -75.18  0.002505237    1.916    0.478
       119 -14.0073     97.7962    239.1600   9.0934790308e+01   1.5353718729e+01    0.6900156    0.4020802  34.40   0.00450078    1.326    0.246
       120 -14.1723     91.2706    231.8315   9.1586988957e+01   1.7240034787e+01    0.4686278    0.4326349  59.81   0.00373069    1.213    0.176
       121 -12.4009     24.5609    216.9165   1.0452543075e+02   2.6804774038e+01    0.4546262    0.2484126  54.91   0.00287604    1.486    0.327
       122 -11.4596     13.7055    222.4408   1.0700963040e+02   2.6735672442e+01    0.2682535    0.1314602  70.75  0.001317547    1.886    0.470
       123 -13.8789     26.4647    226.3893   1.0453912534e+02   2.4914242210e+01    0.6182402    0.3507397 -54.01  0.003870977    2.385    0.581
       124 -12.3319     75.9400     37.0233   5.3900528056e+01   6.0913767780e+01    0.3829193    0.2763222  46.86 0.0009890454    1.417    0.294
       125 -11.6298     70.4840     35.9959   5.5463365563e+01   6.2259983124e+01     0.308374    0.2625782  47.22 0.0007616131    1.219    0.180
       126 -12.4162    242.3062     35.9476   2.5777993866e+01   2.2573784813e+01    0.4442238    0.2364543  81.07  0.002368773    2.396    0.583
       127 -13.7498     20.2789    223.8826   1.0570901438e+02   2.5912114615e+01    0.4633667    0.4246322  45.32   0.00259776    1.251    0.200
       128 -12.9667     44.0228     32.4462   6.5772433337e+01   6.7944039491e+01    0.7461877     0.586905  45.15  0.004100758    1.410    0.291
       129 -11.0787     34.9797     34.7055   7.1932313083e+01   6.8872492409e+01    0.1871415    0.1764737  -2.78 0.0005000745    1.093    0.085
       130 -13.6528     65.3331    223.3096   9.6248284099e+01   2.1576776985e+01    0.7063318    0.5102108  35.14  0.004895021    1.150    0.130
       131 -13.9340     64.1806    214.1682   9.5791187575e+01   2.3331195887e+01    0.5289068     0.317042  48.34  0.002974758    1.426    0.299
       132 -12.9391     59.3921    212.7939   9.6731971619e+01   2.4108194974e+01    0.3098142    0.2032746 -50.09  0.001195794    1.915    0.478
       133 -12.1787     94.3329    217.9153   8.9643531281e+01   1.9165357812e+01    0.2177652    0.1317925  39.70  0.001321904    1.367    0.269
       134 -13.3388    216.3813     27.9304   2.5685643694e+01   2.8545018930e+01    0.4284017    0.1850196 -35.60  0.001907314    1.806    0.446
       135 -13.0394     55.5995     26.9620   5.7091794058e+01   6.6867558160e+01    0.6663564    0.3644521  51.06  0.002321449    2.007    0.502
       136 -12.1899     63.2894     24.9626   5.2644910877e+01   6.5637039020e+01    0.4922976    0.3297118  21.70  0.001771308    1.868    0.465
       137 -11.1800     88.5387     26.3863   4.4619851678e+01   5.9706238594e+01    0.3091084    0.1406745 -29.38  0.001214177    2.190    0.543
       138 -11.8076     31.0064     25.2405   6.9495069001e+01   7.1403365276e+01    0.4264436    0.2587212   9.21  0.001923399    2.385    0.581
       139 -11.4058     36.2750     23.1590   6.5072903485e+01   7.1007694120e+01     0.310086    0.1765888 -37.71  0.001487188    1.658    0.397
       140 -11.1318     51.2833     20.4251   5.5366980443e+01   6.8808838571e+01    0.3105647    0.1747844  53.06   0.00139111    1.997    0.499
       141 -11.9452     46.4280     20.2937   5.7706905305e+01   6.9757797812e+01    0.3710603    0.2917532  16.28  0.002048093    1.363    0.266
       142 -11.7474    249.2664    216.1452   6.1439321363e+01   5.3383891994e-01    0.1561304    0.1311438  36.45  0.001245157    2.092    0.522
       143 -11.8113      4.5020    213.4917   1.0864826003e+02   2.9136374537e+01    0.2271389    0.1307708  54.42  0.001516515    1.323    0.244
       144 -11.9087     72.3232    206.9571   9.3380634171e+01   2.3734967496e+01     0.288558    0.2364917  72.82  0.001982676    1.272    0.214
       145 -11.6064     41.1832    206.1815   1.0031390739e+02   2.7261905890e+01    0.1747313    0.1094534  54.28  0.001085219    1.360    0.265
       146 -12.0973     57.4416    202.7018   9.6378349818e+01   2.6228712449e+01    0.4280124    0.2043742  87.13  0.002018185    2.934    0.659
       147 -13.0612     16.4044    196.7912   1.0543796261e+02   3.1422045001e+01    0.5418351     0.195658 -61.00  0.002575198    3.146    0.682
       148 -12.2495    248.5858    197.0639   5.8525849841e+01   2.5583635900e+00    0.3896027    0.1661445 -35.80  0.002241851    2.427    0.588
       149 -13.5328     30.2388    169.1393   1.0043323532e+02   3.6100007609e+01    0.8608738    0.5051982 -34.59  0.003490163    2.614    0.617
       150 -13.8444     21.9621    181.0616   1.0332504552e+02   3.4227389776e+01    0.7947187    0.3762573 -60.77  0.004109443    2.302    0.566
       151 -15.2657      8.0765    183.3645   1.0683078841e+02   3.4888484363e+01     1.186379    0.9655354  64.76  0.008444596    1.032    0.031
       152 -15.1547     15.8474    174.7782   1.0451224922e+02   3.6121483508e+01     2.061736    0.8976192  57.54   0.01028929    2.037    0.509
       153 -10.8245    200.6746    191.7075   6.5113474256e+01   9.0787968699e+00     0.120348   0.07576772   2.92 0.0004473656    1.618    0.382
       154 -12.3310    109.9717     41.8982   4.5716254020e+01   5.2195133629e+01    0.5770801    0.2164833  52.93  0.001587445    2.602    0.616
       155 -11.5919     49.0998    181.6702   9.6607415496e+01   3.1422108588e+01    0.2387969    0.1781313 -67.73  0.001474419    1.428    0.300
       156 -11.5438    198.9766    181.5017   6.3661148124e+01   1.0675924177e+01    0.1780657    0.1058544  32.72 0.0009998571    1.604    0.377
       157 -12.3363    124.2377    166.7614   7.6160268760e+01   2.4383813937e+01    0.5479603    0.3628956 -69.32  0.002720064    2.123    0.529
