#   1 NUMBER                 Running object number                                     
#   2 MAG_AUTO               Kron-like elliptical aperture magnitude                    [mag]
#   3 X_IMAGE                Object position along x                                    [pixel]
#   4 Y_IMAGE                Object position along y                                    [pixel]
#   5 X_WORLD                Barycenter position along world x axis                     [deg]
#   6 Y_WORLD                Barycenter position along world y axis                     [deg]
#   7 A_WORLD                Profile RMS along major axis (world units)                 [deg]
#   8 B_WORLD                Profile RMS along minor axis (world units)                 [deg]
#   9 THETA_WORLD            Position angle (CCW/world-x)                               [deg]
#  10 FWHM_WORLD             FWHM assuming a gaussian core                              [deg]
#  11 ELONGATION             A_IMAGE/B_IMAGE                                           
#  12 ELLIPTICITY            1 - B_IMAGE/A_IMAGE                                       
         1 -13.0408    201.6406     34.0842   5.7796741197e+01   3.0204926217e+01     1.096617    0.8472515  46.79  0.005532084    1.347    0.258
         2 -13.6862    219.1529     15.6026   5.0189541193e+01   2.7805497974e+01     1.262977    0.9363872  25.47  0.004319199    1.615    0.381
         3 -12.7407      2.3508     12.5821   1.1002565423e+02   7.2474371787e+01     1.210947    0.2398596 -61.20  0.004216854    4.660    0.785
         4 -11.2705    162.5673    250.3173   1.1077679418e+02   5.7846628725e+00      0.35833    0.1448001  44.63  0.000928738    1.803    0.445
         5 -11.0415    184.1249    249.7039   1.0734756756e+02   2.7025465634e+00    0.2885441    0.1441898  43.04  0.001570462    1.466    0.318
         6 -11.9749    178.9644    244.2454   1.0751962193e+02   4.0487379905e+00     0.336927    0.3034678 -31.68   0.00212486    1.487    0.328
         7 -11.4387    164.4933    241.8106   1.0954059193e+02   6.4827431269e+00    0.3582273     0.126082  48.48  0.001812271    2.367    0.578
         8 -10.7458    169.2032    249.0473   1.0960021094e+02   4.9582033933e+00    0.2647147    0.1672825  26.35 0.0004415132    1.693    0.409
         9 -11.2826    170.9941    243.9610   1.0874811172e+02   5.2656713016e+00    0.2593713    0.1502724  44.44 0.0007318133    1.289    0.224
        10 -11.9724    149.8256    247.2545   1.1246300535e+02   7.9976040902e+00    0.3491953    0.2729802  60.79  0.002784269    1.283    0.220
        11 -12.2323    102.1114    239.1323   1.1934689895e+02   1.5823799375e+01    0.4845167    0.3507691  71.82  0.003777994    1.284    0.221
        12 -10.8278     96.8949    239.0962   1.2018354130e+02   1.6532185726e+01    0.3268915    0.1782716  75.25  0.001539762    2.179    0.541
        13 -11.7973     87.3967    248.4830   1.2239015153e+02   1.6448948212e+01    0.6758693    0.3271173  58.86  0.004411685    1.683    0.406
        14 -13.0137    124.4586    244.9590   1.1627323776e+02   1.1928502983e+01    0.7852661    0.5917051  35.06  0.006080748    1.413    0.292
        15 -11.5275    109.7505    247.8814   1.1885649816e+02   1.3579429688e+01    0.5801998    0.3129014  51.14   0.00402127    1.354    0.261
        16 -10.4886     84.2744    230.1214   1.2152435926e+02   1.9529308372e+01    0.2220787    0.1848584 -63.67  0.001803683    1.617    0.381
        17 -11.1196     90.6713    241.9460   1.2139924518e+02   1.6947484929e+01    0.5354714    0.2201683  37.20  0.002988558    2.463    0.594
        18 -11.9322     87.7056    236.9669   1.2149460252e+02   1.8056440987e+01    0.5774598    0.3020046  43.56  0.003525445    1.555    0.357
        19  -8.6321     63.3000    250.2990   1.2618291917e+02   1.9155884598e+01    0.0791919   0.07016016  47.39 0.0002935408    1.579    0.367
        20 -11.2874     59.6407    245.9712   1.2648738905e+02   2.0208784432e+01    0.3710854    0.2038329  55.86  0.001974386    1.271    0.213
        21  -8.7071     68.4613    246.5263   1.2517539609e+02   1.9080960798e+01   0.09864543   0.07048393  59.89 0.0001222143    1.059    0.056
        22 -10.0221     67.0839    243.8407   1.2522100302e+02   1.9636614725e+01    0.2297451    0.1580064  26.71  0.001419728    2.341    0.573
        23 -10.3178     50.4812    249.4751   1.2805251082e+02   2.0750346657e+01     0.236152     0.183948  44.17  0.002070447    1.538    0.350
        24 -14.0532      3.1536    190.1068   1.3278497360e+02   3.5260248745e+01      4.15978    0.4393792 -80.13   0.01263224    8.886    0.887
        25 -12.3401      9.8142    206.7573   1.3237209546e+02   3.1734364068e+01    0.9748897    0.5158585  21.25  0.005646067    3.928    0.745
        26 -12.6610     41.5483    207.1606   1.2708317166e+02   2.8465165574e+01     1.370548    0.5410149  71.46  0.007222794    2.702    0.630
        27 -13.3059     26.2992    247.6570   1.3150997574e+02   2.3605961504e+01      1.09406    0.6186935  41.03   0.00866186    1.736    0.424
        28 -13.8697      6.2414    245.2127   1.3428245261e+02   2.5917012516e+01     1.110413    0.7896702  76.40    0.0105687    1.227    0.185
        29 -12.3114     45.0649    243.6401   1.2856502189e+02   2.2209449729e+01    0.5008857    0.2728175 -86.74   0.00142177    1.779    0.438
        30 -12.8362     25.2092    225.6918   1.3074437309e+02   2.7096226748e+01    0.3689476    0.3235953 -61.10 0.0007908297    1.875    0.467
        31 -13.9992     31.6543    218.8107   1.2939045886e+02   2.7555137009e+01    0.9515943    0.6950785  80.78   0.00801178    1.174    0.148
        32 -10.9248    244.1647    242.1691   9.7254228445e+01  -5.2150239800e+00    0.2060679    0.1037893   0.28  0.001173698    2.787    0.641
        33 -11.6306    116.8128    238.3894   1.1690215038e+02   1.3891742110e+01    0.3188428    0.2544143 -20.74   0.00230557    2.285    0.562
        34  -9.1497     53.7785    240.9656   1.2709912691e+02   2.1627093747e+01    0.1341035   0.09626429  68.60  0.000568722    1.089    0.082
        35 -12.8044    109.8436    230.5670   1.1732920251e+02   1.5984736855e+01     1.094375    0.3244348  44.85   0.00533695    2.513    0.602
        36 -11.5423     99.7740    247.9116   1.2042274628e+02   1.4915064316e+01    0.6661136     0.266601  47.51  0.004062175    1.785    0.440
        37 -11.9551     38.6179    237.9291   1.2925658844e+02   2.3774083579e+01    0.5743949    0.2089055 -67.31  0.001375316    2.988    0.665
        38 -11.4222    129.2699    235.2320   1.1456291825e+02   1.2536761996e+01    0.2646774    0.1757119  68.64  0.001786265    1.624    0.384
        39  -8.4307     70.6883    235.3050   1.2410257836e+02   2.0466464929e+01    0.1073963   0.05562328  63.74 0.0007021532    1.615    0.381
        40  -9.4342     54.3069    235.1470   1.2668438969e+02   2.2448112142e+01     0.209284    0.0805897  58.96  0.001250997    2.081    0.519
        41  -9.7456    156.6478    232.4791   1.0975189996e+02   8.8065158354e+00    0.1491487    0.1065874 -49.56 0.0009732594    1.836    0.455
        42  -8.5007     78.2474    233.4011   1.2275450153e+02   1.9807737713e+01   0.08257365    0.0789769 -51.10 0.0005824039    1.692    0.409
        43  -8.8716     66.5275    239.5126   1.2503591870e+02   2.0342466630e+01    0.1609038   0.08443321  63.97 0.0006443984    1.546    0.353
        44 -10.3957    250.0085    230.6998   9.4738633939e+01  -5.0611986778e+00    0.1571638    0.1075529  26.89  0.001169669    1.074    0.068
        45  -8.8496     45.4199    231.1953   1.2785583730e+02   2.4070588681e+01    0.1293194   0.07122663  79.79 0.0002851978    1.591    0.371
        46 -10.3329     56.8008    228.4611   1.2588335495e+02   2.3197962955e+01    0.2027436    0.1291383  81.39 0.0002212094    1.380    0.275
        47 -10.8212     79.2283    225.4969   1.2199993834e+02   2.0899361612e+01    0.3187065    0.2041514 -88.45  0.001550783    1.602    0.376
        48  -9.5656     77.1877    220.8161   1.2197694175e+02   2.1904730002e+01    0.1856123     0.117796  77.08 0.0004087249    1.468    0.319
        49 -10.0762     92.5021    225.9543   1.1981814414e+02   1.9073693733e+01    0.2072077    0.1243607  54.61   0.00085478    1.274    0.215
        50  -9.3372     51.4551    225.5098   1.2656446174e+02   2.4288578814e+01    0.1309648    0.1221921 -83.11 0.0005118602    1.595    0.373
        51  -9.9359    117.3341    224.4962   1.1548399086e+02   1.5799879591e+01    0.1946592    0.1778381  30.61 0.0009459622    1.412    0.292
        52  -9.4261     64.9771    224.2545   1.2427206186e+02   2.2886564777e+01    0.2428486     0.145322 -54.29  0.001626352    2.434    0.589
        53  -9.2164    164.3195    224.0100   1.0745643138e+02   8.7009364171e+00    0.1456536    0.1271624  44.82 0.0003779034    1.126    0.112
        54 -11.1864     98.9875    222.6320   1.1842960792e+02   1.8696162368e+01    0.3280882    0.2521371  71.30  0.001870833    1.161    0.139
        55  -9.9761     87.4429    223.5004   1.2046245470e+02   2.0133791329e+01    0.2002846    0.1406768  58.84 0.0007752822    1.071    0.066
        56 -10.4615     70.8491    219.7511   1.2296585192e+02   2.2883740147e+01    0.3593131    0.2245341  82.65  0.002532921    1.521    0.342
        57  -9.5016    111.0000    221.0026   1.1621890981e+02   1.7242813416e+01    0.2475585   0.06225763 -58.79  0.001036163    4.798    0.792
        58  -9.9367    111.3044    215.5315   1.1561367885e+02   1.8040810747e+01    0.2295227    0.1844668  25.16  0.001443464    1.660    0.398
        59 -10.4640    141.8848    219.3629   1.1071483887e+02   1.2841789239e+01    0.2482096    0.2157764 -54.45  0.001210636    1.451    0.311
        60  -9.7960     90.3959    219.2359   1.1959498691e+02   2.0408733513e+01    0.4019931    0.1255998  47.00  0.001992342    2.423    0.587
        61  -9.4613    246.3280    218.3387   9.3409009953e+01  -3.4244303608e+00    0.1179202   0.06617536  16.97 0.0007051757    1.732    0.423
        62  -9.9023    118.0907    214.9501   1.1436206562e+02   1.7127437992e+01    0.2110478    0.1586713 -76.91 0.0004918138    1.532    0.347
        63  -9.5589     88.0460    212.7462   1.1942499540e+02   2.1776279414e+01    0.2218295    0.1324074  85.59  0.001023839    1.863    0.463
        64 -10.5024     63.0394    208.4894   1.2345340077e+02   2.5732197908e+01    0.3536714    0.2577056 -66.02  0.002223892    1.626    0.385
        65 -10.3696     63.8743    205.1590   1.2304807181e+02   2.6203102041e+01    0.2672082    0.1429051 -75.35 0.0002716102    1.875    0.467
        66 -10.5308     56.1582    208.9073   1.2468213747e+02   2.6491745639e+01    0.4702869    0.1978926 -85.18  0.002544033    2.700    0.630
        67  -8.7684     51.8211    205.6121   1.2520309328e+02   2.7570728832e+01    0.1899314    0.0823325  59.99 0.0009859364    1.964    0.491
        68  -9.0911    134.3857    207.7356   1.1063980008e+02   1.5731104751e+01    0.1363816    0.1112344 -42.93  0.000706192    1.586    0.370
        69  -9.7329    111.8560    207.5195   1.1466671994e+02   1.9230812121e+01    0.2690758    0.1612511  80.90  0.001052969    2.206    0.547
        70  -8.9976    119.3333    207.3116   1.1329637470e+02   1.8136104552e+01    0.1060967    0.0879937  17.84 0.0004153361    1.678    0.404
        71 -10.5975    106.9837    203.6922   1.1513287528e+02   2.0581575393e+01    0.1931596    0.1568189 -78.99 0.0003668292    1.329    0.248
        72  -9.5926     90.5501    205.0879   1.1826206013e+02   2.2708060994e+01    0.3193744    0.1357091  35.83  0.001502027    2.598    0.615
        73 -10.0556     83.7469    201.5884   1.1916166991e+02   2.4242942368e+01    0.1967711    0.1525605  71.87 0.0002801128    1.076    0.071
        74  -9.7265    250.3994    200.7742   8.9926007182e+01  -2.3449784163e+00    0.1563216   0.09436765  -8.36 0.0009549531    1.701    0.412
        75  -9.9512     43.5619    200.2524   1.2628497980e+02   2.9454571720e+01    0.2706296    0.2190792  30.38  0.002070228    1.768    0.434
        76  -9.5432     75.0920    199.9960   1.2059439397e+02   2.5676557425e+01    0.1650686    0.1303588  69.62 0.0003005791    1.036    0.035
        77 -11.8463     54.8618    193.8312   1.2378008801e+02   2.9310620363e+01    0.3638426    0.2693081 -63.71  0.001169987    1.615    0.381
        78 -12.9770     11.1039    215.4237   1.3251926452e+02   3.0149875106e+01    0.9622119    0.6367658  45.46  0.004693659    1.508    0.337
        79  -9.6417     21.5697    192.7535   1.2970695438e+02   3.3099137377e+01     0.253798    0.1224118  69.26 0.0007907285    1.683    0.406
        80  -9.9518     26.4740    192.3477   1.2881595633e+02   3.2689012879e+01    0.3154223    0.2527404  -5.80  0.002236895    2.637    0.621
        81 -10.1934     30.5995    193.2262   1.2813386382e+02   3.2109805474e+01    0.2540897    0.1410807 -64.26  0.001692148    1.992    0.498
        82  -9.8288     33.9600    192.2440   1.2747001996e+02   3.1939668938e+01    0.3033923    0.1136307  69.75  0.001040676    2.865    0.651
        83  -9.9240    249.7620    194.3269   8.8915193897e+01  -1.5935228568e+00    0.2410193    0.1544311  26.30  0.001534425    1.287    0.223
        84  -9.2800    191.4315    191.5778   9.8099873170e+01   8.4952836541e+00    0.1935999    0.1799238  32.57 0.0006063705    1.146    0.127
        85  -8.2565     38.3475    192.2585   1.2667869162e+02   3.1469868833e+01   0.08581048   0.08229135 -68.93 0.0002824385    1.598    0.374
        86  -8.5660     14.9821    190.0082   1.3072134604e+02   3.4224635931e+01    0.1239255   0.08596953  76.37 0.0003903399    1.032    0.031
        87  -9.0821     40.6101    189.1261   1.2604859058e+02   3.1801378634e+01    0.1637853     0.109213  68.32  0.001168999    1.158    0.136
        88 -10.3444    250.3526    187.6220   8.7637656730e+01  -9.8778673464e-01    0.2457687    0.1331345 -16.71  0.001376647    1.923    0.480
        89  -9.2066     76.8541    188.0314   1.1913226358e+02   2.7596681829e+01    0.2143615    0.1342395  84.19  0.001313535    1.602    0.376
        90  -9.3778     83.3041    186.8425   1.1776961536e+02   2.6937251491e+01    0.1708657    0.1286701  73.15  0.000555361    1.139    0.122
        91 -10.1625     71.3464    186.8549   1.2007276240e+02   2.8542216127e+01    0.2773021    0.2017709  33.09  0.001366422    1.701    0.412
        92 -11.5849     61.3662    185.9202   1.2189663291e+02   2.9983893706e+01    0.2153871    0.1977486 -87.05 0.0004876958    1.349    0.259
        93  -9.6654    106.8990    185.6213   1.1304960206e+02   2.3711814041e+01    0.1698041    0.1556956  77.85 0.0004408281    1.151    0.131
        94  -9.9036     24.4825    184.1384   1.2868452997e+02   3.4404756562e+01    0.2207952     0.121333  49.04 0.0009154702    1.562    0.360
        95 -12.6996    135.4612    233.5937   1.1337481539e+02   1.1848603333e+01     1.670142    0.7374716 -61.24  0.009146212    3.276    0.695
        96  -8.7385     85.9588    180.0461   1.1650670211e+02   2.7831267095e+01    0.1422704    0.1160153  70.43 0.0009670476    1.006    0.006
        97  -9.3350     27.1165    179.8404   1.2792416438e+02   3.4956679626e+01    0.1635873     0.106133  72.79 0.0002749849    1.182    0.154
        98  -8.8073     47.9206    179.7908   1.2395408136e+02   3.2745526263e+01    0.1390195   0.08010295  41.21 0.0008635044    1.712    0.416
        99  -8.8275     12.1795    178.5705   1.3062523054e+02   3.6605934858e+01    0.1650683     0.100324 -81.48  0.001186883    1.394    0.283
       100  -8.4372    103.2078    175.9901   1.1255748113e+02   2.6043556041e+01    0.1436344   0.09473819 -65.04 -0.000430966    1.593    0.372
       101 -12.0414    248.1219    172.4694   8.5178162272e+01   1.0412603050e+00    0.5663135    0.3903214 -12.47  0.003493288    1.379    0.275
       102 -12.1611    247.5030    158.9446   8.2619136064e+01   2.7284538949e+00    0.7497657    0.5566184 -62.13  0.003990249    2.581    0.613
       103  -9.9652     19.1763    173.7607   1.2903810689e+02   3.6887681602e+01    0.3650795    0.1504196  75.20 0.0009046294    2.316    0.568
       104 -10.7683     58.3161    173.2302   1.2131939091e+02   3.2791910079e+01    0.2634544    0.2052166  47.27 0.0005785982    1.341    0.254
       105 -10.1563     12.5166    172.7920   1.3024298227e+02   3.7678895965e+01    0.2349015     0.135446 -70.65  0.001619104    1.653    0.395
       106 -11.5605     10.6014    158.2909   1.2975268657e+02   4.0694075710e+01     1.004363     0.291127  77.32  0.003442099    5.777    0.827
       107 -10.6917     12.2180    153.5206   1.2911515893e+02   4.1520601663e+01     0.306448    0.1404135  81.76  0.001716521    1.920    0.479
       108 -10.9414      3.0113    172.7881   1.3202066491e+02   3.8489522402e+01    0.2716096    0.1472623  70.37 0.0009548579    1.404    0.288
       109 -10.5741     12.4093    167.2639   1.2994256101e+02   3.8761755234e+01    0.2415095    0.1450158  67.34  0.001210479    1.313    0.239
       110 -11.4380      5.9817    166.7094   1.3114879757e+02   3.9416292099e+01    0.4081652    0.2887372  10.48  0.001594909    2.537    0.606
       111 -10.0566     27.4237    171.5480   1.2730369560e+02   3.6527136703e+01    0.2522357    0.1567776 -56.61 0.0005229961    2.006    0.502
       112  -9.1371     51.5485    171.0647   1.2247798533e+02   3.4026052294e+01    0.1675476    0.1284566  61.11 0.0005457508    1.157    0.135
       113  -9.0882    166.9113    170.5045   9.9044350478e+01   1.6045279375e+01     0.183269    0.1163568  43.88 0.0002904395    1.402    0.286
       114  -8.5907     42.0035    170.2221   1.2432120526e+02   3.5271986564e+01    0.1367384   0.08227747  42.90 0.0006605405    1.636    0.389
       115  -8.6337     95.9624    169.0416   1.1312951263e+02   2.8473211502e+01    0.1472296    0.1200691  60.97            0    1.079    0.073
       116 -11.4998     80.4970    165.8476   1.1595282878e+02   3.1352041507e+01    0.5208429     0.354258  35.77   0.00310914    1.663    0.399
       117 -10.3598     82.0197    158.1897   1.1465848931e+02   3.2680093772e+01      0.36702    0.2321226 -74.42  0.000719266    1.551    0.355
       118 -10.1571     66.9557    161.5739   1.1831050613e+02   3.4036341324e+01    0.2213477     0.162533 -75.34 0.0003729297    1.267    0.211
       119 -10.2246     68.3110    166.3188   1.1855837124e+02   3.2903032400e+01    0.2300758    0.1639987  80.51 0.0003089516    1.252    0.201
       120  -8.2594     38.5478    167.5465   1.2479230802e+02   3.6176462797e+01    0.1151987   0.08476637  76.47 0.0001678354    1.057    0.054
       121  -9.9932     44.9802    164.7010   1.2323476365e+02   3.6045796876e+01     0.185726    0.1379534 -61.20  0.000727791    1.541    0.351
       122 -10.0573     29.3346    161.4995   1.2617648901e+02   3.8336098365e+01       0.2957    0.1406375  68.18 0.0009352167    1.976    0.494
       123  -9.8048     24.0174    161.9852   1.2729550959e+02   3.8752862546e+01    0.1654321    0.1237341  78.46 0.0003449362    1.021    0.021
       124  -8.9217     43.2136    161.0706   1.2326938027e+02   3.6976523991e+01    0.1592346    0.1188868  81.31 0.0003038555    1.062    0.059
       125  -9.6793     46.4942    156.2778   1.2211729816e+02   3.7595831476e+01    0.1959954    0.1487193  69.27 0.0002347015    1.123    0.109
       126 -11.2403     25.8372    155.2258   1.2640616829e+02   3.9951708578e+01    0.4301376    0.1332749  39.45  0.002148757    2.875    0.652
       127  -8.5362    228.4275    155.4928   8.5008645753e+01   6.6249955069e+00    0.1296689    0.1139164  11.05 0.0001559274    1.043    0.041
       128  -9.7025     32.5184    153.9314   1.2488644207e+02   3.9565516595e+01    0.1659896    0.1313568  69.60 0.0004528559    1.129    0.114
       129 -11.0267    249.4846    151.1170   8.0706865279e+01   3.3234872976e+00    0.4924246    0.2493381 -29.72  0.002473033    1.901    0.474
       130 -12.8591    248.2185    134.2702   7.7293557112e+01   5.6666687444e+00     1.197055    0.6253437 -17.86  0.005601034    1.999    0.500
       131 -10.3751    247.5518    144.5076   7.9617365342e+01   4.4915084836e+00    0.2214377    0.1990738 -24.64 0.0006673318    1.273    0.214
       132 -11.0779    247.7677    141.2350   7.8882543216e+01   4.8637229287e+00    0.6920471    0.2254828  41.60  0.002696737    3.000    0.667
       133 -12.4252      3.5614    151.4018   1.3076151997e+02   4.2649555889e+01    0.5920781    0.4068845 -69.48  0.004390322    1.456    0.313
       134 -12.0249      9.3801    142.7751   1.2897648308e+02   4.3962541928e+01    0.4520531    0.1812423 -72.42  0.001917293    1.977    0.494
       135 -12.3007      5.7881    141.9927   1.2969856607e+02   4.4405180627e+01    0.4353983    0.3774005  83.43  0.001839793    1.251    0.201
       136 -10.7936     72.8040    173.8549   1.1845937674e+02   3.0823768156e+01    0.2179341    0.1894959  74.35 0.0004337989    1.128    0.114
       137  -9.9469     94.5837    150.2202   1.1076363106e+02   3.2450298373e+01    0.2518523    0.2117902  66.24 0.0008711473    1.081    0.075
       138  -9.8584     86.9993    151.0156   1.1257541116e+02   3.3432621965e+01    0.1870866    0.1578829  81.03   0.00119178    1.040    0.039
       139 -10.3648     82.7434    149.2790   1.1328074054e+02   3.4415893189e+01    0.2091251    0.1871499 -83.23 0.0003009864    1.122    0.108
       140 -10.5014     57.6077    147.8727   1.1876150574e+02   3.8057177631e+01     0.473718    0.2923315  61.88  0.002774042    1.539    0.350
       141 -11.1383     21.8408    149.0164   1.2676008480e+02   4.1604273343e+01    0.4035521    0.1275611  40.26  0.002040219    2.824    0.646
       142  -8.8413     45.0000    148.9819   1.2170089751e+02   3.9285082641e+01    0.1872018    0.0575341 -70.38 0.0007921673    2.872    0.652
       143 -11.9485     68.2875    144.3225   1.1588421642e+02   3.7460011502e+01    0.6213784     0.383779  79.57  0.002370525    1.739    0.425
       144  -9.0497     40.9544    147.5147   1.2244734826e+02   4.0033800276e+01    0.1548698    0.1077256  43.85 0.0005711693    1.510    0.338
       145  -9.5977    235.8887    145.8767   8.1767865178e+01   6.4904870015e+00    0.2057175    0.1573424  11.68 0.0005033909    1.236    0.191
       146  -8.6662     97.5809    146.4622   1.0950481715e+02   3.2758646992e+01    0.1278944    0.1164575  85.29 7.941671e-05    1.057    0.054
       147 -10.1738    133.2839    141.3817   1.0060235919e+02   2.7595933140e+01    0.3923358    0.2252395 -59.33  0.001683886    1.974    0.493
       148 -11.4710     16.8703    140.2435   1.2714150501e+02   4.3877226940e+01     0.307631    0.1779143  64.46  0.001372595    1.546    0.353
       149  -9.4987    107.6983    135.7240   1.0534031468e+02   3.3338264706e+01    0.3212025    0.2262024 -21.88  0.001512001    2.434    0.589
       150 -11.9862     12.6343    127.6156   1.2705743528e+02   4.6915078482e+01    0.4187786    0.1955515  33.07  0.002313907    2.410    0.585
       151 -12.8855     16.5238    120.4146   1.2545608785e+02   4.8171048804e+01    0.7217086     0.316648  64.54  0.003648881    2.502    0.600
       152 -10.9193      2.1112    131.8639   1.2981554544e+02   4.6793584403e+01    0.3776659    0.1539137 -88.92    0.0020387    2.039    0.510
       153 -12.6070      3.5189    123.1500   1.2884647187e+02   4.8547259529e+01    0.6148136    0.3348975 -73.14  0.003934948    1.442    0.307
       154  -9.8392     44.3619    129.9889   1.1968992316e+02   4.3448818350e+01    0.1750204    0.1269079 -79.95 0.0004940389    1.148    0.129
       155 -12.7160      9.3417    113.3778   1.2657379830e+02   5.0256833912e+01    0.6107219    0.2085935 -78.96  0.002839218    2.390    0.582
       156  -9.0870     94.1686    133.1736   1.0808027442e+02   3.6104203820e+01    0.1816165     0.173325 -58.63 0.0003276793    1.204    0.169
       157  -9.7767     48.0372    125.9896   1.1827143432e+02   4.3928162777e+01    0.1835666    0.1508531 -89.17  0.000367267    1.016    0.016
       158  -8.5425    209.6879    125.7066   8.1736878130e+01   1.4635248482e+01    0.1454675    0.1042071  15.17 0.0003848792    1.592    0.372
       159 -11.4918    245.1322    121.5815   7.4903227646e+01   7.9245415447e+00    0.4483246      0.36549  74.00  0.002516893    1.742    0.426
       160 -12.9108    247.1591    101.4690   6.9826431082e+01   1.0213372467e+01     1.044216      0.66359 -12.47  0.005131484    1.618    0.382
       161 -11.1779      8.3342    132.0188   1.2841455571e+02   4.6304704481e+01    0.1814052    0.1407475 -54.69  0.001330125    1.573    0.364
       162 -10.2651    231.9202    116.2378   7.5723628246e+01   1.1346261799e+01    0.2037535    0.1916901 -46.81 0.0006586385    1.256    0.204
       163 -11.8802      2.5364    110.1151   1.2800567820e+02   5.1433299338e+01    0.4643115    0.1766044 -78.30  0.002421805    2.005    0.501
       164 -10.0638    249.8383    117.8240   7.3322838179e+01   7.4924891218e+00    0.2916331    0.2403262   3.76 0.0007886928    1.113    0.102
       165 -10.4592     18.9768    105.9640   1.2326245591e+02   5.1174948487e+01     0.183709    0.1417439 -81.19 0.0004594823    1.011    0.011
       166 -12.0586     13.5048    102.4691   1.2433882279e+02   5.2369756945e+01    0.2883103    0.2305561  23.91  0.001649455    1.669    0.401
       167 -11.4960     16.0428     98.8531   1.2320707616e+02   5.2991650731e+01    0.3041057     0.193018  32.37 0.0009471694    1.912    0.477
       168  -9.6811    167.5326    112.8215   8.6802476119e+01   2.6033641030e+01    0.2769766    0.2282389  89.60 0.0008527905    1.528    0.345
       169  -8.6049     71.7460    100.0530   1.0757173721e+02   4.6809516396e+01     0.165622    0.1037854 -62.14 0.0003149607    1.428    0.300
       170 -11.8696    247.5948    112.9150   7.2507821440e+01   8.5890663359e+00     0.566676    0.3640835  38.84  0.002929874    1.588    0.370
       171  -8.5292    184.6698     77.6527   7.3802621784e+01   2.8190421801e+01     0.163847    0.1176205  16.52 0.0007049491    1.761    0.432
       172 -11.2653      2.0000     67.4349   1.2326510956e+02   6.0903633760e+01    0.5332576   0.04990546 -72.01  0.001341782    7.934    0.874
       173 -10.9346     74.0384    243.8437   1.2414453265e+02   1.8788179851e+01    0.2531121    0.2117001 -89.46  0.001729421    1.396    0.284
       174 -11.4434    199.0491    245.9238   1.0458185340e+02   9.0340582791e-01    0.3111009    0.1230172  44.54  0.001752088    1.950    0.487
