#   1 NUMBER                 Running object number                                     
#   2 MAG_AUTO               Kron-like elliptical aperture magnitude                    [mag]
#   3 X_IMAGE                Object position along x                                    [pixel]
#   4 Y_IMAGE                Object position along y                                    [pixel]
#   5 X_WORLD                Barycenter position along world x axis                     [deg]
#   6 Y_WORLD                Barycenter position along world y axis                     [deg]
#   7 A_WORLD                Profile RMS along major axis (world units)                 [deg]
#   8 B_WORLD                Profile RMS along minor axis (world units)                 [deg]
#   9 THETA_WORLD            Position angle (CCW/world-x)                               [deg]
#  10 FWHM_WORLD             FWHM assuming a gaussian core                              [deg]
#  11 ELONGATION             A_IMAGE/B_IMAGE                                           
#  12 ELLIPTICITY            1 - B_IMAGE/A_IMAGE                                       
         1 -13.2026    189.8952     25.0830   6.9172838077e+01   3.4938910581e+01     1.594114     1.300982 -10.10  0.006787193    1.561    0.359
         2 -12.9867    196.7315     19.0580   6.6714939833e+01   3.3951054993e+01     1.274267    0.8655444 -51.04  0.005343877    1.498    0.332
         3 -13.0591    202.9966     11.1759   6.4009788148e+01   3.3291842688e+01     1.368433    0.7891788  46.76  0.001426275    2.005    0.501
         4 -10.3169     17.1410     12.1477   1.1113744846e+02   6.9518582914e+01     0.313301   0.07700595 -33.30  0.001237543    4.168    0.760
         5  -9.7860     33.0000      5.5358   1.0136825326e+02   6.8729118414e+01    0.3479268    0.0527505 -35.07  0.001162268    5.994    0.833
         6 -10.1366    163.5280    225.4703   1.2141476305e+02   3.9213812297e+00    0.2943628    0.2028291   6.61  0.001399984    2.430    0.588
         7 -11.0538    139.2902    248.0208   1.2923563311e+02   4.3445264895e+00    0.4519753     0.242822 -56.02  0.002413303    2.231    0.552
         8 -11.1950     96.4697    248.5091   1.3708600543e+02   1.1229934704e+01    0.5315238    0.3082882 -66.22  0.002463963    1.882    0.469
         9 -10.6201    101.0064    250.0028   1.3643203105e+02   1.0261339528e+01    0.4267957    0.2851524  80.16  0.002362748    1.514    0.339
        10 -10.4799    109.6316    247.2521   1.3458848697e+02   9.3820308745e+00    0.2428293    0.1819874  62.36 0.0006697082    1.085    0.078
        11 -10.0501    106.2981    246.6751   1.3512953501e+02   1.0016682789e+01     0.198456    0.1605752  59.34 0.0004679673    1.074    0.069
        12 -11.7016    103.7335    243.5649   1.3525733031e+02   1.0981760643e+01    0.4569389    0.3676156  74.56   0.00162154    1.100    0.091
        13 -13.4142     34.2513    246.4397   1.4745369486e+02   2.0155372693e+01      2.41172     0.798719  47.52     0.012896    2.372    0.578
        14 -14.3940      2.7938     19.6272   1.2052008039e+02   6.9506410005e+01     14.13249     1.025561 -51.23   0.03023514   15.362    0.935
        15 -11.9169     49.0377    231.5720   1.4389292098e+02   2.1148479940e+01    0.3569993    0.3068397  75.91  0.001336696    1.275    0.216
        16 -12.0984     47.2168    226.5387   1.4379693508e+02   2.2368971114e+01    0.3518569    0.2691719 -61.78 0.0007790346    1.630    0.387
        17  -9.0786    228.7379    205.6257   1.0531039637e+02  -4.6567408054e+00    0.2281283    0.2010037 -49.57 0.0006501001    1.420    0.296
        18 -10.6151     68.8830    234.5551   1.4065047678e+02   1.7906985349e+01     0.322171    0.2332443 -81.85  0.001396124    1.293    0.227
        19  -9.1572     59.8145    235.8788   1.4237372395e+02   1.8900512029e+01    0.1630089    0.1323503  84.88 0.0003997585    1.168    0.144
        20  -9.4960    191.9669    192.6943   1.0996177812e+02   4.4029376527e+00    0.4048184    0.2100299 -59.78  0.001501083    3.212    0.689
        21 -11.0626     71.0807    193.1469   1.3578656571e+02   2.6179983382e+01    0.3992912    0.2596477 -43.28  0.001772716    2.185    0.542
        22 -11.0485     75.7269    186.2195   1.3390956061e+02   2.7050854366e+01    0.3085831    0.2376743 -52.23 0.0008413653    1.498    0.332
        23  -8.0020    181.4871    192.4925   1.1206659741e+02   6.5110506466e+00    0.1429035    0.1331182  32.95  0.000233738    1.023    0.022
        24 -10.5685     84.1462    174.5251   1.3037640494e+02   2.8444372607e+01    0.2915377    0.2319021 -75.51 0.0003861531    1.144    0.126
        25  -8.7143     82.3021    170.6443   1.3020536787e+02   2.9622215564e+01    0.2395653    0.1634663  55.59  0.001232164    1.455    0.313
        26 -12.6093     71.8227    171.8357   1.3278344182e+02   3.0891186382e+01    0.4903939    0.2793715 -45.07  0.001540167    2.203    0.546
        27  -9.4759    125.4242    173.9957   1.2082203455e+02   2.1443795151e+01    0.2497928    0.2044734  17.94  0.001269569    1.601    0.375
        28  -9.8336    119.7323    174.4204   1.2220258855e+02   2.2413371059e+01    0.2889909    0.1307076  46.86  0.001142875    2.150    0.535
        29 -12.6182     83.6256    237.9202   1.3832202642e+02   1.5127047591e+01    0.7783529    0.3845098  77.86   0.00228435    2.722    0.633
        30 -11.8774     89.7259    166.1383   1.2775501136e+02   2.9508771751e+01       1.5178    0.6054887  54.15  0.001685301    3.114    0.679
        31 -12.7130     68.3865    145.7962   1.2952763395e+02   3.7463966404e+01       1.4605    0.7714897  89.22  0.003791871    3.294    0.696
        32  -9.3173    102.2062    149.7840   1.2178485655e+02   3.1255495089e+01    0.3041272    0.2584797 -33.20 0.0009529479    1.399    0.285
        33  -9.0670    104.3656    146.3131   1.2055789659e+02   3.1691029482e+01    0.3445726    0.2174489 -24.53  0.001335854    2.861    0.650
        34 -11.3660     91.1562    149.1012   1.2440835990e+02   3.3275089709e+01    0.2852818    0.2521804 -45.09 0.0004744355    1.241    0.194
        35 -11.2647     45.5459    147.7084   1.3547782538e+02   3.9855522078e+01    0.5645075    0.1993287 -59.33  0.002422556    2.292    0.564
        36  -9.0837    112.4642    135.5086   1.1622206086e+02   3.2740853786e+01     0.320804    0.2254225 -15.32  0.001020929    2.343    0.573
        37  -9.9007     99.9490    132.6412   1.1883653117e+02   3.5668941943e+01    0.2935018    0.2389082 -18.30 0.0008198553    1.592    0.372
        38 -11.9940     58.5749    132.6396   1.2976161752e+02   4.1839564941e+01     2.970241    0.8885372 -70.66  0.005976102   10.352    0.903
        39  -8.5497    160.6623    127.3104   1.0245572502e+02   2.4484671464e+01    0.1629302    0.1250029 -88.52 0.0007044568    1.686    0.407
        40  -8.4443    108.6955    123.0216   1.1435197845e+02   3.6325015605e+01    0.1995433     0.177242 -54.98 0.0004013254    1.069    0.065
        41 -13.6427     11.5385    206.8669   1.4857351925e+02   3.0346984877e+01     1.351787    0.8733509  80.31  0.008715011    1.165    0.142
        42 -10.3617    168.1689    113.2599   9.7196783163e+01   2.5711121106e+01    0.3901446     0.319998 -68.09 0.0008506755    1.346    0.257
        43  -8.9847    204.7475    110.8783   8.9056673530e+01   1.7517952846e+01    0.4023046    0.1870462  37.68  0.001351732    3.007    0.667
        44  -9.5121     40.8602    108.1535   1.3010491912e+02   4.9460469885e+01    0.1827187     0.130415 -43.47  0.001077637    1.330    0.248
        45 -14.6550     19.3987    168.3974   1.4388452467e+02   3.7808389472e+01     4.729234     1.812158  88.68   0.01858461    3.604    0.723
        46  -9.5142     16.9677     92.4307   1.3418748586e+02   5.4947063031e+01    0.1492431    0.1173444  19.16  0.001024376    1.600    0.375
        47 -14.7928     55.7800    213.0545   1.4101872176e+02   2.4004571242e+01     7.108425     1.072801  45.69   0.02424753    4.663    0.786
        48 -10.2210    125.5625     52.8765   8.9778004798e+01   4.6742006938e+01    0.3744916    0.2792018  78.44   0.00112783    1.825    0.452
        49 -12.5031     72.4881    226.4125   1.3920916830e+02   1.8989116522e+01     1.189412     0.451209  66.76  0.004088316    4.638    0.784
        50  -9.5477    248.5141    225.0223   1.0532646232e+02  -1.0716368258e+01    0.1788607    0.1121164 -30.03 0.0005940408    1.602    0.376
        51  -9.7372    248.9210    249.2548   1.0944111372e+02  -1.3816615694e+01    0.2283774    0.1323312  22.12  0.001355389    1.560    0.359
        52  -9.3866     34.4361    229.6169   1.4625152463e+02   2.3321554574e+01    0.2473016    0.1299733  66.98 0.0008778085    1.595    0.373
        53  -9.3183    144.2270    249.2191   1.2847438527e+02   3.3098035682e+00    0.1754091    0.1284882  63.57  0.001068769    1.336    0.251
        54 -14.5996      5.6114    239.6609   1.5152183818e+02   2.4563548363e+01     5.821784    0.2245096 -68.50   0.01969914    7.113    0.859
        55 -10.1140     82.3442    249.2107   1.3963787233e+02   1.3231978057e+01    0.2614978    0.1254704  52.76  0.001437936    1.677    0.404
