#   1 NUMBER                 Running object number                                     
#   2 MAG_AUTO               Kron-like elliptical aperture magnitude                    [mag]
#   3 X_IMAGE                Object position along x                                    [pixel]
#   4 Y_IMAGE                Object position along y                                    [pixel]
#   5 X_WORLD                Barycenter position along world x axis                     [deg]
#   6 Y_WORLD                Barycenter position along world y axis                     [deg]
#   7 A_WORLD                Profile RMS along major axis (world units)                 [deg]
#   8 B_WORLD                Profile RMS along minor axis (world units)                 [deg]
#   9 THETA_WORLD            Position angle (CCW/world-x)                               [deg]
#  10 FWHM_WORLD             FWHM assuming a gaussian core                              [deg]
#  11 ELONGATION             A_IMAGE/B_IMAGE                                           
#  12 ELLIPTICITY            1 - B_IMAGE/A_IMAGE                                       
         1 -14.8954     68.4986    144.2903   9.9135585323e+01   3.7487645007e+01      4.92149     2.718285  71.72  0.005649682    3.473    0.712
         2 -14.3267    216.4618     29.2725   3.6514274216e+01   2.8623871122e+01     1.063427    0.8591034  30.33  0.006635467    1.749    0.428
         3 -14.4470    204.0684     40.8683   4.0548881463e+01   2.9900869651e+01     1.791216     1.399213  30.48  0.006140245    1.736    0.424
         4 -13.3991    242.2884      4.9763   2.9381687526e+01   2.6011339363e+01    0.7509297    0.4855507  86.82  0.005052196    1.398    0.285
         5  -9.7613     56.7435      1.5654   5.7472600706e+01   6.6620242547e+01    0.1518295    0.1058595  52.11 0.0009349037    1.545    0.353
         6 -11.9683    173.9932    212.5032   8.5153479417e+01   5.0708850104e+00    0.5353698    0.1582026  31.61  0.001712636    3.873    0.742
         7 -10.5707    139.8880    249.7583   9.8027295957e+01   3.7491624060e+00    0.2196072    0.1627686  74.58   0.00124509    2.030    0.507
         8 -15.1997     39.2962    198.4848   1.1405398618e+02   2.7821207720e+01     2.592836     1.268512  75.72  0.006450395    2.561    0.610
         9 -14.5924     48.6860    188.9541   1.1086914762e+02   2.8987939451e+01     1.893287      1.17489  63.41  0.009836165    1.689    0.408
        10 -10.8600    111.6698    204.4636   9.7837946481e+01   1.6751951305e+01    0.4244564    0.2751704 -86.77 0.0005147336    2.333    0.571
        11 -11.0195    107.5263    203.4846   9.8665273704e+01   1.7608116568e+01    0.2721874    0.2378594  60.54 0.0009028568    1.154    0.133
        12 -14.0318     18.3833    217.8569   1.2009948198e+02   2.5668532420e+01    0.6167412    0.4772608 -38.72  0.004073569    1.843    0.457
        13  -9.7675    121.2123    196.0932   9.4257329193e+01   1.7041259783e+01    0.2413106    0.1911177 -81.50 0.0004601206    1.548    0.354
        14 -15.6893      9.5642    207.4390   1.2121663145e+02   2.8717155674e+01     2.183866     1.151259 -59.97  0.008361407    1.947    0.487
        15 -10.1068    147.9988    186.5146   8.6222754229e+01   1.4548546148e+01    0.2400495    0.1962378 -41.33  0.001270359    1.242    0.195
        16  -9.7483     84.9831    185.9424   1.0153054540e+02   2.4979560007e+01    0.2453915    0.2166287  40.33  0.001048419    1.136    0.120
        17 -10.5299     81.3009    182.0242   1.0187536592e+02   2.6435416790e+01    0.4411148    0.2616749  45.30  0.001213376    1.679    0.404
        18  -9.9782     99.4713    180.7738   9.7065713806e+01   2.4006762544e+01    0.2502221    0.2250264   7.74 0.0005723716    1.234    0.190
        19 -10.4902    187.9525    176.2634   7.5300705719e+01   9.5269107786e+00    0.3956755    0.3262548 -60.89  0.002086779    1.546    0.353
        20 -12.8002     78.7461    159.8532   9.8995264254e+01   3.2185946939e+01    0.9025407     0.483082  48.62 0.0004023512    2.067    0.516
        21 -13.6366     66.3972    155.4166   1.0166749828e+02   3.4989017002e+01    0.6119721     0.425311 -48.85  0.001725221    1.410    0.291
        22 -12.1821    184.7381    212.7758   8.2950948975e+01   3.3142886796e+00    0.4932657    0.3336011 -35.45  0.002670184    1.485    0.327
        23 -11.7599    239.0652    173.2356   6.4966515689e+01   1.5715101427e+00    0.3449804    0.1528028  35.28  0.001551644    2.538    0.606
        24  -9.2580    194.1444    171.2080   7.2971436377e+01   9.3975037916e+00     0.184968    0.1756205 -68.90  0.001064061    1.327    0.247
        25 -10.8379    134.0260    213.4872   9.4085553451e+01   1.1330123792e+01     0.211864    0.1253399  35.79 0.0005631472    1.555    0.357
        26  -8.5089    120.4844    165.4893   8.8903309805e+01   2.4086933287e+01    0.1470214    0.1464372  -8.95 0.0004622409    1.018    0.017
        27 -10.4669     35.9574    161.2360   1.1083647553e+02   3.7054980128e+01    0.3250608    0.1900495  46.22  0.001651209    1.794    0.443
        28 -11.2187     32.4304    155.5093   1.1107225472e+02   3.8812262369e+01     0.345788    0.2976292  87.56  0.001480547    1.093    0.085
        29 -12.3881     86.2125    153.2952   9.5746828905e+01   3.2697460163e+01    0.6550782    0.4700067 -19.92  0.003040757    1.841    0.457
        30 -11.3192    133.7659    144.6419   8.1040684917e+01   2.6456685366e+01     1.188912    0.3213378 -53.91   0.00286221    5.342    0.813
        31  -9.0380    112.1876    150.4182   8.8013241871e+01   2.9105808566e+01    0.2040959    0.1422009  47.98 0.0003711333    1.530    0.346
        32 -10.4855    174.8195    148.9968   7.2243649192e+01   1.7431449775e+01    0.2752187    0.2102222 -59.42 0.0009130943    1.547    0.354
        33 -10.4671     31.5109    143.5348   1.0976090666e+02   4.1871411666e+01    0.4214841    0.2025685  17.81  0.001878426    2.645    0.622
        34  -9.3623    199.9671    142.9764   6.5669009894e+01   1.3731618317e+01     0.214545    0.1739255 -68.71 0.0004601245    1.606    0.377
        35 -10.2678     99.5037    140.4784   8.9403990000e+01   3.3696133163e+01     0.299063    0.2746095  36.94 0.0008145207    1.128    0.113
        36 -10.0972    102.3485    137.3513   8.7908698491e+01   3.3964035879e+01    0.3553425    0.2534598 -11.68  0.000857004    1.922    0.480
        37 -12.5178     87.7985    138.6613   9.2388256254e+01   3.6057438230e+01    0.3022553    0.2572246 -41.65  0.000375257    1.148    0.129
        38  -9.8090     89.6211    211.4935   1.0394651335e+02   1.8532063442e+01    0.2222069    0.1899465 -84.28 0.0005847845    1.206    0.171
        39 -10.6672    105.9691    131.1562   8.5462613198e+01   3.4808240057e+01    0.4385486    0.3296693 -57.53  0.002089387    1.360    0.264
        40 -10.4095    110.0374    129.9720   8.4027275363e+01   3.4350932341e+01    0.3469425    0.2575263  14.89 0.0008832854    1.620    0.383
        41 -12.1591     69.5625    168.8566   1.0293670492e+02   3.1243904740e+01    0.4688409    0.2927752 -45.84 0.0008969539    1.692    0.409
        42 -12.3305     64.6801    173.7123   1.0493447700e+02   3.0698257623e+01    0.4984601    0.3179285 -41.81  0.002090067    1.800    0.444
        43  -9.6132    148.1331    174.1985   8.3798994042e+01   1.7156030722e+01    0.1952139    0.1771215  73.12  0.000346053    1.310    0.237
        44 -11.8198    193.9522    196.3455   7.8030298840e+01   4.7578481826e+00     1.263269    0.6711324 -61.97  0.004039672    5.190    0.807
        45 -10.9890    134.9543    128.0845   7.6805085353e+01   2.9965333674e+01    0.4582563    0.3082229 -46.12  0.002023353    1.456    0.313
        46  -9.7989    160.9818    127.9673   7.0399562949e+01   2.4619030887e+01    0.2495037    0.1983198 -83.80  0.001149612    1.737    0.424
        47 -11.2761     97.5020    125.7421   8.6649028852e+01   3.7587782549e+01    0.3122075    0.2591657  -2.83 0.0006701645    1.376    0.273
        48 -10.1078    116.9162    124.0522   8.0656051124e+01   3.4438182386e+01    0.2563706    0.1890209 -11.60  0.001127157    1.751    0.429
        49  -9.3433    163.0728    121.0409   6.8201867748e+01   2.5615138643e+01    0.2411842    0.1922602 -82.33 0.0007687462    1.694    0.410
        50 -10.0753    134.8559    119.8737   7.4764651794e+01   3.1801600699e+01    0.2159092     0.184274 -65.37 0.0007285985    1.323    0.244
        51 -11.3672     22.1364    118.9815   1.0900000000e+02   4.8750332399e+01    0.4126769    0.1829756  43.44  0.001811968    2.732    0.634
        52  -9.8513    107.0248    118.8211   8.2161691149e+01   3.7510445357e+01    0.2175412    0.2076212 -14.23 0.0003134498    1.031    0.030
        53 -17.6342     18.5367    242.5277   1.2157751922e+02   2.0631351004e+01      8.02079     6.401147  74.17   0.04525272    1.064    0.060
        54  -9.4251     82.2619    116.8673   8.9175045474e+01   4.2229509561e+01    0.2144669    0.1995363  85.15   0.00116842    1.221    0.181
        55 -10.8237     39.6336    113.2587   1.0228429193e+02   4.8610548125e+01    0.2380408    0.2083238  51.63 0.0006802476    1.323    0.244
        56 -10.4108     22.0392    114.0764   1.0824752217e+02   4.9958408419e+01    0.1984906     0.172168 -60.34 0.0004168639    1.035    0.034
        57 -10.2128    205.5122    110.1633   5.7035714677e+01   1.8743359563e+01    0.2875208    0.2089605  39.96 0.0008720007    1.540    0.351
        58 -10.5580     33.2109    109.2925   1.0367854854e+02   5.0190061854e+01    0.2734286    0.2006054 -81.21 0.0006975852    1.488    0.328
        59 -12.4996    247.3262    106.8407   4.9872582638e+01   1.1253659731e+01    0.4732144    0.3361189  40.12  0.002714158    1.738    0.424
        60 -10.5679     29.0015    106.9966   1.0467600816e+02   5.1117328545e+01    0.2122471      0.17742 -49.29 0.0006747232    1.041    0.040
        61  -9.7689    134.6085    105.3256   7.0982001202e+01   3.4969516289e+01    0.3108335    0.1443461 -47.20  0.001137397    2.197    0.545
        62  -9.5767     45.0461    105.0498   9.8756508850e+01   5.0037988034e+01    0.2072944    0.1641365  70.31 0.0006137564    1.629    0.386
        63 -10.4352    119.3064    103.9780   7.4725020763e+01   3.8439413776e+01    0.2218666    0.1963106 -36.44 0.0004378513    1.100    0.091
        64 -11.0229     39.0805    101.9542   1.0016524169e+02   5.1398693920e+01    0.3971934    0.2226834  48.36  0.001791871    2.367    0.577
        65 -10.4110    120.8359     98.2442   7.2698138635e+01   3.9338706874e+01    0.2639309    0.2085199 -52.56 0.0005460267    1.342    0.255
        66 -10.0213     33.1310     96.7259   1.0115720153e+02   5.3208169514e+01    0.2405948     0.197082  67.22  0.001009088    1.560    0.359
        67 -12.6048    245.2114     91.1533   4.6813706098e+01   1.4130569905e+01    0.4592148    0.3802842  22.90  0.002811372    1.609    0.378
        68 -10.3944     53.0965     90.6657   9.2459849078e+01   5.2475408417e+01    0.2894031    0.1803418 -45.23 0.0008698729    1.417    0.294
        69 -10.5279     72.2588     83.1683   8.3492073711e+01   5.1454432604e+01    0.4382741    0.2637174  56.85  0.001606423    2.701    0.630
        70 -10.6107     11.8495     93.0088   1.0812043888e+02   5.5704454169e+01    0.1958064    0.1792322 -17.73  0.000524072    1.218    0.179
        71  -9.7919    159.8859     82.9016   5.8799640761e+01   3.3678702465e+01    0.2272698    0.2020772  11.76 0.0005731354    1.252    0.201
        72  -8.9520    184.4913     77.4566   5.2598642335e+01   2.8980963603e+01    0.1396443    0.1363538 -55.60 0.0001189951    1.038    0.037
        73  -9.4110     93.3161     67.6475   7.1481862709e+01   5.0855883002e+01    0.2086194    0.1760239 -88.16  0.001072999    1.734    0.423
        74  -9.6540    134.6884    246.6933   9.8695903388e+01   5.0299517161e+00    0.1234148   0.09220418   0.98 0.0003047432    1.619    0.382
        75 -13.4018    194.7393     47.5246   4.3362947740e+01   3.1121338740e+01    0.7787825    0.6633586  26.69  0.001214813    1.484    0.326
        76  -8.6659    169.2964    236.7141   9.0111647376e+01   1.5912819653e+00    0.1176742   0.09696469  54.08 0.0002501092    1.547    0.354
        77  -8.9222     73.4667     55.5515   7.4005018338e+01   5.6608196019e+01    0.1361652     0.123655  -1.21 0.0008065306    1.068    0.064
        78 -11.1797    204.1438    199.5820   7.6595602800e+01   2.5499309258e+00    0.3985759    0.1545858  27.31  0.001430908    3.373    0.703
        79 -10.6608    187.8595     31.1445   4.0150295797e+01   3.4759967205e+01    0.2018227    0.1618602 -72.92 0.0005528522    1.199    0.166
        80 -10.0367    198.0384     23.7765   3.7153859588e+01   3.3298043058e+01    0.2410442    0.1884894 -17.68 0.0009146889    1.603    0.376
        81  -9.4288    189.5013     14.9910   3.5948857717e+01   3.6163086763e+01    0.1718393    0.1204635 -32.31 0.0005665019    1.547    0.353
        82 -10.8551     13.5213     59.9514   1.0010998347e+02   6.2958714170e+01    0.2421812     0.181133 -45.67 0.0004097038    1.106    0.096
        83 -12.5724    171.9590    219.3708   8.6760610697e+01   4.1624231143e+00    0.5533847     0.303475  17.90  0.002459551    2.234    0.552
