#   1 NUMBER                 Running object number                                     
#   2 MAG_AUTO               Kron-like elliptical aperture magnitude                    [mag]
#   3 X_IMAGE                Object position along x                                    [pixel]
#   4 Y_IMAGE                Object position along y                                    [pixel]
#   5 X_WORLD                Barycenter position along world x axis                     [deg]
#   6 Y_WORLD                Barycenter position along world y axis                     [deg]
#   7 A_WORLD                Profile RMS along major axis (world units)                 [deg]
#   8 B_WORLD                Profile RMS along minor axis (world units)                 [deg]
#   9 THETA_WORLD            Position angle (CCW/world-x)                               [deg]
#  10 FWHM_WORLD             FWHM assuming a gaussian core                              [deg]
#  11 ELONGATION             A_IMAGE/B_IMAGE                                           
#  12 ELLIPTICITY            1 - B_IMAGE/A_IMAGE                                       
         1 -14.1944    181.9811     30.3128   7.0879602191e+01   3.6181658650e+01    0.9350871    0.8820516  39.26  0.003261676    1.195    0.164
         2 -14.0879    188.6229     19.4254   6.7068290226e+01   3.5826383904e+01    0.6708301     0.638724  17.44   0.00138009    1.282    0.220
         3 -12.4768      8.8923    226.8203   1.4968195521e+02   2.6406028510e+01    0.3295936     0.254813  10.06  0.002262944    2.705    0.630
         4 -19.2889     28.0973    136.4916   1.3735352075e+02   4.4140766731e+01     19.38662     4.844707 -69.84   0.06586752    3.895    0.743
         5 -11.5072    139.7008    217.5353   1.2406019455e+02   9.5036878606e+00    0.2287123    0.1632245 -86.42  0.001178703    1.788    0.441
         6 -15.7124     75.5150    153.4961   1.2816123861e+02   3.4530759083e+01     6.006812     2.885617  77.02   0.01037233    9.582    0.896
         7  -9.9962      9.6454    214.1821   1.4875921795e+02   2.8834154643e+01    0.1060999    0.0581577  62.23 0.0006657655    1.531    0.347
         8 -12.8612    111.2795    207.8338   1.2849815115e+02   1.6470785750e+01    0.3867505    0.3096986  63.00   0.00151708    1.116    0.104
         9 -11.6104    102.8007    208.5979   1.3036661623e+02   1.7736288513e+01     0.284723    0.1809825  68.71  0.001443602    1.664    0.399
        10 -13.7121     75.6240    197.6387   1.3459311956e+02   2.4349882302e+01    0.8504598    0.7328421 -69.49  0.003966608    1.240    0.194
        11 -11.9932    199.1582    199.8362   1.0887999569e+02   1.6230598274e+00    0.3267281    0.2323012  29.19   0.00169507    1.400    0.286
        12 -12.1465    192.0798    192.9891   1.0898735346e+02   4.2202378362e+00     1.135897    0.5332029 -62.36   0.00297377    6.716    0.851
        13 -10.9794     71.6705    229.8072   1.3896173502e+02   1.8184489920e+01     0.301796    0.1702445  74.45  0.001630774    1.800    0.445
        14 -11.9722    170.0103    235.2044   1.2072909008e+02   9.0000214201e-01    0.2851601    0.1848483 -69.98  0.001416535    2.428    0.588
        15 -12.3253     84.9285    181.7943   1.3042182659e+02   2.6505534174e+01    0.4288842    0.2926137 -45.22  0.002209738    1.773    0.436
        16 -12.0340     88.0730    176.3550   1.2888710461e+02   2.7262846922e+01    0.3125652    0.2365402 -46.96  0.001465243    1.512    0.339
        17 -10.8475    200.8564    181.5512   1.0493017849e+02   4.6188574646e+00    0.2936523    0.2657692  44.34 0.0009718515    1.123    0.110
        18 -11.7059     68.5356    233.8151   1.3992412930e+02   1.7839496386e+01    0.3816184    0.2186586  64.08  0.001525302    1.535    0.348
        19 -10.7246     58.0631    201.4491   1.3864101495e+02   2.5961982986e+01    0.2069855    0.1562944 -64.06 0.0003981432    1.387    0.279
        20 -11.8282    126.1884    173.0466   1.1951396241e+02   2.1371464529e+01    0.3387164    0.2061731  48.57  0.001532129    1.607    0.378
        21 -11.8480    117.7067    173.0708   1.2148283884e+02   2.2948989727e+01    0.3520926    0.1925911  56.26  0.001472086    2.016    0.504
        22 -12.8179    105.7068    171.7862   1.2405062470e+02   2.5390279332e+01     1.054496    0.2525104  49.05   0.00278726    5.237    0.809
        23 -11.1112    190.6142    229.3282   1.1580639561e+02  -1.7855860032e+00    0.3165339    0.1932609 -59.47  0.001536391    2.467    0.595
        24 -10.3441    228.4969    172.4897   9.7685710359e+01   8.6658632357e-01    0.1392151    0.1302464 -11.65 0.0008103236    1.037    0.035
        25 -11.5929    136.9052    170.7421   1.1660309508e+02   1.9814748001e+01    0.2923755    0.2024595  61.41 0.0009645882    1.570    0.363
        26 -10.2960    226.2965    168.6206   9.7276449572e+01   1.9757084658e+00    0.1414646    0.1123155 -70.82 0.0007022484    1.756    0.431
        27 -12.3534     99.2739    158.7720   1.2325817997e+02   2.9530475277e+01    0.6342221    0.3385131 -41.30  0.002597502    2.327    0.570
        28  -9.7632     78.3590    231.7147   1.3791465908e+02   1.6841254601e+01    0.1942296    0.1052925  49.43 0.0005844486    1.585    0.369
        29 -11.1151    163.4252    155.7871   1.0742787253e+02   1.7629724685e+01    0.3652745    0.1911651 -51.96   0.00142431    2.024    0.506
        30 -11.4206    133.7615    143.7725   1.1171738162e+02   2.6551744228e+01    0.6640333    0.1837853 -54.36  0.001711149    4.612    0.783
        31 -10.1586    179.8233    147.7992   1.0200810683e+02   1.5758245352e+01    0.2111233    0.1839187 -84.86 0.0005029131    1.314    0.239
        32 -11.6509    109.7344    142.1420   1.1735482309e+02   3.1595397874e+01    0.5311036    0.2591382 -36.71  0.001871257    2.917    0.657
        33 -12.3782     98.3057    143.2109   1.2049274579e+02   3.3367306809e+01    0.2646774    0.2540533 -48.18 0.0003864398    1.128    0.114
        34 -11.0147    116.0228    132.1643   1.1353949780e+02   3.2740787763e+01    0.2635366    0.2153797 -46.42 0.0008543497    1.205    0.170
        35 -13.3055     46.8193    131.1840   1.3171138956e+02   4.3481226816e+01    0.4500968    0.3069924  50.17  0.001431277    1.662    0.398
        36 -11.6655    104.9765    129.4769   1.1580972737e+02   3.5419008397e+01    0.4493376    0.3305405 -75.96   0.00101393    1.579    0.367
        37 -10.1977    111.0694    120.5065   1.1208862407e+02   3.6358972165e+01    0.2115078     0.149382  43.97 0.0003924281    1.479    0.324
        38 -11.4426     82.5200    229.9878   1.3695729612e+02   1.6564981018e+01    0.3322703     0.171414  45.27  0.001160071    1.731    0.422
        39 -11.0183    168.7501    113.5981   9.6110333310e+01   2.5436919944e+01     0.326471    0.2584718 -75.20  0.000804311    1.506    0.336
        40 -12.3668     61.7217    228.8188   1.4069386369e+02   1.9766561983e+01    0.2938892     0.238288 -55.15  0.001740622    1.669    0.401
        41 -10.2955    205.2422    110.5450   8.7872322151e+01   1.7465176871e+01    0.2159842    0.1434321  41.38 0.0009520642    1.668    0.401
        42 -10.0580     58.0611    225.9559   1.4109698882e+02   2.0832746051e+01     0.179426    0.1213928  73.57 0.0004629161    1.229    0.187
        43 -13.3108    171.5452     40.3487   7.5331359809e+01   3.7475529032e+01    0.5271884    0.4274792 -17.70 0.0009230208    1.445    0.308
        44 -12.6118    161.4038    236.3647   1.2256973751e+02   2.2239434190e+00    0.3677844    0.2299882 -39.26  0.001963368    1.976    0.494
        45 -11.4449      2.6128    237.5182   1.5128054031e+02   2.4992086156e+01    0.1643461    0.1562401 -26.29  0.001383166    2.036    0.509
