#   1 NUMBER                 Running object number                                     
#   2 MAG_AUTO               Kron-like elliptical aperture magnitude                    [mag]
#   3 X_IMAGE                Object position along x                                    [pixel]
#   4 Y_IMAGE                Object position along y                                    [pixel]
#   5 X_WORLD                Barycenter position along world x axis                     [deg]
#   6 Y_WORLD                Barycenter position along world y axis                     [deg]
#   7 A_WORLD                Profile RMS along major axis (world units)                 [deg]
#   8 B_WORLD                Profile RMS along minor axis (world units)                 [deg]
#   9 THETA_WORLD            Position angle (CCW/world-x)                               [deg]
#  10 FWHM_WORLD             FWHM assuming a gaussian core                              [deg]
#  11 ELONGATION             A_IMAGE/B_IMAGE                                           
#  12 ELLIPTICITY            1 - B_IMAGE/A_IMAGE                                       
         1 -14.3115    215.8382     29.3797   3.5839498488e+01   2.8192614140e+01     1.075009    0.8600301  32.22  0.005266528    1.806    0.446
         2 -14.4545    203.6310     40.8809   3.9871016429e+01   2.9489166043e+01     1.730578     1.408246  29.39  0.006423891    1.683    0.406
         3 -12.8900    244.0946      5.0982   2.8514161185e+01   2.5010981495e+01    0.5506948    0.4550125 -61.28  0.003797967    1.169    0.145
         4 -12.4562    238.1794      4.7276   2.8820351005e+01   2.6239637774e+01    0.5643259     0.259967 -47.34  0.003191184    1.790    0.441
         5  -8.8332    169.2611    236.6852   9.0127032650e+01   4.8212276695e-01    0.1166107    0.1003888  59.54 0.0002385472    1.539    0.350
         6 -10.9544    140.4855    250.0203   9.8079874582e+01   2.6334350039e+00    0.2622862     0.150018  45.57  0.001376743    1.642    0.391
         7 -13.7620     67.3806    171.5697   1.0437726876e+02   3.0639052747e+01     2.469985     1.115213 -31.88  0.006160399    7.241    0.862
         8 -16.8677     29.1386    179.2786   1.1518415572e+02   3.3217732280e+01     11.01321      4.49888  68.01   0.04067213    3.500    0.714
         9 -11.5470    203.9924    199.7832   7.6457768323e+01   1.3182944893e+00    0.4511308    0.1943885  29.32  0.001815529    2.540    0.606
        10 -15.4274      9.7078    207.4111   1.2178135583e+02   2.8515836397e+01     1.144229     1.047885 -63.44  0.006561103    1.388    0.280
        11 -10.6217    107.2473    203.2201   9.8948928944e+01   1.7067190220e+01    0.2572117    0.1937595  87.67 0.0008148013    1.606    0.377
        12  -9.4929    121.0020    195.9937   9.4472990102e+01   1.6397966093e+01    0.2126449     0.202391  65.09 0.0004455202    1.074    0.069
        13 -13.6447     66.7618    155.4001   1.0202941322e+02   3.4823394896e+01    0.6262103    0.4472735 -46.20  0.001393482    1.442    0.306
        14 -14.7271     68.4479    144.2250   9.9592009238e+01   3.7459395796e+01     4.245509     2.314755  79.07  0.009220283    3.736    0.732
        15 -11.7670    156.2246    218.6658   9.0049077257e+01   5.7669697700e+00    0.3308498    0.2961599  49.39  0.001973083    1.242    0.195
        16 -10.3455    147.8042    186.9936   8.6382255054e+01   1.3637078473e+01    0.2331001    0.1792794 -87.02 0.0007732503    1.907    0.476
        17  -8.9344     76.2845    184.2994   1.0388080810e+02   2.6246734711e+01    0.1356162    0.1087827 -31.36 0.0003891212    1.550    0.355
        18  -9.7310     82.5028    182.4341   1.0200802587e+02   2.5789635476e+01    0.2542581    0.1963004 -37.21 0.0006862351    1.532    0.347
        19  -9.4320     79.4928    181.4944   1.0264733251e+02   2.6464461920e+01    0.2826202    0.2361815 -83.78   0.00107618    1.184    0.155
        20 -10.0304     99.4257    180.8623   9.7375312644e+01   2.3522740338e+01    0.2638731    0.2111137  27.31 0.0005826103    1.320    0.243
        21 -10.4156    188.2381    176.4182   7.5067712880e+01   8.3785795457e+00    0.4397589     0.353335 -69.49  0.002202546    1.766    0.434
        22 -14.2047     18.6829    218.6705   1.2064518347e+02   2.5203322363e+01    0.6560702    0.5522937 -37.84  0.004497197    1.726    0.421
        23  -9.7094    147.9828    174.4765   8.3882759928e+01   1.6340673865e+01     0.222699    0.1463259  39.55  0.000320073    1.491    0.330
        24  -9.3616    194.0212    171.2813   7.2766116616e+01   8.3235964922e+00    0.2041181    0.1860891  13.02  0.001062223    1.084    0.077
        25 -11.2184    230.4433    167.3945   6.4888290626e+01   2.6663157465e+00    0.3554406    0.1539497 -46.60  0.001437199    2.491    0.599
        26  -9.4125    185.3855    169.1829   7.4156357119e+01   1.0344872121e+01    0.2091726    0.1368963 -50.62 0.0009448121    1.680    0.405
        27  -9.0089    120.5133    165.5499   8.9041436181e+01   2.3546894945e+01    0.1521197    0.1489727  57.42 0.0001096866    1.028    0.027
        28 -12.2675     86.4850    153.3167   9.6011063752e+01   3.2443912613e+01    0.6644698    0.4870407 -18.22   0.00242536    1.836    0.455
        29 -11.1577    133.6629    144.6658   8.1059724903e+01   2.5989531086e+01     1.216432    0.3028881 -53.66  0.002730164    5.786    0.827
        30  -8.9198    112.4291    150.4681   8.8108943648e+01   2.8694553885e+01    0.1539059    0.1509883 -63.59 0.0002622455    1.017    0.016
        31 -10.7966    174.4727    148.7967   7.2041046642e+01   1.6699969028e+01    0.3134928    0.2900028  75.31  0.001054139    1.274    0.215
        32  -9.9013     48.0767    145.4188   1.0585443778e+02   3.9729053185e+01     0.254715    0.2089952 -18.44  0.001394167    1.483    0.326
        33  -9.9021     89.8605    211.7921   1.0426732703e+02   1.7861334621e+01    0.2179686    0.1866944 -82.22 0.0005445477    1.200    0.167
        34  -9.2677    200.0340    143.0648   6.5310653853e+01   1.2710690837e+01    0.2192815    0.1776399 -69.64 0.0004713917    1.595    0.373
        35 -10.9223    100.9205    138.9971   8.8882205599e+01   3.3622338889e+01    0.5937762    0.3820669 -18.34  0.002267694    2.452    0.592
        36 -12.4958     88.0144    138.6751   9.2630160755e+01   3.5911781898e+01    0.3113645      0.27091 -42.95 0.0004352612    1.137    0.120
        37 -12.6561    163.8864    216.0603   8.7924704173e+01   4.9878664012e+00     0.556838    0.3478344  10.33  0.002546831    2.062    0.515
        38 -10.6072    105.9131    130.8569   8.5548204932e+01   3.4725260650e+01     0.539594    0.3290221 -59.33  0.002214166    1.763    0.433
        39 -10.2781    110.2818    129.8789   8.4037730496e+01   3.4139616864e+01    0.3947095    0.2804276   3.77 0.0009856554    2.000    0.500
        40 -11.2331    111.6583    204.4600   9.8076760083e+01   1.6078272660e+01    0.4070255    0.2800517  88.11  0.000824486    2.010    0.502
        41 -11.2692    135.0561    128.0020   7.6669502896e+01   2.9588222568e+01    0.4906518    0.3556903 -47.98  0.002201885    1.369    0.269
        42 -11.6368     46.7593    124.7121   1.0275198995e+02   4.5190467067e+01    0.3303705    0.2802887 -28.32  0.001466759    1.265    0.210
        43 -11.8343    193.8032    195.8967   7.7800885844e+01   3.6999359372e+00     1.107252    0.6580094 -66.79  0.003737639    4.695    0.787
        44  -9.9799    160.6087    127.8321   7.0205673405e+01   2.4127299515e+01    0.3209287    0.2499221 -73.94  0.001440207    1.669    0.401
        45 -11.3783     97.6337    125.7816   8.6809084294e+01   3.7485725946e+01    0.3141381    0.2644178  -7.35 0.0007547771    1.361    0.266
        46 -10.0429    116.9313    124.0257   8.0671534881e+01   3.4245750472e+01    0.2607686    0.1957689  -9.79  0.001122824    1.742    0.426
        47 -11.5458     25.0997    120.3396   1.0904257273e+02   4.8380928549e+01    0.6103548    0.1937214  43.78   0.00214071    4.031    0.752
        48  -9.4838    163.4228    121.2145   6.7874552121e+01   2.4925175877e+01    0.2230203    0.1463307 -52.71 0.0006111794    1.625    0.385
        49 -11.2471     44.4358    129.7711   1.0440042794e+02   4.4152270468e+01    0.2503054    0.2332736 -25.13  0.001491696    1.176    0.150
        50  -9.7293    107.0806    118.8385   8.2233407494e+01   3.7413258617e+01    0.2230689    0.2134344 -16.78 0.0003087879    1.040    0.038
        51  -9.4293     82.9641    117.2938   8.9347431410e+01   4.2094311319e+01    0.2022608    0.1970906  16.56 0.0003651373    1.075    0.070
        52 -10.8160     39.9162    113.2647   1.0286311210e+02   4.8813154083e+01    0.2489959    0.2127729 -77.66  0.000395685    1.190    0.159
        53 -12.9694    247.8421    106.0557   4.9041540968e+01   1.0213710034e+01    0.7979901    0.3757232 -31.62  0.003527842    2.135    0.532
        54 -10.2722    205.3259    110.3180   5.6602553299e+01   1.7898213569e+01    0.3362547     0.234343  32.95  0.001031044    1.757    0.431
        55 -11.0863     33.4914    109.6104   1.0437241775e+02   5.0346050715e+01    0.3275171    0.2313811 -87.41 0.0005936848    1.634    0.388
        56  -9.1973    114.6643    109.6637   7.7556190596e+01   3.8052830991e+01    0.1667089    0.1247952  -6.79 0.0007051873    1.746    0.427
        57  -9.8068    134.4138    104.7404   7.0672661516e+01   3.4925537042e+01    0.3183063     0.150876 -47.43  0.001143191    2.159    0.537
        58  -9.7329     44.9124    104.9828   9.9415647417e+01   5.0347364751e+01    0.2577323    0.1682461  55.95  0.001000682    2.041    0.510
        59 -10.9091     38.8924    101.8726   1.0089819589e+02   5.1739699877e+01    0.4185032    0.2270006  48.33  0.001845615    2.436    0.589
        60 -10.3841    119.5055    103.9556   7.4570081739e+01   3.8330528438e+01    0.2402188    0.1540246 -43.26 0.0005295402    1.538    0.350
        61 -11.8245    241.7237    101.8963   4.8974238229e+01   1.2039664432e+01    0.3076235    0.2075398 -61.71  0.001615926    1.641    0.391
        62 -10.3077    120.9460     98.4687   7.2594902017e+01   3.9220357431e+01    0.2496818    0.2106797 -39.04 0.0005988184    1.172    0.147
        63  -9.8415     32.9538     96.9298   1.0200783271e+02   5.3509134072e+01     0.208049    0.1855584 -57.64 0.0006363451    1.088    0.081
        64  -9.4987     12.4723     93.4450   1.0890880743e+02   5.5896506666e+01     0.129835    0.1067445 -56.46 1.039934e-05    1.022    0.021
        65 -10.5568     53.0097     91.4699   9.3221210528e+01   5.2654696083e+01    0.2918925    0.1704197 -41.37 0.0006739632    1.575    0.365
        66 -17.2871     17.7375    242.6446   1.2223422195e+02   2.0351630788e+01     6.462499     2.204235  27.53   0.01886304    3.689    0.729
        67 -10.5777     72.9973     83.5151   8.3585629643e+01   5.1611549083e+01    0.4042183    0.2606339  58.01  0.001727205    2.359    0.576
        68 -11.6617    242.3911     82.7029   4.4710715110e+01   1.5022965162e+01    0.3107622     0.166866  64.14  0.001530066    2.171    0.539
        69  -9.9741    159.7175     82.9798   5.8391221072e+01   3.3390471833e+01    0.2148327    0.2000642 -43.60 0.0004790584    1.072    0.067
        70  -8.8520    184.3665     77.3102   5.2005216339e+01   2.8523089661e+01    0.1499483    0.1147298  22.11 0.0007037812    1.758    0.431
        71  -8.8683     93.9956     68.2207   7.1354356103e+01   5.0941235396e+01    0.1910714    0.1172973  41.49 0.0007495136    1.607    0.378
        72  -9.2087     50.0902     63.3521   8.6056743398e+01   5.9181557248e+01    0.1832364    0.1184438  39.40 0.0006643946    1.798    0.444
        73 -10.6301     13.4797     59.9620   1.0112199151e+02   6.3450380720e+01    0.2451905    0.1827081 -47.66 0.0004143118    1.119    0.106
        74 -13.0454    186.1826    211.9125   8.2395964991e+01   2.0748678483e+00    0.8662345    0.4871165  28.75  0.004152408    1.700    0.412
        75 -13.4439    194.2882     47.5618   4.2725355837e+01   3.0758905211e+01    0.9299754    0.6441182  42.31  0.001095754    1.763    0.433
        76 -12.5984    177.0582    216.6681   8.5175223429e+01   2.7127611531e+00    0.4959805    0.3070689  17.39  0.002403873    1.754    0.430
        77  -9.2474     53.0622     44.6773   7.8013277710e+01   6.2259751200e+01    0.2072622    0.0992389  51.99 0.0007015157    4.624    0.784
        78  -8.8019     74.2706     56.2924   7.4008382632e+01   5.6815277446e+01    0.1396464    0.1011557  -2.59 0.0006923155    1.513    0.339
        79 -10.1848    197.9647     23.8563   3.6402055658e+01   3.2901362400e+01    0.2680956    0.1870715 -15.10  0.001058553    1.966    0.491
        80  -9.4994    189.6716     15.0371   3.5137622325e+01   3.5804479892e+01    0.1727085    0.1537712 -66.30 0.0005867375    1.124    0.110
        81  -9.6835    138.4757     44.4757   5.1360031521e+01   4.4735474931e+01    0.3903379    0.2040686 -70.53   0.00110757    5.458    0.817
        82 -11.3011    134.7211    213.4216   9.4053188112e+01   1.0368115012e+01    0.3180527    0.2313176  16.88  0.001580707    1.516    0.340
