#   1 NUMBER                 Running object number                                     
#   2 MAG_AUTO               Kron-like elliptical aperture magnitude                    [mag]
#   3 X_IMAGE                Object position along x                                    [pixel]
#   4 Y_IMAGE                Object position along y                                    [pixel]
#   5 X_WORLD                Barycenter position along world x axis                     [deg]
#   6 Y_WORLD                Barycenter position along world y axis                     [deg]
#   7 A_WORLD                Profile RMS along major axis (world units)                 [deg]
#   8 B_WORLD                Profile RMS along minor axis (world units)                 [deg]
#   9 THETA_WORLD            Position angle (CCW/world-x)                               [deg]
#  10 FWHM_WORLD             FWHM assuming a gaussian core                              [deg]
#  11 ELONGATION             A_IMAGE/B_IMAGE                                           
#  12 ELLIPTICITY            1 - B_IMAGE/A_IMAGE                                       
         1 -14.6091    146.4522     29.9890   3.6932966453e+01   4.4146417881e+01     1.437138     0.940048  75.68  0.006668372    1.520    0.342
         2 -13.9571    121.9249     36.9610   4.4042911755e+01   4.9826174257e+01     1.051573    0.5579479  42.63  0.003103035    2.240    0.554
         3 -13.3895    131.9723     32.7170   4.0378642238e+01   4.7716929361e+01    0.7673267    0.5794994 -52.52  0.002953897    1.308    0.236
         4 -13.8640      3.0809     10.3076   8.9971686789e+01   7.8520342723e+01    0.8639018    0.5938958 -63.42  0.005150476    1.350    0.260
         5 -13.3494      8.0425      2.6933   7.9727780583e+01   7.9699851800e+01     0.696142    0.3779519  43.18  0.003126723    2.286    0.563
         6 -16.1549     13.3404     20.7483   8.5445497659e+01   7.5382273837e+01     2.070278     1.127456 -39.28   0.00923482    1.819    0.450
         7 -14.8804     24.5166     13.3962   7.1913872548e+01   7.5600658835e+01     1.157953    0.6060745  48.18  0.005340425    2.394    0.582
         8 -14.2599    166.3608     29.1372   3.3921146328e+01   3.8938457192e+01     1.042412    0.8400338 -85.98  0.003745549    1.210    0.174
         9 -13.5897    188.3665     25.4098   3.0398708181e+01   3.3756694440e+01      1.20322    0.4038096 -49.29  0.004338578    2.849    0.649
        10 -12.5257    187.9445      9.4841   2.5704049326e+01   3.5537568510e+01    0.4001243    0.2639657 -46.27  0.002077161    1.311    0.237
        11 -13.0433    120.4395     26.2145   3.9984229634e+01   5.1729510210e+01    0.8232369    0.5986876  38.18  0.003897389    1.579    0.367
        12 -13.0762     86.4614     15.0072   4.2645517361e+01   6.2242818923e+01    0.7456471    0.4350837 -58.78  0.003129494    2.170    0.539
        13 -15.1253     98.7865     11.4411   3.7761038115e+01   5.9397214029e+01      1.66698      0.91228  72.61   0.00594112    1.807    0.447
        14 -11.8681     46.4715     12.9954   5.7073928537e+01   7.1865004050e+01    0.2981823    0.2652254 -53.53  0.001762076    1.246    0.197
        15 -12.8957    214.7990     10.0219   2.4131423867e+01   2.9094499639e+01    0.3568262     0.267938 -48.69  0.001062355    1.091    0.084
        16 -13.8891     41.8042      4.2524   5.3254533499e+01   7.4092832963e+01    0.6873035    0.5904457  22.15  0.003550978    1.142    0.124
        17 -12.4358    224.2338      5.0385   2.2354690872e+01   2.7475552566e+01    0.2465861     0.216314   1.57 0.0007862003    1.434    0.303
        18 -11.6897    153.0606      8.7439   2.8455826962e+01   4.4731677662e+01    0.2370566    0.2080448 -34.40 0.0006946335    1.175    0.149
        19 -10.7311     59.4915      7.4898   4.7162078638e+01   6.9811041547e+01    0.1377911    0.1293511  29.50 0.0008104057    1.026    0.026
        20 -11.0943    117.0436      1.4995   2.9833124882e+01   5.5341950769e+01    0.2299416    0.1341978  75.83   0.00103414    1.593    0.372
        21 -12.4121     69.8633     16.0721   4.8558335739e+01   6.6241320732e+01    0.4209358    0.3248054 -74.08  0.002045326    1.608    0.378
        22 -11.4529     61.2563      1.4795   4.2357803640e+01   7.0084979818e+01     0.361697     0.129322  62.81  0.001302234    2.688    0.628
        23 -15.5326     10.1168    175.3995   1.0880586636e+02   3.7413666122e+01     1.682565     1.133617  76.57   0.01063897    1.286    0.223
        24 -12.1843     51.0572    248.7405   1.0295241986e+02   1.9495130941e+01    0.2900282    0.2432469  61.07  0.002396178    1.261    0.207
        25 -13.5484      9.3221    245.6008   1.1095831674e+02   2.4166440333e+01    0.6848882    0.2516361  52.03  0.003553266    1.765    0.433
        26 -12.7444    248.1543    197.1939   6.1000627771e+01   1.0591908093e+00    0.3885849     0.223066 -32.08  0.002671165    1.830    0.454
        27 -12.8630     36.6238    194.9430   1.0317277754e+02   3.0682760535e+01    0.2901669    0.1916001  86.08  0.001797448    1.520    0.342
        28 -11.5977     49.1114    182.3290   9.9210142605e+01   3.1864504480e+01    0.2089026    0.1698756 -71.55  0.001333663    1.406    0.289
        29 -11.9141    124.0264    167.3904   7.8724268006e+01   2.3860662848e+01    0.4481307    0.2670058 -75.33    0.0019193    2.943    0.660
        30 -12.0406     25.4160    159.0223   1.0383012831e+02   3.9668059330e+01    0.2974456    0.2164816  12.91  0.001711445    1.725    0.420
        31 -11.7202     76.7069    156.8893   8.9160079356e+01   3.3715212176e+01     0.324517    0.2091344  36.39  0.001139007    1.426    0.299
        32 -12.8355     72.7527    153.5511   8.9802388135e+01   3.5057917424e+01    0.6133015    0.3790323  30.93   0.00296216    1.619    0.382
        33 -12.6573    246.2501    149.8605   5.3091004114e+01   6.3984357839e+00    0.3556089    0.2484371 -38.54  0.002363844    1.603    0.376
        34 -11.1079    103.1697    150.0272   8.0976770270e+01   3.0941765423e+01    0.2229282    0.1600864 -26.63 0.0008427238    1.981    0.495
        35 -12.2666      7.3821    145.9387   1.0832705396e+02   4.4359363718e+01    0.5611067    0.3190219 -64.70  0.003007259    1.878    0.468
        36 -11.8466     59.7197    147.7335   9.2782272519e+01   3.8269247083e+01    0.3358195    0.2330575  14.21  0.001665971    1.899    0.473
        37 -11.9973    246.5405    137.4953   5.0692593353e+01   7.7971772060e+00    0.2166935    0.1103623  45.32  0.001223018    2.207    0.547
        38 -12.1179     44.9569    133.4453   9.5537642099e+01   4.3661651846e+01    0.2854864    0.1802122  80.43   0.00108643    1.619    0.382
        39 -11.6257    134.8805    125.8632   6.8133596066e+01   2.9991022028e+01    0.2225786    0.2024068  12.93 0.0007755132    1.198    0.165
        40 -14.6408    106.2094    106.0267   7.0960566054e+01   4.0120778864e+01     2.171288     1.190416 -38.99  0.008604372    2.188    0.543
        41 -13.3720     95.6870    110.4680   7.5157719274e+01   4.1214197229e+01     0.871656    0.7471966 -80.80  0.004539665    1.202    0.168
        42 -13.7308    111.2634    116.6784   7.2105275688e+01   3.6721141808e+01    0.6369815    0.4466404  28.46    0.0027426    1.681    0.405
        43 -12.9909     28.8445    121.9797   9.9602300178e+01   4.8365866969e+01    0.3684065    0.3247365 -80.82  0.002229487    1.142    0.124
        44 -12.0671      4.1017    119.7215   1.0804665015e+02   5.1023460231e+01    0.5106118    0.1711939  15.54  0.001992054    3.519    0.716
        45 -12.2593     78.2652    110.3384   8.0640662169e+01   4.4464561061e+01     0.476934    0.3077729  83.73  0.002003509    2.083    0.520
        46 -11.6209     86.7213    114.9704   7.8935178248e+01   4.1838988761e+01    0.2983729    0.2401639   5.14 0.0009255475    1.717    0.417
        47 -12.4848     81.8681    115.1410   8.0502358036e+01   4.2666934274e+01    0.3948488    0.3020453  60.27  0.001969667    1.293    0.226
        48 -11.7341     35.0830     86.7162   9.2054323581e+01   5.6853265065e+01    0.2841012    0.2474004 -10.69  0.000876519    1.407    0.289
        49 -12.4675     36.6601     93.1738   9.2587770290e+01   5.4985884274e+01    0.5154973     0.286097  19.45  0.001573959    2.182    0.542
        50 -13.4984      2.2641     97.4602   1.0734204907e+02   5.6811274281e+01    0.8823128    0.3460116  87.70  0.003679259    2.369    0.578
        51 -14.3495     18.1781    111.0942   1.0231853580e+02   5.2157125147e+01    0.8872086    0.8444397 -25.22  0.004234178    1.291    0.225
        52 -14.4145     12.4285    104.0429   1.0384018692e+02   5.4440021275e+01    0.8667272    0.6164404  24.47  0.004859119    1.533    0.348
        53 -14.7478     22.6651     95.0679   9.8699812311e+01   5.5936472898e+01     1.480519     1.080753  27.98  0.008094044    1.468    0.319
        54 -11.0808    121.8366    112.8050   6.8343549303e+01   3.5380219751e+01    0.2187145    0.2092753   6.87 0.0005530403    1.156    0.135
        55 -11.7994     62.5736    110.6924   8.6038960346e+01   4.6955627994e+01    0.3082271      0.21895  57.70  0.001507907    1.389    0.280
        56 -13.2625     29.5442     89.5339   9.4951456074e+01   5.6719921103e+01      1.00256     0.435912  64.26  0.003562744    3.195    0.687
        57 -12.4118    136.1575    103.0909   6.2291203465e+01   3.4272363070e+01    0.5641748     0.276616  51.40  0.001518023    2.049    0.512
        58 -12.3071    121.3120    101.3981   6.5582266553e+01   3.7906396251e+01    0.3018826    0.2487818 -21.91  0.001323947    1.475    0.322
        59 -12.5469     42.4740     91.0190   8.9774981469e+01   5.4839181223e+01    0.4415734    0.2795072  87.56 0.0004606638    1.766    0.434
        60 -12.2023     49.2299     93.8940   8.7625923086e+01   5.3196890752e+01    0.5634139    0.3368612  71.01  0.002051663    2.069    0.517
        61 -11.8855     47.2692     99.8995   8.9588868469e+01   5.1913136050e+01     0.514047    0.2997817  66.49  0.002214716    2.003    0.501
        62 -11.9455     52.4756     98.0143   8.7209604024e+01   5.1680571287e+01    0.4187347    0.2593381 -19.03  0.001596907    3.083    0.676
        63 -11.8881    163.9075     98.2647   5.4986278355e+01   2.8947652906e+01    0.2769423    0.2212719 -56.34 0.0005342144    1.335    0.251
        64 -11.9881     60.9358     97.7157   8.3938183294e+01   5.0489642813e+01    0.4358546    0.2811681  69.73  0.001919184    1.845    0.458
        65 -12.7867    135.7917     95.1462   6.0242387478e+01   3.5926804781e+01     0.397812    0.3149996  46.82   0.00196734    1.266    0.210
        66 -13.3184    108.7512    123.9986   7.4441111336e+01   3.5602397823e+01    0.6759327    0.5266144  37.53  0.003367341    1.284    0.221
        67 -12.2087    187.6987     84.7778   4.7242300704e+01   2.5842735600e+01    0.3445577    0.1694836  42.08  0.001410464    2.427    0.588
        68 -13.6243    163.9256     71.8244   4.7641382169e+01   3.3427715678e+01     1.210296    0.8615998 -67.87  0.005670283    1.652    0.394
        69 -13.5205    161.4373     80.5592   5.0628345405e+01   3.2574639109e+01     1.763568    0.8678114  27.96  0.004629866    5.886    0.830
        70 -14.0257    169.5514     76.9956   4.8136671482e+01   3.1236405040e+01     1.058064     0.385638  54.01  0.003788807    2.739    0.635
        71 -13.4269     91.5353     58.1972   6.0766083593e+01   5.3778078213e+01    0.5459831    0.4851959 -45.11  0.002830787    1.141    0.124
        72 -13.6464     87.0890     65.4199   6.4931534316e+01   5.3267588819e+01     1.098982    0.7278851  14.05  0.004079377    2.880    0.653
        73 -13.7083     53.9979     68.2430   7.9057714567e+01   5.8965446846e+01    0.9000769    0.8597933  13.84  0.005114411    1.168    0.144
        74 -13.0096     54.5986     82.2952   8.2753108735e+01   5.5376030599e+01    0.6150155    0.4282129 -69.96  0.002967054    1.424    0.298
        75 -14.1491     61.1220     75.7322   7.8251410990e+01   5.5956476659e+01    0.7225015    0.5595848 -38.58  0.001207162    1.454    0.312
        76 -13.1992     71.3493     75.0252   7.3945278519e+01   5.4298388678e+01    0.7137438    0.4520955  17.78  0.002243114    2.571    0.611
        77 -12.1752     77.1468     73.3139   7.1199222039e+01   5.3579433234e+01    0.4713532    0.2876698 -34.07  0.001292398    2.136    0.532
        78 -11.9853     47.4042     81.7218   8.5646341283e+01   5.6577872634e+01    0.3780732    0.2634647 -76.27  0.001485539    1.443    0.307
        79 -12.6674    135.7676     79.9589   5.5854795173e+01   3.8867624933e+01    0.6875778     0.344953  52.42  0.002350697    1.979    0.495
        80 -12.0798    113.7764     80.2209   6.1549060829e+01   4.4057811400e+01    0.3857911    0.3339172 -58.98 0.0007710222    1.156    0.135
        81 -11.7373     42.0122     77.2661   8.6939399545e+01   5.8449766194e+01    0.5201598    0.2070789 -72.14  0.001796911    2.951    0.661
        82 -14.9308      6.4713     71.2868   1.0295427670e+02   6.3364925119e+01     1.041754    0.7880616 -69.16  0.004371015    1.185    0.156
        83 -14.2560      4.9007     63.5041   1.0274616285e+02   6.5465936139e+01    0.7228561    0.6482896   1.22  0.003921895    1.292    0.226
        84 -11.6671     26.8027     75.4921   9.3623058075e+01   6.0668329178e+01    0.4847628    0.2347404  71.07  0.001811665    2.960    0.662
        85 -12.9016    199.0017     70.0511   4.1722371593e+01   2.5497231426e+01    0.5606101    0.3400483  43.32  0.002688835    1.940    0.484
        86 -12.5248     40.4015     68.2157   8.5359811856e+01   6.0963592194e+01    0.7987701    0.2081992  33.21  0.002568672    3.646    0.726
        87 -12.7190    134.2073     66.5817   5.1997861025e+01   4.1719209396e+01    0.5756241    0.3463624  52.79  0.001964964    1.656    0.396
        88 -12.2785     31.4124     62.9975   8.8445213332e+01   6.3389341109e+01     0.603734    0.2882917 -78.59  0.002345337    2.553    0.608
        89 -12.9978     78.9509     60.6828   6.6152779468e+01   5.6045697523e+01    0.6890634    0.4853838 -56.44  0.003203141    1.455    0.313
        90 -12.9111     82.2505     54.5962   6.2603255127e+01   5.6616752862e+01    0.5611271    0.5078476  40.67  0.002783675    1.155    0.135
        91 -11.2262    200.2366     61.5579   3.9303855498e+01   2.6394256794e+01    0.1863292    0.1257534  50.11 0.0009466098    1.659    0.397
        92 -13.3999    177.8334     57.8921   4.1288960794e+01   3.2171955838e+01    0.7817456    0.4945474 -47.66  0.002811037    1.509    0.337
        93 -12.8156     60.6941     60.7047   7.3588172383e+01   5.9624045512e+01    0.4445347    0.2890925 -19.26  0.001554977    2.659    0.624
        94 -13.3001     66.2545     49.5353   6.6868499014e+01   6.1056889844e+01    0.8214844    0.6516248 -60.34  0.004174899    1.304    0.233
        95 -11.9507     24.6740     59.2648   9.1070828454e+01   6.5055542198e+01    0.5039169     0.264158 -62.97  0.001792981    1.694    0.410
        96 -11.0798     38.7792     59.9707   8.3780834930e+01   6.3238165163e+01    0.2418842    0.1594109  82.51  0.001085575    2.002    0.501
        97 -11.3416    111.5976     59.2431   5.5093780961e+01   4.8746032233e+01    0.2643791    0.2144067  48.48 0.0007702979    1.259    0.205
        98 -14.5484    120.4728     54.8536   5.1191939979e+01   4.7300312230e+01    0.8470473      0.63564  45.69  0.002080807    1.406    0.289
        99 -11.5489     17.8429     55.5417   9.4002066492e+01   6.6627582491e+01    0.3266939    0.1787675 -72.13  0.001547913    1.682    0.405
       100 -12.5760     99.9812     44.0184   5.2461503215e+01   5.4417092669e+01    0.6141269    0.4001154  44.47  0.002144155    1.621    0.383
       101 -13.1345     97.7963     50.5855   5.5795905040e+01   5.3772995193e+01    0.5080246    0.3762132 -63.28  0.001589751    1.509    0.337
       102 -11.8545     36.5173     53.1520   8.2789510382e+01   6.5207202155e+01    0.4840967    0.2678997 -21.20  0.001747324    3.493    0.714
       103 -11.6987    136.2905     49.6242   4.5768835521e+01   4.4053839531e+01    0.2792172    0.2691184  35.10 0.0006488857    1.149    0.130
       104 -10.7935     23.5556     50.2360   8.9243012180e+01   6.7431963223e+01    0.1880504    0.1131552 -53.63 0.0003405664    1.514    0.340
       105 -12.8398    158.6088     43.7495   3.9791048753e+01   3.9058678695e+01    0.6112629    0.3065493  51.39   0.00247208    2.118    0.528
       106 -13.2214      4.0165     43.6099   9.9947164947e+01   7.0571448248e+01    0.5281737    0.3925987 -32.12  0.002686586    1.417    0.294
       107 -12.4718     11.7596     43.6822   9.4811755384e+01   7.0078218410e+01    0.4426473    0.2731698 -27.30  0.001974053    1.876    0.467
       108 -13.2222    204.7506     40.0906   3.2990720403e+01   2.8120580605e+01    0.9096201    0.3854019 -81.62  0.002945138    4.559    0.781
       109 -13.4456    219.6879     41.7506   3.2041780801e+01   2.4593243328e+01    0.5358793    0.3618186 -84.07  0.002259535    1.677    0.404
       110 -12.2867    109.4571     42.0506   4.9043920471e+01   5.2327434301e+01    0.4988077    0.2165466  58.82  0.001276702    2.242    0.554
       111 -12.1152    109.4579    249.4426   9.1661378175e+01   1.2543934951e+01    0.2022286    0.1097193  39.17  0.001308808    1.328    0.247
       112 -12.7844    139.2360     21.7096   3.4960659016e+01   4.7130392165e+01     0.847698    0.2964006  66.58  0.002152078    2.617    0.618
       113 -12.4803     28.3645    245.3770   1.0725702973e+02   2.2392179660e+01    0.3808559    0.1763194  37.52  0.002432551    1.477    0.323
       114 -12.9768    113.7802     37.9703   4.6300670669e+01   5.1844210711e+01     0.419156    0.3242501  82.35  0.001964044    1.358    0.263
       115 -12.7718      2.9233    248.9132   1.1223625709e+02   2.4201912557e+01     0.421337    0.2513649  65.54  0.002908657    1.381    0.276
       116 -12.2964     75.8440     37.2942   5.7516223847e+01   6.1421949002e+01    0.4021912    0.2541388  46.55 0.0008944373    1.588    0.370
       117 -11.7490     70.5858     36.2720   5.9093279697e+01   6.2788094679e+01    0.3559321    0.2459396  60.73  0.001087074    1.568    0.362
       118 -11.5920    246.4099    235.1998   6.6840210958e+01  -2.2686592994e+00    0.1178992   0.07860165 -24.93 0.0009551984    1.676    0.403
       119 -14.0401     91.7062    231.7408   9.3648841796e+01   1.7367996307e+01    0.4120491    0.2632813  58.91  0.002659383    1.608    0.378
       120 -12.9373     24.5886    217.3941   1.0701348915e+02   2.7600567853e+01    0.6289364    0.2033896  44.15  0.003255345    1.985    0.496
       121 -13.0260     14.0977    222.5405   1.0943152140e+02   2.7675153704e+01    0.4106295    0.2477765  66.64  0.001946095    1.383    0.277
       122 -12.2500    242.4830     36.2383   2.8901347457e+01   2.0520071117e+01    0.4311207    0.1798587  74.67  0.002051482    2.864    0.651
       123 -13.7588    102.9793     50.5506   5.4235299925e+01   5.2501972501e+01    0.6887051    0.5035665 -59.26  0.001360268    1.481    0.325
       124 -13.0713     44.8193     33.5113   7.0051791773e+01   6.8406922017e+01    0.8358235    0.4566141  43.45  0.003786623    1.903    0.474
       125 -13.7734     26.1895    226.5573   1.0702245536e+02   2.5788809296e+01    0.6186366    0.3731301 -58.09   0.00398052    2.341    0.573
       126 -13.7088     20.7152    224.0349   1.0808353665e+02   2.6776680151e+01    0.4506284    0.3903924  56.22  0.002663733    1.252    0.201
       127 -13.4507     64.6529    223.6478   9.8688157410e+01   2.2056251427e+01    0.6667556    0.4370149  34.98  0.004358825    1.245    0.197
       128 -13.8643     64.0466    214.5875   9.8167459600e+01   2.3726880206e+01    0.4685079    0.3107645  54.62  0.003011749    1.261    0.207
       129 -13.2128     55.5339     27.1995   6.1105145924e+01   6.7633481454e+01     0.698533    0.3532645  51.72  0.002721176    2.092    0.522
       130 -12.0493     63.4180     25.0978   5.6314589006e+01   6.6336655436e+01    0.4728834    0.2678507  33.59  0.001975933    2.210    0.547
       131 -11.8205     30.7187     25.6959   7.4711718299e+01   7.2247160667e+01    0.3147249    0.2148544  13.43  0.001595654    1.809    0.447
       132 -11.2829     36.2059     23.6052   6.9918993135e+01   7.1839910060e+01    0.3055987    0.1908703 -50.82  0.001520173    1.593    0.372
       133 -11.2342     51.5019     20.5584   5.9283783467e+01   6.9615457745e+01    0.2431976    0.2015059  36.80  0.000779558    1.215    0.177
       134 -12.0470     46.9808     20.2728   6.1506389196e+01   7.0555553753e+01    0.4325546    0.2868179  32.76  0.002149671    1.646    0.392
       135 -10.8564    223.3605     21.3103   2.6530458395e+01   2.6059763148e+01    0.1226884   0.09497965  30.87  0.000704138    1.743    0.426
       136 -12.3957    237.4448    214.6761   6.5210019824e+01   5.9264135315e-01     0.195981    0.1410383 -40.79  0.001423721    2.229    0.551
       137 -12.3061      4.1121    211.9978   1.1129798153e+02   3.0517368948e+01    0.3973441    0.1599589  79.00  0.002174847    2.325    0.570
       138 -11.6820     59.2587     15.7648   5.2637982985e+01   6.8732353015e+01    0.2827154    0.2413314  52.54  0.001589776    1.164    0.141
       139 -11.9401     72.2915    206.9661   9.5708830471e+01   2.4082690748e+01    0.2959542    0.2275699  65.93   0.00179378    1.261    0.207
       140 -11.5519     41.1457    206.2032   1.0277467812e+02   2.7965813849e+01    0.1813764    0.1042008  52.70  0.001080792    1.357    0.263
       141 -12.1945    249.1015    216.3682   6.3793616203e+01  -8.8161029596e-01     0.181678    0.1266103 -17.82  0.001328031    1.373    0.272
       142 -13.1782     16.2583    196.7265   1.0810229907e+02   3.2390500955e+01    0.4491259    0.2894437 -69.23  0.002533117    1.827    0.453
       143 -13.0288     22.1636    166.5698   1.0519980696e+02   3.8262427032e+01    0.4331096    0.2411425  40.03  0.002381638    1.488    0.328
       144 -13.6031     29.6808    169.5802   1.0335282192e+02   3.6828795417e+01    0.7935097    0.5315359 -35.13  0.003963651    2.340    0.573
       145 -10.6841    123.4620     11.4847   3.3248457839e+01   5.2619629291e+01    0.1477608    0.1366829 -85.36 0.0001676219    1.003    0.003
       146 -13.5146     22.2312    181.0945   1.0596239020e+02   3.5061649985e+01    0.6682503    0.3954128 -66.88  0.003846395    1.909    0.476
       147 -15.3194      7.7023    183.8610   1.0971039441e+02   3.5812395928e+01     1.176638     1.110915 -64.47  0.008747368    1.434    0.303
