#   1 NUMBER                 Running object number                                     
#   2 MAG_AUTO               Kron-like elliptical aperture magnitude                    [mag]
#   3 X_IMAGE                Object position along x                                    [pixel]
#   4 Y_IMAGE                Object position along y                                    [pixel]
#   5 X_WORLD                Barycenter position along world x axis                     [deg]
#   6 Y_WORLD                Barycenter position along world y axis                     [deg]
#   7 A_WORLD                Profile RMS along major axis (world units)                 [deg]
#   8 B_WORLD                Profile RMS along minor axis (world units)                 [deg]
#   9 THETA_WORLD            Position angle (CCW/world-x)                               [deg]
#  10 FWHM_WORLD             FWHM assuming a gaussian core                              [deg]
#  11 ELONGATION             A_IMAGE/B_IMAGE                                           
#  12 ELLIPTICITY            1 - B_IMAGE/A_IMAGE                                       
         1  -9.2723    197.1755     18.7972   3.3741219847e+01   3.3809979803e+01    0.4156585    0.1746624 -61.74  0.001780348    2.812    0.644
         2 -12.0300    219.9542      8.1019   2.9452294463e+01   3.0057772506e+01     1.397397    0.7581317 -88.78  0.008066294    1.696    0.410
         3  -9.7893    230.3782      2.7494   2.7661798709e+01   2.8489905675e+01     0.415951    0.2228356  83.72   0.00252526    1.659    0.397
         4 -10.1238     78.0864     13.0191   5.2721514721e+01   6.1560285756e+01    0.6482735    0.2175338  53.82  0.002707532    2.578    0.612
         5  -9.2379     64.7325     13.6372   5.7266950840e+01   6.4107612182e+01    0.2881225    0.1545127  29.94 0.0008499946    1.799    0.444
         6  -7.6798    155.9846     11.9845   3.6752396386e+01   4.4003438622e+01    0.1490193     0.129813  81.36 0.0009641616    1.024    0.023
         7  -8.3594     96.9391     11.8107   4.7223193071e+01   5.7682923723e+01    0.2053573    0.1438447  36.04  0.000824748    1.321    0.243
         8  -9.5433     31.7956     11.0086   6.9645849545e+01   6.9815872361e+01    0.2799672    0.1526669  26.88 0.0002933545    1.627    0.385
         9 -10.1171     20.9422      8.4557   7.3931023488e+01   7.1541377553e+01    0.4930342    0.2552042  25.69 0.0004788568    1.734    0.423
        10 -10.2194     13.7954      4.2940   7.5754538052e+01   7.2892635217e+01    0.3731647    0.2041626 -17.42 0.0002120026    1.697    0.411
        11  -9.8446      8.7366      5.0323   7.9132551994e+01   7.3330950654e+01    0.6646757     0.266575  13.14  0.002984728    3.359    0.702
        12  -9.0010    125.4681      9.9688   4.0770056856e+01   5.1362127861e+01    0.2478658    0.1634726  63.45  0.000319963    1.286    0.223
        13  -7.2085    164.5675      9.4473   3.4996362383e+01   4.2233619781e+01    0.1245814    0.1054352  68.77 1.623942e-05    1.122    0.109
        14  -7.9488    156.2286      7.0099   3.5361408298e+01   4.4407349734e+01     0.144473    0.1047319 -29.14  0.000864508    1.602    0.376
        15  -8.0480    134.7639      7.5896   3.8506587802e+01   4.9394938858e+01    0.1824823    0.1087508  78.69 0.0009518124    1.630    0.387
        16  -9.0286     41.4971      5.6468   6.2488334200e+01   6.8961756881e+01    0.2948885    0.1971462  11.29  0.001446125    1.341    0.254
        17  -9.9618     84.9988      5.1948   4.7608420667e+01   6.0819724299e+01    0.2411727    0.2081252  30.91 0.0004024037    1.085    0.078
        18  -9.0682     77.0688      5.7406   4.9975397855e+01   6.2421653335e+01    0.2769716    0.2280722 -51.13   0.00178584    1.655    0.396
        19  -8.9692     32.1137      5.9137   6.6908489275e+01   7.0359054248e+01    0.1926387    0.1359029   2.00 0.0003059679    1.200    0.167
        20  -9.1701     57.6608      3.2960   5.5022082813e+01   6.6400796584e+01    0.2478563    0.1544747  34.93 0.0003234878    1.312    0.238
        21  -8.6061    154.1815      3.0170   3.4526907605e+01   4.5235342017e+01    0.2373679    0.1237498  58.82 0.0007923578    1.664    0.399
        22  -8.0442    125.2789      3.2232   3.8645539134e+01   5.1967592076e+01      0.16323    0.1337454 -82.12 0.0006286934    1.302    0.232
        23 -11.7713    240.1519      3.2847   2.7145275397e+01   2.6506828292e+01    0.7714775    0.6628318 -75.00   0.00415661    1.226    0.184
        24  -8.6906    105.6684      2.0255   4.1744934727e+01   5.6546876774e+01    0.2210429     0.152949  72.11  0.001125587    1.389    0.280
        25  -8.4897     35.4978    113.5093   1.0142101560e+02   4.9173857755e+01    0.1411844    0.1222781 -52.45 -0.0001305553    1.011    0.011
        26  -8.5644    229.9656    250.5051   7.7548052370e+01  -1.0122897471e+01    0.1699701   0.09759475  24.09 0.0005175343    1.547    0.354
        27 -10.8410     46.1854    249.1264   1.1490971929e+02   1.5324140905e+01    0.4573926    0.2122753  35.40  0.002398336    1.936    0.483
        28 -11.2825     26.9645    243.7677   1.1833005763e+02   1.8589617714e+01    0.4979924     0.264951  76.56   0.00280286    1.803    0.445
        29 -11.1298     35.9243    240.9804   1.1636990579e+02   1.8167731063e+01    0.3895734    0.2791204 -46.04  0.002396413    1.946    0.486
        30  -8.3629     51.2076    112.3962   9.5747328541e+01   4.7730556184e+01    0.2025892    0.1293421  40.28 0.0009555682    1.747    0.428
        31  -9.3346      9.3298    109.4688   1.0975936551e+02   5.2257719619e+01    0.2525786    0.1980755 -64.94 0.0007247507    1.064    0.060
        32  -9.6412    114.8161    106.5347   7.3678243390e+01   3.8534901471e+01    0.4552929    0.2682641  61.48  0.001419995    2.484    0.597
        33  -8.3108     87.0933    105.6468   8.1937251636e+01   4.4033316788e+01    0.2316692    0.1819038  53.17 0.0006339237    1.461    0.316
        34  -8.7943     72.5554    105.0485   8.6623025586e+01   4.6575295806e+01    0.2701519    0.2043303  50.97 0.0005923078    1.547    0.354
        35  -8.2089     13.8376    105.4365   1.0754556797e+02   5.2960078967e+01    0.1730359    0.1164772 -17.22 0.0008897557    1.712    0.416
        36  -8.4481    183.7942    102.3898   5.6182647049e+01   2.4225216705e+01    0.2021728     0.138737  41.79 0.0008166679    1.625    0.385
        37  -7.9805     95.4627    102.5147   7.8403871467e+01   4.3241237049e+01    0.3389496    0.1414052  23.96 0.0008104478    5.859    0.829
        38  -7.7734     64.4665    101.4777   8.8505271004e+01   4.8633544534e+01     0.148099     0.134137 -33.30 0.0008092523    1.017    0.016
        39  -9.2782    140.5463     99.0766   6.4726049596e+01   3.4584556025e+01    0.3860973    0.2418119  31.53  0.001451924    1.945    0.486
        40 -10.1058     12.9837     94.7097   1.0595967764e+02   5.5615821603e+01     0.438764    0.3143806 -61.35   0.00256976    1.179    0.152
        41  -8.2198    132.1938     96.3142   6.6070755392e+01   3.7009595455e+01    0.5072105    0.1239724  41.08  0.001223364    5.186    0.807
        42  -9.2261     55.3270     93.3106   8.9672005208e+01   5.1811924891e+01    0.4325041    0.3485771  19.09  0.001718452    1.311    0.237
        43  -8.7702      1.4463     92.4639   1.0987502358e+02   5.6803293944e+01    0.2503932    0.1051121 -68.93 0.0005957678    1.996    0.499
        44  -8.9379     43.6878     91.9013   9.3671357725e+01   5.3567047953e+01    0.2426976    0.1881627  -8.20  0.001322507    1.378    0.274
        45  -8.6166     29.9825     90.9711   9.8701064735e+01   5.5184782556e+01    0.2338965    0.1444666  89.61  0.001015129    2.652    0.623
        46  -8.2121     97.7958     89.2162   7.3843568608e+01   4.5713197304e+01    0.3258145    0.2127471  -2.51  0.001041378    2.486    0.598
        47  -9.6765    151.5669     86.4483   5.8630554729e+01   3.4546627597e+01    0.4784658    0.3531651  -0.08  0.002128124    1.978    0.494
        48  -8.4814     73.0601     85.5444   8.1031390843e+01   5.0942950959e+01    0.4231399    0.2374084  59.91  0.001482928    3.563    0.719
        49  -8.6512     65.9789     83.7941   8.3069431155e+01   5.2439790275e+01    0.2230721    0.1798899 -16.01 0.0004939108    1.248    0.199
        50 -10.5298     38.3213     80.7105   9.2857059211e+01   5.6720377073e+01    0.7128779    0.3721192  -1.53  0.002095755    2.892    0.654
        51  -8.8214     20.9491     84.0787   1.0067951736e+02   5.7553752457e+01    0.2012158     0.159978 -42.23 0.0003443451    1.051    0.049
        52  -7.8394    126.9599     82.8723   6.3543592694e+01   4.0840186230e+01    0.2593203    0.1734054  21.37  0.001079779    2.054    0.513
        53  -8.5012     96.0307     78.5593   7.1132044272e+01   4.8237099257e+01    0.4531752    0.2190702  56.09  0.001578837    3.071    0.674
        54  -8.8123     88.4104     78.3960   7.3548273594e+01   4.9738673705e+01    0.5646242     0.244836  27.09  0.001775508    3.709    0.730
        55  -7.5700     64.2914     79.3159   8.2346727085e+01   5.3658956743e+01     0.147358    0.1031324 -17.33 0.0001990505    1.596    0.374
        56  -9.1620    184.1414     77.7708   4.9927920952e+01   2.8566911290e+01    0.3028658    0.2262753  62.78  0.001106578    1.366    0.268
        57  -9.7891     51.8332     76.5204   8.6278069696e+01   5.6023090762e+01    0.8071101    0.2922369  26.51  0.002950111    3.163    0.684
        58  -9.8780    167.8937     74.2271   5.1922417443e+01   3.2917582251e+01     0.379616     0.324056  31.04  0.001590443    1.365    0.267
        59 -10.5562    163.7195     70.9633   5.1832365397e+01   3.4442362754e+01    0.4583744    0.3876724  59.42  0.002162909    1.167    0.143
        60  -8.2587     75.1514     74.2221   7.6775824094e+01   5.2957754023e+01    0.2436792    0.1722059  29.46 0.0007418927    1.423    0.297
        61  -9.5479     23.9211     73.3073   9.6827002974e+01   5.9744881188e+01    0.4850149    0.2102708 -43.03   0.00222094    1.941    0.485
        62  -9.6027      8.4355     76.9177   1.0418885559e+02   6.0040531615e+01    0.3913765    0.1554903 -39.96  0.001595047    2.181    0.542
        63  -9.6978     34.2224     67.7344   9.0874534025e+01   5.9971863377e+01    0.3540838    0.1986142  46.29  0.001631602    2.604    0.616
        64  -8.5732    108.0929     66.6096   6.3647417303e+01   4.7970687515e+01    0.4878065    0.1642439  45.81  0.001657842    2.847    0.649
        65  -8.1834    110.0190     75.6747   6.5991905107e+01   4.5913700177e+01    0.2435278     0.123172  65.57 0.0007050599    4.392    0.772
        66  -9.3670     85.1359     63.6502   6.9790004756e+01   5.3163737344e+01    0.6330988    0.2056766  39.51   0.00214847    3.115    0.679
        67  -8.3159    130.8645     63.2515   5.6616078978e+01   4.3430698473e+01     0.254959    0.1617406 -78.72 0.0009632641    2.937    0.660
        68  -9.8192     25.4052     62.4282   9.3142084643e+01   6.1941258467e+01    0.2628774    0.2538978 -56.50  0.001197146    1.314    0.239
        69  -8.9691     11.6796     61.7743   9.9144453874e+01   6.3158335645e+01    0.2862973    0.1559569 -59.55 0.0008982375    1.691    0.409
        70 -10.5103     62.5161     60.9919   7.7044500536e+01   5.7596281122e+01    0.5374287     0.247008  32.41 0.0003534097    2.219    0.549
        71  -8.9726      3.3651     60.5217   1.0261016940e+02   6.3919935374e+01    0.4522274    0.1946302  43.68  0.001889685    4.053    0.753
        72  -9.1419    182.9322     59.3175   4.5424663157e+01   3.1793694056e+01    0.3910408    0.2414689 -41.53  0.001933517    1.573    0.364
        73 -10.6879    178.8003     54.4915   4.4825228669e+01   3.3468773516e+01    0.5692286    0.3638581  74.55  0.001856948    1.626    0.385
        74  -8.9729     19.4791     60.8715   9.5351014956e+01   6.2772920211e+01    0.2479448    0.1445205 -10.37  0.000835408    1.882    0.469
        75  -8.8140     44.5622     59.6869   8.3892332218e+01   6.0404429798e+01     0.214597    0.1624019  46.96  0.001185231    1.753    0.430
        76  -8.1913     49.7962     58.8252   8.1398231309e+01   5.9879046283e+01    0.1649951    0.1640392 -83.38 0.0004003709    1.351    0.260
        77  -8.9565     37.2151     58.6524   8.6717898173e+01   6.1493642922e+01     0.293478    0.1509353  -3.40  0.001171022    3.097    0.677
        78  -9.3688     99.7943     54.8206   6.2111809852e+01   5.1712021525e+01    0.3233734    0.2768174 -21.74 0.0006174323    1.200    0.166
        79 -10.6301     75.4732     50.0205   6.8270831756e+01   5.7297359077e+01    0.4297855    0.2919317  36.64 0.0003272011    1.395    0.283
        80  -8.2922    118.8062     50.8577   5.5608106175e+01   4.8132944117e+01    0.2138294    0.1799084  30.92 0.0004511505    1.195    0.163
        81  -9.1081     45.4213     48.6097   7.9589205254e+01   6.2348822610e+01    0.3498484    0.2182524  -4.51  0.001276044    1.879    0.468
        82  -8.2993    106.4188     48.6130   5.8084307275e+01   5.1236918600e+01    0.2941224    0.1833169  22.59  0.001021294    2.095    0.523
        83  -9.5747     11.5062     46.2195   9.4666860046e+01   6.6322486667e+01    0.4117671    0.2243593 -13.57  0.002125378    1.918    0.479
        84  -8.8688      2.3403     44.4961   9.8732880233e+01   6.7248308546e+01    0.2342305    0.1630863 -38.59  0.001528005    1.106    0.095
        85  -9.1743     55.0357     44.1828   7.3841747657e+01   6.1707824522e+01    0.4417663    0.2063686 -18.29  0.001513762    4.120    0.757
        86  -8.8584     81.4106     43.7894   6.3901366570e+01   5.7141697883e+01    0.2526623    0.1798636 -13.88 0.0006203521    1.521    0.342
        87 -10.6568     83.0262     39.7629   6.1846564779e+01   5.7406251037e+01     0.498439    0.2475704  39.24 0.0002342099    1.890    0.471
        88  -8.9429     65.5628     42.5725   6.9065040180e+01   6.0238856067e+01    0.3064024    0.2216989 -56.35  0.001598232    2.067    0.516
        89  -8.9094     32.3434     43.5672   8.3605720914e+01   6.4871058176e+01    0.4516344    0.1427815  33.54  0.001833176    3.228    0.690
        90  -8.6382     93.9530     42.1352   5.9340256862e+01   5.4843989609e+01    0.5308597    0.1889103  36.86  0.001761752    3.571    0.720
        91  -8.3676     99.4917     42.0000   5.7687662660e+01   5.3686649664e+01    0.3390829    0.1818295  53.95  0.001547868    1.816    0.449
        92  -8.8997    121.1083     40.4793   5.1639141306e+01   4.9052598717e+01    0.4669521    0.2116394  49.19  0.001758917    1.990    0.497
        93  -8.2514      3.5549     40.0051   9.6709225189e+01   6.8042651217e+01    0.1808202   0.09565803 -50.79  0.001024844    1.587    0.370
        94  -9.1528    203.6241     38.3940   3.7566057223e+01   3.0021569790e+01    0.2162102    0.1998253  79.87 0.0005600082    1.191    0.161
        95  -9.4644     19.0320     35.3175   8.6999082588e+01   6.7701581911e+01    0.1737448    0.1537442 -19.22 0.0006249556    1.244    0.196
        96  -9.1840     21.8961     31.8667   8.4162180696e+01   6.8006860128e+01    0.3933622    0.1847722  18.12  0.001354038    2.203    0.546
        97  -8.8297     67.5111     37.5195   6.6341380685e+01   6.0651024540e+01    0.2183466    0.1839912  10.45  0.001337773    1.036    0.035
        98  -9.4327     71.6848     35.0089   6.3830365493e+01   6.0244798195e+01    0.3950693    0.2024834  42.75  0.001597788    1.795    0.443
        99  -7.8968    225.4667     37.5000   3.5087617075e+01   2.5457894793e+01    0.1227429    0.1028877 -69.92 5.542445e-05    1.043    0.042
       100  -8.4125    105.1946     36.7075   5.4253099730e+01   5.3147343753e+01    0.2737614    0.1604254  38.65  0.001197824    1.670    0.401
       101  -8.3623     51.0921     38.0000   7.3023606287e+01   6.3297096902e+01    0.3624597   0.06798176  38.63   0.00107686    5.169    0.807
       102  -8.9461     35.5087     37.0643   7.9586075725e+01   6.5604533392e+01    0.2835241    0.1438882 -35.95  0.001453122    1.811    0.448
       103  -8.7963     38.8434     34.9707   7.7181909620e+01   6.5514198313e+01    0.2153475    0.1606671  14.89 0.0006156197    1.212    0.175
       104  -8.6694    185.5910     35.9455   3.9154751179e+01   3.4410883142e+01    0.2497456    0.1631188  53.03 0.0009060109    1.623    0.384
       105  -8.2679     62.5068     36.5174   6.7822313356e+01   6.1671667918e+01    0.1309182    0.1136394  10.25 -2.629992e-05    1.048    0.046
       106  -8.6154    177.9705     34.6729   3.9834847968e+01   3.6337709792e+01    0.2068259     0.181895 -54.37  0.000452094    1.156    0.135
       107  -9.6518    179.5340     30.5351   3.8575824089e+01   3.6478426912e+01     0.229392     0.213225  44.98 0.0003630251    1.286    0.223
       108  -8.6915     45.5424     35.5099   7.4391154257e+01   6.4504081402e+01    0.2151508    0.1119769  43.99  0.001032577    2.312    0.567
       109  -9.5490     12.1963     34.2189   9.0143504110e+01   6.8492180322e+01    0.3362652    0.1830599  44.55  0.001629718    3.334    0.700
       110  -9.1598      5.9998     34.0524   9.3389590001e+01   6.8986723242e+01    0.2787017    0.1988011  -8.20  0.001765125    1.244    0.196
       111  -7.8159    237.5034     33.5020   3.3177809043e+01   2.3530628060e+01    0.1198167   0.09644482 -67.61 0.0008105121    1.029    0.028
       112  -9.8265    197.0552     32.4820   3.6935260877e+01   3.2234227919e+01    0.2430991    0.2183574  72.95 0.0004578293    1.194    0.163
       113  -8.8591     96.2867     32.9357   5.5288553314e+01   5.5566453484e+01    0.2423099    0.1702507  41.07 0.0002939684    1.275    0.216
       114  -9.3668    211.8286     30.5526   3.4923774194e+01   2.9218532759e+01     0.250426    0.2011955  71.85 0.0006657484    1.267    0.211
       115  -8.6685      1.8792     29.9590   9.4167808331e+01   6.9992585322e+01    0.2876127    0.1627715 -68.14  0.001465947    2.941    0.660
       116 -11.3184     80.7585     22.9972   5.5993573855e+01   5.9980459070e+01     0.616036    0.2248083  43.04 0.0007487906    2.409    0.585
       117  -9.3161     71.0212     29.9758   6.2028164779e+01   6.1039064173e+01    0.2478679    0.1840743 -31.96 0.0005718176    1.465    0.317
       118  -9.4867     70.6793     26.0942   6.0547761208e+01   6.1590437679e+01    0.2427976    0.1746538  47.25 0.0006057362    1.376    0.273
       119  -8.8118    190.3261     28.1221   3.6668017181e+01   3.4283552707e+01    0.2500108    0.1720164  82.42  0.001180733    1.340    0.254
       120  -8.9081     41.9205     27.8413   7.2745910732e+01   6.6167104544e+01    0.1904054    0.1380862   3.64  0.001164492    1.234    0.190
       121  -8.9237    173.6374     26.5107   3.8308895142e+01   3.8325915658e+01    0.2300641    0.1936703 -65.73  0.001434175    1.145    0.127
       122  -8.4666     66.6266     27.2983   6.2481521770e+01   6.2193869518e+01    0.1179487    0.1041181  82.58 0.0007028096    1.745    0.427
       123  -9.3308     62.1912     26.5182   6.3786138182e+01   6.3090441209e+01      0.24827    0.1756395  18.74 0.0005986926    1.317    0.241
       124  -9.8594    204.8420     23.8585   3.4128954856e+01   3.1540229557e+01    0.2294221    0.2156243 -88.65 0.0005622291    1.225    0.184
       125  -7.5915    110.4341     25.4453   4.8997764849e+01   5.3310864241e+01    0.1315404    0.1172275  50.16 0.0001257195    1.027    0.026
       126  -8.5788     26.5027     23.6626   7.8297174539e+01   6.8791530464e+01    0.3918725     0.157088 -21.42  0.001413124    4.368    0.771
       127  -8.3841     29.9979     20.0000   7.4864876867e+01   6.8888740255e+01    0.2580428    0.1831681  38.12  0.001618944    1.701    0.412
       128  -8.3298      3.4913     24.1107   9.1027177964e+01   7.0896758403e+01    0.1722383   0.09319148 -44.15  0.001027458    1.576    0.366
       129  -9.2387    128.9549     22.0853   4.4018441180e+01   4.9383420078e+01    0.1923806    0.1813607  55.09 0.0003088503    1.079    0.073
       130  -8.7767     46.2662     20.7214   6.7642188966e+01   6.6480637497e+01    0.3239526    0.1475742 -32.81  0.001614078    2.223    0.550
       131  -7.9930    187.6329     21.8243   3.5456953104e+01   3.5623258436e+01    0.1697727    0.1028327 -47.57  0.000475206    1.592    0.372
       132  -7.2943    137.3116     22.7268   4.2710558859e+01   4.7344146512e+01    0.1294496   0.09535606 -78.13 0.0002090797    1.553    0.356
       133  -9.0106     92.4059     20.5136   5.1674300801e+01   5.7820940457e+01    0.2524069    0.1866672  35.22  0.000647705    1.218    0.179
       134 -10.7756    189.1758    236.8604   8.3156827536e+01  -2.7447717480e+00     0.473331    0.3232272 -63.02  0.002403262    2.630    0.620
       135  -9.0195      8.7383     19.6054   8.6124153377e+01   7.1220356143e+01    0.2970175    0.1530754  15.44  0.001141515    1.866    0.464
       136  -9.5745     15.8408     17.6302   8.1217975034e+01   7.0855411549e+01    0.6549726    0.1701525  26.65  0.002620395    3.918    0.745
       137  -7.6175    112.3344     19.2626   4.6421458622e+01   5.3526727060e+01    0.1359252   0.08508807  38.38 0.0002178376    1.579    0.367
       138 -10.2937    210.0286    232.3233   7.8268896474e+01  -4.9406750456e+00    0.2134997    0.1791981  -6.25 0.0001804004    1.094    0.086
       139  -8.6300    179.1526    227.5919   8.3688798444e+01   2.9065410370e-01    0.2100957    0.1748216 -29.17 0.0005823869    1.234    0.190
       140  -8.6200    189.8596     15.6417   3.3746375673e+01   3.5793443413e+01    0.1820919    0.1348418  88.54  0.001127275    1.172    0.147
       141  -8.1518    127.5260     16.5119   4.2502036142e+01   5.0278609249e+01    0.1302366    0.1132643  62.78 -1.365493e-06    1.007    0.007
       142  -7.8723    177.6283     15.0770   3.4923178441e+01   3.8645059751e+01     0.182387    0.1035535   9.37 0.0007026848    4.453    0.775
       143  -8.0392    147.0275     14.2745   3.8643423832e+01   4.5896784909e+01    0.1903551    0.1397459  69.42 0.0007763161    1.177    0.150
       144 -11.6530     40.3838    218.9892   1.1371577605e+02   2.2388984647e+01     1.090642    0.5783197  58.70  0.002828262    1.798    0.444
       145  -9.4568     30.5363    212.0410   1.1530802357e+02   2.5056060569e+01    0.3411971    0.2477128 -35.81  0.001371121    1.980    0.495
       146  -7.9322    248.3218    224.6551   6.9937341481e+01  -8.7016002732e+00    0.1021513   0.09445135 -42.66 0.0007049973    1.732    0.423
       147  -8.5420    180.0056    223.0533   8.2743326229e+01   9.5852402792e-01    0.1971419    0.1713314   7.14            0    1.017    0.017
       148  -8.6559     88.2690     12.6007   4.9702254440e+01   5.9483805769e+01    0.2349373   0.08848138  47.45 0.0004600124    2.153    0.536
       149  -7.5391     58.2740    210.3816   1.0882521129e+02   2.2180613762e+01    0.1308639   0.09746412 -40.71 0.0005099049    1.706    0.414
       150 -11.0183     58.1524    199.8117   1.0767979496e+02   2.4681925155e+01    0.5800942    0.3560289  52.36   0.00292709    1.577    0.366
       151  -7.9989    192.7712    196.0797   7.5174314457e+01   3.8700088565e+00    0.1849792    0.1096839 -42.13  0.000876255    1.652    0.395
       152  -7.8776     33.2637    182.5666   1.1194250767e+02   3.1793106074e+01    0.1491964    0.1322548   6.86 0.0002754202    1.430    0.301
       153  -7.3301     10.0000    152.0230   1.1488467933e+02   4.1535991810e+01    0.2150367   0.06307287 -73.35 0.0007484175    2.834    0.647
       154  -7.6845    113.3674     10.2972   4.3115850730e+01   5.4129439385e+01    0.1388648   0.07969805  39.58 0.0007030973    1.727    0.421
       155  -7.9723    176.7635    149.4143   6.8856383234e+01   1.6163206070e+01    0.1992618    0.1445728  28.23 0.0003617216    1.528    0.346
       156  -9.3541     67.0594    144.6190   9.7116024919e+01   3.7437308146e+01    0.5129916    0.3403315  75.96  0.002223836    2.043    0.510
       157  -7.3368     34.3173    144.6693   1.0700098606e+02   4.1322810035e+01    0.1445875    0.0979502  70.03 0.0007047051    1.686    0.407
       158  -8.3560    133.2048    138.6142   7.6791318500e+01   2.7385047563e+01    0.3346532    0.1931098 -76.42 0.0009472818    4.351    0.770
       159  -7.5249    139.6181    138.7048   7.5151803999e+01   2.6063456067e+01    0.1652613    0.1249597  -1.28 0.0007019578    1.759    0.432
       160  -8.2754     75.7147    133.9893   9.2353936217e+01   3.8913324207e+01    0.2566097    0.2007296  62.58 0.0002102602    1.492    0.330
       161  -7.4197    114.3085    128.2985   7.9469067539e+01   3.3587927362e+01    0.1594158    0.1243233 -11.34  0.000442657    1.595    0.373
       162  -7.7214      5.9791    123.4889   1.1281123582e+02   4.8980382620e+01    0.1733649   0.08807194  49.69 0.0008083733    2.397    0.583
       163  -8.5411    135.5219    113.5061   6.9896537633e+01   3.2625483243e+01    0.2813783    0.2035194 -45.16   0.00111607    1.357    0.263
       164  -9.8624    134.0231    107.1005   6.8574613319e+01   3.4341774998e+01    0.7083371    0.3274187 -41.37  0.002590179    2.162    0.538
       165  -8.1573     69.2302    114.3723   9.0056773872e+01   4.4816424003e+01    0.1942192    0.1379101  41.91 0.0002073025    1.532    0.347
