#   1 NUMBER                 Running object number                                     
#   2 MAG_AUTO               Kron-like elliptical aperture magnitude                    [mag]
#   3 X_IMAGE                Object position along x                                    [pixel]
#   4 Y_IMAGE                Object position along y                                    [pixel]
#   5 X_WORLD                Barycenter position along world x axis                     [deg]
#   6 Y_WORLD                Barycenter position along world y axis                     [deg]
#   7 A_WORLD                Profile RMS along major axis (world units)                 [deg]
#   8 B_WORLD                Profile RMS along minor axis (world units)                 [deg]
#   9 THETA_WORLD            Position angle (CCW/world-x)                               [deg]
#  10 FWHM_WORLD             FWHM assuming a gaussian core                              [deg]
#  11 ELONGATION             A_IMAGE/B_IMAGE                                           
#  12 ELLIPTICITY            1 - B_IMAGE/A_IMAGE                                       
         1 -13.0620    202.1025     46.6433   3.3577945391e+01   2.9721307670e+01     0.929478    0.7935262 -74.32  0.003174095    1.028    0.027
         2 -13.4228    211.9359     38.1477   3.0648324900e+01   2.8766036764e+01    0.7828594    0.7099718  56.35  0.001382816    1.415    0.293
         3 -10.8099      2.0000      9.9587   7.9349996734e+01   7.2813471595e+01    0.4394104     0.130462 -44.26  0.002083166    3.167    0.684
         4 -10.5576      2.2644      3.5508   7.6129170757e+01   7.3657184889e+01    0.3813548     0.168047 -32.12  0.002241144    1.989    0.497
         5 -12.1706      1.9645     21.1457   8.4178791979e+01   7.1146068681e+01     0.745253    0.2115031 -47.35  0.003437309    3.007    0.667
         6 -12.8989    238.5018     13.2935   2.3547682865e+01   2.6460945139e+01    0.7808763    0.5802905 -70.05  0.004175194    1.031    0.030
         7 -12.3446     10.4977     12.2269   7.5371367346e+01   7.1736701522e+01     0.565273    0.2921205 -31.99  0.003441405    1.723    0.420
         8 -10.2585     57.0237      5.9944   5.0778562623e+01   6.5816017206e+01    0.1615062    0.1466085  81.79 0.0007678352    1.683    0.406
         9 -10.4799     44.4879      2.4523   5.3909334931e+01   6.8296671886e+01    0.2531512    0.1781641  57.99  0.001194513    1.968    0.492
        10  -8.6229     62.2311    235.2259   1.0431327291e+02   1.5747379409e+01    0.3162667    0.1542845  75.32  0.001189286    3.123    0.680
        11  -9.7220     75.4870    247.4834   1.0259794279e+02   1.1392154134e+01    0.3442932    0.1040877 -58.85  0.001348283    3.370    0.703
        12 -14.6735     50.6756    179.1413   1.0076133820e+02   3.0713565187e+01     15.77731     3.649579  48.33   0.03587282    7.559    0.868
        13 -10.9745    192.8271    194.5839   6.7581028356e+01   4.2730173320e+00    0.9253268    0.4741379 -63.51  0.002756286    5.396    0.815
        14  -9.8340     76.9129    234.0873   1.0085668587e+02   1.4053835596e+01    0.2494653    0.2312989  65.59 0.0006320886    1.054    0.051
        15  -9.4341     72.5913    203.6129   9.8222472338e+01   2.1716291904e+01    0.2620578    0.2011506 -78.20 0.0008995676    1.323    0.244
        16 -15.6468      9.0753    209.1344   1.1403491073e+02   2.7573002468e+01     1.878182     1.170384 -60.62   0.01081346    1.627    0.385
        17  -8.7151    127.2861    190.6523   8.2102935492e+01   1.6284794473e+01    0.1516668    0.1196861  76.63 0.0004186126    1.654    0.395
        18  -8.8485     54.7153    190.5702   1.0115573500e+02   2.7304848211e+01    0.1806232     0.124695  45.96 0.0002640751    1.430    0.301
        19  -8.9375    185.0119    189.4855   6.8248720099e+01   6.5728233169e+00    0.2042883     0.139181  32.40 0.0003467341    1.501    0.334
        20 -10.4483     99.1453    180.8008   8.7729432923e+01   2.3407454638e+01    0.3247381    0.2933471 -23.07 0.0006454728    1.195    0.163
        21 -10.9699    120.6617    180.3913   8.1907666288e+01   1.9881981324e+01    0.3615746    0.2913376  83.67  0.001470543    1.567    0.362
        22 -10.1155     72.3890    177.3139   9.4509070032e+01   2.8360715904e+01    0.2829337    0.2267143  75.69 0.0005468964    1.351    0.260
        23 -12.8004     97.1423    168.7718   8.6103399854e+01   2.6776105541e+01     2.916876    0.7418604  47.40  0.006157059    7.213    0.861
        24 -12.9357     60.1639    132.8302   9.0317540214e+01   4.1612569168e+01     2.013468    0.9614813 -49.36  0.008132606    1.916    0.478
        25 -10.0969     85.6695    171.0914   8.9753676081e+01   2.8008498342e+01     0.445969    0.3498977 -19.95  0.001441834    1.546    0.353
        26 -11.7624    230.6770    170.5988   5.5604054944e+01   2.8830822841e+00    0.4077275    0.2861136  19.81  0.002241503    1.691    0.409
        27 -11.3723    245.7302    166.6678   5.2336813949e+01   1.3574580847e+00    0.3510398    0.2465972  -3.88   0.00196219    1.769    0.435
        28  -9.4023    110.5950    167.4582   8.2112821143e+01   2.4827061474e+01    0.3023251    0.2316817 -74.60  0.001267731    1.521    0.343
        29  -9.8905    179.0656    169.4600   6.5483073829e+01   1.1783199464e+01    0.2385653    0.1936399 -38.81 0.0009665745    1.159    0.137
        30  -8.9259     59.6764    163.4097   9.5935532524e+01   3.3692586786e+01    0.2827262   0.09834177  43.21 0.0009469042    3.083    0.676
        31  -9.3181     53.4333    161.8334   9.7512570820e+01   3.4886268314e+01    0.3108008    0.2298657 -14.25  0.001517592    1.739    0.425
        32  -8.5292    100.1280    161.0986   8.3781955975e+01   2.8232252754e+01    0.2064472    0.1804345  77.39            0    1.283    0.220
        33 -11.4243     87.2085    149.8187   8.5290720651e+01   3.3257647267e+01    0.6949421    0.4728526 -16.88  0.002674696    2.042    0.510
        34 -10.8051    133.5121    143.5140   7.0740963772e+01   2.6416039437e+01     1.196322    0.3118625 -54.70  0.002657224    5.932    0.831
        35  -9.3248    174.6265    148.7717   6.1989184057e+01   1.7061249651e+01    0.2743174    0.1907434 -52.12  0.000605225    1.456    0.313
        36 -11.5073     79.2477    155.9174   8.8858515033e+01   3.2918424609e+01    0.6433167    0.4740106  19.32  0.002689248    1.528    0.345
        37 -10.7166     31.4128    143.9448   1.0143890883e+02   4.1943521371e+01    0.6495659    0.3255402  26.92  0.002923852    2.173    0.540
        38  -8.4089    179.5166    141.5159   5.9303649174e+01   1.7649727058e+01    0.1506012    0.1410601 -39.56  0.000746418    1.014    0.014
        39 -10.4140    102.0253    136.2777   7.7918313494e+01   3.4163435592e+01    0.6470725    0.3960915 -15.69  0.002267311    2.867    0.651
        40  -9.9240    105.8218    130.8707   7.5522294428e+01   3.4798874589e+01    0.3725179    0.3232378 -17.51  0.001561016    1.234    0.189
        41 -11.6122     88.9673    135.6037   8.1728489892e+01   3.6597807726e+01    0.3029867    0.2932757 -26.43 0.0004021654    1.021    0.021
        42 -10.5064     24.2690    137.2315   1.0268636642e+02   4.4314808122e+01    0.3841572    0.1946979  27.42  0.001776176    2.162    0.538
        43 -10.9475     43.9073    130.4538   9.5210331950e+01   4.4177044454e+01    0.4628846    0.2621935 -63.68  0.001559693    1.626    0.385
        44 -10.6043     46.6525    124.6403   9.3187214692e+01   4.5360458390e+01    0.3422464    0.2596138 -22.38  0.001021177    1.438    0.304
        45 -10.2325    135.6126    129.9998   6.6980513830e+01   2.9148586891e+01    0.5254311    0.1494152 -47.14  0.001495393    3.446    0.710
        46  -9.4625    111.2434    127.9684   7.3228065118e+01   3.4477695261e+01    0.2973945    0.2306721  20.78  0.000779711    1.431    0.301
        47  -8.5159    142.4703    124.9368   6.3972976175e+01   2.8872803750e+01    0.2282102    0.1518786 -47.79 0.0005266356    1.481    0.325
        48 -10.2769     98.0843    123.6908   7.6120581424e+01   3.7959702576e+01    0.3227517    0.2551914  -0.66 0.0006823114    1.505    0.336
        49  -9.6228    116.8106    122.9698   7.0384327640e+01   3.4575824048e+01    0.2662279    0.1787331 -20.96 0.0008510679    2.009    0.502
        50  -9.0429     31.8699    123.6012   9.8012568042e+01   4.7140387411e+01    0.1924128     0.121503  38.52 0.0009414877    1.785    0.440
        51 -10.1333    161.2599    118.2086   5.7820549800e+01   2.6340338403e+01    0.6000081     0.343553 -69.19  0.002021234    3.265    0.694
        52 -13.6311     68.6184    147.1301   9.0419918200e+01   3.6756370876e+01     1.491399    0.8185941 -62.53  0.006236569    1.776    0.437
        53 -11.3771     67.0701    167.8254   9.4503515011e+01   3.1558991522e+01    0.4229645    0.2917439 -31.62  0.001949843    1.756    0.430
        54 -10.5053     54.1645    117.8121   8.9197525705e+01   4.6190063727e+01    0.4173255     0.197151 -58.25  0.001692151    1.966    0.491
        55 -11.5111     71.6653    163.3651   9.2430655261e+01   3.2084890073e+01    0.4624182    0.3328462 -31.18  0.001568255    1.629    0.386
        56  -8.9293    107.3254    117.5509   7.1778757169e+01   3.7692677426e+01    0.1958846    0.1519647  24.57  0.000503467    1.382    0.276
        57  -9.5293    230.6232    114.1050   4.4180465203e+01   1.3203028801e+01    0.1964835    0.1685699 -70.37 0.0004888233    1.197    0.164
        58  -9.7776    135.0000    112.9604   6.2855551327e+01   3.3088104592e+01     0.428076   0.08772116 -45.09  0.001039852    4.831    0.793
        59  -9.7489     39.8682    113.1898   9.3242544593e+01   4.8974610525e+01    0.2021945    0.1908548  88.57 0.0004777283    1.201    0.168
        60  -9.1043    156.1918    111.6405   5.7341280799e+01   2.8799576476e+01    0.2477233    0.1981594 -59.26 0.0006931408    1.314    0.239
        61 -11.8740     31.5535    108.5699   9.5294455977e+01   5.0926728448e+01    0.5896971    0.4436412  49.72  0.003193448    1.627    0.386
        62  -9.5619    205.4724    110.3583   4.7317970156e+01   1.8662058857e+01    0.2380161    0.2181533 -58.71 0.0005569747    1.030    0.029
        63 -10.2250    115.0075    107.8931   6.6990273009e+01   3.8365533406e+01    0.4366905    0.1985414 -44.00  0.001601354    2.192    0.544
        64 -10.8021     52.6847    111.6906   8.8356663242e+01   4.7888116006e+01    0.4415861    0.3116165 -18.74  0.002153599    1.602    0.376
        65  -8.1700    151.2775    105.6297   5.6947540010e+01   3.1105446429e+01    0.1568321    0.1186832 -75.69 0.0007008602    1.687    0.407
        66 -10.1065     42.1656    103.5338   9.0316755677e+01   5.1089473873e+01    0.3866765    0.2171783  41.05  0.001654839    2.093    0.522
        67 -10.4554     36.3941    101.3387   9.1973880528e+01   5.2216938475e+01    0.2423919    0.2316411 -59.23 0.0007132786    1.156    0.135
        68  -8.7591    101.4081     94.5045   6.7341643399e+01   4.3973112496e+01    0.3184955    0.2202659  73.40  0.001192163    2.412    0.585
        69 -17.3668      9.9670    238.9938   1.1572420974e+02   2.0803510801e+01     3.254238     1.871907  23.04   0.01858731    2.139    0.533
        70 -14.8596     35.7190    187.1196   1.0569699728e+02   3.0359829999e+01     8.581176     3.097588  60.96   0.02211128    5.211    0.808
        71 -10.7230    140.1753    221.4276   8.4242863745e+01   7.3069079964e+00    0.2786751    0.2127367 -16.71 0.0007596426    1.484    0.326
        72  -9.1955     86.0744    204.0214   9.4850224679e+01   1.9694095985e+01    0.2123341    0.2005184  71.61 0.0003731683    1.025    0.024
        73 -12.4566    190.4760     54.8985   3.6958573153e+01   3.1097885075e+01    0.6953954    0.5678824  66.75 0.0008054383    1.213    0.176
        74 -10.8783    139.7749    247.1173   8.8228776363e+01   2.2822445280e+00    0.5039396    0.2867977 -72.03  0.002112018    3.356    0.702
        75 -11.0470    125.5345    247.2280   9.1415968925e+01   4.3540329007e+00    0.4677435    0.2696348 -69.73  0.002168943    2.571    0.611
        76 -15.5075      5.0420    163.7103   1.1138248745e+02   3.9001681098e+01     10.54948    0.3671175 -72.00    0.0103101    8.280    0.879
        77 -11.0237     48.8860    243.4133   1.0798891084e+02   1.5632437308e+01    0.4024196    0.2031057  61.61 0.0008467646    2.045    0.511
        78 -10.0324     71.8143    243.6917   1.0302314735e+02   1.2673165750e+01    0.3125629    0.1962698 -74.35  0.001410933    1.739    0.425
        79  -8.7508     60.5041     21.0831   5.5958164481e+01   6.3665657551e+01    0.1625796    0.1157352 -19.72 0.0003446429    1.473    0.321
        80 -10.2768    128.2608    241.6107   9.0032370918e+01   5.0449693437e+00    0.2493339    0.1643266  23.84   0.00104201    1.463    0.317
        81 -11.5223    111.5898    240.7527   9.3708063690e+01   7.6913194884e+00    0.4084999    0.2811085  61.32  0.001638276    1.723    0.419
        82  -9.3465    189.5068     14.9629   2.7986232777e+01   3.6278378185e+01    0.1635133    0.1118922 -41.02 0.0005545748    1.550    0.355
        83 -10.0040     77.6494    230.6760   1.0030275436e+02   1.4704891088e+01    0.4638649    0.1734037 -50.21  0.001797968    3.082    0.676
