#   1 NUMBER                 Running object number                                     
#   2 MAG_AUTO               Kron-like elliptical aperture magnitude                    [mag]
#   3 X_IMAGE                Object position along x                                    [pixel]
#   4 Y_IMAGE                Object position along y                                    [pixel]
#   5 X_WORLD                Barycenter position along world x axis                     [deg]
#   6 Y_WORLD                Barycenter position along world y axis                     [deg]
#   7 A_WORLD                Profile RMS along major axis (world units)                 [deg]
#   8 B_WORLD                Profile RMS along minor axis (world units)                 [deg]
#   9 THETA_WORLD            Position angle (CCW/world-x)                               [deg]
#  10 FWHM_WORLD             FWHM assuming a gaussian core                              [deg]
#  11 ELONGATION             A_IMAGE/B_IMAGE                                           
#  12 ELLIPTICITY            1 - B_IMAGE/A_IMAGE                                       
         1 -10.7232    198.4424     14.7332   2.8956030942e+02   6.4788261468e+00   0.03612838   0.01741379 -33.43  0.002385058    2.931    0.659
         2 -10.6734    203.5588      6.7211   2.8945274600e+02   6.5423673477e+00   0.03836707   0.03254661 -26.93  0.004425165    1.257    0.204
         3  -9.4497    235.2029      4.5577   2.8904629014e+02   6.3854478171e+00    0.0180871   0.01434526 -67.19 0.0009555395    1.356    0.263
         4  -7.0669     50.6754    247.6725   2.9266757611e+02   4.6150925180e+00  0.007220902  0.005001979 -25.04 0.0004031363    1.695    0.410
         5 -10.0805    245.5551    247.7662   2.9024117737e+02   3.5016994072e+00   0.02539968   0.01443096  65.18  0.002155601    2.523    0.604
         6  -9.2174     56.4525    250.0570   2.9260841332e+02   4.5544964603e+00   0.01207668   0.00940186  19.56 0.0004222573    1.229    0.186
         7  -7.5560     33.3203    250.2959   2.9289802942e+02   4.6831857404e+00  0.007029206  0.005047196 -22.49            0    1.614    0.381
         8  -7.9302     27.9753    250.3084   2.9296472098e+02   4.7133952388e+00   0.01013014  0.008451513  24.48  0.000968118    1.124    0.110
         9  -9.8595      4.3141    249.7241   2.9325651230e+02   4.8544623784e+00   0.03498693   0.02661367  42.00  0.003839747    1.280    0.219
        10 -12.2251     14.3423    244.3686   2.9310270936e+02   4.8599056424e+00    0.1943443  0.008256991 -53.87  0.009531712    6.809    0.853
        11  -9.0611     11.1889    239.3830   2.9311520781e+02   4.9358194713e+00   0.01427225   0.01203013  10.86 0.0003956565    1.170    0.145
        12  -8.7842     40.1889    245.6696   2.9278750646e+02   4.6980021573e+00   0.00947874  0.008714685  59.52  0.001086974    1.141    0.123
        13  -9.3395     30.0094    243.7528   2.9290408410e+02   4.7781359572e+00   0.01412655   0.01307893  56.37  0.000944371    1.122    0.109
        14  -8.0700    242.2927    240.3117   2.9024131386e+02   3.6069884497e+00  0.006977444  0.005030836 -25.63 0.0006616122    1.590    0.371
        15  -7.4946     81.5660    246.4824   2.9227613676e+02   4.4531867933e+00  0.006777802   0.00640182   5.73  9.21212e-05    1.047    0.045
        16  -6.9398    123.7301    238.3083   2.9170654705e+02   4.3079768269e+00  0.006863313  0.004973316  57.92 0.0001962619    1.541    0.351
        17  -9.1882    246.4954    233.6760   2.9015304783e+02   3.6600276919e+00   0.01483869  0.007183867  36.25  0.001301939    1.888    0.470
        18  -7.1980     67.4719    234.4987   2.9238718308e+02   4.6728553882e+00  0.006880754   0.00634589  36.10 0.0002395184    1.050    0.048
        19  -7.3721    129.3795    233.1516   2.9160827602e+02   4.3357310894e+00  0.008985248  0.006634035 -84.64 0.0009332458    1.598    0.374
        20  -9.7268     51.3320    233.5636   2.9258336672e+02   4.7755457318e+00   0.02203951   0.01634418 -14.77 0.0009847858    1.544    0.352
        21  -7.6908     43.8168    230.5492   2.9266082541e+02   4.8533480753e+00   0.01224337  0.009319655  30.35  0.001334264    1.221    0.181
        22  -7.4839    105.6561    230.6794   2.9189057013e+02   4.4998024395e+00  0.007279007  0.005005628 -23.52 0.0007049839    1.727    0.421
        23  -8.8298     34.7969    228.4494   2.9276198547e+02   4.9290401946e+00   0.01542499    0.0140152  70.90  0.001343497    1.189    0.159
        24  -8.3531     83.8619    224.5438   2.9212912145e+02   4.6953819990e+00   0.01121181  0.008605825 -75.97     0.000629    1.456    0.313
        25  -8.7126      7.3572    223.8259   2.9307928954e+02   5.1386155340e+00   0.01316053   0.01042615 -14.80 0.0008664905    1.390    0.280
        26  -9.7573     53.2996    221.1580   2.9249194600e+02   4.9087240524e+00    0.0167422    0.0138171 -38.07 0.0007214723    1.282    0.220
        27 -11.4316     61.6621    208.8247   2.9232110704e+02   5.0046774442e+00   0.05621139   0.04215604  38.06  0.005637289    1.268    0.211
        28  -8.1230     31.5512    214.9733   2.9272985463e+02   5.1043126959e+00   0.01011445  0.006687831 -61.62 0.0004838403    1.585    0.369
        29 -10.2652     11.3451    206.5348   2.9293645575e+02   5.3172353550e+00   0.03285656    0.0165098  21.73  0.002140118    1.935    0.483
        30  -9.6508     53.8899    205.6296   2.9240081260e+02   5.0860748474e+00   0.01661682    0.0110104 -47.03 0.0009170998    1.586    0.370
        31 -10.0461    178.9107    199.6333   2.9080964153e+02   4.4425767523e+00   0.01161237   0.01091215 -65.24 0.0003805888    1.136    0.120
        32  -9.2291     45.0720    200.6014   2.9248368685e+02   5.1947336455e+00   0.01658489    0.0107792   5.26  0.001606776    1.738    0.425
        33  -6.9310    209.4828    196.5862   2.9041234737e+02   4.3030338623e+00  0.006840861  0.006305712  26.25  0.000185582    1.018    0.018
        34  -7.8160     66.5536    196.2501   2.9219219360e+02   5.1231674782e+00   0.01348907  0.007021189  35.60 0.0008601461    1.759    0.432
        35 -10.3034     31.5047    188.0380   2.9258519669e+02   5.4180461770e+00   0.02686454   0.01679232  77.98  0.002450372    2.247    0.555
        36  -7.4706    179.2298    184.7511   2.9072495251e+02   4.6137978411e+00   0.01110766   0.00732897  40.67 0.0007006535    1.460    0.315
        37  -8.7320     79.7436    182.9838   2.9195593845e+02   5.2024240423e+00   0.01396825   0.01065794 -40.15 0.0008399838    1.397    0.284
        38  -8.7454     87.2848    171.7845   2.9180126688e+02   5.2897572480e+00   0.01527024   0.01208568 -77.95  0.001109475    1.415    0.293
        39  -8.8985     75.8010    188.9980   2.9203764015e+02   5.1549016164e+00   0.01973575   0.01133912 -40.61  0.001376918    1.954    0.488
        40 -10.3380     75.6365    168.4327   2.9192850058e+02   5.3951253165e+00   0.02278613   0.01257114 -38.27  0.001528638    2.122    0.529
        41  -8.8931     92.2953    165.7121   2.9170587930e+02   5.3318409169e+00   0.01657872   0.01184305 -41.93 0.0009322495    1.496    0.332
        42  -7.2229     54.0208    163.9927   2.9217430597e+02   5.5698420057e+00  0.008008167   0.00761048  22.84 0.0003804307    1.013    0.013
        43  -6.7674    166.0000    160.0082   2.9075559088e+02   4.9771954818e+00   0.01001952  0.003947465 -65.03 0.0007676705    2.707    0.631
        44  -7.3470     52.3544    155.8121   2.9215088820e+02   5.6745076706e+00   0.00948236  0.005935928 -51.36 0.0004082846    1.653    0.395
        45  -8.3522      7.1039    154.0866   2.9270663577e+02   5.9516654611e+00   0.01052325  0.009505808  34.27 0.0006079568    1.057    0.054
        46  -6.8547    226.9849    154.0000   2.8996307866e+02   4.6976975277e+00   0.01135354   0.00370122  24.78 0.0007929156    2.877    0.652
        47  -7.1746    194.1929    148.9719   2.9034424495e+02   4.9440922652e+00  0.008495228  0.005416237 -65.79 0.0003515694    1.683    0.406
        48  -9.2774     93.5668    147.1601   2.9158955572e+02   5.5404094603e+00   0.01335515   0.01111831 -22.67 0.0005016246    1.291    0.225
        49  -7.1372      9.4771    148.4021   2.9264631378e+02   6.0043445389e+00   0.00682669  0.006276907  25.15 9.078343e-05    1.020    0.020
        50  -9.2224     70.0335    145.5165   2.9187445526e+02   5.6936520774e+00   0.02411168   0.01404209  21.34  0.002111846    1.659    0.397
        51  -8.9545     67.3421    142.6943   2.9189278702e+02   5.7418122978e+00   0.01739358   0.01182321  40.35  0.001796367    1.415    0.293
        52  -9.3179    124.4941    145.2334   2.9119312647e+02   5.3862985353e+00   0.01196085   0.01140687  -0.75 0.0003282675    1.054    0.051
        53  -8.4765    189.5141    136.1757   2.9033302188e+02   5.1196348815e+00    0.0119978   0.01020167  18.19 0.0002581078    1.123    0.110
        54  -6.7539    113.3233    134.3411   2.9127347051e+02   5.5767720091e+00  0.007287716  0.004980395 -25.91 0.0007050811    1.726    0.421
        55  -7.4715    101.2160    131.7331   2.9141046793e+02   5.6762118719e+00  0.009246898  0.007517152 -22.55 0.0004061805    1.336    0.252
        56  -8.8063    121.9820    130.1269   2.9114253857e+02   5.5763305646e+00  0.009945956  0.009687228 -56.73 0.0003058289    1.092    0.085
        57 -10.3500    235.5591    128.5687   2.8971797228e+02   4.9439820658e+00   0.01425574   0.01165468  28.93 0.0004499307    1.141    0.124
        58  -6.7526    109.4484    122.4398   2.9125729317e+02   5.7373014713e+00  0.006861993  0.006295199  36.33 0.0001578196    1.054    0.051
        59  -7.6854    164.5139    120.4184   2.9055912617e+02   5.4459748035e+00  0.006842667  0.006315253  26.29 4.435985e-05    1.017    0.017
        60  -7.6353     46.1087    115.2536   2.9200947995e+02   6.1818667642e+00  0.009764265   0.00829694  26.29 0.0006232381    1.101    0.091
        61  -7.9360    182.0525    114.0038   2.9030551618e+02   5.4200797713e+00  0.009960985  0.009346185  18.79  0.001199299    1.014    0.014
        62  -7.7921     24.9175    110.7344   2.9224984125e+02   6.3548921438e+00  0.009777249  0.008027464  26.96 0.0003834283    1.137    0.121
        63  -8.2385    238.9072    109.1768   2.8957070756e+02   5.1500061882e+00   0.01081616    0.0084957  47.52 0.0007723648    1.287    0.223
        64  -7.5249    186.2428    108.8170   2.9022505492e+02   5.4563429922e+00  0.009065426   0.00752011 -22.34  0.000312524    1.299    0.230
        65  -7.6317    206.8660     88.1416   2.8985539759e+02   5.5782713026e+00  0.008990767  0.007610897 -24.51 -0.000430966    1.262    0.207
        66  -7.1889      9.6441     88.7445   2.9232180187e+02   6.6973442493e+00  0.006974197  0.005037942 -15.80 0.0004074145    1.610    0.379
        67  -7.5528    152.8768     69.5415   2.9042769185e+02   6.1038555809e+00  0.009922405  0.006372031  25.11  0.000376019    1.456    0.313
        68  -8.8309    190.1003     66.1655   2.8994478459e+02   5.9297105142e+00    0.0102688  0.009551141 -47.85 0.0003004041    1.131    0.116
        69  -9.7962    245.5465     53.3132   2.8918352601e+02   5.7603924734e+00   0.01362215   0.01250233 -14.30 0.0005628757    1.124    0.110
        70  -8.4253    249.7099     49.0150   2.8910821418e+02   5.7863166790e+00   0.01438053   0.01128806 -28.75 0.0008235712    1.395    0.283
        71  -8.4281    131.0612     54.3639   2.9061754327e+02   6.4050431670e+00   0.01053654  0.008818102 -46.01 0.0006221465    1.252    0.202
        72  -8.0114    178.7052     52.1975   2.9001087099e+02   6.1572813042e+00   0.01310833  0.008096281   9.17  0.001137093    1.802    0.445
        73  -7.7160    246.5108     42.4676   2.8911233744e+02   5.8806865202e+00   0.01244879  0.006543359   9.39 0.0008521197    2.337    0.572
        74  -8.3299    186.9939     39.9549   2.8984071967e+02   6.2518666209e+00   0.01010075  0.009504539  17.52 0.0003319293    1.017    0.017
        75  -7.8587    159.3157     32.3305   2.9014467952e+02   6.4991243039e+00   0.01419944  0.008664597 -38.36 0.0007282528    1.855    0.461
        76 -10.4624    141.0392     30.8786   2.9036504965e+02   6.6206844304e+00   0.01119853   0.01108791 -83.02 0.0002572936    1.080    0.074
        77  -9.0090    182.8643     30.6474   2.8984151601e+02   6.3836041049e+00    0.0112991   0.00934817 -43.82 0.0006792402    1.270    0.213
        78 -10.3521    191.5246     23.5301   2.8969462376e+02   6.4164890756e+00    0.0214214   0.01647125 -60.41  0.002362953    1.370    0.270
        79  -7.2864    151.5938     26.4755   2.9020921740e+02   6.6113483103e+00  0.006716108  0.006392699   5.77 -8.214697e-05    1.042    0.041
        80  -7.8243     91.9658    248.5048   2.9215743861e+02   4.3704276218e+00  0.009982933  0.009222887 -64.30 0.0005220268    1.154    0.134
        81  -8.8340    227.7025    246.8562   2.9045827318e+02   3.6144478444e+00   0.01288021  0.009047214 -71.53  0.001240491    1.578    0.366
