#   1 NUMBER                 Running object number                                     
#   2 MAG_AUTO               Kron-like elliptical aperture magnitude                    [mag]
#   3 X_IMAGE                Object position along x                                    [pixel]
#   4 Y_IMAGE                Object position along y                                    [pixel]
#   5 X_WORLD                Barycenter position along world x axis                     [deg]
#   6 Y_WORLD                Barycenter position along world y axis                     [deg]
#   7 A_WORLD                Profile RMS along major axis (world units)                 [deg]
#   8 B_WORLD                Profile RMS along minor axis (world units)                 [deg]
#   9 THETA_WORLD            Position angle (CCW/world-x)                               [deg]
#  10 FWHM_WORLD             FWHM assuming a gaussian core                              [deg]
#  11 ELONGATION             A_IMAGE/B_IMAGE                                           
#  12 ELLIPTICITY            1 - B_IMAGE/A_IMAGE                                       
         1 -14.5090    163.0249     81.4636   9.6109795833e+01   3.3134938942e+01     5.067557     1.441151 -42.55   0.01454347    3.859    0.741
         2 -15.7339    133.3721     22.3492   8.1801281851e+01   4.9331623171e+01     12.36265     5.167711 -42.30   0.04421677    2.689    0.628
         3 -14.8181    206.7656     63.3356   8.2780835040e+01   2.5867059114e+01     3.097381     1.556815 -63.24    0.0089463    5.498    0.818
         4 -18.1312    239.0159     36.4165   7.1415605058e+01   2.1977825733e+01     9.124497     2.940673 -19.84   0.03302538    3.086    0.676
         5 -12.9526    216.0397     22.7571   6.9924514623e+01   2.8499561636e+01    0.8854923    0.4932911  23.82  0.003830661    2.478    0.596
         6  -9.4506    206.9585     23.6923   7.1139029285e+01   3.0542664695e+01    0.5319015    0.1620509 -19.20  0.001748282    3.390    0.705
         7 -10.1587    219.5730     11.8324   6.6502023127e+01   2.8731834896e+01    0.1540429    0.1192505 -24.42 0.0002718055    1.184    0.155
         8  -9.5804     79.3985     11.1291   9.1193586993e+01   6.3573585454e+01    0.4103162    0.1642048 -23.76  0.001213421    2.550    0.608
         9 -11.8730    203.5950     10.0700   6.7411689146e+01   3.2671031428e+01    0.2590476    0.1749519  -0.27  0.001092959    1.640    0.390
        10  -9.8515    164.7859      7.6125   7.0878954776e+01   4.2701250309e+01    0.2178978    0.1738693   0.81 0.0006236905    1.300    0.231
        11 -11.0545    242.8262      4.0891   6.2736101907e+01   2.4269268015e+01    0.2136581    0.1317794  44.96  0.001160472    1.939    0.484
        12 -10.1367    229.5123    172.8705   1.0494437730e+02   6.7750508128e+00    0.4555662    0.1909436  43.75  0.001983098    2.602    0.616
        13 -13.5027    247.1940    248.4853   1.1426562120e+02  -3.0204934782e+00     3.769483    0.6767602  38.06   0.01521085    5.073    0.803
        14  -8.7997    236.9092    172.4506   1.0364490353e+02   5.7235003754e+00    0.2056654    0.1006151  33.38 0.0005400059    1.851    0.460
        15 -11.6272    190.3252    170.7750   1.1156538937e+02   1.3196361093e+01    0.6659682    0.3410275  54.20  0.002433194    3.492    0.714
        16 -11.4071    180.5770    165.4729   1.1247164310e+02   1.5575874187e+01    0.6017073     0.329107  55.13  0.002585348    2.998    0.666
        17 -11.5361    216.7754    169.4807   1.0648234244e+02   9.1462741518e+00    0.7005729    0.3201063  49.16  0.003082026    3.086    0.676
        18  -9.6508    229.9399    166.3212   1.0362391844e+02   7.4969642868e+00    0.1982041    0.1647524 -30.97 0.0007863442    1.556    0.357
        19 -10.7335    202.2153    166.1017   1.0845346150e+02   1.1918646181e+01    0.2808423    0.2417154 -45.33 0.0009929442    1.648    0.393
        20 -10.8867    203.5011    160.9523   1.0721554476e+02   1.2418600603e+01    0.2611934    0.2263682 -17.26 0.0007155054    1.250    0.200
        21  -9.8180    195.9066    167.8078   1.0995343364e+02   1.2708994923e+01    0.2141308    0.1676365  47.36 0.0006242594    1.593    0.372
        22 -12.1073     54.7356    161.1724   1.4032394494e+02   3.4891401985e+01    0.3237769    0.3041901 -34.02 0.0009276172    1.316    0.240
        23 -14.2786     64.6825    154.1975   1.3714405100e+02   3.5247620298e+01     1.875675     1.309162 -18.43   0.01012928    2.237    0.553
        24 -10.6715    237.2777    249.2558   1.1586711949e+02  -1.9602673781e+00    0.4161723    0.2489356  31.66  0.002515743    1.467    0.318
        25  -9.6000     71.1019    243.3617   1.4339444506e+02   1.8644296128e+01    0.1361364    0.1240195  58.30 0.0003253262    1.249    0.200
        26  -9.5925    135.1416    136.0601   1.1656419984e+02   2.8554192006e+01    0.2428987       0.1908  39.37            0    1.236    0.191
        27 -11.3893    176.4623    146.3860   1.0952329629e+02   1.9279500218e+01    0.4836385    0.3714777  70.66  0.002451039    2.188    0.543
        28  -8.1966    124.6907    140.6999   1.2002454101e+02   2.9447715202e+01    0.1374258    0.1058664  -4.69 0.0004114591    1.600    0.375
        29  -9.1204    155.9697    138.4809   1.1224678925e+02   2.4345563984e+01    0.1868867    0.1212074  62.16 0.0008083206    2.406    0.584
        30  -9.8830    139.3060    105.0418   1.0831093361e+02   3.3871625195e+01    0.3512306    0.3086189 -82.21  0.001427121    1.469    0.319
        31 -10.8473    134.8187    109.0635   1.1047028534e+02   3.3963301611e+01     1.547227    0.1991686 -43.85  0.003212896    7.712    0.870
        32 -11.0845    138.6034     92.8776   1.0518549585e+02   3.6396611424e+01    0.5400798    0.3939412  83.47  0.001836689    2.354    0.575
        33 -10.0110    133.7086     94.1189   1.0678730385e+02   3.7169970499e+01    0.3560012    0.2326338 -47.23  0.001272294    1.584    0.369
        34  -9.9255    135.8302    128.6018   1.1480981786e+02   2.9888473766e+01    0.4828382    0.1916133 -44.89  0.001831784    2.565    0.610
        35 -10.3390    133.5965    121.3708   1.1373877343e+02   3.1732973025e+01    0.5733678    0.4675311 -80.00  0.002654946    1.673    0.402
        36 -11.7511    160.5348    128.8331   1.0910232005e+02   2.5223147226e+01    0.4564157    0.3755552 -15.31   0.00179351    1.204    0.169
        37 -10.8230    191.4844    191.1910   1.1491945118e+02   1.0218763786e+01    0.7159861    0.3423651 -52.03  0.002876884    4.750    0.789
        38  -9.7280    124.0752    123.2390   1.1656766776e+02   3.3092131916e+01     0.502228    0.2829798 -68.61   0.00182678    3.308    0.698
        39  -9.6366    120.7114    117.3626   1.1611868225e+02   3.4915491017e+01    0.5183939    0.2020852 -43.58  0.001899677    2.601    0.616
        40 -13.7540     13.0741    179.3635   1.5096238607e+02   3.5046662864e+01     1.922976    0.9582143  71.55   0.01183421    1.762    0.432
        41  -8.7909     99.2426    132.0107   1.2485927518e+02   3.5379884457e+01    0.1785036    0.1779259 -80.84  0.000378298    1.020    0.020
        42 -10.1822    150.3839    117.6083   1.0878476953e+02   2.9249532751e+01    0.7040425     0.344913 -54.71  0.002537477    3.051    0.672
        43  -9.6096    145.3553    111.4112   1.0845403423e+02   3.1422994641e+01     0.491504    0.2868637 -64.11  0.001753921    3.301    0.697
        44  -9.7037    114.9660     94.5273   1.1198557207e+02   4.0811884243e+01    0.2758068    0.2035865 -27.65 0.0006137309    1.447    0.309
        45  -9.8708    118.8124     93.2773   1.1056105511e+02   4.0333131998e+01    0.7920341     0.464047 -66.29  0.002871309    2.987    0.665
        46  -9.9812    127.0621    111.7910   1.1313907563e+02   3.4899936770e+01    0.5025332     0.232145 -52.79  0.001337822    2.503    0.600
        47 -11.3406    118.2816    101.0709   1.1279738147e+02   3.8795536504e+01    0.4916545    0.3837917 -69.59  0.001802189    1.612    0.380
        48  -9.2550    127.4645    104.4917   1.1120686191e+02   3.6322549006e+01    0.3355978    0.2412573 -31.76  0.001089748    1.428    0.300
        49 -10.9209    123.1744    102.8358   1.1192203535e+02   3.7492781396e+01    0.5898228    0.3737042 -57.08  0.002593733    1.859    0.462
        50 -10.6150    118.1189    109.6008   1.1498148566e+02   3.7020786945e+01    0.2477944    0.2012617 -57.61  0.000636852    1.323    0.244
        51  -9.9835    144.6117    102.3723   1.0629788088e+02   3.3312390759e+01    0.2944019     0.241141   6.30 0.0005831933    1.309    0.236
        52 -11.3387    153.3740     96.9942   1.0274679047e+02   3.2492262955e+01    0.5524076    0.4801599 -50.33  0.002901648    1.290    0.225
        53 -12.5899     68.2395    144.9859   1.3509706280e+02   3.6814101772e+01    0.8609788    0.5065065  67.73   0.00303236    2.069    0.517
        54 -11.5416    150.1518     87.7695   1.0088982393e+02   3.4885775744e+01    0.3350946    0.2577608 -33.59   0.00083985    1.254    0.203
        55  -9.4876    132.0175     97.9525   1.0828348641e+02   3.6749208497e+01    0.2395718    0.2344176   6.14  0.000347971    1.069    0.065
        56 -11.1751      5.1211     85.5443   1.4686109422e+02   5.6381417629e+01     0.465402    0.1595314  88.06  0.001775201    3.325    0.699
        57 -10.6705    172.2727     84.4415   9.5029344938e+01   3.0549360824e+01    0.2694475    0.2388675  -4.96 0.0003060072    1.055    0.052
        58 -11.6816    191.4332    151.7813   1.0765234570e+02   1.5791622475e+01    0.7845928    0.3059465 -47.98   0.00266099    4.507    0.778
        59  -8.8690    207.6550     74.7404   8.5851538508e+01   2.4117402281e+01    0.2476396    0.1510423 -34.97 0.0009888147    1.525    0.344
        60 -10.9088    198.6470    152.8658   1.0649648657e+02   1.4384221396e+01    0.3079645    0.2045931 -11.60 0.0008847648    1.530    0.346
        61 -11.0054     36.9362    161.5759   1.4459105410e+02   3.6596691148e+01    0.2717254    0.1722766  64.63  0.001673546    1.449    0.310
        62  -8.8397    184.1788     66.1912   8.7322135213e+01   3.0672538711e+01    0.1989434    0.1647473 -44.23 0.0006959815    1.282    0.220
        63 -13.6390     29.5631    176.5439   1.4730072969e+02   3.4226176984e+01    0.8066335    0.6282417  63.97  0.003746106    1.052    0.050
        64  -9.7494    180.2943    152.0144   1.0990089264e+02   1.7701287752e+01    0.2136912    0.1866541  55.15 0.0006318492    1.493    0.330
        65 -10.7849    147.1548    150.6296   1.1668675040e+02   2.3724847894e+01    0.5061161    0.3333693  75.80  0.002010154    3.538    0.717
        66  -8.9283     71.1134     43.3228   1.0982559065e+02   5.9663508022e+01    0.2510442    0.1548756 -46.02  0.001172567    1.533    0.348
        67  -9.0947     54.2834     35.4731   1.1381257618e+02   6.3911789188e+01    0.3422549     0.257607  -1.93  0.001409458    1.481    0.325
        68  -9.9967     54.9048     40.7768   1.1570265896e+02   6.2710444344e+01    0.4603973    0.2123882 -52.58 0.0008680852    2.105    0.525
        69  -9.4326     57.8014     38.0968   1.1331798598e+02   6.2853605713e+01    0.4954834    0.1525318 -47.45  0.001714154    2.921    0.658
        70 -11.7116    181.9644     37.5779   7.8694101962e+01   3.5094711928e+01    0.3505972    0.1950051 -27.60 0.0008416416    1.670    0.401
        71  -7.7494    195.6151     39.4389   7.7303837936e+01   3.1519598936e+01    0.1438962    0.1299395  -4.14 0.0001049675    1.072    0.067
        72 -10.2103    198.6478     36.0942   7.5870346262e+01   3.1181797080e+01    0.1946594    0.1529746 -17.86 0.0004018954    1.202    0.168
        73  -8.8578    190.2666     35.7856   7.6908981334e+01   3.3258115038e+01    0.1939599    0.1690968 -28.41  0.001060412    1.084    0.077
        74  -9.1457     57.3918     30.6450   1.1025582847e+02   6.4417999795e+01    0.2615818    0.1497609 -40.59 0.0005674479    1.550    0.355
        75  -9.6007    213.8877    186.1012   1.1002396790e+02   7.5151298834e+00    0.1698032    0.1412748  14.61 0.0003776655    1.187    0.158
        76  -9.1533    177.5117     25.6480   7.5408178522e+01   3.7608636568e+01    0.1410198    0.1351157  31.64 0.0001748512    1.056    0.053
        77  -8.9685    171.1856     23.7565   7.5678473236e+01   3.9431100469e+01    0.2729731    0.1042186 -24.73  0.000984969    2.444    0.591
        78  -9.9521     92.2091     21.8705   9.2368706490e+01   5.9298696150e+01    0.4177268    0.1831252 -34.49  0.001258887    2.167    0.538
        79  -8.7670    228.1784     21.3902   6.8399887523e+01   2.5871810791e+01    0.1556103    0.1279454  68.82 0.0003864682    1.349    0.259
        80  -9.2645     78.9997     18.5279   9.5265369490e+01   6.2609163874e+01    0.2778749    0.1805745 -14.35 0.0007064075    1.585    0.369
        81 -10.5092    211.1231    178.9278   1.0923262390e+02   8.8214871489e+00    0.3912683    0.2137382  50.36  0.001819069    2.698    0.629
        82 -10.6470    133.7159    146.5314   1.1898444629e+02   2.6784957951e+01      1.14026    0.2902957 -53.21  0.003087533    6.029    0.834
        83  -8.8893    187.3398    178.9473   1.1360782877e+02   1.2518219121e+01    0.2060566    0.1586044  35.63  0.001285917    1.285    0.222
        84  -8.4760    101.1417    175.8722   1.3121798130e+02   2.6201663764e+01    0.1477444    0.1353614  -6.06            0    1.262    0.208
        85  -9.2596    181.1702    174.9687   1.1409146290e+02   1.4068340262e+01    0.1813495    0.1563797 -79.42   0.00108311    1.998    0.500
