#   1 NUMBER                 Running object number                                     
#   2 MAG_AUTO               Kron-like elliptical aperture magnitude                    [mag]
#   3 X_IMAGE                Object position along x                                    [pixel]
#   4 Y_IMAGE                Object position along y                                    [pixel]
#   5 X_WORLD                Barycenter position along world x axis                     [deg]
#   6 Y_WORLD                Barycenter position along world y axis                     [deg]
#   7 A_WORLD                Profile RMS along major axis (world units)                 [deg]
#   8 B_WORLD                Profile RMS along minor axis (world units)                 [deg]
#   9 THETA_WORLD            Position angle (CCW/world-x)                               [deg]
#  10 FWHM_WORLD             FWHM assuming a gaussian core                              [deg]
#  11 ELONGATION             A_IMAGE/B_IMAGE                                           
#  12 ELLIPTICITY            1 - B_IMAGE/A_IMAGE                                       
         1 -12.3454     42.7474     20.5047   1.0891599529e+02   6.6805810959e+01    0.6679264    0.4150654   8.07  0.002939695    1.974    0.493
         2 -12.1064    216.7391     16.4590   6.2333583581e+01   2.8190677310e+01    0.4436441    0.3476949  68.82  0.001360269    1.317    0.241
         3 -13.7694    185.6301      6.4791   6.2949461363e+01   3.7293712280e+01    0.8592702    0.6762558 -66.96  0.004376677    1.459    0.315
         4 -11.9992     43.5241      8.4992   1.0294201594e+02   6.8886820731e+01    0.3074158    0.2441169  22.17  0.001004812    1.403    0.287
         5 -11.2541     58.1303      8.3463   9.6087335379e+01   6.6879860361e+01    0.3910066    0.2074274  19.11  0.001761707    2.479    0.597
         6 -11.4617    165.2926      2.0043   6.4201292949e+01   4.3166289523e+01     0.368006    0.1438401  67.59  0.001327088    2.478    0.596
         7 -11.1886     95.8689    224.6010   1.3167297305e+02   1.9746519973e+01    0.2748385    0.1597494  66.34  0.001832226    1.813    0.448
         8 -10.0789     14.4898    250.4555   1.4573556156e+02   2.4729719348e+01   0.08695861    0.0554174  60.39 0.0001698644    1.011    0.011
         9 -11.2456    149.6023    222.3538   1.2213542385e+02   1.2660180868e+01    0.2770916     0.163508 -51.22  0.001795746    2.268    0.559
        10 -11.9951    226.3966    220.8666   1.0888883778e+02   1.2520477049e+00    0.1922813    0.1574233  21.12  0.001475126    1.248    0.199
        11 -10.6027    211.3975    218.2804   1.1098068726e+02   3.7658360716e+00    0.1677799    0.1414526 -26.09  0.001151014    1.584    0.369
        12 -11.0532    219.8841    213.1711   1.0879898648e+02   2.9872444734e+00    0.2666792     0.145404  56.64  0.001218411    3.756    0.734
        13 -10.7562    115.8197    209.9960   1.2678671922e+02   1.9234853363e+01    0.1781097    0.1125674  72.98  0.001085139    2.049    0.512
        14 -10.7608    185.8261    203.9948   1.1329475808e+02   9.3831267686e+00    0.1682682    0.1406011  84.68  0.001091319    2.040    0.510
        15 -10.9218      5.0458    199.2446   1.4553843257e+02   3.3193304927e+01    0.2360682   0.06745353  44.82  0.001405098    2.379    0.580
        16 -10.7794    112.3919    197.6110   1.2608057998e+02   2.1620060126e+01    0.1979344    0.1026774 -77.74 0.0009551028    3.345    0.701
        17 -10.1242    133.2264    195.2832   1.2183215139e+02   1.8915617245e+01    0.1592878    0.0964769 -67.52 0.0008870266    2.369    0.578
        18 -12.1031    158.8496    191.0683   1.1636024570e+02   1.5489831304e+01    0.5144904    0.3526985 -66.13  0.002952799    2.296    0.564
        19 -10.6806    183.2489    183.0034   1.1046844585e+02   1.2525292786e+01    0.2742577    0.1442525 -22.10  0.001294844    2.735    0.634
        20 -10.7265    224.0149    183.4018   1.0315870285e+02   5.5123768905e+00    0.1740163    0.1333668  -9.70 0.0009417431    1.309    0.236
        21 -10.4499    210.5537    182.7745   1.0541544110e+02   7.8646918390e+00    0.2176552    0.1170233 -24.22  0.001143502    2.106    0.525
        22 -10.2374    193.0405    188.5237   1.0956722575e+02   1.0129528542e+01    0.1693936   0.09875355  57.44 0.0008098666    2.565    0.610
        23  -9.9779    137.3434    178.6586   1.1875024809e+02   2.0889628950e+01    0.1266625   0.08908509  67.38 0.0007047949    1.781    0.439
        24 -10.2843    100.9957    176.0036   1.2580067097e+02   2.6862586601e+01    0.1627643    0.1406245  56.72            0    1.010    0.009
        25 -10.8714     34.4947    173.0117   1.3894159829e+02   3.5239334487e+01    0.1575859   0.06703562  76.09 0.0008104187    2.634    0.620
        26 -10.2389    167.5982    168.7848   1.1107947614e+02   1.7312960982e+01    0.1660751    0.1252573 -54.21 0.0009515866    1.726    0.421
        27 -11.4595    120.9037    168.3304   1.2062708376e+02   2.5254796545e+01    0.2731227    0.1666903 -66.37  0.001461563    2.057    0.514
        28  -9.9483     88.3177    167.9950   1.2747391775e+02   3.0062103136e+01    0.1840304   0.08953056 -88.96 0.0007043538    4.228    0.763
        29 -10.6167     55.1497    167.2337   1.3433885663e+02   3.4231336573e+01    0.2210018    0.1216066  55.20  0.001343544    1.636    0.389
        30 -10.3975     98.6632    166.3185   1.2506778269e+02   2.8944468656e+01    0.1270814   0.08278829  66.79 0.0007049119    1.703    0.413
        31 -10.1926    217.5077    187.5065   1.0501542327e+02   6.1337300630e+00    0.1255249   0.09684687  22.58 0.0008105285    1.020    0.020
        32 -12.0362    106.2445    156.8863   1.2211654832e+02   2.9596269911e+01    0.5586183    0.3815452 -87.53  0.003074134    1.889    0.471
        33 -10.8652    218.3802    157.1627   9.9154009172e+01   9.6649869257e+00    0.1743679    0.1183972 -35.61 0.0009496391    1.725    0.420
        34 -10.2216      7.0000    155.9446   1.4334808033e+02   4.0736352656e+01    0.1613765   0.04683449 -79.81 0.0005981568    2.870    0.652
        35 -11.2005    167.1102    156.7237   1.0899417738e+02   1.9286680983e+01    0.2772497    0.2171621 -81.85   0.00146998    2.069    0.517
        36 -10.0072     39.9838    152.2256   1.3621958464e+02   3.8699308470e+01    0.1914044   0.09241261  58.98   0.00106411    2.021    0.505
        37 -11.0702    189.8404    149.9486   1.0307334698e+02   1.6046005570e+01    0.3560469    0.1926394 -46.08  0.001614065    2.393    0.582
        38 -11.0838     28.4837    155.8761   1.3895619624e+02   3.9036510477e+01    0.3049075    0.1225303  74.41  0.001469854    2.955    0.662
        39 -11.4154    106.7491    145.0943   1.2018355035e+02   3.1785038239e+01    0.3833187    0.2270343  84.77  0.001603126    3.182    0.686
        40 -10.6507    148.5004    145.0117   1.1071546692e+02   2.4688045850e+01    0.1823904    0.1214938 -72.79 0.0008105132    2.574    0.612
        41 -10.5615    181.3980    141.2109   1.0294792831e+02   1.9026992533e+01    0.1899091    0.1306516 -46.35 0.0009528202    1.761    0.432
        42  -9.6540    225.6797    139.3423   9.4075890493e+01   1.0586309443e+01    0.1230114    0.1113893 -62.90 0.0006897344    1.721    0.419
        43 -12.1700     83.0049    129.6084   1.2339461285e+02   3.8399892043e+01    0.5901546    0.2077984 -66.46  0.002160684    3.582    0.721
        44 -10.7987    131.6644    130.1926   1.1160832369e+02   3.0500517910e+01     0.280498    0.1276716 -55.37  0.001102978    2.708    0.631
        45 -12.3933     98.4549    127.7029   1.1921485727e+02   3.6564401867e+01    0.6340724    0.3541387 -85.61  0.002386894    3.693    0.729
        46 -11.1334     27.5022    121.9989   1.3631802239e+02   4.6042267382e+01    0.1725289   0.07797506  80.02 0.0008106382    2.653    0.623
        47 -11.3883     70.5920    119.4733   1.2494477832e+02   4.2184445291e+01    0.3466905     0.164705 -80.64  0.001360015    3.297    0.697
        48 -12.0101    141.3310    114.1796   1.0578083292e+02   3.1743376284e+01    0.6422847     0.252054 -35.62  0.002224963    3.100    0.677
        49 -11.5783    193.1561    118.7329   9.5439708854e+01   2.0146808364e+01    0.5330861    0.4357626 -68.28  0.002696736    1.852    0.460
        50 -10.7340     37.9144    121.0778   1.3361026704e+02   4.5346759475e+01    0.1704217    0.1425838 -89.40 0.0003574838    1.016    0.016
        51 -10.9180    107.8923    112.2973   1.1377182972e+02   3.8260782787e+01     0.406829    0.1970427 -62.91  0.001580042    2.772    0.639
        52 -11.2323     78.4478    112.2775   1.2162394501e+02   4.2727129867e+01    0.4123306    0.2111923 -83.30  0.001502125    3.792    0.736
        53 -10.8598    174.2728    110.9652   9.7452732032e+01   2.5468517182e+01    0.3611368    0.1966503 -37.73  0.001541642    1.890    0.471
        54 -11.9066    159.1921    110.1463   1.0060323453e+02   2.8837152213e+01    0.6600996    0.3203893 -47.40  0.002576517    2.397    0.583
        55 -11.7334    121.6973    110.9883   1.0991019445e+02   3.6109761712e+01    0.3811232    0.1716402 -54.37  0.001471001    2.555    0.609
        56 -10.7208     58.5113    124.0037   1.2874067278e+02   4.2634454066e+01    0.1777722   0.09486651  85.55 0.0008103953    2.558    0.609
        57 -11.4992     13.8446    109.5927   1.3859592552e+02   4.9704232653e+01    0.4137937    0.1568358 -85.61  0.001971584    2.532    0.605
        58 -10.2823     59.8002    109.8058   1.2628408594e+02   4.5584049630e+01    0.1728599    0.1345998  79.01 0.0005588557    1.330    0.248
        59 -12.0021    140.3649    100.7391   1.0269553152e+02   3.4513537853e+01    0.4068683    0.3436826  31.51  0.002156439    1.166    0.142
        60 -12.3614     43.9305    100.4236   1.2926256148e+02   4.9324734763e+01    0.6264502    0.3170525  81.58  0.002713714    3.038    0.671
        61 -12.3400    150.2247    102.3221   1.0070775233e+02   3.2161456926e+01     0.387768    0.2699827 -60.46   0.00174054    1.946    0.486
        62 -11.8165    127.9383    101.2372   1.0596541277e+02   3.6896546940e+01    0.4093697    0.2091872 -54.92   0.00160908    2.398    0.583
        63 -10.8911     81.6988    100.5495   1.1843398935e+02   4.4843162771e+01     0.233494    0.1616776 -81.83 0.0009128786    1.781    0.439
        64 -12.9870    169.8950     90.5963   9.2999454247e+01   2.9911991996e+01    0.5158941     0.394843  77.81  0.001053065    1.910    0.477
        65 -12.6185    107.9755     98.7775   1.1066979257e+02   4.1078456866e+01    0.6730331    0.4585437  80.32  0.002920735    2.483    0.597
        66 -11.1071    151.3238     88.8713   9.6794902115e+01   3.4402672363e+01     0.311419    0.1295262 -44.07  0.001091387    2.580    0.612
        67 -11.7003     41.8975     87.8970   1.2784080045e+02   5.2327728294e+01    0.2906968    0.1828584  -0.91  0.001533723    2.451    0.592
        68 -11.1834     86.4218     87.1565   1.1402192524e+02   4.7083850359e+01    0.2610887    0.1784241  75.21  0.001201847    2.266    0.559
        69  -9.3660    173.2911     86.3497   9.1053184226e+01   2.9842379046e+01    0.1622829    0.1146521  10.32 0.0004188902    1.669    0.401
        70 -11.0460    140.5489     82.7861   9.7701755946e+01   3.7887594599e+01    0.3685927    0.1436951 -40.99  0.001284533    2.549    0.608
        71 -11.4935    104.0210     82.5996   1.0762183654e+02   4.5166171396e+01    0.3966447    0.1939714 -56.76  0.001535866    2.464    0.594
        72 -10.9929     46.0103     80.5197   1.2518987286e+02   5.3602665958e+01    0.3910911    0.1442052 -50.29  0.001379834    2.358    0.576
        73 -11.3004     82.1048     73.0044   1.1168096958e+02   5.0806527720e+01    0.3301906    0.2171077 -86.22  0.001378438    2.831    0.647
        74 -10.8924    115.7127     72.6962   1.0135773647e+02   4.4995094986e+01    0.3064216    0.1776626 -60.14  0.001179253    2.568    0.611
        75 -12.1541    223.0680     70.7954   7.7302509470e+01   2.0328928569e+01    0.5567688    0.3772573 -78.84  0.001015554    2.649    0.622
        76  -9.1534    220.4504     65.5033   7.6226866040e+01   2.1635153503e+01    0.2400127     0.145506  55.41  0.001075028    1.718    0.418
        77 -10.3779    194.3226     67.6701   8.1313315958e+01   2.7689687664e+01    0.1547469    0.1200868 -60.49 0.0007049479    1.696    0.411
        78 -13.7848     29.7149     58.6019   1.2629963469e+02   5.9957942762e+01     1.215294    0.7419443  47.64   0.00687959    2.082    0.520
        79 -12.3831    231.7358     60.5718   7.3158151741e+01   1.9591559444e+01    0.4065519    0.2986367  35.09    0.0020749    1.374    0.272
        80 -11.3014    149.5851     52.4957   8.5757198298e+01   4.1083261201e+01    0.2722078    0.2493692  26.07 0.0005250304    1.058    0.054
        81 -10.9629     39.9735     52.3760   1.2091137411e+02   6.0473853956e+01    0.3247966    0.1642477 -39.01 0.0009186166    1.941    0.485
        82 -10.3868    157.0403     44.9603   8.1435933768e+01   4.0376711562e+01    0.2366803    0.2183271  22.74 0.0004274815    1.034    0.033
        83 -10.8307      5.5151     42.5156   1.3241313361e+02   6.4975831696e+01    0.2494901    0.1565373  77.25  0.001481107    2.005    0.501
        84 -11.3444     70.2510     42.1566   1.0598363124e+02   5.9003366786e+01    0.2436563    0.1868035  68.75  0.001250733    2.098    0.523
        85 -11.8615     42.4328     38.5573   1.1583380436e+02   6.3211738503e+01     0.345183    0.2964678  -2.09  0.001141958    1.281    0.219
        86 -10.7467    119.8222     33.9206   8.6420068483e+01   5.1032182854e+01    0.2861043    0.2053649 -45.89   0.00134865    1.610    0.379
        87 -10.2598     74.0032     32.6719   1.0088096215e+02   6.0239554608e+01    0.2037327     0.112874  60.51  0.000705151    4.342    0.770
        88 -10.3386    105.2816     30.7750   8.9361021893e+01   5.4716007384e+01    0.3032047    0.1330079  42.35 0.0008281296    2.309    0.567
        89 -10.3551    101.6693     30.3072   9.0285346864e+01   5.5545125985e+01    0.5247563    0.1866086 -35.90  0.001876168    2.629    0.620
        90 -10.4444    129.6785     26.9863   8.1029086459e+01   4.9712766508e+01    0.2117254    0.1869883  -4.31 0.0004491157    1.064    0.060
        91 -12.0189    221.6689    249.6740   1.1361453539e+02  -6.3195315034e-01    0.4306945    0.1084392  39.07  0.002073339    2.732    0.634
        92 -10.3248    239.6627     20.8905   6.1159910361e+01   2.2100284617e+01    0.1988282    0.1633025 -19.42  0.001121976    1.142    0.124
        93 -12.2186     24.7063    241.9359   1.4400343286e+02   2.4990441474e+01     0.316336    0.1126218  61.45  0.002137169    2.162    0.537
        94  -9.5598     56.6964     15.7560   1.0042866332e+02   6.5877964210e+01    0.1280296   0.08902344  -6.36 0.0002190617    1.493    0.330
        95 -11.6398     29.8319    233.2333   1.4290800012e+02   2.5758358375e+01    0.3561836     0.119756  62.89    0.0019092    2.570    0.611
        96 -10.9553     12.6890    227.3052   1.4528405221e+02   2.8169516372e+01    0.1569337   0.08896448  63.03 0.0005282706    1.231    0.188
        97 -10.8720     76.3534    225.9240   1.3507128458e+02   2.1931485318e+01    0.1921957    0.1189467  39.75  0.001021183    1.414    0.293
