#   1 NUMBER                 Running object number                                     
#   2 MAG_AUTO               Kron-like elliptical aperture magnitude                    [mag]
#   3 X_IMAGE                Object position along x                                    [pixel]
#   4 Y_IMAGE                Object position along y                                    [pixel]
#   5 X_WORLD                Barycenter position along world x axis                     [deg]
#   6 Y_WORLD                Barycenter position along world y axis                     [deg]
#   7 A_WORLD                Profile RMS along major axis (world units)                 [deg]
#   8 B_WORLD                Profile RMS along minor axis (world units)                 [deg]
#   9 THETA_WORLD            Position angle (CCW/world-x)                               [deg]
#  10 FWHM_WORLD             FWHM assuming a gaussian core                              [deg]
#  11 ELONGATION             A_IMAGE/B_IMAGE                                           
#  12 ELLIPTICITY            1 - B_IMAGE/A_IMAGE                                       
         1 -14.1618    170.5885     51.6231   6.5895065045e+01   3.5724926070e+01      2.01123     1.329572  25.61  0.005754252    1.906    0.475
         2 -14.1785    184.9164     36.8865   5.8729866540e+01   3.4020204268e+01     1.028054     1.018494 -46.84  0.003364013    1.015    0.015
         3 -13.7280    189.3573     30.4906   5.6058529088e+01   3.3648838521e+01    0.7495177    0.6436349  42.94  0.001216433    1.195    0.163
         4 -14.6543    206.8694      6.2070   4.6611601445e+01   3.1685912216e+01     1.858023     1.416488   5.85   0.00551521    1.573    0.364
         5 -13.4649    190.4206     13.9803   5.0770196280e+01   3.5222920360e+01    0.9277549    0.7607089   0.43  0.003713597    1.372    0.271
         6 -11.8138     58.9175      3.5363   7.6243469340e+01   6.7565675400e+01     0.281131    0.1534018  38.55  0.001473251    1.841    0.457
         7  -7.4799     67.0040    225.2058   1.2244289762e+02   2.2442549213e+01    0.4238676   0.08592027  47.59  0.001717215    3.315    0.698
         8 -12.8530    249.4397    247.4939   9.4445035902e+01  -6.8151189444e+00    0.5965274    0.3782651  12.46   0.00445761    1.339    0.253
         9 -17.8107     51.9804    245.2038   1.2618858412e+02   2.1107950884e+01     7.032085     4.032106  32.03   0.04779045    2.199    0.545
        10 -19.0820     25.1424    100.3753   1.1940540889e+02   5.2150161184e+01     16.21119     2.051209 -70.16   0.04134362    7.400    0.865
        11 -12.6600     65.8580    198.3780   1.2052595135e+02   2.7199515083e+01    0.4496198    0.2470347 -65.40  0.002056025    1.927    0.481
        12 -12.3507     72.5485    211.9166   1.2042862770e+02   2.3955657800e+01    0.2171555    0.1615747  61.92 0.0003979456    1.026    0.025
        13 -11.0450     76.3555    207.0613   1.1931039275e+02   2.4295959343e+01    0.3256164     0.202257 -64.68  0.001483947    1.796    0.443
        14 -11.6508    159.2558    197.8305   1.0243417180e+02   1.2997269637e+01    0.3402007    0.2292119  12.37  0.001516388    2.203    0.546
        15 -10.6453     81.9080    195.0554   1.1711293686e+02   2.5683063839e+01    0.2452787      0.21753 -59.48  0.001781645    1.448    0.310
        16 -10.8918    207.4971    193.9298   9.2985408455e+01   5.1653042633e+00    0.1680511    0.1198906 -27.88 0.0007274846    1.571    0.363
        17 -12.9579    150.0333    189.3516   1.0293698262e+02   1.5923129962e+01    0.5344946    0.3623684  73.06  0.002433895    2.069    0.517
        18 -11.1800    155.0378    187.5120   1.0167784385e+02   1.5343626363e+01    0.2680459    0.2108084  49.15  0.001106756    1.126    0.112
        19 -11.8782     97.3339    189.1770   1.1341163906e+02   2.4545254175e+01    0.3628724    0.2937814  77.59  0.001435556    1.158    0.136
        20  -9.8881     59.3166    188.3333   1.2091579193e+02   2.9876429480e+01     0.214377    0.1164468 -59.46  0.001257943    2.060    0.514
        21 -11.9013    136.6016    185.7045   1.0504860782e+02   1.8850714219e+01    0.2333184    0.1912346  18.34 0.0008167052    1.484    0.326
        22 -11.5406    149.3718    180.0926   1.0162722139e+02   1.7569909850e+01    0.2910541    0.2181768 -83.27 0.0009316268    1.842    0.457
        23 -11.4855     99.3854    180.6609   1.1195508602e+02   2.5815280701e+01    0.2460767    0.1980431  50.41 0.0006004809    1.128    0.114
        24 -10.8787    204.4369    176.0033   9.0356750533e+01   8.1046770363e+00    0.4381687    0.2046184 -49.21  0.001825877    3.336    0.700
        25  -9.6544    169.2156    178.1892   9.7383902899e+01   1.4279654673e+01    0.1711597    0.1465714  66.23 0.0002977153    1.331    0.249
        26  -9.4558     69.5082    172.9342   1.1731726305e+02   3.1567706449e+01     0.188728    0.1320403  65.46 0.0003726823    1.259    0.205
        27  -9.4645     65.8049    170.8692   1.1788178089e+02   3.2461221858e+01    0.1871481    0.1323428  68.67 0.0006318244    1.247    0.198
        28 -10.6126    164.6852    171.0331   9.7031323213e+01   1.6281170355e+01    0.2241476    0.2000812  69.90 0.0004620608    1.258    0.205
        29 -10.0524    200.9832    168.5012   8.9577886253e+01   9.8131260650e+00    0.2294718    0.2220108  45.18  0.000722264    1.239    0.193
        30 -10.2979    204.9369    166.8560   8.8536300987e+01   9.3051542011e+00     0.310639    0.1769108  40.11  0.001109022    1.567    0.362
        31 -11.2530    230.3833    166.6594   8.4022511298e+01   4.6328774008e+00     0.309827    0.1420718 -44.76  0.001315442    3.123    0.680
        32 -11.5246    192.8626    164.9975   9.0421511093e+01   1.1877925507e+01     0.388108    0.2891425 -54.09  0.001535715    1.761    0.432
        33  -9.5319     55.2780    207.6550   1.2323904538e+02   2.6841201360e+01    0.1148076   0.06230547  67.55 0.0007006876    1.631    0.387
        34 -10.6503     87.7258    202.6076   1.1674840517e+02   2.3527402590e+01    0.2988274    0.2273606 -78.79  0.002078926    1.382    0.276
        35 -10.7529      5.8052    161.2482   1.2969653178e+02   4.0639330693e+01    0.1743933    0.1296489  42.45 0.0005835035    1.482    0.325
        36 -11.3214    188.6373    154.6693   8.9189819667e+01   1.4309946608e+01    0.5525056    0.3716383  58.55  0.002756125    1.740    0.425
        37 -12.7381     99.4277    152.8199   1.0802260141e+02   3.1299001247e+01    0.5490606    0.4364409 -31.27  0.003132421    1.725    0.420
        38 -11.7218    133.9835    145.9956   9.8932616050e+01   2.6624506712e+01      1.12363    0.2967018 -55.06  0.003001133    5.930    0.831
        39 -10.5693    113.0619    150.8450   1.0456848447e+02   2.9437822083e+01    0.2459551    0.1703257 -79.01  0.001263497    1.725    0.420
        40 -10.9096    174.6113    148.9003   9.0795401193e+01   1.8076266329e+01     0.275805      0.22822  49.90 0.0006976791    1.180    0.153
        41 -10.4521    161.2603    148.8916   9.3555465129e+01   2.0762494559e+01     0.300024     0.204532 -87.02  0.001275413    2.696    0.629
        42 -11.1409    143.8102    146.3690   9.6815203961e+01   2.4669737374e+01    0.3231606    0.2080225 -58.50  0.001555626    1.813    0.448
        43 -12.2423    109.3270    139.1761   1.0338065790e+02   3.2481749558e+01    0.5833746     0.339696 -35.37  0.002553883    2.491    0.599
        44 -12.6942     98.3371    138.4361   1.0589878205e+02   3.4485917398e+01    0.2530303    0.2393856  70.63 0.0007965842    1.080    0.074
        45  -9.2025    117.6535    146.3221   1.0272035970e+02   2.9551828682e+01    0.1442306    0.1011848  75.02 0.0007049678    1.737    0.424
        46 -11.5796    105.9750    130.7320   1.0260771256e+02   3.4843595123e+01    0.3643846    0.2998548 -76.26  0.001274986    1.238    0.193
        47 -11.5664    104.1325    125.5234   1.0204534983e+02   3.6277211753e+01    0.2799289    0.2556601 -16.06 0.0006620091    1.340    0.254
        48 -11.0245    135.5832    128.3206   9.4959187151e+01   2.9818008965e+01    0.5369544    0.1393702 -50.10  0.001557293    4.346    0.770
        49 -10.4911    160.5284    127.6792   8.9167445417e+01   2.4792840109e+01    0.3183387     0.237469 -79.71  0.001482112    1.936    0.484
        50 -10.4756    120.6716    123.6537   9.7529893383e+01   3.3674029067e+01    0.2565032    0.1712009 -38.98 0.0007820093    1.683    0.406
        51 -11.0941    116.2722    129.6810   9.9868735444e+01   3.3232743747e+01    0.3018768    0.2447865 -30.10 0.0006967095    1.499    0.333
        52 -10.1655    111.0501    118.8432   9.8898814228e+01   3.6480700550e+01    0.2055223    0.1972035  82.57 0.0004674206    1.014    0.014
        53 -12.5592     57.3855    213.0181   1.2325006446e+02   2.5656889595e+01    0.2893572    0.1752646  47.45 0.0008987439    1.363    0.266
        54 -10.4582    168.1098    112.9261   8.4004862620e+01   2.5861192185e+01    0.3137335     0.238327 -62.17 0.0009093565    1.616    0.381
        55 -11.2876    119.2790    109.6398   9.4700975954e+01   3.6881675424e+01     0.539663    0.3510485  46.32  0.002557376    1.538    0.350
        56 -10.5500    205.4113    110.0923   7.5910571084e+01   1.7915844355e+01    0.3254772    0.2122116  43.62 0.0009827887    1.511    0.338
        57 -10.2951    134.5831    105.3267   8.9795983436e+01   3.4666537433e+01    0.2912355    0.1418523 -48.76  0.001137758    2.126    0.530
        58  -9.3922     74.4278    103.4967   1.0554234504e+02   4.5880023896e+01    0.1347171    0.1209454 -72.27 0.0001313556    1.012    0.012
        59 -11.7114     64.4078    208.5700   1.2164311869e+02   2.5567827731e+01     0.367076    0.3192496 -42.33  0.002128974    1.808    0.447
        60  -9.6016    128.2789     95.3607   8.8771599514e+01   3.8014056479e+01    0.2078494    0.1389482  55.97 0.0009363382    1.610    0.379
        61  -9.3636    152.4032     80.7603   7.8765073185e+01   3.5412727901e+01    0.2068611    0.1476776 -24.25 0.0005093263    1.539    0.350
        62  -9.7361     74.0656     73.6599   9.8433505838e+01   5.2550107361e+01    0.1748253    0.1729193 -28.43 0.0004322848    1.093    0.085
        63 -12.3646    167.7099     67.5859   7.1468150670e+01   3.3956035483e+01     1.202429    0.6415613 -64.55   0.00170291    4.002    0.750
        64 -11.9968    193.8986    196.0136   9.5749976747e+01   7.2456061130e+00     1.025579    0.6129149 -66.88  0.003904338    5.334    0.813
        65 -11.7647    158.1075    235.7509   1.0764846637e+02   7.8911709702e+00    0.4226174    0.2155627  40.16  0.002051542    1.504    0.335
        66  -9.6380    168.8931    234.5184   1.0566120376e+02   6.3800703872e+00    0.1496563    0.1299457  35.07  0.000262756    1.156    0.135
        67 -12.0733     72.2398    230.2721   1.2191393053e+02   2.0973926527e+01    0.2553336    0.1286139  53.84 0.0007522006    1.506    0.336
        68  99.0000      6.4652    228.0081   1.3255691718e+02   2.8511577248e+01    0.3624028    0.2022227  20.90  0.002247701    3.622    0.724
        69  -9.8006     96.1771     15.7468   6.9622882464e+01   5.8845269365e+01    0.1872263    0.1869967  -8.72 0.0005517855    1.199    0.166
        70  -9.7841     91.6646     13.9827   7.0147673500e+01   6.0027963337e+01    0.1865837    0.1638526  -9.19 0.0008355857    1.075    0.070
