#   1 NUMBER                 Running object number                                     
#   2 MAG_AUTO               Kron-like elliptical aperture magnitude                    [mag]
#   3 X_IMAGE                Object position along x                                    [pixel]
#   4 Y_IMAGE                Object position along y                                    [pixel]
#   5 X_WORLD                Barycenter position along world x axis                     [deg]
#   6 Y_WORLD                Barycenter position along world y axis                     [deg]
#   7 A_WORLD                Profile RMS along major axis (world units)                 [deg]
#   8 B_WORLD                Profile RMS along minor axis (world units)                 [deg]
#   9 THETA_WORLD            Position angle (CCW/world-x)                               [deg]
#  10 FWHM_WORLD             FWHM assuming a gaussian core                              [deg]
#  11 ELONGATION             A_IMAGE/B_IMAGE                                           
#  12 ELLIPTICITY            1 - B_IMAGE/A_IMAGE                                       
         1 -12.1706    128.4825     39.3077   6.6083549178e+01   4.8242739539e+01    0.4093904    0.2819906  44.20   0.00109309    1.400    0.286
         2 -16.7783    242.9454    227.3436   8.9275886060e+01  -7.7436571801e+00     3.835085     1.317367 -31.87  0.009926543    3.123    0.680
         3 -17.1750     12.4872    223.0903   1.3034082439e+02   2.6967126960e+01     3.970176      1.43299 -74.60   0.02312951    2.405    0.584
         4 -21.0810    132.4819    168.1998   1.0043503160e+02   2.1344776870e+01     10.36703     7.891508  48.31   0.04833215    1.243    0.195
         5 -10.4596    112.1391    229.3886   1.1336674418e+02   1.3156060717e+01   0.09840209   0.07853116 -49.98 0.0006376482    1.619    0.382
         6 -10.8718     69.1932    228.1268   1.2103231982e+02   1.9537654553e+01    0.1124344   0.07901827 -76.41  0.000296737    1.451    0.311
         7 -10.4091    214.1830    227.0610   9.4218273041e+01  -3.2340711984e+00    0.1503164    0.1226703  22.16   0.00101312    1.046    0.044
         8 -10.9583     64.7162    226.9802   1.2173031734e+02   2.0328795547e+01    0.1313549    0.1218212  88.68 0.0005829067    1.400    0.286
         9 -10.7435    195.5775    240.4001   9.9568857202e+01  -1.9276686023e+00    0.1186831    0.0922083  31.95  0.000143286    1.021    0.021
        10 -11.1851     71.4531    224.7973   1.2034680504e+02   1.9838446059e+01    0.1686203     0.117469  82.68 0.0002963314    1.297    0.229
        11 -12.0435    158.6656    238.9398   1.0598742623e+02   4.2348292907e+00    0.3175752    0.1322588  44.52  0.001564965    1.926    0.481
        12 -11.0432     57.6597    219.2441   1.2236546242e+02   2.2649231259e+01    0.2334938    0.1323561 -71.73   0.00129149    1.737    0.424
        13 -10.7976     35.0809    221.0829   1.2646449914e+02   2.4977394170e+01     0.324604    0.1910754 -74.80   0.00169507    1.611    0.379
        14  -9.7857    215.7625    221.9544   9.3100191645e+01  -2.8413991831e+00    0.2601688    0.1193132  36.17 0.0005646997    1.842    0.457
        15 -10.2717     46.4617    220.9159   1.2448097922e+02   2.3702529899e+01    0.1372758   0.09097973 -86.36 0.0001491935    1.340    0.254
        16 -11.3218     41.7347    218.7119   1.2515347160e+02   2.4665289763e+01    0.1578465    0.1261377  81.37 0.0001605956    1.154    0.134
        17 -12.4149     45.0552    216.7140   1.2442542720e+02   2.4654465417e+01    0.2377414    0.1706358  87.44 0.0004738921    1.179    0.152
        18 -10.9115     51.1678    217.2645   1.2337575721e+02   2.3821463050e+01    0.1677604    0.1503432 -67.39 0.0009906546    1.521    0.342
        19 -10.1082    164.7756    237.3218   1.0466623256e+02   3.4724176564e+00    0.1597158     0.105454  31.37 0.0009557613    1.397    0.284
        20 -10.3114    190.2849    243.1259   1.0089426944e+02  -1.4287458754e+00    0.1090351   0.06079417  33.40 0.0006055063    1.485    0.327
        21 -11.2219     95.5418    239.4872   1.1738345372e+02   1.3930968189e+01    0.1250186   0.07942971  64.65 0.0001945314    1.401    0.286
        22 -11.3021     21.3350    159.2685   1.2445992760e+02   3.8998502375e+01    0.2540438    0.1976754  26.90  0.001500784    1.724    0.420
        23 -10.5544     10.5436    158.3075   1.2669179317e+02   4.0137793832e+01    0.1795294    0.1485108 -83.73 0.0005199741    1.179    0.152
        24  -9.8359     11.7257    154.7031   1.2614969756e+02   4.0828688821e+01    0.1697862    0.1276846 -79.85 0.0002084101    1.121    0.108
        25 -10.9247     24.8973    153.2716   1.2311713441e+02   4.0003683496e+01    0.2111607    0.1531462 -68.08 0.0003599465    1.267    0.211
        26 -11.0593    227.3533    152.3261   7.7415337411e+01   5.2699366447e+00    0.2932627    0.2055486   6.12 0.0007554282    1.633    0.387
        27 -10.1050    141.9550    236.9129   1.0876856561e+02   7.2356395509e+00    0.2205816    0.1430788  23.95  0.001239478    1.964    0.491
        28 -10.1384    189.6141    237.6163   1.0022607702e+02  -6.1323372386e-01    0.1186046   0.09307259  31.38  0.000252336    1.015    0.015
        29 -11.6723    100.8901    236.9438   1.1619361339e+02   1.3576777893e+01    0.1562211   0.06992901 -70.82 0.0004685928    2.893    0.654
        30 -10.6931    222.6545    142.5968   7.6067938537e+01   7.8087498528e+00    0.2592995    0.2506825 -51.18 0.0008756542    1.233    0.189
        31 -11.0351    180.6763    245.9204   1.0297599664e+02  -2.5794047539e-01     0.134007    0.1260709  22.84  0.001013164    1.234    0.190
        32 -11.5923    216.9811    140.0070   7.6517371705e+01   9.4201830182e+00    0.3313733    0.2944729 -30.18 0.0006311218    1.125    0.111
        33 -12.3926    216.9593    133.9473   7.5093811389e+01   1.0465400160e+01    0.4629444    0.3375698 -54.69  0.001798408    1.691    0.409
        34 -11.0730     27.0973    139.0895   1.2111525182e+02   4.3015922476e+01    0.2168361    0.1424623 -66.43  0.000318124    1.290    0.225
        35  99.0000    144.2155    231.3253   1.0765480731e+02   7.7326426394e+00    0.2553772    0.1756117  12.24  0.001381195    2.310    0.567
        36 -10.7029    223.1650    133.2438   7.3788427347e+01   9.2740379975e+00    0.2164823    0.1897516   8.97   0.00061421    1.115    0.103
        37 -10.9342    149.4902    235.5326   1.0721994511e+02   6.2272362794e+00    0.1742289    0.1209224 -46.54  0.001076931    1.799    0.444
        38 -10.9602     34.3758    128.6166   1.1799690998e+02   4.4762924970e+01    0.2275141    0.1796159 -56.74 0.0003632098    1.264    0.209
        39 -11.1073    147.3833    232.5869   1.0723039736e+02   7.0192766585e+00    0.1499094    0.1313123  64.57 0.0005917654    1.193    0.162
        40 -11.9137     37.7852    120.6609   1.1596050286e+02   4.6297196387e+01    0.3355218    0.2180902  82.70 0.0008433679    1.663    0.399
        41 -10.5818     19.2007    125.8176   1.2154782208e+02   4.6737209930e+01    0.1746147    0.1299352 -87.37 0.0003525344    1.129    0.115
        42 -10.5515    214.6816    234.2200   9.5268735627e+01  -4.1962552696e+00    0.1673823    0.1550207 -53.31 0.0005869721    1.638    0.389
        43  99.0000    129.4060    244.4340   1.1189900437e+02   8.0688817304e+00    0.3460412    0.1857788  71.87  0.001618232    3.224    0.690
        44  -9.4646    113.8062    246.7402   1.1488526475e+02   1.0086325123e+01    0.1506277    0.1177278  51.92  0.001074668    1.058    0.055
        45 -11.5335     47.2674    113.6269   1.1218169211e+02   4.6981658819e+01    0.2242163    0.1617275 -77.89 0.0003847262    1.284    0.221
        46 -11.7898     44.4757    111.5291   1.1261212218e+02   4.7773220892e+01    0.2692233    0.2133254 -21.52  0.001607173    1.631    0.387
        47  -9.9829     23.1351    111.7999   1.1869168132e+02   4.9668242898e+01    0.1769984    0.1377834 -87.56 0.0003816092    1.172    0.146
        48 -11.7177    170.6894    232.6576   1.0294746240e+02   3.1663731669e+00    0.1431006    0.1246707  50.33 0.0008523288    1.184    0.155
        49 -11.2401     27.1190    105.0558   1.1654948952e+02   5.0913480554e+01    0.2154946    0.1713146  48.10  0.001403673    1.474    0.322
        50 -12.0134    208.0411    231.7150   9.6049169323e+01  -2.8309866211e+00    0.1741315     0.156334  11.26 0.0006047819    1.198    0.165
        51  -9.1959    200.1877    232.2076   9.7526599932e+01  -1.6250068967e+00    0.1007817   0.07451394  16.63 0.0006238496    1.289    0.224
        52 -10.9038    103.2174    231.3766   1.1521451780e+02   1.4170530014e+01    0.1766717    0.1228119  75.22  0.001122298    1.448    0.309
        53 -10.4997     46.1670    242.4918   1.2596766746e+02   1.9901969374e+01    0.1249371   0.08266558  52.11 0.0003190146    1.268    0.211
        54 -10.4142     55.9054    232.3466   1.2367074017e+02   2.0484632430e+01    0.1248403   0.08153372  54.04 0.0001209646    1.232    0.188
        55 -11.0511     54.1315     91.6299   1.0569118983e+02   5.1369399461e+01    0.2213554    0.1676523 -66.84  0.000573826    1.236    0.191
        56  -9.9476    199.4979    227.0402   9.6850326459e+01  -8.3481163399e-01    0.2385961     0.119914 -44.25  0.001223616    2.537    0.606
        57 -10.8061     45.7012     88.1195   1.0760441422e+02   5.3112334706e+01    0.2467908    0.1873845  15.95 0.0005903992    1.629    0.386
        58 -12.0312     78.2153     85.6390   9.6498412354e+01   4.9491310534e+01    0.3465045    0.2542411  -9.14 0.0007907812    1.794    0.443
        59 -12.3904     60.8194     81.1347   1.0092253360e+02   5.2941433935e+01    0.3417569    0.2360933 -38.60 0.0004049542    1.366    0.268
        60 -11.2438    196.6185    230.7674   9.7947995345e+01  -8.5486801547e-01    0.1397346    0.1219617  28.46 0.0002631851    1.127    0.112
        61  -9.9731    199.5830    221.3827   9.5934801149e+01  -8.5732505728e-02    0.2234626    0.1158358  31.30  0.001127209    1.778    0.438
        62  -9.8117    195.4340    227.4316   9.7649109704e+01  -2.1500141150e-01    0.1681673    0.1325438 -37.25 0.0001182714    1.538    0.350
        63 -11.1718    195.6509    224.1870   9.7102241204e+01   1.8956400460e-01    0.1697135    0.1385647  16.29 0.0002312736    1.145    0.127
        64  -9.5345     85.3791    230.2137   1.1832801647e+02   1.6960300527e+01    0.1252977   0.09293731  78.64 0.0005269817    1.227    0.185
        65 -11.0935     79.3631    230.5407   1.1943322212e+02   1.7739158266e+01    0.1198149   0.09272417  56.24 0.0002240746    1.121    0.108
        66 -12.4758    139.0893     80.5538   7.7442421116e+01   3.8665317549e+01    0.5365809    0.4063439  71.79  0.001966036    1.667    0.400
        67 -11.4887    204.0552    229.2950   9.6382176154e+01  -1.8777684328e+00    0.1774369    0.1215811  30.15  0.000507794    1.194    0.163
