#   1 NUMBER                 Running object number                                     
#   2 MAG_AUTO               Kron-like elliptical aperture magnitude                    [mag]
#   3 X_IMAGE                Object position along x                                    [pixel]
#   4 Y_IMAGE                Object position along y                                    [pixel]
#   5 X_WORLD                Barycenter position along world x axis                     [deg]
#   6 Y_WORLD                Barycenter position along world y axis                     [deg]
#   7 A_WORLD                Profile RMS along major axis (world units)                 [deg]
#   8 B_WORLD                Profile RMS along minor axis (world units)                 [deg]
#   9 THETA_WORLD            Position angle (CCW/world-x)                               [deg]
#  10 FWHM_WORLD             FWHM assuming a gaussian core                              [deg]
#  11 ELONGATION             A_IMAGE/B_IMAGE                                           
#  12 ELLIPTICITY            1 - B_IMAGE/A_IMAGE                                       
         1 -13.1259    223.1597     21.3414   5.8543247113e+01   2.7876208556e+01     2.035086    0.3391595 -39.16  0.007154015    4.414    0.773
         2 -13.7440    242.0767     81.6002   6.9043828785e+01   1.5080029428e+01     2.640767    0.9605479 -52.92   0.00990802    2.896    0.655
         3 -12.8137    227.3329     53.9123   6.4973792154e+01   2.2589628323e+01     1.062975    0.7217767 -60.53  0.005939222    1.339    0.253
         4 -13.5509    241.5534    112.0705   7.5605618486e+01   9.9015886973e+00      3.23418     0.932615 -44.12   0.01120309    2.992    0.666
         5 -14.0001    235.2972     28.2330   5.8778644519e+01   2.4392203167e+01     2.318218    0.8891492 -32.53   0.01004152    3.162    0.684
         6 -13.2150    241.5940     48.8292   6.2299888446e+01   2.0260573466e+01     1.951735    0.5347371 -41.65  0.007610814    3.075    0.675
         7 -11.4489    168.7077     37.3656   6.9195099784e+01   3.8503914582e+01    0.3884446    0.2028641 -43.21  0.001829842    2.012    0.503
         8 -13.7852    248.1682     43.1383   6.0493704019e+01   1.9697290944e+01     4.422189          nan -40.50   0.01073774    8.423    0.881
         9 -12.9865    247.8731     13.7955   5.4920520678e+01   2.3540069365e+01     1.183055    0.6366672 -41.98  0.006984679    1.794    0.443
        10  -9.7879    136.6266     25.3931   7.1480774639e+01   4.7437252986e+01    0.3128582    0.1282461 -27.59 0.0008948465    2.823    0.646
        11 -11.0235    208.5444     22.2387   6.0234157678e+01   3.1031571810e+01    0.4444181    0.2131728 -35.82  0.002213928    2.216    0.549
        12  -9.1329    161.0000     21.9778   6.6321307584e+01   4.2136139496e+01    0.1918192   0.07527151 -29.18 0.0008015192    2.936    0.659
        13 -10.1626    155.8416     16.4907   6.5636222119e+01   4.3916172645e+01    0.3043658     0.170692 -37.12  0.001304662    1.972    0.493
        14  -9.1670    142.6064     11.7823   6.6432072934e+01   4.7432849691e+01    0.1611785    0.1141091 -43.12  0.000883004    1.620    0.383
        15  -8.7110    167.0000      8.9275   6.2055761417e+01   4.2055588557e+01    0.1756156   0.07253315 -27.62 0.0007504594    2.869    0.651
        16  -8.4449    160.3154      9.3163   6.3064320400e+01   4.3571463646e+01    0.1277128   0.08375853  43.22 0.0004935547    1.648    0.393
        17  -9.5683      1.9533      7.1724   1.0911729876e+02   7.1624907164e+01     0.177887    0.1110476 -28.74 0.0007025186    1.278    0.218
        18 -10.8565    218.1385      5.2120   5.5704215204e+01   3.0799344485e+01     0.378947    0.2002186 -42.44  0.002160111    1.872    0.466
        19  -9.5318    175.9165      4.9390   5.9947913413e+01   4.0365979860e+01    0.1948826    0.1256084 -68.27 0.0008939371    1.638    0.390
        20  -9.7184     50.8768      3.7143   8.6232548616e+01   6.6320995654e+01     0.175363    0.1236782   4.46  0.000285071    1.242    0.195
        21  -9.0636    153.3021      3.6723   6.2551066347e+01   4.5697963514e+01    0.1241816   0.08528205 -73.29 0.0007032297    1.644    0.392
        22  -9.1958    206.1668      1.9394   5.6100773916e+01   3.3777573665e+01    0.1809975    0.1079099 -79.70 0.0007842283    1.553    0.356
        23  -9.4653    159.0158      2.3007   6.1407417849e+01   4.4501548880e+01    0.1789449    0.1384081  74.69 0.0009334543    1.074    0.069
        24  -9.1952     14.7054      2.0392   1.0056227476e+02   7.1114928097e+01    0.1449424    0.1006489  -9.60 0.0001901155    1.093    0.085
        25  -9.9919    239.8979    221.6708   9.8117742348e+01  -9.1859802788e+00    0.2368625    0.2259026 -55.67  0.001372103    1.497    0.332
        26 -10.1448    210.3814    249.9684   1.0858428138e+02  -9.0845835618e+00    0.2592146    0.1495674 -30.02 0.0006852982    1.871    0.466
        27 -10.6855    210.0172    243.4295   1.0757292023e+02  -8.0428901012e+00    0.4779472    0.2034091 -24.44  0.001706088    4.341    0.770
        28 -11.2183    193.4230    247.1649   1.1142140242e+02  -6.0292161376e+00    0.5403914    0.2645088 -42.90  0.002652815    2.275    0.560
        29 -10.2729    187.0288    246.7251   1.1261469554e+02  -4.9351665696e+00    0.3745225    0.1871534 -36.57  0.001801761    2.300    0.565
        30 -10.9039    168.0356    250.0018   1.1691295182e+02  -2.3760796376e+00    0.2961163     0.166088  31.93 0.0006811587    1.661    0.398
        31 -11.0390    247.9238    216.9882   9.5812376843e+01  -9.6289573004e+00    0.5554901    0.2607548 -41.36  0.002717607    2.100    0.524
        32 -10.3393    247.1449    207.1807   9.4120398919e+01  -7.9704245770e+00     0.426493    0.2107159 -53.45  0.001731644    3.430    0.708
        33 -10.0654    243.3449    201.3742   9.3693178892e+01  -6.4476679828e+00    0.3586887    0.2061913 -43.70  0.001835244    1.749    0.428
        34 -10.8136    217.6917    213.9828   1.0087461649e+02  -4.4816565401e+00    0.6043659    0.3738001 -62.11  0.002636736    2.967    0.663
        35  -9.5162    212.5226    211.5329   1.0142594972e+02  -3.2009549989e+00    0.3076891    0.1839235 -43.34  0.001086528    1.724    0.420
        36  -9.9522    232.8549    213.3252   9.7872786675e+01  -6.7922619796e+00     0.291892    0.1643324 -46.41  0.001447355    1.984    0.496
        37  -9.9900    230.2511    187.7962   9.3424726217e+01  -1.9855955810e+00    0.3013225    0.2060028 -57.74  0.001118367    1.925    0.481
        38 -10.4643    231.1634    197.3077   9.5130205326e+01  -3.8174243313e+00    0.7123454    0.1656926 -42.67   0.00224148    4.134    0.758
        39 -10.4330    240.4024    208.6629   9.5610382146e+01  -7.1933114638e+00    0.4290618    0.2660086 -57.65   0.00202094    2.666    0.625
        40 -10.1891    235.2847    203.5933   9.5581844778e+01  -5.5578285424e+00    0.3805498    0.2654809 -67.45  0.001223342    2.712    0.631
        41  -9.6586    229.4231    207.7004   9.7454441338e+01  -5.3162649362e+00    0.2473005    0.1201333 -44.69  0.001120838    2.139    0.533
        42 -10.9511    246.8496    194.0990   9.1667475434e+01  -5.7775229739e+00    0.4135182    0.3249051 -65.42  0.001630647    1.920    0.479
        43 -10.2074    243.9682    188.9440   9.1168162511e+01  -4.4487060186e+00    0.2847653    0.2550896 -71.21   0.00118219    1.534    0.348
        44 -10.0487    250.1002    201.2576   9.2475217503e+01  -7.4550311717e+00    0.4021974    0.1707066 -40.71  0.001391148    2.173    0.540
        45  -9.8459    224.4606    193.4439   9.5631838006e+01  -2.0129283351e+00    0.2402401    0.1229582 -50.49  0.001024666    2.302    0.566
        46 -10.2732    237.1500    188.0444   9.2210017259e+01  -3.1847291520e+00    0.3125967    0.2058744 -48.78  0.001094255    1.641    0.391
        47  -8.6398    215.3266    187.6438   9.6234220294e+01   6.4667336650e-01    0.1380413    0.1135926 -81.61 0.0005519129    1.775    0.437
        48  -9.5156    231.4691    160.0116   8.7505106263e+01   2.9176095518e+00    0.2307099    0.1641785 -52.40 0.0008150845    1.459    0.315
        49 -10.9591    246.3249    169.9709   8.6968717609e+01  -1.5148910791e+00     0.506787    0.3671248  59.84  0.002716587    1.888    0.470
        50 -10.1446    249.5063    185.0538   8.9436068304e+01  -4.6630688528e+00    0.3873984    0.1836276 -49.36  0.001680904    2.432    0.589
        51 -10.7867    247.6793    178.3657   8.8424704285e+01  -3.2168694691e+00    0.5600988    0.2752128 -52.71  0.002345152    2.657    0.624
        52  -9.6588    241.6556    173.3219   8.8454046810e+01  -1.3256932834e+00    0.3234562    0.2522271  87.91  0.001675532    2.121    0.529
        53 -10.8077    237.6456    170.0402   8.8489690822e+01  -4.4095779093e-02    0.4525529    0.2499205 -49.68  0.001498471    1.902    0.474
        54 -10.2897    234.3266    164.8719   8.8011598375e+01   1.4920086616e+00    0.3707997    0.1881795 -53.46  0.001523104    2.392    0.582
        55  -9.6007    224.0234    184.5251   9.3935005992e+01  -3.1645768957e-01    0.2621849    0.1863603 -54.83 0.0008273649    1.661    0.398
        56 -10.5581    241.5107    181.1252   9.0051556723e+01  -2.6884705195e+00    0.4731893    0.2483363 -50.68  0.002119921    2.195    0.544
        57 -10.8766    235.2545    181.7285   9.1292056643e+01  -1.7471802610e+00    0.3315397    0.2569089 -29.87   0.00187772    1.168    0.144
        58  -8.7846    229.6647    182.3038   9.2431300924e+01  -8.9331066490e-01     0.130244    0.1107996 -80.36 0.0007038215    1.665    0.399
        59  -9.2043    183.6045    183.2594   1.0184943717e+02   7.4669063077e+00    0.2079689     0.137534 -35.62 0.0009482293    1.577    0.366
        60  -8.8050    203.6640    184.3360   9.7882963857e+01   3.4137063695e+00    0.1427002    0.1167198 -87.88 0.0007051873    1.746    0.427
        61  -8.7078    205.3199    177.6481   9.6175436477e+01   4.4132493933e+00    0.1448601     0.116782 -82.23 0.0003778964    1.746    0.427
        62  -9.0219    182.3407    176.6774   1.0076798816e+02   9.0868869153e+00    0.1519823    0.1206211  86.32  0.000705069    1.723    0.420
        63  -9.5664    232.7914    175.1093   9.0396682109e+01  -1.2365003116e-01    0.2105509    0.1841914 -53.26  0.001224516    1.270    0.213
        64  -9.7706    223.6394    174.0557   9.1869356347e+01   1.7017686841e+00    0.3061552    0.1581268 -50.79  0.001287712    2.146    0.534
        65  -9.7269    227.9217    171.7084   9.0587878327e+01   1.3687134780e+00    0.2765306    0.1906748 -49.56  0.001276174    1.492    0.330
        66 -10.1294    219.1267    168.9615   9.1660846415e+01   3.5024601803e+00    0.3068357     0.249153 -62.09  0.001331224    1.448    0.309
        67  -9.4127    205.4269    170.1979   9.4594194316e+01   5.8699531848e+00    0.2106116     0.134081 -53.27 0.0009439865    1.717    0.418
        68  -9.5564    229.0258    166.5031   8.9304754137e+01   2.1441232228e+00    0.2269747    0.1756678 -38.28 0.0006989039    1.179    0.152
        69  -9.7350    240.2295    164.4249   8.6883332436e+01   5.2913665103e-01    0.2723475    0.2140714 -81.56  0.001083816    1.897    0.473
        70 -10.4375    237.7717    159.1230   8.6210538606e+01   1.9390045245e+00    0.3896267    0.2714275 -60.82  0.001242449    1.775    0.436
        71  -9.7122    233.6053    154.3665   8.5938137766e+01   3.5849356883e+00    0.3111837    0.2378253 -62.01  0.001250935    1.522    0.343
        72 -10.1790    212.8625    163.5476   9.1716064286e+01   5.7485016508e+00    0.4074415    0.2241704 -46.06  0.001512767    1.753    0.430
        73  -9.2586    199.3986    165.2486   9.4757374018e+01   8.0537508825e+00     0.215805    0.1362589 -52.23 0.0009523449    1.673    0.402
        74  -9.3721    224.3705    248.2388   1.0565081168e+02  -1.0895670102e+01    0.1575517    0.1112898 -43.25 0.0009250824    1.712    0.416
        75 -11.4480    235.5012    136.1238   8.1725286253e+01   6.6556138328e+00     1.177033    0.4946078 -52.82  0.004317767    2.796    0.642
        76 -12.6096    230.6108     90.0702   7.2433104732e+01   1.6051193294e+01     1.606083    0.8412497 -69.74  0.006096753    3.045    0.672
        77  -9.6167    218.4091    248.2372   1.0677178038e+02  -1.0025845239e+01    0.1565695    0.1154816 -45.35  0.000948431    1.693    0.409
        78 -11.5132    176.4252    245.5704   1.1455083789e+02  -3.0158101644e+00    0.5136981    0.2869204 -37.46  0.002590865    2.071    0.517
        79 -10.3181    151.1977    249.5702   1.2024150136e+02   4.8570969819e-01    0.1907353    0.1626101 -38.46  0.001190746    1.371    0.271
        80  -9.0571    232.4964    247.0000   1.0393409783e+02  -1.1876416554e+01    0.1479195    0.1075894 -60.14 0.0008105121    2.554    0.608
        81  -9.6225    221.1866    161.9080   8.9783627008e+01   4.4743552992e+00    0.2206149    0.1913832 -63.13 0.0009150912    1.298    0.229
        82 -10.0297    226.8285    158.0511   8.7925890535e+01   4.1504655586e+00    0.4418356    0.1753858 -45.77  0.001674566    2.395    0.583
        83  -9.0794    222.3349    157.1188   8.8549543216e+01   5.1809105392e+00    0.2108673    0.1216365 -49.78 0.0007378864    1.748    0.428
        84  -9.2615    216.4713    156.9859   8.9616880869e+01   6.3388144351e+00    0.2054102    0.1207854 -61.94 0.0008086778    2.453    0.592
        85  -9.1295    197.2795    157.6527   9.3540332540e+01   1.0040838351e+01    0.1505463    0.1181332 -75.68 0.0004698217    1.639    0.390
        86  -9.9896    205.6497    154.9298   9.1260860599e+01   8.8967706711e+00    0.3201193    0.2818667 -33.47  0.001513276    1.090    0.083
        87  -9.1116    202.3160    151.6955   9.1209007576e+01   1.0232978539e+01    0.2587903     0.135233 -51.08 0.0008972116    2.001    0.500
        88  -9.4618    221.7622    152.8135   8.7730264372e+01   6.1250276349e+00    0.1969264    0.1699048 -73.09  0.001064625    1.354    0.261
        89  -9.6613    228.1710    152.1466   8.6426503112e+01   5.0238146486e+00    0.2740157    0.1870728 -48.48 0.0008733291    1.403    0.287
        90  -8.5927    211.6613    152.2995   8.9514963561e+01   8.2163168125e+00    0.1465752    0.1163578 -81.73 0.0004221399    1.663    0.399
        91  -9.2726    196.5847    150.7253   9.2148137610e+01   1.1617402394e+01    0.2148501    0.1388917 -52.40 0.0009447884    1.591    0.371
        92 -10.3681    223.6907    147.2551   8.6176884742e+01   6.8269298394e+00     0.309796    0.2372644  70.93  0.001180841    1.678    0.404
        93  -8.8939    200.3157    145.6597   9.0259991892e+01   1.1883482118e+01    0.1546479    0.1184583 -78.14 0.0004416117    1.705    0.413
        94  -9.1044    208.2686    145.6334   8.8695301078e+01   1.0239788394e+01    0.1514814    0.1134233 -69.69 0.0006994531    1.659    0.397
        95  -9.1668    214.4591    142.9639   8.6928763988e+01   9.5075619443e+00    0.2284163    0.1354201 -45.11 0.0008207651    1.573    0.364
        96  -8.8595    194.3421    143.6909   9.1019418919e+01   1.3550276857e+01    0.1554637    0.1205101 -84.23 0.0004627126    1.693    0.409
        97  -9.6334    208.8016    138.6487   8.7028921233e+01   1.1532337420e+01    0.2995941    0.1878643 -64.97  0.001236301    2.157    0.536
        98  -9.9368    224.8635    134.2802   8.3133557195e+01   9.0984550365e+00     0.366077    0.2624322  65.10    0.0018155    1.682    0.406
        99 -11.9964    244.5508    154.6405   8.4126220635e+01   1.5542132894e+00     1.395697    0.5142105 -49.18  0.005079781    2.946    0.661
       100  -9.9918    220.9958    129.4597   8.2741811138e+01   1.0813412072e+01    0.2912474    0.1894028 -56.44 0.0009557427    1.611    0.379
       101  -9.1901    212.2963    129.6420   8.4341076801e+01   1.2589744422e+01      0.15406    0.1119142 -71.25 0.0003734876    1.701    0.412
       102  -9.7868    200.0600    126.9673   8.6027368643e+01   1.5748923365e+01    0.2474273    0.1804012 -74.96  0.001008537    1.747    0.428
       103 -10.2330    227.5712    125.5424   8.0746159894e+01   1.0219073257e+01    0.3076979    0.2353949 -64.02  0.001263671    1.388    0.280
       104  -9.7522    180.4292    125.4498   8.9638472488e+01   2.0413294277e+01    0.3498753    0.2357797 -83.37  0.001372146    2.347    0.574
       105 -11.2658    221.0106    122.3801   8.1156347320e+01   1.2171349363e+01     0.494552    0.2860146 -65.29  0.001976175    2.457    0.593
       106  -8.9407    203.2979    121.6635   8.4174427585e+01   1.6102227383e+01    0.1550918    0.1141098 -73.38 0.0003713357    1.654    0.396
       107 -11.1201    230.6941    115.2689   7.7972140857e+01   1.1506321574e+01    0.8390242     0.173855 -45.07  0.002345241    4.361    0.771
       108 -10.9633    227.4294    106.7041   7.6594777416e+01   1.3760799609e+01    0.4180567    0.3111098 -85.45  0.002137932    1.590    0.371
       109 -10.0591    229.8130    103.4862   7.5511152028e+01   1.3845019943e+01    0.3291145    0.2381691 -60.04  0.001097661    1.340    0.254
       110  -9.4979    212.6810    122.5847   8.2664978496e+01   1.3891147331e+01    0.2742682    0.1276504 -42.55  0.001078841    1.993    0.498
       111  -8.9284    188.2975    123.6792   8.7581819383e+01   1.9017537047e+01    0.1565741    0.1189491 -77.33 0.0004053941    1.619    0.382
       112 -11.8267    248.4840    121.3547   7.6543713109e+01   6.8896988759e+00     1.297103    0.2733211 -44.93  0.003859961    4.136    0.758
       113  -9.9817    118.8121    109.8320   1.0054918951e+02   3.7335443570e+01     0.234192     0.212092  -9.41 0.0006965631    1.202    0.168
       114  -8.4932    201.3089    109.6802   8.1723895926e+01   1.8891741908e+01    0.1546608    0.1129177 -74.80 0.0003049545    1.641    0.391
       115  -8.8711    190.3275    109.6822   8.3800220123e+01   2.1377484627e+01    0.1582722    0.1165468 -78.36 0.0005046192    1.679    0.404
       116  -8.8617    183.2907    109.6361   8.5184468273e+01   2.2998722392e+01    0.1610332    0.1166603 -73.74 0.0004015462    1.702    0.413
       117  -8.8592    161.3125    109.6263   8.9884096737e+01   2.8063309525e+01    0.1653702     0.121449 -78.85 0.0005472461    1.784    0.440
       118  -9.6092    222.5165    105.2832   7.7058036087e+01   1.5063919795e+01     0.273386    0.1254192 -45.82 0.0009552076    1.989    0.497
       119  -9.3233    205.7467    105.5375   7.9944922006e+01   1.8690464366e+01    0.3179975    0.1545327 -52.18   0.00122353    2.152    0.535
       120  -9.7362    141.2332    104.2479   9.3226327336e+01   3.3731640635e+01    0.2521887    0.1200151 -53.08 0.0008872357    2.430    0.589
       121 -10.8252    117.9720    103.8129   9.9174178775e+01   3.8809280929e+01     0.401179    0.2182443  64.56  0.001155611    3.293    0.696
       122  -9.7095    167.0676    101.3499   8.6479267948e+01   2.8406020722e+01    0.2924623    0.2114176 -67.13    0.0013156    1.630    0.387
       123  -8.5284     48.6928    102.3054   1.1986413985e+02   5.0337557983e+01    0.1269031    0.1030301  80.69 0.0002464251    1.607    0.378
       124  -9.3868    160.4169    101.1825   8.7897013540e+01   2.9984544729e+01    0.2276562    0.1406135 -53.73 0.0007887163    1.739    0.425
       125  -9.2545    225.1906    100.0712   7.5464328045e+01   1.5440581327e+01    0.2046634    0.1505659 -64.35 0.0006397913    1.366    0.268
       126  -9.5862    215.7953     94.8023   7.5750062600e+01   1.8435470111e+01    0.2752808    0.1809792 -58.56 0.0008871004    1.532    0.347
       127  -9.9411    210.8245     92.0241   7.5909875715e+01   2.0043352428e+01    0.3049931    0.1894465 -70.40   0.00107615    2.056    0.514
       128  -9.8249    216.5178     99.5105   7.6715321095e+01   1.7422925185e+01    0.2992467    0.1862988 -54.42  0.001169739    1.572    0.364
       129  -9.7069    213.1571     97.1517   7.6720788458e+01   1.8595482156e+01    0.5568014    0.2636473 -61.51  0.001908734    3.226    0.690
       130  -9.5352    150.3177    103.6698   9.0875010043e+01   3.1803310098e+01    0.1600832    0.1223163 -82.82  0.000568104    1.685    0.407
       131  -9.1485    202.8077     98.5759   7.8812809170e+01   2.0659508175e+01    0.1978581     0.139113  73.62 0.0005608553    1.606    0.377
       132  -9.4296    195.0502     98.0195   8.0068393210e+01   2.2537868551e+01    0.2491104    0.1750689 -75.48 0.0007838858    1.748    0.428
       133 -10.1797    135.9902     98.0138   9.2852313999e+01   3.6175832956e+01      0.24965    0.1917554 -86.99  0.001132164    1.743    0.426
       134 -10.2165    189.1376     93.6264   8.0081376807e+01   2.4728050898e+01    0.3319097    0.2391943 -82.27  0.001068844    1.708    0.414
       135  -9.0222    177.6509     94.3019   8.2468349140e+01   2.7291683939e+01    0.1581731     0.116022 -81.58 0.0007039145    1.693    0.409
       136 -10.2127    141.1995     92.2298   8.9973752819e+01   3.6162565478e+01    0.2167576    0.1830267 -81.62  0.000729292    1.377    0.274
       137  -9.8224    158.0586     91.0751   8.5744380981e+01   3.2504090689e+01    0.2507631    0.1859978 -80.39  0.001131326    1.736    0.424
       138  -8.9801    203.3069     90.6649   7.6839455596e+01   2.1993078716e+01    0.1540745    0.1069368 -72.31 0.0007040957    1.671    0.402
       139 -10.2850    175.7468     88.3552   8.1321690884e+01   2.8848535486e+01    0.2857835    0.2194928 -69.56 0.0008493806    1.440    0.305
       140  -9.6026    151.0295     89.0384   8.6775967256e+01   3.4526288942e+01    0.2474727     0.186638 -82.84  0.001130058    1.718    0.418
       141  -9.8315    130.4902     88.9769   9.1739025234e+01   3.9181214070e+01    0.2134572    0.1286356 -64.00 0.0008097836    2.490    0.598
       142 -10.0401    125.0109     89.0007   9.3168706915e+01   4.0365539301e+01     0.269193    0.1594458 -64.06  0.001011222    2.635    0.620
       143  -9.4740    188.4927     87.5350   7.8686040152e+01   2.5994115679e+01    0.2601787    0.1269612 -50.39 0.0009252949    2.129    0.530
       144  -9.0554    197.5506     87.4868   7.7060959395e+01   2.3889223407e+01    0.1495927     0.132355 -74.07 0.0002985139    1.073    0.068
       145  -9.3039    164.1354     87.2117   8.3398332263e+01   3.1802116465e+01    0.2153806    0.1767248 -78.50 0.0008844219    1.356    0.263
       146  -9.6004    112.3124     87.6906   9.6242411998e+01   4.3273575468e+01    0.1451159    0.1188866 -88.31 0.0004738272    1.626    0.385
       147  -9.5316    206.1395     85.4666   7.5132112624e+01   2.2268774227e+01    0.2481187    0.1799762 -62.68 0.0008389316    1.386    0.279
       148  -9.4929    170.9821     84.4796   8.1264981324e+01   3.0682755641e+01    0.2119416    0.1303252  82.30 0.0008093939    2.468    0.595
       149  -8.7411    200.6661     83.3812   7.5537689888e+01   2.3892859360e+01    0.1602631     0.104459 -71.98 0.0007012347    1.873    0.466
       150  -8.9544    193.3208     83.6254   7.6853167860e+01   2.5559751799e+01     0.159642    0.1069936 -72.28 0.0007029943    1.811    0.448
       151  -8.9405    185.3572     83.6660   7.8291259348e+01   2.7424731450e+01    0.1596766    0.1104341 -77.12 0.0007042218    1.799    0.444
       152 -10.2520    158.9951     82.6124   8.3259340586e+01   3.3854789143e+01    0.3287444    0.2438069 -79.17  0.001362513    1.702    0.412
       153  -9.6303    215.0735     80.6850   7.2612595406e+01   2.1068422148e+01    0.2603231    0.1734822 -53.92  0.001300399    1.414    0.293
       154 -10.0636    150.9549     80.3022   8.4389680830e+01   3.6156179459e+01    0.2765747    0.2093142 -68.02  0.001236491    1.570    0.363
       155  -8.9359    180.2881     80.6213   7.8458035818e+01   2.9161795414e+01    0.1573021    0.1089081 -70.92 0.0007016977    1.732    0.423
       156 -10.3255    199.0826     69.6582   7.2485134393e+01   2.6577299048e+01    0.6718216    0.2284336 -53.42  0.002036992    4.144    0.759
       157  -9.3303    206.5919     78.7893   7.3479867464e+01   2.3317886291e+01    0.2892145    0.1779623 -50.90 0.0008220383    1.557    0.358
       158 -10.0045    203.4056     67.2156   7.1230374261e+01   2.5964155697e+01     0.326987    0.2230564 -60.49  0.001209932    1.466    0.318
       159 -10.2244    203.4083     71.2319   7.2185242723e+01   2.5313356062e+01      0.35091    0.2625001 -54.09   0.00101469    1.271    0.213
       160  -9.5890    201.1281     78.3995   7.4262812922e+01   2.4645159845e+01    0.3037116    0.1642663 -55.74  0.001289756    1.987    0.497
       161  -9.7437    174.8080     78.5190   7.8954550044e+01   3.0831382265e+01    0.3032978    0.1806554 -56.18  0.001098093    1.884    0.469
       162 -10.1451    166.8786     78.5812   8.0533118507e+01   3.2706579473e+01     0.307212    0.1853014 -56.56  0.001314797    1.905    0.475
       163  -9.3053    135.4953     78.9882   8.7637249884e+01   3.9940617138e+01    0.2079582    0.1245769 -62.20 0.0008092701    2.440    0.590
       164  -9.5382    104.3105     79.6616   9.6164282755e+01   4.6412983911e+01    0.1420695     0.116582 -84.60 0.0003062045    1.688    0.407
       165  -9.6055    228.6778     75.5099   6.9502694720e+01   1.8924645653e+01    0.5835144    0.2392438 -59.26  0.002033635    3.420    0.708
       166  -9.3100    183.5877     77.7854   7.7126718411e+01   2.8871589834e+01    0.2103397    0.1285803 -51.78 0.0007862194    1.674    0.403
       167 -10.2856    130.1802     78.2319   8.8737133894e+01   4.1263612369e+01    0.2066036    0.1778856 -81.61  0.001074122    1.377    0.274
       168  -9.5709    211.1777     76.9418   7.2336748483e+01   2.2581702458e+01    0.2296562    0.1722989 -64.95  0.001209178    1.295    0.228
       169 -10.0379    157.4583     76.5577   8.1938288527e+01   3.5291931564e+01    0.3211598    0.2456169 -69.45  0.001259477    1.519    0.342
       170  -9.2485    223.4654     76.4959   7.0439707280e+01   1.9902692367e+01    0.1412488    0.1201278 -70.19 0.0001048472    1.043    0.041
       171  -9.8302    139.8757     75.8127   8.5672813171e+01   3.9513351244e+01    0.2068942    0.1771836 -79.93 0.0008760002    1.343    0.255
       172  -9.4844    195.0318     72.9696   7.3944661478e+01   2.6982387107e+01    0.2242553    0.1984568 -77.90 0.0006723674    1.052    0.049
       173 -10.2031    193.9339     68.4097   7.3006223570e+01   2.7988361572e+01    0.3387069    0.2374674 -69.24  0.001187719    1.545    0.353
       174 -10.5448    190.6566     72.9186   7.4663944612e+01   2.8021525182e+01    0.3472868    0.2457844  59.11  0.001400527    1.385    0.278
       175 -10.8332    187.6541     69.1848   7.4241676578e+01   2.9347599365e+01    0.3025185    0.1940287 -61.46 0.0009262322    1.723    0.420
       176 -10.1221    163.4643     72.3506   7.9549400317e+01   3.4589120208e+01    0.3591001     0.220147 -54.99  0.001434702    1.838    0.456
       177  -9.1869    150.4897     72.9763   8.2450645789e+01   3.7548176407e+01    0.2078127    0.1197009 -60.72 0.0008088364    2.425    0.588
       178 -10.4161    222.2922     71.0616   6.9388588966e+01   2.1051291698e+01    0.2929146    0.1868136 -52.16  0.000798396    1.441    0.306
       179 -11.3920    223.4528     67.0478   6.8338019078e+01   2.1436160172e+01    0.5539412    0.4234811 -48.27  0.003151028    1.238    0.192
       180  -9.2840    176.1297     72.1975   7.7058670943e+01   3.1594560945e+01    0.2092063    0.1658008 -77.51 0.0008020902    1.360    0.265
       181  -9.5753    170.7968     70.9697   7.7740833648e+01   3.3072238899e+01    0.2453306    0.1558162 -63.67  0.001074313    1.932    0.482
       182 -10.3838    205.4350    161.6443   9.2764568052e+01   7.5838032693e+00    0.4270124    0.2796778 -54.34  0.001709858    1.659    0.397
       183  -9.3000    107.3315     71.6563   9.2873671546e+01   4.7276177091e+01     0.142234    0.1152073 -84.47 0.0006945156    1.755    0.430
       184  -9.5124    157.0225     70.0564   8.0241893111e+01   3.6502101021e+01    0.2370297    0.1756554 -77.67 0.0009565958    1.675    0.403
       185  -9.1107    218.4483     68.9129   6.9437354424e+01   2.2254999189e+01    0.2021282   0.09622239 -58.58 0.0008057298    2.422    0.587
       186  -9.9119    182.4673     68.6220   7.4994139552e+01   3.0672674006e+01    0.2872166    0.1744576 -66.25   0.00108249    2.080    0.519
       187 -10.1454    122.1997     68.7797   8.7970877294e+01   4.4666965969e+01    0.2350089    0.1584459 -80.70 0.0009457312    2.753    0.637
       188  -9.6807    146.3295     67.8297   8.1911918011e+01   3.9383267133e+01    0.2946227     0.121727 -44.44  0.001092764    2.578    0.612
       189  -9.2341    152.5200     66.9911   8.0334431632e+01   3.8070312090e+01    0.2165195    0.1436353 -38.39  0.001027011    1.576    0.365
       190  -9.8908    163.5346     65.3267   7.7632431064e+01   3.5726914939e+01    0.2828001    0.2325197 -71.78 0.0008908748    1.305    0.234
       191 -10.5008    111.9879     64.5369   8.9377731221e+01   4.7543647569e+01    0.2673005    0.2004502 -54.88  0.001234575    1.602    0.376
       192 -10.5455    187.5028     63.1788   7.2761700863e+01   3.0344065899e+01    0.3336768    0.2379184 -76.88  0.001664751    1.563    0.360
       193  -9.6122    182.6978     63.0161   7.3525531701e+01   3.1513510655e+01    0.3667289    0.1312949 -49.42  0.001250174    3.212    0.689
       194  -9.1010    171.3364     64.6666   7.5970990852e+01   3.3968409647e+01    0.1529608    0.1071546 -76.18   0.00044758    1.740    0.425
       195  -8.7288    216.7273     63.3506   6.8416891157e+01   2.3521885000e+01    0.1445168   0.09242011 -67.11 0.0006874067    1.632    0.387
       196  -9.4715    192.8000     62.9898   7.1856819425e+01   2.9118546184e+01    0.2373041    0.1397048 -61.58 0.0006962565    1.937    0.484
       197 -11.0908    157.9986     62.1340   7.7852894423e+01   3.7550449775e+01    0.3901026    0.3068177  89.52  0.001249574    1.429    0.300
       198 -10.5103    153.0463     59.6814   7.8170964754e+01   3.9104304359e+01    0.3487584    0.2084731 -41.68  0.001332283    1.748    0.428
       199  -9.5584    206.0081     74.4951   7.2556322522e+01   2.4173969954e+01    0.2788212    0.2251858 -80.93 0.0008830923    1.214    0.176
       200  -9.1371    141.3191     61.6626   8.1248167058e+01   4.1538613236e+01    0.1467639    0.1110572 -77.76 0.0007049473    1.706    0.414
       201 -12.2845    235.5814    147.9711   8.4242037928e+01   4.4179999067e+00     2.167653     1.260926  80.62  0.006344896    6.181    0.838
       202  -8.9747    197.3799     60.1218   7.0445954825e+01   2.8484313300e+01    0.1996535    0.1162831 -50.94 0.0007106374    1.701    0.412
       203  -9.5246    197.4284     64.5838   7.1517651246e+01   2.7778084589e+01    0.2867888    0.1670844 -66.25  0.001097802    2.095    0.523
       204  -9.0478    206.5062     59.5143   6.8959128815e+01   2.6450460533e+01    0.1398652    0.1211205 -79.83 0.0008103685    1.024    0.024
       205  -9.8698    146.5247     58.5578   7.9213273588e+01   4.0809440342e+01    0.2595168    0.1224173 -46.84  0.001037819    2.386    0.581
       206  -9.2414     24.5002     59.4516   1.1744525483e+02   6.1563109851e+01    0.1194274   0.09694802 -29.94 1.404687e-05    1.035    0.034
       207 -12.4476    244.4807    140.0786   8.1098306918e+01   4.2321893662e+00     2.185905    0.8084767 -54.16  0.006754291    4.269    0.766
       208  -9.0334    182.4926     58.4919   7.2408516691e+01   3.2260810878e+01    0.1422243    0.1277458 -89.92 5.181298e-05    1.022    0.022
       209  -9.6097    192.8289     56.0681   7.0154025001e+01   3.0170593457e+01    0.2247809    0.1716755 -72.55  0.001000727    1.313    0.238
       210  -9.7764    157.8584     56.0571   7.6197611977e+01   3.8512727450e+01    0.2227356    0.1865165 -77.84  0.000781523    1.285    0.222
       211  -9.7468    139.5292     55.5058   7.9841634831e+01   4.2894413244e+01    0.1402778    0.1315332  61.40 0.0001637236    1.030    0.029
       212  -9.2054    131.2998     55.6299   8.1748037254e+01   4.4753100701e+01    0.1429314    0.1089157 -73.79 0.0006258833    1.740    0.425
       213  -9.1373    250.4785    245.5068   1.0043126745e+02  -1.4108132404e+01    0.1180138   0.09454436   0.09 9.674219e-05    1.039    0.038
       214 -11.2405    152.9927     53.2878   7.6380390217e+01   4.0074225810e+01    0.3057318    0.2468217 -32.89  0.001402958    1.354    0.261
       215  -8.9043    163.3188     53.6763   7.4506916557e+01   3.7563363367e+01    0.1460176    0.1046699 -75.95 0.0007044834    1.672    0.402
       216  -9.6201    178.6722     50.6078   7.1023095337e+01   3.4336236602e+01    0.2417753    0.1508333 -57.24  0.001159464    1.748    0.428
       217  -8.7285    194.3450     50.6776   6.8614183873e+01   3.0603779996e+01    0.1477578    0.0959556 -74.04 0.0007050049    1.734    0.423
       218 -10.4365    207.9620     47.1055   6.5887145513e+01   2.7939363371e+01    0.5214263    0.1803898 -45.57  0.002059917    2.727    0.633
       219  -9.0776    158.3115     49.6318   7.4330956229e+01   3.9337169345e+01    0.1471648    0.1029791 -72.55 0.0007036843    1.767    0.434
       220  -8.9826    185.4959     53.4987   7.0658994050e+01   3.2290238253e+01    0.1408296    0.1244446 -88.58 0.0008104723    1.032    0.031
       221  -8.8575    181.6440     47.3291   6.9710853611e+01   3.4090691730e+01    0.1486977   0.09765105 -74.93 0.0007044908    1.782    0.439
       222 -10.9147    174.4817     44.4888   7.0125006705e+01   3.6190700904e+01     0.503783    0.1830153 -30.30  0.001851155    3.348    0.701
       223  -9.7098    173.4858     40.4980   6.9248358768e+01   3.6961201670e+01    0.2972218     0.187883 -41.92  0.001196952    1.657    0.397
       224  -9.9741    122.8294     46.8182   8.1040866172e+01   4.7910298611e+01    0.1865563    0.1651675 -84.89  0.001082547    1.346    0.257
       225 -10.5235    169.2883     44.9047   7.1093817947e+01   3.7374297128e+01    0.4330742    0.2092576 -49.61  0.001217874    2.313    0.568
       226  -9.7787    163.3153    245.3390   1.1716495278e+02  -7.9820898756e-01    0.1313818   0.09813318   3.20  0.000704782    1.701    0.412
       227  -9.2701    178.5940     43.8069   6.9293254961e+01   3.5302175650e+01    0.1936206    0.1171318 -49.66 0.0009455548    1.718    0.418
       228  -9.7646    131.6163     42.7834   7.7772373842e+01   4.6491281845e+01    0.1875185    0.1244025 -43.61 0.0009537434    1.680    0.405
       229  -9.8225    191.9845     41.3989   6.6706549572e+01   3.2451265226e+01    0.2648106    0.1671151 -56.26  0.001042287    1.615    0.381
       230  -8.9247      5.5768     41.4555   1.1985953732e+02   6.6185258833e+01    0.1128878   0.08222675 -30.45 7.829452e-05    1.021    0.021
       231  -9.5371    165.2326     39.8673   7.0434974686e+01   3.9010270074e+01    0.2322441    0.1610627 -40.53 0.0009200238    1.542    0.351
       232  -9.0447    160.6024     39.7587   7.1199733142e+01   4.0125541947e+01    0.1852317    0.1202012 -48.37 0.0009369823    1.666    0.400
       233  -9.2026    179.4027     38.1664   6.7734308935e+01   3.5856357953e+01     0.189458    0.1142709 -49.71 0.0009421663    1.725    0.420
       234  -9.1875    201.6068     35.7954   6.4100018539e+01   3.0941940925e+01    0.1820585    0.1083916 -50.76 0.0007142127    1.643    0.391
       235  -9.4428    173.4551     35.4557   6.7946329816e+01   3.7615591870e+01    0.2316606    0.1080111 -46.04 0.0009662515    2.274    0.560
       236  -9.3998    144.3822     36.1676   7.3163366455e+01   4.4398139465e+01    0.1872104    0.1185653 -45.92 0.0009437078    1.768    0.435
       237  -9.9893    133.3239     35.4910   7.5185089742e+01   4.7028498693e+01    0.2234293    0.1254481 -30.26  0.001081695    1.984    0.496
       238 -10.0663    241.3136    241.8663   1.0144638294e+02  -1.2377578289e+01    0.3047728     0.248279 -80.25  0.001726815    2.809    0.644
       239 -10.1752     93.3462     35.1141   8.4862205025e+01   5.5573059939e+01    0.2132108    0.1540258  32.79 0.0003041883    1.256    0.204
       240 -10.0002    149.0000     33.0077   7.1386784075e+01   4.3702945961e+01    0.3387741   0.07756151 -30.30  0.001049807    4.920    0.797
       241  -9.6372    149.0000     29.0202   7.0252390492e+01   4.4169403534e+01    0.1989154    0.1377475 -54.95 0.0009661448    1.666    0.400
       242  -9.2333    200.4615     43.9365   6.6146186501e+01   3.0119261886e+01    0.1925099    0.1258348 -42.23 0.0008948247    1.551    0.355
       243 -10.4517    125.8289     30.5405   7.5252803947e+01   4.9303929343e+01    0.2474634    0.1627958 -48.57  0.001007008    1.842    0.457
       244 -10.3346    201.9622    241.8641   1.0887717687e+02  -6.5438346663e+00    0.3360018    0.1816264 -44.69   0.00170349    2.091    0.522
       245  -9.7298    197.6747     28.4884   6.2898513933e+01   3.2774299362e+01    0.1996696    0.1170138 -36.46  0.000639279    1.840    0.457
       246 -10.3863    166.5337     28.2552   6.7135053041e+01   4.0127596051e+01    0.2334058     0.119344 -39.39  0.001117692    2.078    0.519
       247  -9.0286    152.4874     29.5050   6.9776154109e+01   4.3296621536e+01    0.1333411    0.1171777  67.41 0.0001316065    1.004    0.004
       248  -8.8041    174.3079     28.6437   6.6068201310e+01   3.8242286418e+01    0.1392914    0.0912253 -70.97 0.0005386918    1.726    0.421
       249 -11.3060    190.8868    235.9497   1.1008555106e+02  -3.7891473276e+00    0.5495484    0.3639912 -78.46  0.002260135    3.820    0.738
       250  -9.7028    170.6694    239.6606   1.1478942999e+02  -1.0449474626e+00     0.135764   0.09895285   2.96 0.0007051767    1.741    0.426
       251  -9.8712    171.7892     22.6564   6.4901753959e+01   3.9522015080e+01    0.4245538   0.08262695 -32.92  0.001390535    4.823    0.793
       252  -8.7513    162.3425     25.6962   6.7107473080e+01   4.1410265865e+01    0.1360058   0.09311257 -77.13 0.0003613983    1.682    0.405
       253  -9.5108    118.0000     25.0334   7.5219547932e+01   5.1642374787e+01    0.1924918   0.07425873 -27.67 0.0008003719    2.928    0.658
       254  -9.5385    145.2910     24.6588   6.9665961785e+01   4.5519786325e+01    0.1306041    0.0953275 -72.38 0.0004509171    1.650    0.394
       255  -9.3954     72.9728     24.3085   8.7073741479e+01   6.0605171609e+01    0.1709849    0.1372851  22.57 0.0004444484    1.047    0.044
       256 -10.0724    230.2504    236.7349   1.0258803663e+02  -1.0065116163e+01    0.2964168     0.207557 -54.43  0.001537209    2.165    0.538
       257 -10.8258     83.9222     19.7033   8.2014838450e+01   5.9137033359e+01    0.3031921    0.1943223 -37.68  0.001226501    1.868    0.465
       258 -10.2156    216.6073    234.6159   1.0479972684e+02  -7.6907207044e+00    0.2472407    0.2213459  68.04  0.001558429    1.649    0.394
       259  -9.1645    240.4882    231.9985   9.9869516883e+01  -1.0836261652e+01    0.1557221    0.1073344 -57.92 0.0008102935    2.548    0.608
       260  -8.7528     42.2914     27.7243   9.9443133442e+01   6.4809026659e+01   0.09563739   0.09182027   9.91 0.0001976478    1.520    0.342
       261  -9.8907    140.4459     17.3105   6.8395898199e+01   4.7399663582e+01    0.2096437    0.1311653 -18.27 0.0008779762    1.996    0.499
       262  -8.7905    245.3091    231.6402   9.8934330895e+01  -1.1461610172e+01    0.1069784     0.100011 -70.04 0.0007041266    1.738    0.425
       263  -8.8767    248.4797    240.5011   9.9923361522e+01  -1.3158059182e+01    0.1192243     0.097451  -0.82 6.638993e-05    1.054    0.051
       264  -9.8356    140.4861     22.0121   6.9761475095e+01   4.6912194427e+01    0.1777986    0.1289611 -31.19 0.0007567536    1.572    0.364
       265  -9.8499    235.0324    229.3011   1.0038896521e+02  -9.6442744671e+00     0.273912    0.1615428 -43.32  0.001475165    1.873    0.466
       266  -9.2613    229.3703    228.2230   1.0124894125e+02  -8.6380104068e+00    0.1726113    0.1135612 -45.47 0.0009487215    1.769    0.435
       267 -10.3391    246.5403    225.9996   9.7703446123e+01  -1.0800547253e+01    0.2628043    0.2239386  56.31  0.001675317    1.816    0.449
       268 -10.0087    198.8394    226.7214   1.0690591845e+02  -3.5421962417e+00    0.2436827    0.1575445 -51.42  0.001247636    1.879    0.468
       269  -9.4224    206.1247    225.7691   1.0528738186e+02  -4.5843715325e+00    0.2395907    0.1535947 -54.42  0.001199103    2.083    0.520
       270 -10.3739    216.9863    223.0332   1.0267219583e+02  -5.8864707952e+00    0.3714917    0.2485656 -52.96  0.001563802    1.963    0.490
       271  -9.5388    228.7594    222.8751   1.0039899497e+02  -7.7033971133e+00    0.2246467     0.171978  60.29  0.001244889    2.055    0.513
