#   1 NUMBER                 Running object number                                     
#   2 MAG_AUTO               Kron-like elliptical aperture magnitude                    [mag]
#   3 X_IMAGE                Object position along x                                    [pixel]
#   4 Y_IMAGE                Object position along y                                    [pixel]
#   5 X_WORLD                Barycenter position along world x axis                     [deg]
#   6 Y_WORLD                Barycenter position along world y axis                     [deg]
#   7 A_WORLD                Profile RMS along major axis (world units)                 [deg]
#   8 B_WORLD                Profile RMS along minor axis (world units)                 [deg]
#   9 THETA_WORLD            Position angle (CCW/world-x)                               [deg]
#  10 FWHM_WORLD             FWHM assuming a gaussian core                              [deg]
#  11 ELONGATION             A_IMAGE/B_IMAGE                                           
#  12 ELLIPTICITY            1 - B_IMAGE/A_IMAGE                                       
         1 -16.1914     31.0451    132.0700   1.2890690911e+02   4.5482281690e+01     5.809204     3.859598  28.13   0.02921792    1.513    0.339
         2 -11.9223    172.8990     48.9354   6.5689709993e+01   3.5222092526e+01    0.8035399    0.6589833  55.64  0.002573883    1.312    0.238
         3 -11.2387    180.7719     39.6260   6.2049163221e+01   3.4575641900e+01     1.105607    0.4832172 -52.26   0.00455559    2.310    0.567
         4 -12.3394    188.4375     31.1122   5.8882939806e+01   3.3816503949e+01     1.056127    0.8107184 -14.73  0.005946578    1.644    0.392
         5 -12.0919      6.0508      6.9626   1.1218217092e+02   7.8066579259e+01     1.174702    0.8790056 -39.65   0.00758904    1.223    0.182
         6  -8.8053    211.9563      7.7230   5.1127425398e+01   3.1058041342e+01    0.1710484    0.1346209 -70.31 0.0003910686    1.062    0.058
         7 -10.0130     39.4649      4.4608   8.3443436657e+01   7.3698022307e+01    0.2421108    0.2230923  84.78  0.001079602    1.473    0.321
         8  -9.5719    207.4408      3.0006   5.0267601513e+01   3.2514868849e+01      0.37968    0.1560573  86.83  0.001785638    2.386    0.581
         9 -10.8238     17.4031    209.6365   1.3846011146e+02   2.7992467474e+01     0.142241   0.08600926  46.31 0.0008250656    1.285    0.222
        10 -13.7735    245.1222    236.3019   9.3010843441e+01  -4.7088868524e+00     3.561262     1.058543 -35.17   0.01840761    3.203    0.688
        11  99.0000     29.4046    209.5342   1.3554239302e+02   2.6852901886e+01     1.843282     1.101172 -30.46  0.008950288    2.949    0.661
        12  99.0000     52.1133    216.7448   1.3046734793e+02   2.2868386197e+01      1.47532    0.3829526  48.93   0.00537806    3.389    0.705
        13 -14.9246     73.5483    246.3363   1.2772814510e+02   1.4701523641e+01    0.8100524    0.4792239  56.93  0.004794875    1.678    0.404
        14 -17.3419     53.1732    247.2157   1.3222897770e+02   1.6901534022e+01      5.00699    0.2203054  37.67   0.01738926    3.978    0.749
        15 -16.2888     59.6986    234.5252   1.2995943878e+02   1.8483261915e+01     1.740442    0.8682185  34.46  0.009419323    1.528    0.346
        16 -10.6407     54.1778    208.1446   1.2930224605e+02   2.4425725753e+01    0.1487521    0.1156743  54.22   0.00026457    1.107    0.097
        17 -12.6265     40.7184    204.2846   1.3240468888e+02   2.6794171214e+01    0.4165927    0.1992123 -76.74  0.002028281    2.261    0.558
        18 -11.1352     76.9331    205.2641   1.2330644022e+02   2.2165084053e+01    0.1861496    0.1632213  50.53 0.0002836259    1.070    0.065
        19 -11.0698     22.0966    206.4910   1.3717689766e+02   2.8225081805e+01    0.1105016   0.06699928 -80.19 0.0004471034    1.723    0.420
        20 -11.0115     48.8370    204.6194   1.3037278731e+02   2.5808216252e+01    0.1690923    0.1261163  36.29 0.0004548805    1.166    0.142
        21  99.0000      6.7630    202.9666   1.4077522893e+02   3.0361755077e+01    0.3355519    0.1931497  83.22  0.001933133    1.629    0.386
        22  99.0000      2.6665    193.8920   1.4148399339e+02   3.2687230047e+01     0.454074    0.1211172  63.73  0.001709766    3.491    0.714
        23 -11.7250     62.2841    202.6587   1.2677783865e+02   2.4615505244e+01    0.2098744    0.1674198  44.45 0.0003553262    1.041    0.040
        24 -12.0432     58.6982    199.2555   1.2739316964e+02   2.5803051720e+01    0.3236969    0.1950237  17.19 0.0008536316    1.892    0.472
        25 -10.6758     17.7607    201.6961   1.3802245811e+02   2.9674470566e+01    0.2446302   0.09246535  66.76  0.001050307    2.642    0.621
        26 -14.3829     79.7715    235.1265   1.2544077332e+02   1.5941481265e+01    0.6969319      0.38246  33.96  0.003861554    1.407    0.289
        27 -11.6268     44.8179    199.0092   1.3097469476e+02   2.7498381415e+01    0.3373444    0.2178378 -67.52  0.001859465    1.708    0.414
        28 -11.1988     49.9431    197.1284   1.2949141550e+02   2.7327388976e+01    0.3629742    0.3124582  67.27  0.002177067    1.109    0.098
        29 -13.5979     89.6186    247.1914   1.2428927582e+02   1.2597017658e+01    0.8903773    0.1986846  43.59  0.003261201    3.673    0.728
        30  -9.1769     90.0716    196.7683   1.1900280124e+02   2.2140456382e+01    0.1929813     0.174549  45.43  0.000416342    1.061    0.057
        31  -9.2871     38.5350    195.9338   1.3238337505e+02   2.8880935781e+01    0.1534434    0.1142624  73.71  0.000894949    1.275    0.216
        32  99.0000     26.0440    195.4794   1.3560204225e+02   3.0270550047e+01    0.4195191    0.2284227 -40.84  0.001952896    2.840    0.648
        33 -10.4262     20.4275    197.1595   1.3713350664e+02   3.0431152942e+01    0.1305996     0.114833 -79.53 0.0008570235    1.288    0.224
        34 -10.9236     20.5610    193.7550   1.3692507213e+02   3.1183422861e+01    0.1442618    0.1136375  85.72 0.0004655901    1.240    0.194
        35  -9.9250      6.7625    197.0000   1.4056786420e+02   3.1667886113e+01    0.1352367    0.0620529  25.10 0.0002766574    2.043    0.510
        36 -10.9717     57.8366    193.6705   1.2710596950e+02   2.7151655527e+01    0.1850018    0.1528258  52.32 0.0003967689    1.043    0.041
        37 -10.6054     46.7191    190.7242   1.2981378822e+02   2.9149789475e+01    0.2955103    0.2396865   7.98  0.001719742    1.481    0.325
        38 -11.6140     49.5176    189.4541   1.2895189068e+02   2.9115098493e+01    0.2001124    0.1638982  54.18 8.722139e-05    1.047    0.045
        39  -8.8838     40.1437    191.6646   1.3164676718e+02   2.9673960562e+01    0.1216991   0.07940311  75.83 0.0002905442    1.530    0.346
        40 -10.6438     11.5623    191.1898   1.3912540732e+02   3.2566815418e+01    0.1261751   0.08813929  46.15 0.0003782964    1.180    0.152
        41 -10.5778     35.1324    189.4810   1.3282576201e+02   3.0713929471e+01    0.2876985    0.1269258  26.68 0.0009212922    2.098    0.523
        42  -9.9366    246.3667    204.6781   8.7968425769e+01  -1.2450014410e+00    0.3491615    0.2300312  10.62  0.001121855    1.332    0.249
        43  -9.7650     13.9604    185.2022   1.3822669839e+02   3.3733350840e+01    0.1446335    0.1251645 -72.31  0.000235086    1.310    0.237
        44 -10.5662     16.0730    182.4681   1.3752484371e+02   3.4186483171e+01    0.1196092   0.07256874 -81.80  0.000628061    1.619    0.382
        45 -11.8615     43.4704    183.2232   1.3006741809e+02   3.1261697512e+01    0.2099614     0.176161  44.97 0.0003374585    1.069    0.064
        46 -11.1068     32.4412    183.7148   1.3314519458e+02   3.2335896488e+01    0.5453469    0.1707972  28.78  0.002142484    2.678    0.627
        47 -10.4860      6.3270    183.7391   1.4018259919e+02   3.4702363785e+01     0.121334   0.09236638  47.75 0.0001749135    1.119    0.107
        48  -8.6760    232.2191    181.3324   8.6220011101e+01   3.4454250631e+00    0.1793745    0.1424752  31.82 0.0004346189    1.454    0.312
        49  -9.1858     50.6836    180.3323   1.2779479215e+02   3.1105130124e+01    0.1313476    0.1110349  56.23 0.0001434924    1.034    0.033
        50  -7.5419     83.8473    176.8985   1.1809828080e+02   2.7449780340e+01    0.2768605    0.1908402 -41.88  0.001358936    1.749    0.428
        51  -9.3582     87.0941    171.9593   1.1649901830e+02   2.8104577803e+01    0.5136061    0.2252806 -54.57   0.00205969    2.426    0.588
        52  -9.3491    233.1237    176.7181   8.5262105252e+01   3.9544665481e+00    0.2118603    0.1547045 -15.28  0.000410456    1.138    0.122
        53  99.0000    120.2416    233.8258   1.1623596012e+02   1.0883971711e+01     16.29106     2.516813  34.76   0.05166997    4.276    0.766
        54  -8.8829     54.0813    175.5706   1.2635480013e+02   3.1827541888e+01    0.1281257   0.07368117 -83.32 0.0002564154    1.928    0.481
        55  -9.2469     40.2526    172.3865   1.3003557909e+02   3.4216462535e+01    0.3468154     0.149409  48.68  0.001467373    2.087    0.521
        56  -9.4749    175.3058    172.2236   9.4839302140e+01   1.3301522900e+01    0.2681328    0.2363554 -17.60 0.0007923628    1.102    0.092
        57  -9.2735    233.1304    171.9284   8.4402096429e+01   4.6117503504e+00    0.1696768    0.1467141 -21.76 0.0005285667    1.225    0.184
        58  -9.2014    154.2792    171.2088   9.9190884646e+01   1.7032106349e+01    0.3761464    0.2118963 -31.28  0.001676728    2.093    0.522
        59  -8.0280    196.1306    170.3148   9.0399657714e+01   1.0263012217e+01    0.1720861    0.1509527  18.95 0.0005286771    1.139    0.122
        60  -9.0596    200.9644    168.8808   8.9240660723e+01   9.7367036996e+00    0.2011996    0.1647925 -21.03 0.0003466632    1.112    0.101
        61 -10.1931     94.4203    163.5167   1.1313675637e+02   2.8922369981e+01    0.5364078    0.3054488  52.11  0.001992683    1.861    0.463
        62 -10.2154     81.8174    223.2418   1.2389517089e+02   1.7907535165e+01    0.1652639    0.1305415  36.84 0.0002304219    1.032    0.031
        63  -7.2398    125.5669    127.2878   9.7201099275e+01   3.1591890755e+01     0.165175    0.1184336  72.11 0.0001417475    1.885    0.469
        64  -7.5899    220.9611    152.2698   8.2630293776e+01   9.2052726961e+00    0.1606071    0.1410578   2.39 0.0001882356    1.106    0.096
        65  -7.5139     71.5031    163.5416   1.1980831100e+02   3.2425049298e+01    0.1464777    0.1322423  51.17 9.108261e-05    1.005    0.005
        66  -8.0505    169.3193    118.3243   8.4669290220e+01   2.4312019165e+01     0.148304     0.113961   3.40 0.0002116089    1.675    0.403
        67  -8.1464     87.2233    159.6663   1.1459047987e+02   3.0990099149e+01    0.2363128    0.1637492  48.33 0.0006790897    1.371    0.271
        68  -8.4916    105.2500    154.1787   1.0845711636e+02   2.9279687689e+01    0.2792974    0.1836686  42.21 0.0007761318    1.416    0.294
        69  -7.7364    161.9831    111.9922   8.4669537538e+01   2.7061954103e+01    0.1708969    0.1680586  41.75            0    1.034    0.033
        70  -7.7089    116.8612    109.3612   9.5237299811e+01   3.7433905621e+01    0.2248481    0.1452058  34.35 0.0009250459    1.658    0.397
        71  -9.1813    196.9809    106.8005   7.6848115625e+01   2.0700174249e+01    0.2781835    0.2321849  19.59 0.0008471873    1.394    0.283
        72  -8.8797     99.4189    140.2345   1.0749099895e+02   3.3614101590e+01    0.4402548    0.2452092  27.04 0.0009433512    2.020    0.505
        73  -9.0248    183.1646    138.1879   8.6400996880e+01   1.7948324215e+01    0.2335613    0.1770653  26.28  0.000592321    1.399    0.285
        74  -8.2512    179.6467    134.6990   8.6330623490e+01   1.9236647606e+01    0.1450635    0.1068414   4.95 0.0007038167    1.701    0.412
        75  -8.3403    163.9746    103.1627   8.2038110427e+01   2.8298319742e+01    0.2119878    0.2069248 -53.33  0.000465131    1.003    0.003
        76  -7.9579    104.3137    133.0845   1.0455300283e+02   3.4428893220e+01    0.1996499     0.191107 -87.90 0.0004299829    1.079    0.073
        77  -8.3558    220.1820     97.1373   7.1197577391e+01   1.7745278644e+01    0.1847398    0.1607553 -18.04 0.0003694767    1.190    0.160
        78  -7.9797    122.9712     95.9572   8.9887965075e+01   3.9025893783e+01    0.2433568     0.190569  88.95  0.000526945    1.602    0.376
        79  -7.8121    112.6143     88.7047   9.0752542302e+01   4.2926902959e+01    0.2028263    0.1504529 -54.76 0.0007789549    1.420    0.296
        80  -8.7582    106.9419     83.0422   9.0755179412e+01   4.5424438668e+01    0.5678341     0.241106  54.53  0.001872262    2.694    0.629
        81  -8.4084    161.0760    128.1816   8.8728732537e+01   2.4119689872e+01    0.4255535    0.2877942 -77.97  0.001723457    2.647    0.622
        82  -8.1394     80.6519     78.3771   9.8309088858e+01   5.2087944431e+01    0.3174859    0.2270394  -6.36 0.0009643347    2.136    0.532
        83  -8.2916    160.2715     76.9691   7.5761494852e+01   3.3881452662e+01    0.2755691     0.231135  27.09 0.0003292685    1.441    0.306
        84  -8.2602    164.2529     76.4478   7.4862493632e+01   3.3022308687e+01    0.2857337    0.1764082  84.06   0.00087834    2.313    0.568
        85  -8.4501    168.5540     72.1491   7.2895187096e+01   3.2718923916e+01    0.3406645    0.1794737  41.54 0.0006254839    2.403    0.584
        86  -7.5440    125.6931     66.6892   8.0263384225e+01   4.4189382591e+01    0.1532488    0.1220391  19.99 0.0002745168    1.617    0.382
        87  -7.6724    119.4142     66.2161   8.1734983554e+01   4.5827114028e+01    0.2005353     0.144862 -52.82 0.0002818676    1.466    0.318
        88  -9.6643    121.9588     61.5613   7.9511680538e+01   4.6039653092e+01    0.3056243    0.2646409 -78.30  0.000587207    1.221    0.181
        89 -12.3202     75.2398    219.9456   1.2515250868e+02   1.9396726381e+01    0.3288119    0.2406062 -24.42  0.001440081    1.950    0.487
        90 -11.2941     68.2989    213.7292   1.2627238231e+02   2.1528564801e+01    0.1715497    0.1526482  72.92 0.0002581034    1.193    0.162
        91  -7.3123    138.2787     47.7010   7.1156551505e+01   4.4150224743e+01     0.150665    0.1086731 -70.23 0.0002644708    1.539    0.350
        92  -7.8794    217.6913     49.8286   6.0623433801e+01   2.4940498267e+01    0.1882914    0.1522262 -18.75  0.001146348    1.461    0.315
        93  -7.3066     32.2532     37.9752   1.0695603481e+02   6.9099671354e+01    0.1602908    0.1124364 -50.38 0.0002904518    1.422    0.297
        94 -12.2599     59.5738    210.3130   1.2813239811e+02   2.3318727084e+01    0.3346227    0.2109475 -38.41  0.001707116    2.298    0.565
        95  -8.4150     40.1702     26.1889   9.6380850631e+01   7.0238809211e+01    0.1767468    0.1579976  51.49 0.0006207814    1.321    0.243
        96  -7.4652     43.6673     22.6572   9.2387182372e+01   7.0252314851e+01    0.1429326   0.09965245   3.85 0.0006377657    1.755    0.430
        97  -9.2828     84.9588    211.5172   1.2196470338e+02   1.9800532803e+01    0.1497222    0.1117453  34.77 0.0008596376    1.120    0.107
        98  99.0000      1.8139    206.7103   1.4207638934e+02   2.9964433208e+01    0.5505296    0.1272324  85.74  0.001891714    4.925    0.797
        99 -11.1156     69.9127    208.4452   1.2538563995e+02   2.2417204455e+01    0.1755422    0.1646736  47.82 8.755508e-05    1.140    0.123
