#   1 NUMBER                 Running object number                                     
#   2 MAG_AUTO               Kron-like elliptical aperture magnitude                    [mag]
#   3 X_IMAGE                Object position along x                                    [pixel]
#   4 Y_IMAGE                Object position along y                                    [pixel]
#   5 X_WORLD                Barycenter position along world x axis                     [deg]
#   6 Y_WORLD                Barycenter position along world y axis                     [deg]
#   7 A_WORLD                Profile RMS along major axis (world units)                 [deg]
#   8 B_WORLD                Profile RMS along minor axis (world units)                 [deg]
#   9 THETA_WORLD            Position angle (CCW/world-x)                               [deg]
#  10 FWHM_WORLD             FWHM assuming a gaussian core                              [deg]
#  11 ELONGATION             A_IMAGE/B_IMAGE                                           
#  12 ELLIPTICITY            1 - B_IMAGE/A_IMAGE                                       
         1 -10.9491      9.2249     25.4188   1.3725416793e+02   7.2241423143e+01    0.4442893    0.2048957 -61.34  0.002243711    1.707    0.414
         2 -11.4135     25.3263     20.2138   1.2407724704e+02   7.2398168721e+01    0.7422614    0.3231395 -28.29  0.003002442    2.917    0.657
         3 -11.8613     26.6356     13.8884   1.2014531411e+02   7.3608754527e+01    0.3658243    0.2757679  45.22 0.0006252627    1.739    0.425
         4 -10.8635     66.5257     21.4429   1.0005599736e+02   6.6251281363e+01    0.2811863    0.2349232  11.28 0.0008720374    1.156    0.135
         5 -10.7580    107.9612     17.6954   8.2808554543e+01   5.7227395811e+01    0.3843869    0.2437871 -10.61  0.000821466    1.830    0.453
         6 -11.9707    130.8880     13.6140   7.5585567851e+01   5.1510425093e+01    0.5583172    0.3927931  40.07   0.00264616    1.420    0.296
         7 -10.1656     99.7130     13.4931   8.3127522089e+01   5.9866404860e+01    0.3244159    0.1999006 -28.54  0.001475745    1.684    0.406
         8 -10.0221    175.7782     11.8745   6.8016972808e+01   3.9212729722e+01    0.2072466    0.1888701  45.84 0.0003908392    1.151    0.131
         9 -10.6454    119.3168     11.0291   7.6896307247e+01   5.4964663253e+01    0.3964042    0.2187265 -49.39  0.001603131    2.220    0.550
        10 -12.0906     80.7661      7.2716   8.6040582363e+01   6.5254682429e+01    0.6097139     0.374443  14.32 0.0006722386    1.994    0.498
        11  -9.8997      9.0491      8.0288   1.3152801178e+02   7.6153343829e+01    0.2809303    0.1387122 -35.19  0.001467786    1.775    0.437
        12 -10.8276    127.4624      6.1390   7.3056381487e+01   5.3209213256e+01    0.3750426    0.2197089 -44.01 0.0007531251    1.894    0.472
        13 -10.5817     75.1478      5.2576   8.6994828673e+01   6.6794818429e+01    0.3640616    0.1934455 -20.46  0.001387766    1.991    0.498
        14  -9.5141     60.0157      5.2550   9.3728654737e+01   7.0032119722e+01    0.3807419    0.1071581  47.57  0.001298503    3.349    0.701
        15  -9.8994    117.5049      4.2633   7.4193172502e+01   5.6129534696e+01    0.2589113    0.1636616  55.92 0.0005941554    1.403    0.287
        16  -9.7768     91.7357      4.0380   8.0562074455e+01   6.2948902520e+01    0.1984411    0.1767962  10.89 0.0003942494    1.107    0.097
        17 -11.8698     27.3204      3.0250   1.1331891137e+02   7.5648675625e+01    0.4465442    0.2674597  24.92   0.00189284    1.711    0.416
        18  -9.2005    100.7243      3.6738   7.7839022428e+01   6.0680271404e+01     0.153894   0.09995495  30.38 0.0004334391    1.587    0.370
        19 -10.7940    174.0397    238.5070   1.2144616142e+02   5.8265870843e+00    0.3196676    0.1684125  27.01  0.001937742    1.465    0.317
        20 -10.1797    243.0420    247.6599   1.1080572090e+02  -3.8951343084e+00    0.1491863    0.1064353  17.41 0.0005477031    1.244    0.196
        21 -10.9903    247.5497    249.9225   1.1040993441e+02  -4.5974919580e+00    0.4024152    0.1191369  29.39  0.002132896    2.530    0.605
        22 -10.4896    250.3823    244.1049   1.0916804938e+02  -4.4447306093e+00     0.260657    0.1277766 -20.29  0.001786242    2.052    0.513
        23 -11.6326    178.7564    243.7425   1.2122069774e+02   4.5898177242e+00    0.5574269     0.173998  40.39  0.002637689    2.611    0.617
        24  -9.3676    168.4470    250.5567   1.2389016265e+02   5.1978542089e+00    0.1129477    0.0765921  26.19 4.983147e-05    1.054    0.052
        25 -10.3609    127.8520    249.5239   1.3132344151e+02   1.0683237403e+01    0.1605381    0.1509072  28.19  0.001139781    1.347    0.258
        26  -9.6816     72.8616    250.0490   1.4177650203e+02   1.7405269844e+01    0.1439192    0.1172613   8.41  0.001112247    1.704    0.413
        27  -9.2262     45.6920    250.6712   1.4683945055e+02   2.0264590707e+01   0.08535258   0.07455294  10.33  0.000703918    1.660    0.397
        28 -11.7452     27.8638    246.0611   1.4991172990e+02   2.2723239433e+01    0.3272986     0.176333  86.46  0.002258125    1.968    0.492
        29 -12.3742     21.1882    248.8305   1.5118358755e+02   2.2919823299e+01    0.5366179    0.1195614  40.56  0.002983464    2.295    0.564
        30 -11.4179     14.4675    244.4506   1.5226902285e+02   2.4194472020e+01    0.2252404    0.1072713  68.27  0.001385472    1.760    0.432
        31 -10.7503     11.4557    250.0941   1.5291611514e+02   2.3594403032e+01    0.2222751   0.06066993  44.30  0.001346522    1.983    0.496
        32 -11.2243    177.5657    234.9496   1.2034825957e+02   5.7577909563e+00    0.2580417    0.1688053  10.86  0.001192683    1.503    0.335
        33 -10.2309     12.1831    238.2120   1.5253987264e+02   2.5373002255e+01    0.1461542   0.07426307  53.04 0.0005980782    1.328    0.247
        34 -11.0097    160.0281    235.6610   1.2373405465e+02   8.1049282384e+00    0.2382076    0.1526346  22.46 0.0008753565    1.315    0.240
        35  -9.7942    135.6679    236.7193   1.2855562114e+02   1.1335429070e+01    0.1124741   0.07451493  16.37 0.0003651657    1.609    0.378
        36  -9.4228     50.2821    240.3457   1.4553109672e+02   2.1366469726e+01   0.08688059   0.07862273   0.67  0.000701417    1.641    0.391
        37 -10.5553    167.1296    233.8148   1.2216220025e+02   7.3441947953e+00    0.2030715    0.1477758  27.98 0.0007396024    1.027    0.026
        38 -11.3238    153.3875    233.6564   1.2477184003e+02   9.2860086700e+00    0.2099579    0.1549317   2.12 0.0007983652    1.552    0.356
        39  -9.6621     53.6618    234.6974   1.4460250455e+02   2.1900207916e+01   0.09343761   0.07881079   8.02 0.0007037992    1.669    0.401
        40  -9.8551    127.6450    233.6605   1.2981659475e+02   1.2856235159e+01    0.1154654   0.07847021  10.58 0.0007041144    1.809    0.447
        41 -10.0464     79.5357    231.2703   1.3926063500e+02   1.9477405716e+01     0.205713    0.1161179  37.09 0.0005577572    1.318    0.241
        42  -9.2271    113.6585    240.3002   1.3321019047e+02   1.3792342252e+01    0.1169699   0.06533892  50.96  0.000612477    1.671    0.402
        43  -9.5125    235.8564    230.4247   1.0952130597e+02  -1.5092157095e+00    0.1505714   0.07289869  23.62 0.0005460271    1.572    0.364
        44  -9.8956    169.8336    229.1178   1.2105903773e+02   7.5443308075e+00    0.1647191    0.1111391  17.17  0.001073699    1.325    0.245
        45 -10.3320     86.4916    233.5446   1.3803176737e+02   1.8267902502e+01    0.1716808   0.09974114  85.72  0.001026912    2.429    0.588
        46 -10.2101    152.1444    228.3031   1.2438012575e+02   1.0165002956e+01    0.1887887    0.1511562  -0.78  0.001336455    1.413    0.292
        47  -9.5258     93.5285    229.4958   1.3629274792e+02   1.8012866834e+01    0.1179741   0.08452952  44.08 0.0002291414    1.054    0.052
        48 -10.1478    178.3184    228.3193   1.1934965978e+02   6.4411605227e+00    0.1190516   0.07297741  12.65 0.0007041775    1.661    0.398
        49 -10.4448    130.1323    226.8966   1.2860521041e+02   1.3476911865e+01    0.3195867     0.150886  49.78  0.001645685    2.192    0.544
        50 -10.4693    190.3342    226.3623   1.1685034072e+02   4.9798620578e+00    0.1999353    0.1616009  10.99 0.0007016556    1.187    0.158
        51  -9.4696    139.9812    227.4373   1.2668714507e+02   1.2011447246e+01    0.1876736   0.08830864  35.30  0.001017215    1.568    0.362
        52 -10.2765     88.1232    227.1301   1.3720317873e+02   1.9073368843e+01    0.1688806    0.1374514  27.42  0.001226878    1.280    0.219
        53 -10.5526     66.4331    226.4055   1.4158097721e+02   2.1820186842e+01    0.2482661    0.1294865  37.21 0.0008880461    1.432    0.302
        54  -9.7645      6.6889    227.3091   1.5331930315e+02   2.7611213497e+01     0.110427   0.04585789  53.79 0.0006165291    1.623    0.384
        55  -9.8857    115.9686    225.4930   1.3134087476e+02   1.5651456540e+01    0.1733546   0.06916482  48.79 0.0008085925    2.430    0.588
        56 -10.4971     81.4759    224.7332   1.3838174809e+02   2.0291556864e+01    0.2214204    0.1608253  52.93 0.0008202465    1.161    0.139
        57 -10.5554    181.9892    223.3615   1.1799179397e+02   6.5197835000e+00    0.2443773    0.1545692 -29.10   0.00156151    1.903    0.474
        58 -10.8952     13.0816    222.1922   1.5199544477e+02   2.7932199674e+01    0.1630655    0.1312781  60.21 0.0003463902    1.174    0.148
        59 -11.3913    141.5821    221.3339   1.2565259917e+02   1.2646090567e+01    0.3114814    0.1886178  19.11  0.001240126    1.743    0.426
        60  -9.2795    134.8947    223.0000   1.2720566305e+02   1.3367510263e+01    0.2012245   0.05264095  35.75 0.0007899091    2.856    0.650
        61 -10.9227    123.3801    221.4947   1.2939856151e+02   1.5226144224e+01    0.2446947    0.1792861  36.78 0.0009617095    1.026    0.025
        62  -9.1418     51.6708    222.6698   1.4436253261e+02   2.4102151471e+01   0.09588859   0.08326226  -6.16 0.0007051555    1.713    0.416
        63  -9.9314    165.5588    220.9011   1.2081638051e+02   9.2109359516e+00    0.1497101    0.1159085 -29.26  0.001024717    1.595    0.373
        64 -10.5452    174.1747    219.9268   1.1901139173e+02   8.0786263494e+00    0.2184436     0.140162  25.69 0.0006593331    1.211    0.174
        65  -9.4098     21.9720    220.2488   1.5021066552e+02   2.7478717502e+01    0.1305364   0.06900451  36.34  0.000369656    1.488    0.328
        66  -9.7716    250.3353    219.0621   1.0548638682e+02  -2.2547283416e+00     0.150629    0.1028833   2.77 0.0005536535    1.126    0.112
        67 -11.0865    192.5385    216.6521   1.1506449218e+02   5.8114085817e+00    0.3562531    0.1909889  13.55  0.001879019    2.123    0.529
        68  -9.6884     50.0415    218.4507   1.4446562716e+02   2.5002329754e+01    0.1697529    0.0881076  33.39  0.000776326    1.586    0.369
        69 -10.6049     10.0935    216.9958   1.5244560600e+02   2.9079254337e+01    0.2804465    0.1282272  49.24  0.001229274    1.494    0.331
        70 -10.7813    201.6339    215.8200   1.1326542189e+02   4.6007693876e+00    0.2231505    0.1451581  18.82  0.001103947    1.217    0.178
        71  -9.5937    137.1759    215.6434   1.2587091199e+02   1.4121192703e+01    0.1821085   0.09227286  28.73 0.0009413307    1.726    0.421
        72 -10.2126    169.9652    213.4384   1.1893476737e+02   9.5501255435e+00    0.1996367    0.1460691  11.27  0.001170195    1.309    0.236
        73 -10.3107    208.9792    212.1552   1.1138087527e+02   3.9729215865e+00    0.1872353    0.1420317   5.93 0.0004929494    1.145    0.126
        74  -9.9302    212.7814    211.6746   1.1062748823e+02   3.4867711460e+00    0.1600509     0.146562 -31.08 0.0007234304    1.745    0.427
        75 -10.2696    217.8589    207.8784   1.0913431438e+02   3.1922741149e+00    0.3484426    0.1444642 -16.69  0.001467932    3.866    0.741
        76 -11.8376      4.4139    207.2404   1.5334572742e+02   3.1265518849e+01       0.4134    0.2159163  60.06   0.00282352    1.413    0.292
        77 -11.2742     20.5404    211.4026   1.5020666287e+02   2.9160464174e+01    0.2910997    0.1268224  60.83 0.0007644063    1.831    0.454
        78  -9.7299    142.6178    213.2346   1.2444479156e+02   1.3675636668e+01    0.1431901    0.1124647 -23.88 0.0004771272    1.593    0.372
        79  -9.3196     27.5559    205.5112   1.4853633180e+02   2.9585822439e+01    0.1126924   0.08108448  55.24 0.0002289154    1.033    0.032
        80  -9.5107    238.5317    201.4498   1.0456609922e+02   1.0082492711e+00    0.1190384    0.0826737  11.10 0.0001052502    1.059    0.055
        81  -9.8778    218.2810    201.3426   1.0800561565e+02   3.8708487977e+00    0.1231607    0.0735594   7.63 0.0007010894    1.632    0.387
        82 -10.5341    210.3971    201.2110   1.0939367454e+02   5.0407716280e+00    0.1453659      0.10966 -34.14 0.0009489556    1.720    0.419
        83  -9.0309     34.6658    200.7306   1.4680008185e+02   2.9791844433e+01   0.09503382   0.08586733  -7.99 0.0002302072    1.591    0.372
        84 -11.3858    227.3291    196.6833   1.0565522225e+02   3.0925328524e+00    0.3775695    0.1885774   9.54   0.00160519    2.490    0.598
        85 -11.4990    231.8391    191.7718   1.0404905532e+02   2.9933168863e+00    0.3369782    0.1644859  19.19  0.001733931    2.078    0.519
        86 -11.7908    192.1741    194.9024   1.1176951516e+02   8.6108578809e+00    0.2971085    0.2825371  56.79  0.002059196    1.611    0.379
        87  -9.8002    202.9049    195.8987   1.0989852372e+02   6.8177676438e+00    0.1938273    0.1351036  12.55 0.0007655497    1.232    0.189
        88  -9.5869      7.0000    195.9411   1.5255150002e+02   3.3140267010e+01    0.1587786   0.05286853 -85.84 0.0006698153    2.891    0.654
        89 -11.4097    215.5491    194.2299   1.0730801011e+02   5.1049757303e+00    0.2907138    0.1703994 -27.64  0.001713449    1.802    0.445
        90 -10.5291    163.3295    191.1030   1.1697422713e+02   1.3777368842e+01    0.2340382     0.113187 -34.41  0.001100215    2.580    0.612
        91 -11.7530    187.5594    189.2941   1.1174059864e+02   1.0102799366e+01    0.3332245    0.1836718 -26.02  0.001731743    2.109    0.526
        92  -9.3521    205.6095    190.2210   1.0844067968e+02   7.1164584047e+00    0.1602628    0.1045975 -13.49 0.0006060171    1.581    0.368
        93 -10.1205    218.1245    187.2583   1.0564919211e+02   5.5538830636e+00    0.2162817    0.1363313 -36.16  0.001265845    1.921    0.479
        94 -10.1875    166.5343    183.4878   1.1506894363e+02   1.4415064245e+01     0.249828    0.1452381  29.61 0.0009430762    1.496    0.331
        95  -9.5920     61.6199    184.7931   1.3959192274e+02   2.9969360578e+01    0.1649097    0.1054865  83.99 0.0009488881    1.681    0.405
        96 -11.5397    248.8416    182.4079   9.9614072203e+01   1.5991881076e+00    0.4139158    0.1855302  13.43  0.001823553    3.129    0.680
        97 -12.1408    244.4440    177.8867   9.9501606787e+01   2.7192521087e+00    0.3399066    0.1655543 -14.71  0.001570036    2.134    0.531
        98  -9.7765    236.4835    182.4768   1.0163506965e+02   3.3646648052e+00     0.121901   0.09193076   9.10 0.0002998531    1.017    0.016
        99 -12.1963     17.1155    182.8402   1.4991931730e+02   3.4860369202e+01    0.4691388    0.3354991  25.02  0.003230529    1.526    0.345
       100 -10.1992    250.3193    190.0378   1.0072381796e+02   5.9074263912e-01    0.1629199     0.117186  -4.54 0.0006443004    1.151    0.131
       101 -11.6985    224.2092    178.3426   1.0298234384e+02   5.7006421682e+00    0.2836218    0.2125544  13.66 0.0004877071    1.045    0.043
       102 -10.7423    200.2592    176.6139   1.0705318970e+02   9.7684377230e+00    0.2164904    0.1399648  -4.12 0.0008162685    1.696    0.410
       103 -10.4230      2.1689    180.1244   1.5320384877e+02   3.6560646562e+01    0.1868338    0.1243241  51.56 0.0005177636    1.167    0.143
       104  -9.7970    183.3365    173.3195   1.0980169917e+02   1.3102403938e+01     0.140311   0.09125295  10.33 0.0007049512    1.705    0.413
       105  -9.6356    193.3376    172.3318   1.0761382403e+02   1.1531296303e+01    0.1406401   0.08916748   9.83 0.0007052004    1.739    0.425
       106  -9.2960     59.7625    172.0118   1.3893069156e+02   3.2808512718e+01    0.1540029    0.1012817 -77.77 0.0008771829    1.604    0.376
       107  -9.7059     74.4908    171.4899   1.3514134654e+02   3.1076111096e+01    0.1294881    0.1109679  50.72 6.217606e-05    1.024    0.024
       108  -9.2096     70.1953    177.6088   1.3685064994e+02   3.0368297949e+01    0.1596387    0.1114319  25.37 0.0004261256    1.494    0.331
       109  -9.7921      4.5810    167.7215   1.5231487066e+02   3.8903616247e+01    0.2084683   0.09174164 -80.76  0.001141295    2.110    0.526
       110  -9.7954    209.9939    166.3267   1.0329399828e+02   9.5395902912e+00    0.1873062    0.1431558  20.46 0.0004867495    1.090    0.083
       111 -10.6302     55.0127    160.9756   1.3913298294e+02   3.5731643409e+01    0.3269516    0.2193732 -20.13  0.001648504    2.492    0.599
       112 -10.4887     40.9039    165.1659   1.4317470398e+02   3.6345407236e+01    0.1925614    0.1324242  58.58  0.000286053    1.243    0.195
       113  -9.7722      9.9815    165.2718   1.5093576212e+02   3.9025969164e+01      0.15644    0.1216758  56.59 0.0002747496    1.069    0.065
       114  -9.2473    229.5109    164.5299   9.9474716646e+01   6.5625069008e+00    0.1292384   0.09933709   8.08 0.0001480098    1.040    0.038
       115 -10.6408     36.1525    161.8481   1.4416209854e+02   3.7535311992e+01    0.3059435    0.1634672 -79.13  0.001655253    1.837    0.456
       116 -11.4148    247.8285    159.0624   9.5420388458e+01   4.3524617952e+00    0.3801836     0.216714 -29.81  0.002181248    1.704    0.413
       117  -9.3419    200.0107    162.7733   1.0449699495e+02   1.1747173375e+01    0.1738809   0.09727622  38.10 0.0004083624    1.604    0.376
       118  -9.7748      7.8648    158.3826   1.5120576257e+02   4.0641892818e+01    0.1368867     0.107271   9.65 0.0005007549    1.630    0.386
       119 -10.7738     23.3929    156.2121   1.4712777271e+02   3.9920457897e+01    0.4145368    0.2198577  36.52  0.002338316    1.666    0.400
       120  -8.9807     23.6993    152.6735   1.4683963056e+02   4.0676980246e+01    0.1780342    0.1154081  66.88  0.000609167    1.337    0.252
       121  -9.6930    217.5631    154.8258   9.9649347880e+01   9.8010785582e+00    0.2490247   0.08520666  40.32  0.000995541    2.700    0.630
       122 -10.0447    205.4307    152.3329   1.0137570180e+02   1.2282432068e+01    0.2480788    0.1233593 -26.92  0.001130585    2.118    0.528
       123  -9.8320    197.3029    153.5792   1.0319494906e+02   1.3570525860e+01    0.2566287    0.1217461  44.66  0.001132379    2.065    0.516
       124  -9.3761    151.5257    153.0544   1.1296223349e+02   2.2203372590e+01    0.1794817    0.1294113 -77.45 0.0007696345    2.422    0.587
       125 -10.4222     10.2056    152.4595   1.5037793489e+02   4.1760490778e+01    0.2049611    0.1318069  40.04 0.0005327933    1.407    0.289
       126  -9.5410    221.9533    151.9533   9.8289450707e+01   9.4299767845e+00    0.2335584    0.1714649 -76.36 0.0009715384    4.238    0.764
       127 -10.5341    178.3573    151.4430   1.0662981366e+02   1.7419325303e+01    0.2933078    0.2342386  49.04  0.001617191    1.393    0.282
       128  -9.4882    169.3116    152.2876   1.0875947866e+02   1.8987363641e+01    0.1432924     0.101363  11.00 0.0003359992    1.580    0.367
       129  -9.4205     92.9887    147.9946   1.2713832349e+02   3.3475750416e+01    0.1740814    0.1533276  46.65  0.001005428    1.023    0.022
       130  -9.4061    233.5424    146.9986   9.5304183857e+01   8.1046407094e+00    0.1896881    0.1122792 -24.47 0.0007975919    1.567    0.362
       131 -10.3839    207.0058    145.9743   9.9759889262e+01   1.2911546514e+01    0.2536817    0.1746274  36.74 0.0007544262    1.360    0.264
       132 -11.0515      7.4822    145.1907   1.5079405844e+02   4.3550714940e+01    0.2645107    0.1380992  41.97 0.0009116505    1.664    0.399
       133 -10.5214      3.0734    143.9091   1.5192155745e+02   4.4115082859e+01    0.1961134    0.1701831  15.14 0.0009046986    1.422    0.297
       134  -9.4450     37.5152    146.4890   1.4261379592e+02   4.0833489321e+01    0.1264388    0.1080549  67.55 0.0003947433    1.003    0.003
       135  -9.8654    213.0455    141.4412   9.7684681831e+01   1.2452496035e+01    0.2916842    0.1524056   3.45  0.001049268    3.578    0.721
       136 -10.0294     37.2268    142.2149   1.4233072421e+02   4.1844392694e+01    0.1870448    0.1247934  57.44  0.001063574    1.353    0.261
       137 -11.2743     12.5027    141.4623   1.4925992981e+02   4.4049049042e+01    0.2953708    0.1777569 -33.20  0.001598917    2.444    0.591
       138 -10.0405    236.0170    138.7092   9.3174983715e+01   8.7416782730e+00    0.1796845    0.1464393  15.60 0.0006459921    1.107    0.097
       139 -11.2884     57.6667    138.5696   1.3597281524e+02   4.0503832160e+01    0.3703783     0.202612  58.13 0.0006380685    1.900    0.474
       140 -10.0758     19.5728    139.5069   1.4717212816e+02   4.3981957535e+01    0.1229566    0.1008992  71.99 5.333221e-05    1.020    0.019
       141  -9.5896     44.2232    138.2311   1.3991642327e+02   4.2077505662e+01    0.2092279   0.09686311 -88.87 0.0008917926    2.469    0.595
       142 -11.5872      3.6255    135.8962   1.5147279420e+02   4.5878099429e+01    0.5202976     0.225107 -60.88  0.002137515    2.391    0.582
       143 -11.9295      9.1143    136.7992   1.4997673758e+02   4.5335158916e+01    0.2132004    0.1860206  89.84 0.0002507699    1.133    0.118
       144 -10.4201     21.9947    136.2342   1.4626532902e+02   4.4551725712e+01    0.2632276     0.131492  40.75  0.001383075    1.790    0.441
       145  -9.8756    138.3344    135.2707   1.1258415518e+02   2.8126013586e+01    0.2811579      0.16927  30.20  0.000777155    1.710    0.415
       146  -9.2899     41.4606    135.5050   1.4046218130e+02   4.2999176981e+01    0.1302408    0.1125982  70.47 0.0002054054    1.018    0.017
       147 -11.9403     36.3696    130.8535   1.4154246568e+02   4.4592946022e+01    0.4050419    0.2940765  89.80  0.001654928    1.279    0.218
       148 -10.4203    249.7537    130.4292   8.9308378357e+01   7.4535085780e+00     0.229568    0.1891917 -37.33  0.001468569    1.481    0.325
       149 -10.1882     74.0924    129.2954   1.2969828831e+02   4.0558706765e+01    0.2285599    0.1891162 -50.22  0.000724399    1.313    0.239
       150 -10.2252    125.4096    129.9949   1.1485738865e+02   3.1720673199e+01    0.4312642    0.2037352  23.43  0.001307959    3.890    0.743
       151  -9.7390      1.2563    126.8693   1.5179217942e+02   4.8071898184e+01    0.2377772   0.08382545  87.18  0.001055383    2.531    0.605
       152  -9.4644     29.1720    130.6150   1.4371008100e+02   4.5288840396e+01    0.1507737    0.1206648   3.43 0.0002992982    1.570    0.363
       153 -10.7204     44.2205    125.8673   1.3857322604e+02   4.5020882390e+01    0.1991517     0.161033  68.51 0.0004599377    1.148    0.129
       154 -10.4714    219.5614    124.6169   9.2828471775e+01   1.3608599146e+01    0.2359473    0.2124944  -4.52 0.0004991326    1.106    0.096
       155 -11.6986     10.1660    122.5844   1.4892879600e+02   4.8566872080e+01    0.3981878    0.3180051  -6.26  0.002594631    1.613    0.380
       156  -9.5750     20.5433    121.5534   1.4563979949e+02   4.8125215023e+01    0.1248486    0.1071958  79.59 0.0001051923    1.003    0.003
       157  -9.5934    221.5553    119.9850   9.1435290435e+01   1.3875353536e+01    0.2077324     0.123192 -26.62 0.0009970397    1.585    0.369
       158  -9.2915    166.5004    118.9891   1.0202079517e+02   2.5408705362e+01     0.212869    0.1477044 -34.00 0.0005329256    1.499    0.333
       159 -10.4325     54.2944    117.7158   1.3424565797e+02   4.5903444409e+01    0.2448116    0.2124989  11.22  0.001162045    1.332    0.249
       160 -10.6322     18.0376    116.2656   1.4603066129e+02   4.9571321189e+01    0.2958561    0.1708632 -60.19  0.001183898    1.687    0.407
       161  -9.9921     19.7139    112.6916   1.4519371658e+02   5.0322830078e+01    0.1885996    0.1607421 -77.10 0.0005586306    1.110    0.099
       162 -12.1918     16.5865    108.7281   1.4591310928e+02   5.1494089421e+01    0.4320969    0.3246147  63.29 0.0006604199    1.245    0.197
       163 -10.1747    179.4088    116.2435   9.8511481301e+01   2.3108971193e+01    0.2601018    0.1955879  40.59 0.0004671651    1.271    0.213
       164  -9.6222    107.5495    115.5572   1.1678234635e+02   3.8268415458e+01    0.1496386    0.1420082  43.11 7.391799e-05    1.002    0.002
       165  -9.9956     35.4060    114.1972   1.4009715063e+02   4.8714059759e+01    0.3237592    0.1709992 -83.24  0.001316875    1.862    0.463
       166  -9.8935     38.4432    111.4878   1.3874233036e+02   4.9103206422e+01     0.235282    0.1877151 -29.77 0.0008878592    1.515    0.340
       167 -10.7154     35.5439    109.0831   1.3944435274e+02   4.9963470565e+01    0.3013059    0.1554358 -82.27   0.00104748    1.918    0.479
       168  -9.1294     66.7419    112.9788   1.2932301839e+02   4.5500788072e+01    0.1687869    0.1182919 -65.30 0.0002041062    1.408    0.290
       169  -8.9364    212.6764    112.6430   9.1234106810e+01   1.6678662358e+01    0.1508702    0.1001849  10.46 0.0007045128    1.769    0.435
       170 -10.0480     42.3584    110.6922   1.3729397452e+02   4.8922132406e+01    0.2023824     0.186156  43.30 0.0008468266    1.136    0.120
       171  -9.7235    167.2977    109.0137   9.9350579302e+01   2.7030305335e+01    0.2128197     0.194126 -16.64 0.0005364585    1.102    0.093
       172 -10.5269    241.9912    108.0122   8.5511755516e+01   1.1618762358e+01    0.1952529    0.1552942 -54.83 0.0006504886    1.695    0.410
       173 -10.9948     23.1860    107.0623   1.4350622507e+02   5.1456801004e+01    0.2306737    0.1801126 -71.72 0.0004046807    1.178    0.151
       174 -11.0697      4.2082    105.9733   1.4988266910e+02   5.2843950271e+01    0.3758109    0.2412109  44.39  0.001312602    1.536    0.349
       175  -9.3844    133.3109    107.3523   1.0738654740e+02   3.4854537286e+01    0.1608486    0.1216499   1.30 0.0007044661    1.723    0.420
       176  -9.7769    126.9886    106.7615   1.0898795686e+02   3.6323751718e+01    0.2138166    0.1865641  40.40  0.001084917    1.091    0.083
       177  -9.0081     49.6290    107.3122   1.3427251652e+02   4.8999611414e+01    0.1503235     0.092912  60.99 0.0007034572    1.776    0.437
       178  -9.1999     81.3584    105.3110   1.2287324581e+02   4.5216842142e+01    0.1511597    0.1146174 -17.25 0.0007042611    1.739    0.425
       179  -9.7672    223.3015    103.9425   8.7383282546e+01   1.5767156327e+01    0.1946254    0.1592222 -16.33 0.0004706406    1.107    0.097
       180 -10.1283     92.8202    103.4690   1.1862581040e+02   4.3733031880e+01    0.4055737    0.2619913 -75.48  0.001711179    2.080    0.519
       181 -11.3127     70.0608    102.5893   1.2620538870e+02   4.7585611737e+01    0.3972292     0.230969  18.94  0.001047628    2.160    0.537
       182 -10.3061    247.5351    102.4788   8.3475885485e+01   1.1299841065e+01    0.1305342     0.109435  -9.88 8.730098e-05    1.011    0.011
       183  -9.7897    120.1687    101.3041   1.0953551334e+02   3.8924850791e+01    0.2513531     0.190973  22.82 0.0007951246    1.470    0.320
       184 -10.1721     36.6421    101.2818   1.3804294880e+02   5.1806048334e+01     0.237877    0.1764634  28.40 0.0007391078    1.435    0.303
       185 -10.0453     27.9761    100.9798   1.4115662642e+02   5.2606504754e+01    0.1830558    0.1670521 -88.26   0.00117117    1.034    0.033
       186 -10.7127      4.0152    100.7458   1.4964282396e+02   5.4112249008e+01    0.3093245    0.1587828  35.95  0.001355959    1.963    0.491
       187 -11.5633     20.6570     98.4205   1.4353752101e+02   5.3766304789e+01    0.4193081    0.2337662 -83.70  0.001935211    1.632    0.387
       188 -10.7597     61.9857     98.5109   1.2828162097e+02   4.9698958071e+01    0.2631751    0.2107967  -0.22  0.001364174    1.524    0.344
       189 -10.4982     79.9999     96.6801   1.2139890288e+02   4.7514121048e+01    0.2007203    0.1864093  47.40 0.0003041924    1.070    0.066
       190  -9.9037     92.5323     96.0110   1.1690020595e+02   4.5533982731e+01    0.2348271    0.1480397 -52.24  0.001034842    1.605    0.377
       191 -12.1882      8.6296     94.3333   1.4756435570e+02   5.5459882273e+01    0.3884502    0.2073317 -62.79  0.002063033    1.669    0.401
       192  -9.6476      7.0470     88.7288   1.4771480741e+02   5.6908363229e+01    0.1830933    0.1402154  70.11  0.000306201    1.237    0.191
       193 -10.6477    109.2092     93.5444   1.1078843003e+02   4.2891895446e+01    0.2746659    0.2131237 -44.60   0.00043013    1.326    0.246
       194 -10.4133      1.7773     93.5209   1.4999581883e+02   5.5955601992e+01    0.3489255    0.1109199 -61.88  0.001496808    2.654    0.623
       195  -9.2894    171.3172     91.3396   9.3734657093e+01   2.9222473990e+01    0.1622824     0.116937  13.67 0.0001947852    1.707    0.414
       196 -10.5979     96.3513     90.3739   1.1412783042e+02   4.6137932214e+01    0.3395063    0.2211234 -10.00  0.001265288    2.745    0.636
       197 -11.2467     46.5540     84.1665   1.3136938967e+02   5.5126041372e+01    0.6043296    0.3947865 -84.99  0.002543816    1.694    0.410
       198 -10.8588    118.2160     83.2549   1.0502148893e+02   4.3206138579e+01    0.3423788    0.2664837   5.36  0.001117754    1.621    0.383
       199 -11.4395     23.8895     78.2437   1.3977587627e+02   5.8593840509e+01    0.4163894    0.2628437  78.06  0.001362526    1.709    0.415
       200 -11.6470     19.8755     82.1482   1.4198237176e+02   5.7873057270e+01    0.3587859    0.2237481  73.06 0.0009496017    1.690    0.408
       201 -11.3315     15.9679     81.6360   1.4351828302e+02   5.8227382117e+01    0.3208493    0.2350861 -54.74  0.001168288    1.292    0.226
       202  -9.2678      7.2476     81.7952   1.4705781522e+02   5.8607215156e+01    0.3327358    0.1677091 -60.81  0.001292549    1.721    0.419
       203 -10.0821      2.3864     71.8655   1.4820039872e+02   6.1227911208e+01    0.2664979    0.1662727 -68.02  0.001483634    1.340    0.253
       204 -10.6230      3.2923     78.6772   1.4838575548e+02   5.9525630605e+01    0.2715324    0.2290599  49.38 0.0009227549    1.281    0.219
       205 -11.7063      5.9114     74.0042   1.4689622210e+02   6.0582203809e+01    0.4926573    0.4299867 -23.36  0.003322337    1.318    0.242
       206 -11.8036     72.3674     78.4031   1.1960761495e+02   5.3130710702e+01    0.5337389    0.3446477 -19.75  0.001105658    2.288    0.563
       207 -11.1232    150.8784     78.5724   9.4671791482e+01   3.6424415873e+01    0.2853111    0.2524486 -53.34   0.00034655    1.234    0.189
       208 -10.0839    100.7950     78.3972   1.0914773234e+02   4.7968485427e+01    0.2268111     0.145317  30.91 0.0009537324    1.703    0.413
       209 -11.7931     62.6136     72.0291   1.2181738631e+02   5.6125348704e+01    0.4613668    0.3665201 -58.06  0.002026588    1.216    0.178
       210 -11.0269     59.1358     76.8649   1.2454744513e+02   5.5427566321e+01    0.4210182     0.308242  89.82   0.00168494    1.676    0.404
       211 -10.3493     54.5594     72.4629   1.2536213822e+02   5.7100151077e+01    0.2562763    0.2078788  85.54  0.000538601    1.414    0.293
       212  -9.6960     36.0808     77.7017   1.3448643185e+02   5.7778590229e+01    0.1800271    0.1683739 -57.24 0.0004006393    1.056    0.053
       213 -11.2900     75.3957     81.7952   1.1935404992e+02   5.1836501465e+01    0.4110365    0.1962206 -55.29  0.001630478    2.057    0.514
       214  -9.7023    193.4994     77.3191   8.5478978628e+01   2.6199876870e+01    0.2590572    0.1351406  55.10  0.001066704    1.948    0.487
       215 -10.9371     85.5307     82.4906   1.1575432794e+02   4.9954705474e+01    0.4391648    0.2474147 -60.06  0.001732602    1.976    0.494
       216 -11.8743    108.3382     74.5580   1.0542051877e+02   4.7210693988e+01    0.6598143    0.3217024 -35.90  0.001307253    2.331    0.571
       217 -10.6443     40.3939     73.1481   1.3170354580e+02   5.8515705267e+01      0.31971    0.2333658 -83.68 0.0007180038    1.436    0.303
       218 -11.0951    152.2280     72.2625   9.2390034592e+01   3.7214974016e+01    0.3609285    0.2593309  49.26  0.001045998    1.349    0.259
       219 -10.8679     31.1194     66.3713   1.3449104182e+02   6.1033302398e+01    0.3035722    0.2233297 -67.94 0.0008603194    1.225    0.184
       220 -11.1941     25.6470     68.5136   1.3742872858e+02   6.0910323247e+01    0.3229058    0.3077078 -53.47   0.00210704    1.089    0.082
       221 -10.7672     21.1755     65.9897   1.3906007701e+02   6.1833300931e+01    0.2952715    0.1925173  22.63  0.001622357    1.708    0.414
       222 -10.2337    115.8425     70.9335   1.0184380500e+02   4.6288943423e+01     0.364827    0.2269685 -41.66   0.00109978    1.646    0.392
       223 -11.1194     77.3451     71.6187   1.1568035219e+02   5.3917030582e+01    0.4600644    0.3124638  62.13  0.001248367    1.951    0.488
       224 -12.0083     49.6633     69.3456   1.2670965307e+02   5.8461109364e+01    0.5138371    0.3282611 -28.74   0.00241409    1.880    0.468
       225 -11.4597     69.0558     67.3968   1.1776123540e+02   5.6263230090e+01     0.343236    0.3070976 -38.55 0.0007893026    1.087    0.080
       226 -10.6293     37.1905     67.7252   1.3196815659e+02   6.0170990660e+01    0.3773097     0.204261 -52.24  0.001795055    1.653    0.395
       227 -10.3086     14.7382     66.9756   1.4218785527e+02   6.1944734307e+01    0.3424106     0.296764 -73.72  0.001209973    1.017    0.017
       228  -9.2776    219.7544     68.6183   7.9015652837e+01   2.1344193350e+01    0.1421992    0.1022491   7.18 0.0006942585    1.646    0.393
       229 -11.2695    130.3681     65.4810   9.5745652323e+01   4.3892099220e+01    0.5234998    0.2662245 -46.07  0.001950805    2.156    0.536
       230 -11.3061     41.2577     63.9162   1.2918748672e+02   6.0717423338e+01     0.389257     0.205018  67.99   0.00142698    3.495    0.714
       231 -10.1811      6.9137     68.0015   1.4585447022e+02   6.2027181095e+01    0.1883538    0.1619712 -63.03  0.001243728    1.084    0.077
       232 -11.2068      2.3348     65.1591   1.4761957050e+02   6.2875388449e+01     0.441344   0.09436609 -62.38  0.001668221    3.132    0.681
       233 -10.1080    156.2684     66.4438   8.9611557073e+01   3.7190185658e+01    0.2183517    0.1533911  68.33 0.0009431917    1.624    0.384
       234  -9.1593    146.7035     66.2807   9.1787510127e+01   3.9655443688e+01    0.1538831    0.1254751 -77.48 0.0002932395    1.538    0.350
       235 -11.5833    120.3456     64.4546   9.8270261592e+01   4.6517313145e+01     0.648094    0.4132223   3.10  0.002292678    2.843    0.648
       236 -10.3316    165.7971     64.8467   8.7056308700e+01   3.5011986513e+01     0.232603    0.2048434  12.56 0.0004363502    1.203    0.169
       237 -10.8773    105.8816     64.2805   1.0278246753e+02   4.9889215791e+01    0.3708184    0.2067856 -50.75  0.001455751    2.011    0.503
       238 -11.3391     84.2311     63.0896   1.1020430555e+02   5.4610927921e+01    0.5152642    0.4026156 -66.35  0.002192364    1.516    0.340
       239 -10.7767     86.0467     58.0211   1.0770332497e+02   5.5358582752e+01    0.3430475    0.2438822 -42.53 0.0003515513    1.398    0.285
       240 -10.7150     76.4652     65.1427   1.1398799205e+02   5.5558898888e+01    0.3496467    0.2114217  48.02  0.001519954    1.823    0.451
       241 -10.8851    174.3530     63.8055   8.5034251637e+01   3.2987419545e+01     0.316499    0.2649559 -83.09 0.0005657175    1.413    0.292
       242 -10.8197    170.0770     61.2913   8.5080785052e+01   3.4470163177e+01     0.213451    0.1952356  55.18 0.0002718495    1.087    0.080
       243 -10.7557     51.8815     62.4685   1.2385136683e+02   5.9865453775e+01     0.279926    0.1925226 -36.14  0.001064269    1.504    0.335
       244 -11.1938     10.9517     62.3181   1.4330947750e+02   6.3273478956e+01    0.2742179    0.2034565 -60.95 0.0008055154    1.160    0.138
       245 -10.2461     71.9528     61.7267   1.1472892266e+02   5.7104972433e+01    0.2586768    0.2438487  72.86 0.0001995795    1.186    0.157
       246 -10.3851     70.2392     58.5701   1.1439157093e+02   5.8106405289e+01    0.2906711    0.2004257 -31.89 0.0009038516    1.565    0.361
       247 -10.7136     32.7857     61.0297   1.3254620372e+02   6.2219656637e+01    0.3780103    0.2219885 -36.38  0.001845127    1.799    0.444
       248 -10.9136     27.0936     61.2127   1.3535237204e+02   6.2623712468e+01    0.4017775    0.2073856  12.76  0.001891696    2.265    0.559
       249  -9.6176    183.7780     61.3699   8.2571007041e+01   3.0959711411e+01    0.2097388    0.1336306  48.46 0.0003946911    1.566    0.361
       250 -11.3250     57.6401     59.5793   1.2033642322e+02   5.9794158732e+01    0.3755255    0.2421481 -49.96  0.001816749    1.447    0.309
       251 -11.1058    137.0323     57.9664   9.1377154523e+01   4.3563886843e+01    0.5278108    0.2955874  29.47  0.001710356    2.480    0.597
       252 -12.6216    136.3529     51.3186   8.9182381889e+01   4.4859346361e+01    0.6032007    0.3703695 -48.30 0.0002705035    1.842    0.457
       253 -10.0389     18.2652     59.3704   1.3932232299e+02   6.3647124921e+01    0.2193785    0.1407613  81.30 0.0005578693    1.722    0.419
       254 -11.0306     64.7055     60.0943   1.1732050646e+02   5.8641246689e+01    0.5099164     0.197589  39.35  0.001880446    2.646    0.622
       255 -10.9308    122.8329     56.5834   9.4740106927e+01   4.7384773868e+01     0.487172    0.3203091  81.08  0.001828319    2.513    0.602
       256 -11.1563     94.0942     65.3154   1.0725424853e+02   5.2186806027e+01    0.3334106    0.2396594  42.52  0.001553044    1.384    0.277
       257 -10.3556    114.3075     57.4846   9.7622903096e+01   4.9286244908e+01    0.4673434    0.1412937  45.83  0.001194138    3.208    0.688
       258  -9.7418    117.6111     54.7358   9.5597347202e+01   4.9002069152e+01    0.2365401    0.1579014 -33.93 0.0003697383    1.547    0.354
       259  -9.4629     80.8137     57.1410   1.0946102809e+02   5.6552337313e+01    0.1999084    0.1705895 -11.45 0.0003626783    1.254    0.203
       260 -10.8982     98.6360     55.9375   1.0225078586e+02   5.3172267521e+01    0.3682478    0.2217057  37.34 0.0006684446    1.704    0.413
       261 -10.0297     44.7302     51.4443   1.2400683161e+02   6.3352815633e+01    0.2980991    0.2061369 -19.89  0.001093649    1.672    0.402
       262 -10.5463     46.0698     47.0101   1.2186879965e+02   6.4231212559e+01    0.2445021    0.1883951 -58.87 0.0002876236    1.272    0.214
       263 -12.5281    128.0255     51.3783   9.1374756796e+01   4.6995787342e+01    0.4708052    0.3494551 -14.72 0.0003842795    1.550    0.355
       264 -11.3800      4.4090     52.7398   1.4525301809e+02   6.5858484353e+01    0.5657282    0.1825061 -26.11  0.002158442    3.936    0.746
       265 -11.3478     13.0678     49.7415   1.4027493666e+02   6.6276131381e+01    0.4084165    0.1832541 -64.83   0.00133188    1.782    0.439
       266 -12.1137      8.5754     45.8810   1.4203298848e+02   6.7396804291e+01    0.5066441    0.3729123 -32.06  0.001751163    1.372    0.271
       267 -10.0570    157.6276     52.3000   8.4667651910e+01   3.9103294066e+01    0.2657333     0.200469 -12.00 0.0007207889    1.498    0.332
       268 -10.2249     87.1036     52.8079   1.0534220908e+02   5.6238634259e+01    0.2264335    0.2112758  69.15  0.000956568    1.219    0.180
       269 -11.6271     38.2205     51.8008   1.2744763932e+02   6.3966777734e+01    0.6227971    0.3817143 -41.61  0.003067315    1.553    0.356
       270 -10.0116     83.0290     51.5081   1.0645312803e+02   5.7319813564e+01    0.2297758      0.19556 -38.77 0.0003281606    1.165    0.141
       271 -11.4641    101.9807     49.6660   9.8670005336e+01   5.3641374940e+01    0.4874701    0.2945923  64.63  0.001892764    2.284    0.562
       272 -11.6862     51.7132     48.7773   1.1960140014e+02   6.3109185770e+01    0.6222324    0.2805913 -59.30  0.002414453    2.319    0.569
       273 -12.5992    142.1078     46.7264   8.6127733912e+01   4.4079129795e+01    0.6360191    0.5202278 -41.90  0.002825418    1.277    0.217
       274 -10.3058    114.9411     49.3257   9.4351388934e+01   5.0628546862e+01    0.3034836    0.2308063 -19.42  0.001199967    1.447    0.309
       275 -10.7701     76.9657     49.9899   1.0836534742e+02   5.8797020424e+01    0.2388432    0.1777313  -5.74  0.001080637    1.669    0.401
       276 -11.5050    155.5668     47.6114   8.3497435384e+01   4.0355989904e+01     0.431751    0.2313309  41.28  0.001163834    2.023    0.506
       277 -10.0985    162.7950     47.5961   8.2053616702e+01   3.8428227118e+01    0.2074795    0.1489648  74.22 0.0003646076    1.526    0.345
       278  -9.3845    104.3176     46.3142   9.6542275388e+01   5.3718870471e+01    0.1608721    0.1191687  13.85 0.0005363032    1.648    0.393
       279 -10.1426     91.7069     46.1367   1.0093216133e+02   5.6599794723e+01    0.2395334    0.1895067 -56.60 0.0009740681    1.477    0.323
       280  -9.4740     22.9784     46.0568   1.3408270842e+02   6.6620911955e+01    0.1599317    0.1264205 -60.47 0.0005425678    1.106    0.096
       281  -9.7516      7.0019     40.9710   1.4206777919e+02   6.8637058097e+01    0.1910213    0.1525841 -62.97 0.0005458563    1.037    0.035
       282  -9.8875    233.1572     45.1770   7.1289750163e+01   2.1259612831e+01    0.1900323    0.1690198  -5.41 0.0004493507    1.173    0.147
       283 -10.9603    122.3356     44.2611   9.0225781327e+01   4.9640373459e+01    0.4439357    0.2988693 -37.49 0.0007825619    1.533    0.348
       284 -10.7309    119.2709     39.4047   8.9147183128e+01   5.1208779544e+01    0.3015267    0.2576402  22.64 0.0007840486    1.211    0.174
       285  -9.4848     86.9926     45.0000   1.0226866289e+02   5.7822155693e+01    0.2560564   0.08462781  45.01 0.0008113272    3.004    0.667
       286 -10.9823     64.0628     41.5408   1.1076444412e+02   6.2851869040e+01    0.2857958    0.2140137 -42.17  0.000960977    1.282    0.220
       287 -11.1882     68.7535     37.9146   1.0700418936e+02   6.2779831363e+01    0.4651145    0.2416298 -33.76  0.001915421    2.074    0.518
       288  -9.7404    163.2944     42.3409   8.0187814246e+01   3.9036310102e+01    0.1608826     0.115169  25.51 0.0003330331    1.656    0.396
       289  -9.9284     56.3843     42.2344   1.1481423026e+02   6.3915261966e+01    0.2028571    0.1323198 -59.55 0.0009543269    1.711    0.416
       290 -10.1998     23.9878     41.5241   1.3233131417e+02   6.7638521085e+01    0.2389389    0.1943339 -47.63  0.001457365    1.066    0.062
       291 -10.6235     95.7652     40.4065   9.7040990821e+01   5.6760187600e+01    0.3151154    0.2553254 -84.90  0.001111526    1.721    0.419
       292 -10.1251     44.1400     39.6902   1.2027692769e+02   6.6133180516e+01    0.3203901    0.1955074 -58.67  0.001046908    1.639    0.390
       293 -10.3042    225.5385     39.9249   7.0722771136e+01   2.3579441786e+01    0.3103468    0.1911141 -66.60  0.001483252    1.963    0.491
       294 -10.0303     98.3836     44.6821   9.7908546218e+01   5.5389462797e+01    0.3101723    0.2118853  11.04 0.0007531091    2.026    0.507
       295 -11.8238     82.5355     36.8816   1.0054574621e+02   6.0290889115e+01    0.3971482    0.3250922  52.87  0.001030218    1.331    0.249
       296  -9.4463     19.3721     37.8268   1.3405448702e+02   6.8820786513e+01    0.1902649   0.09375781 -55.11 0.0005567872    1.642    0.391
       297  -9.8398      1.3779     37.9987   1.4484981991e+02   6.9496655395e+01    0.1859229   0.09647286 -71.44 0.0004351993    1.558    0.358
       298 -10.7996    111.1092     34.1918   8.9333225141e+01   5.4103901966e+01    0.4965781    0.3239678 -31.04 0.0009010581    1.583    0.368
       299 -11.0105    102.0588     36.9197   9.3363346512e+01   5.5892187131e+01    0.4015242    0.2173512  54.74 0.0009646161    1.880    0.468
       300 -10.8020    105.8728     34.1513   9.0922061682e+01   5.5416639430e+01     0.347715    0.2976075  36.99 0.0008509833    1.115    0.103
       301 -11.0408     24.3832     35.5137   1.3034082861e+02   6.9027167556e+01    0.2645689    0.2336901  30.18 0.0005551068    1.301    0.231
       302 -11.0300     76.6704     33.1329   1.0128499518e+02   6.2182910275e+01    0.4542667    0.2909495  -5.63  0.001795583    2.304    0.566
       303 -10.3561     32.0691     33.8105   1.2507267969e+02   6.8769059903e+01    0.3248879    0.1739691   9.22   0.00102538    2.269    0.559
       304 -10.0585     14.2795     33.9679   1.3617417015e+02   7.0015401996e+01    0.2458049     0.123807  45.59   0.00115358    2.587    0.613
       305 -12.2851    232.7727    246.9791   1.1235061876e+02  -2.6287871503e+00    0.5755256    0.3843213  -2.90  0.004508638    1.348    0.258
       306 -10.4558      9.2162     33.5777   1.3926057515e+02   7.0327937654e+01    0.3292366    0.1423145 -65.14  0.001415233    1.834    0.455
       307 -11.6894      5.7642     30.4600   1.4077971816e+02   7.1181056231e+01    0.4584974    0.2538792 -53.51 0.0009507218    1.439    0.305
       308 -10.0867      1.6727     31.6488   1.4362772689e+02   7.1001937696e+01    0.2494868    0.1052485 -55.32  0.001242235    1.801    0.445
       309 -10.5952     97.8683     31.9734   9.2580561617e+01   5.7704982177e+01    0.2877962    0.2202841 -17.16 0.0004654294    1.391    0.281
       310 -11.7726     55.8808     30.9868   1.1023595372e+02   6.6349869784e+01    0.6667525    0.3035036 -29.39  0.002380097    3.123    0.680
       311 -10.5016     54.2742     23.3323   1.0734654310e+02   6.8099062918e+01    0.2442421    0.2368627  -6.61 0.0005400646    1.177    0.150
       312 -11.5980    145.0670     31.4343   7.9820786017e+01   4.5468492070e+01    0.3717485    0.2796813 -62.98 0.0004226969    1.547    0.353
       313  -9.0636     90.4160     31.4851   9.5008734899e+01   5.9519179121e+01    0.1502862    0.1392273  11.12 0.0001488778    1.022    0.022
       314 -10.5360     49.9682     28.7700   1.1241916515e+02   6.7698342197e+01    0.4565169    0.1559431 -41.82  0.001656837    2.824    0.646
       315 -10.4414     82.2635     29.2630   9.7110200422e+01   6.1699646794e+01    0.2919545    0.2233995 -79.18  0.001335752    2.098    0.523
       316 -10.5253     66.0532     29.7366   1.0450344953e+02   6.4854977511e+01     0.201955    0.1943372  35.31 0.0003977859    1.178    0.151
       317 -11.0353     70.5211     26.4912   1.0079956702e+02   6.4599102151e+01    0.4542747    0.2235506  33.64  0.001827393    2.237    0.553
       318 -10.4667    153.1735     27.4876   7.6805074311e+01   4.3736767074e+01     0.393506    0.1720312 -44.86  0.001403513    2.537    0.606
       319  -9.8495    124.5319     27.9933   8.3050756426e+01   5.1505780848e+01    0.2328345    0.1954756  49.84 0.0003638587    1.118    0.105
       320  -9.5191    196.3417     27.7252   7.0559808456e+01   3.2089097168e+01    0.1502048    0.1010453 -63.33 0.0003311459    1.617    0.382
       321  -9.9210    172.7546     27.5475   7.3631010607e+01   3.8358199672e+01    0.2138331     0.141114  87.01 0.0009457457    1.699    0.412
       322 -10.2724    131.8321     26.1100   8.0558140171e+01   4.9781379075e+01    0.2182984    0.2063432 -72.50 0.0003971073    1.134    0.118
       323  -9.2993     90.5423     26.5553   9.2625644997e+01   6.0287854180e+01    0.1475812    0.1404632  22.42 1.568686e-05    1.051    0.049
       324 -11.7409     60.7871     24.2130   1.0435276217e+02   6.6826664907e+01    0.5327409    0.2554381 -50.36  0.002125067    2.557    0.609
       325 -10.4165     17.0876     24.3146   1.3145861081e+02   7.2100397395e+01    0.2790455    0.1620849 -46.95  0.001217714    1.421    0.296
       326  -9.8783    113.3156     25.2821   8.4804459189e+01   5.4839520590e+01    0.2285611    0.2031719  31.02 0.0004300632    1.086    0.080
       327  -9.8704    112.5975     22.1543   8.3597987145e+01   5.5446282711e+01    0.2464304    0.2293738  36.85  0.000549322    1.008    0.008
       328 -11.7587    224.8748    247.3155   1.1368362645e+02  -1.7049292413e+00    0.4490816    0.2251212  -5.67  0.002616297    2.387    0.581
       329  -9.5719    160.9597    250.0000   1.2519486576e+02   6.2519066451e+00    0.1875209   0.04540022  35.57 0.0004788644    2.881    0.653
       330 -10.6606     99.5845     23.0010   8.7826877271e+01   5.8649026459e+01    0.4144505    0.2981946  31.08    0.0015849    1.421    0.296
       331 -10.7079     84.1345     22.3452   9.2939830993e+01   6.2406694287e+01    0.2881249    0.2114432  20.71 0.0005982104    1.459    0.315
       332  -9.4892     86.7720     19.0318   9.0245355123e+01   6.2294549058e+01    0.2077682    0.1836715  -6.50 0.0005524724    1.118    0.105
       333 -10.7429    123.7638     21.7689   8.0601758660e+01   5.2521189568e+01     0.417856    0.2064942  56.23  0.001111518    1.825    0.452
       334 -10.1411    137.2791    247.0378   1.2930123106e+02   9.7616255062e+00    0.1497339    0.1179333  30.88 0.0006817157    1.127    0.113
       335 -10.1221    136.9779     20.0225   7.7008008248e+01   4.9110593722e+01     0.229013    0.2162851  59.89 0.0003166083    1.012    0.012
       336 -10.9106      6.2702    245.1669   1.5372566854e+02   2.4788751678e+01    0.2172312    0.1042236  64.55 0.0008803409    1.600    0.375
       337  -9.7167     45.1246     20.5107   1.1115766918e+02   7.0040623734e+01    0.1951473     0.129724  29.81 0.0007257725    1.543    0.352
       338 -10.9204    217.4877     16.2209   6.5124190444e+01   2.8024229124e+01    0.4725114    0.1883076  57.40  0.001941214    2.535    0.606
       339  -9.4974    167.3292     19.3156   7.1628577770e+01   4.0765380241e+01    0.1583685    0.1057352  36.64 0.0007045417    1.678    0.404
       340 -10.3341     81.7176     17.8173   9.1521963784e+01   6.3629534134e+01    0.3781629    0.1887696 -23.47  0.001522092    2.238    0.553
       341  -9.3577     50.2125     18.8171   1.0723435939e+02   6.9593365960e+01    0.1822105    0.1432913  -5.91 0.0002836691    1.260    0.206
       342 -10.1447     19.5142     18.5491   1.2756575697e+02   7.3226458509e+01    0.2235766    0.1727418   4.68 0.0007930832    1.361    0.265
       343  -9.5920     20.0077     15.4514   1.2587524191e+02   7.3861842369e+01    0.2207457    0.1437504 -36.58 0.0005921185    1.327    0.246
       344  -9.8864      5.3742     18.1986   1.3803480578e+02   7.4038468627e+01    0.1688095    0.1048347 -81.70 0.0008433712    1.689    0.408
       345 -10.1417     75.8617     16.5618   9.3211586603e+01   6.5111120521e+01    0.2825081    0.1930002  20.77  0.001259715    1.612    0.380
       346 -10.1534      9.7922     16.5326   1.3414504489e+02   7.4245700928e+01    0.2152456    0.1435095 -57.89  0.000414949    1.252    0.201
       347  -9.9999     35.2581     20.6250   1.1747221886e+02   7.1297805610e+01    0.2362098    0.1686416 -61.02  0.001280983    1.611    0.379
       348 -11.4594      8.5047    241.4422   1.5326488915e+02   2.5178586960e+01    0.3450422    0.1380566  57.28  0.002312117    1.728    0.421
       349  -9.3410    166.4847     14.5107   7.0085329857e+01   4.1500025805e+01    0.1473032    0.1387673  68.67 0.0001365894    1.034    0.033
       350  -9.6745    115.4462    244.7080   1.3325536804e+02   1.2943885238e+01    0.1180611    0.1059406 -19.48 0.0006383441    1.527    0.345
       351  -9.1011     35.6548     14.7541   1.1417301439e+02   7.2428172067e+01    0.1330168   0.09088838 -11.06 0.0002512483    1.573    0.364
       352  -9.4428    115.4847     13.4952   7.8908338258e+01   5.5733196287e+01    0.1496262    0.1415519  56.31 0.0008099501    1.051    0.049
       353  -9.2459     90.2730     13.0001   8.5856290215e+01   6.2276568443e+01    0.1672301    0.1275722 -20.43 0.0003818475    1.350    0.259
       354  -9.3659     65.3068     13.3080   9.6092593287e+01   6.7804252733e+01    0.1457626     0.101615  11.04 0.0001801823    1.611    0.379
       355 -11.2987    146.9947    244.0519   1.2715458550e+02   8.8388465080e+00    0.2457568    0.1172051  34.52  0.001110684    1.481    0.325
       356 -10.2427    109.8919    243.2134   1.3419921821e+02   1.3870881839e+01    0.2304909    0.1346722  60.19  0.001425302    2.024    0.506
       357 -10.2266     71.9250    243.8432   1.4158432822e+02   1.8433159384e+01    0.1572423    0.1222912  32.25 0.0006453736    1.274    0.215
       358 -10.0107    104.2981     18.7121   8.4332679481e+01   5.8043594770e+01    0.2908807    0.1724346   3.65 0.0009416039    2.381    0.580
       359 -11.3462     34.3414    241.4666   1.4857314815e+02   2.2814152386e+01    0.3329907    0.2006175  31.22  0.002403642    1.496    0.332
       360 -10.5806     31.6104    237.1967   1.4893097695e+02   2.3756347342e+01    0.2501563   0.09987877  56.00  0.000751044    1.884    0.469
       361 -10.5228     28.9084    232.8831   1.4929116038e+02   2.4712695362e+01    0.3166979   0.09784497  41.51  0.001792454    1.986    0.497
       362 -12.1340    155.9099    241.5299   1.2519337329e+02   7.9432661058e+00    0.3355172    0.1707162  25.93  0.001359678    1.668    0.401
       363 -11.8201     19.6052    238.2479   1.5118989600e+02   2.4710613017e+01    0.4099344    0.1817591  42.55   0.00242388    1.487    0.327
       364 -11.4583     73.9767    238.3999   1.4084756385e+02   1.9024804028e+01    0.4951033    0.2058903  39.97  0.002880297    1.642    0.391
       365 -10.9108     73.5501    232.9778   1.4057754450e+02   1.9923343146e+01    0.2374258    0.1558788  54.65  0.000850369    1.272    0.214
