#   1 NUMBER                 Running object number                                     
#   2 MAG_AUTO               Kron-like elliptical aperture magnitude                    [mag]
#   3 X_IMAGE                Object position along x                                    [pixel]
#   4 Y_IMAGE                Object position along y                                    [pixel]
#   5 X_WORLD                Barycenter position along world x axis                     [deg]
#   6 Y_WORLD                Barycenter position along world y axis                     [deg]
#   7 A_WORLD                Profile RMS along major axis (world units)                 [deg]
#   8 B_WORLD                Profile RMS along minor axis (world units)                 [deg]
#   9 THETA_WORLD            Position angle (CCW/world-x)                               [deg]
#  10 FWHM_WORLD             FWHM assuming a gaussian core                              [deg]
#  11 ELONGATION             A_IMAGE/B_IMAGE                                           
#  12 ELLIPTICITY            1 - B_IMAGE/A_IMAGE                                       
         1 -14.0499     59.0883    132.8937   9.0762650151e+01   4.1597266382e+01     2.629199     1.417145 -85.80   0.01119816    2.287    0.563
         2 -12.9263    201.5615     46.1290   3.3566572549e+01   2.8779713531e+01    0.9414184    0.8578406 -34.93  0.003163276    1.055    0.052
         3 -13.2183    211.2286     37.7822   3.0306408209e+01   2.7611463974e+01    0.7741135    0.6879591   4.20  0.001340323    1.301    0.231
         4 -12.2163    240.3346     14.9635   2.2416570464e+01   2.3889334934e+01    0.7897226    0.4228178  63.74  0.004427296    2.144    0.534
         5 -12.3052    238.4598      8.9035   2.1093407027e+01   2.4834772482e+01     0.795451    0.4667774  62.84   0.00464798    1.987    0.497
         6 -10.9008     44.8110      2.2700   5.2796323712e+01   7.3582732905e+01    0.3284854    0.2384205 -64.61  0.001647019    2.141    0.533
         7 -15.7264      3.6276    176.2741   1.1017864999e+02   3.7003749198e+01     14.13802    0.8635864 -82.24    0.0326217   11.621    0.914
         8 -11.6335    140.0039    248.5787   8.4900328734e+01   9.1594826926e+00    0.3464275    0.2187557  38.57  0.001713895    1.349    0.258
         9 -15.7836     36.1262    188.3808   1.0252352545e+02   3.1639702267e+01     13.86419    0.4284799  42.82   0.03604177    4.535    0.780
        10 -17.3266      6.2502    241.6733   1.1099336763e+02   2.4548656091e+01     2.141701     1.362424  17.66   0.01096969    1.767    0.434
        11 -15.0636     12.2027    245.4210   1.0991128596e+02   2.3445748616e+01    0.4896086    0.2034561  86.38  0.003017162    2.640    0.621
        12 -10.9237    133.5043    201.0692   8.0684626713e+01   1.6803645699e+01    0.2145777    0.1569785  15.69  0.001312384    1.330    0.248
        13 -10.6604    193.0472    195.0058   6.7907702869e+01   9.1466095594e+00    0.6600348    0.3906996 -60.32   0.00252685    6.240    0.840
        14 -10.2436    110.2117    197.9415   8.5467977383e+01   2.0642164978e+01    0.2454463    0.1554796   7.74  0.001246221    2.150    0.535
        15  -9.6109     75.5461    246.6965   9.7386317947e+01   1.6988653330e+01    0.3368313    0.1171961 -59.19  0.001787733    3.661    0.727
        16  -9.9065     71.8720    244.1355   9.7962427485e+01   1.7783801729e+01    0.2356601    0.1667319  76.36 0.0009928265    1.689    0.408
        17 -12.6053     53.6880    181.0050   9.7541893508e+01   3.1287871134e+01    0.7400504    0.6409065  27.04  0.002891201    1.222    0.181
        18 -11.0122     99.1705    181.1523   8.5999043511e+01   2.5319104149e+01     0.301341    0.2841692 -57.30  0.001136757    1.245    0.197
        19 -11.0965    120.7007    180.2884   8.0684502068e+01   2.2273890419e+01    0.2970471     0.223543  67.57  0.001072862    1.719    0.418
        20 -11.0798    156.6506    226.4480   7.9226105629e+01   9.9314289158e+00    0.2004965    0.1686697  20.83  0.001505677    1.159    0.138
        21 -11.3408     39.3648    172.8519   1.0067787663e+02   3.4597375745e+01    0.7884934    0.3563264  33.33   0.00387907    1.833    0.454
        22 -11.7045     72.0942    163.8615   9.0902979185e+01   3.2690105737e+01    0.4313198    0.3750559  76.92 0.0006268568    1.167    0.143
        23 -12.7020     69.1214    150.8566   9.0121985842e+01   3.6008567143e+01    0.6685429    0.4473823 -45.65  0.001412807    1.786    0.440
        24 -12.5247     70.6618    145.3412   8.8922910170e+01   3.7072082077e+01    0.6235296    0.3755133  58.59  0.002393026    1.762    0.432
        25 -10.7540    235.8010    171.1786   5.6738913023e+01   6.1978120257e+00    0.1657823    0.1101548   3.21 0.0007726646    1.342    0.255
        26 -10.2807     86.6727    172.4449   8.8057928234e+01   2.8852375813e+01     0.415156    0.2471361  22.66  0.001878273    1.789    0.441
        27 -10.7972    104.9822    246.9803   9.1533064418e+01   1.3567505835e+01     0.173578    0.1293614  32.09 0.0006681027    1.041    0.039
        28 -11.2764    245.3253    168.4883   5.4856270335e+01   5.2450989488e+00    0.2658551    0.1614905  14.20  0.001694666    1.574    0.365
        29  -9.0378    179.6603    169.3114   6.6088088547e+01   1.4739715878e+01    0.1166334    0.1017366  65.35 0.0007045594    1.693    0.409
        30  -9.4716    110.6683    167.5459   8.1230313342e+01   2.6257344913e+01    0.2130528    0.1635876  82.38  0.001147832    1.712    0.416
        31 -10.2731    230.4769    167.0004   5.6807315745e+01   7.4179032652e+00    0.1739912   0.09879461 -28.14  0.001035563    1.606    0.377
        32  -8.7242    100.8031    162.1781   8.2947573959e+01   2.8886145645e+01    0.1707328    0.1525567   6.92 0.0002752556    1.236    0.191
        33 -13.6213     99.7718    169.8182   8.4326187951e+01   2.7478438424e+01     4.195267    0.6591043  45.09  0.008452285    9.625    0.896
        34 -11.6015    133.8495    145.8414   7.1698510712e+01   2.6622642596e+01     1.192678    0.3080987 -53.75  0.003072557    6.422    0.844
        35 -11.9680     88.1386    149.5391   8.4464385184e+01   3.3558398660e+01      0.66978      0.47011 -10.57  0.003132918    2.184    0.542
        36 -10.4212     35.1499    145.0612   9.9689118716e+01   4.1388086941e+01    0.3018045    0.1934718  13.97  0.000885454    1.830    0.454
        37 -10.7774     31.3571    142.3340   1.0062656071e+02   4.2412146461e+01    0.3916385    0.1977873  34.01   0.00190553    1.762    0.432
        38  -9.3328    174.8390    149.1008   6.3224434597e+01   1.8700697286e+01    0.1889907    0.1854143  66.21 0.0006505198    1.304    0.233
        39  -9.9560     48.2112    144.9863   9.5677380944e+01   4.0006493626e+01    0.2278572    0.1786927   5.07  0.001018576    1.575    0.365
        40 -11.3132     25.9054    137.8325   1.0197455297e+02   4.4002327207e+01    0.4112681    0.2340822  46.74    0.0013932    1.553    0.356
        41 -10.8480    102.1869    136.6342   7.8275622691e+01   3.4144634197e+01    0.5704364    0.3488697 -23.11  0.002244216    2.839    0.648
        42 -10.0326    105.5820    130.6514   7.6153370251e+01   3.4873937371e+01    0.3317393    0.2898318 -58.99  0.001202756    1.223    0.183
        43 -11.6196     89.3062    135.7976   8.1857394983e+01   3.6480711448e+01    0.2918857    0.2689848  51.46 0.0004584051    1.007    0.007
        44  -8.8128     80.9453    136.4648   8.4476822591e+01   3.7641887691e+01    0.2152118   0.09920897  52.28 0.0007318667    2.451    0.592
        45 -11.8985     43.6348    129.3350   9.5363764465e+01   4.4334995776e+01    0.4497334    0.2500831  33.13  0.001678622    1.681    0.405
        46 -10.8284    135.5691    129.3098   6.7871998645e+01   2.9552228299e+01    0.4740079    0.1445179 -48.37  0.001511997    3.612    0.723
        47  -9.7130    111.3591    128.2051   7.4025039455e+01   3.4365198121e+01     0.278315    0.2228559  10.23 0.0008193983    1.487    0.327
        48 -12.0211     79.6965    156.4034   8.7839747176e+01   3.3282980206e+01    0.9912993    0.4690428  33.81  0.001965397    1.879    0.468
        49  -8.7824    142.7998    125.5742   6.5277643221e+01   2.8871197201e+01     0.197245    0.1338317  52.51 0.0004210751    1.571    0.363
        50 -10.4362     98.1946    123.8805   7.6934566447e+01   3.7707224353e+01    0.3176859    0.2599001   3.57 0.0006624878    1.507    0.336
        51 -10.0560    116.9873    123.0425   7.1356501930e+01   3.4426232618e+01    0.2363158    0.1829463   0.94 0.0006824748    1.688    0.408
        52 -10.4527    161.2639    118.3422   5.9397934368e+01   2.6515575281e+01    0.4941226     0.321921 -68.72   0.00202237    2.753    0.637
        53 -10.2808     37.7184    120.5717   9.6338913784e+01   4.7166096276e+01    0.2484528    0.1547941  38.93 0.0009054086    1.503    0.335
        54 -11.6533     32.1290    119.9443   9.8233954112e+01   4.7879492505e+01    0.4496495    0.2264432 -46.80  0.001675968    2.344    0.573
        55 -11.8714     33.3661    109.0035   9.6491125742e+01   5.0556368188e+01    0.4944803    0.3573737 -89.17  0.002638788    1.336    0.252
        56 -10.5958    134.6701    112.5666   6.4231828700e+01   3.3079061369e+01    0.4866951     0.139142 -44.53  0.001478431    3.618    0.724
        57 -10.4609     40.1195    113.6487   9.4597375509e+01   4.8674563716e+01    0.2447861    0.1813529  83.01 0.0007758114    1.338    0.253
        58  -8.9799    155.8949    111.1084   5.8833472839e+01   2.8928168597e+01    0.2160053    0.1943546 -82.51 0.0006236829    1.341    0.254
        59  -9.3606    205.4870    110.2522   4.9217607334e+01   1.9096599955e+01    0.2182338    0.1803171  39.58 0.0006029115    1.276    0.217
        60 -11.0525    116.6102    109.3435   6.8274142415e+01   3.7450733215e+01     0.521059    0.2785004  53.04  0.002055556    2.074    0.518
        61  -9.7977     42.3465    103.8490   9.2326667199e+01   5.0947970961e+01    0.2457364    0.1785529  44.49 0.0006410759    1.339    0.253
        62  -9.0678    107.7846    117.7369   7.2780700752e+01   3.7336549206e+01    0.2096921    0.1943172  24.31 0.0005135164    1.106    0.096
        63  -8.2550    102.6897     95.7126   6.8920837642e+01   4.3271392425e+01    0.1506694    0.1226877  -0.86 0.0002361276    1.577    0.366
        64 -11.4969     67.7344    168.2645   9.2596961511e+01   3.2302232198e+01    0.3881575    0.3064464 -31.97  0.001288797    1.656    0.396
        65 -10.9736     18.1912     90.3899   1.0028853332e+02   5.6663868360e+01    0.3092146    0.1662847  31.91  0.001484834    1.851    0.460
        66 -14.2465     53.3874    228.9366   1.0089053048e+02   2.2242836288e+01     1.351304    0.8530362  69.34  0.005873144    1.646    0.392
        67 -14.3616     13.8693    214.2946   1.0881400852e+02   2.8650398791e+01    0.8773888    0.5695444  22.32  0.004117431    1.569    0.362
        68  -8.7106    159.5204     84.4868   5.1047659844e+01   3.2880565763e+01    0.1460579    0.1430756  -8.39 0.0001904251    1.013    0.013
        69  -9.5396     32.8830     69.0966   8.9947547883e+01   6.0953867523e+01    0.2190916    0.1853088  72.91 0.0007735156    1.241    0.194
        70 -12.2092    189.9202     54.5826   3.7365336886e+01   3.0364136133e+01    0.5522996    0.4339519  42.09 0.0008103861    1.420    0.296
        71 -11.1521     48.9036    243.7094   1.0258500254e+02   2.0288321227e+01    0.3212554    0.1319964  48.36  0.001887585    1.815    0.449
        72 -11.6981    125.6682    204.4266   8.2818019158e+01   1.7372181921e+01    0.4226074    0.2605747  43.43  0.002311672    1.466    0.318
        73  -8.9870     93.0380     23.5071   4.5474928183e+01   5.9530724415e+01     0.215239    0.1311849  88.69 0.0008098349    2.628    0.619
        74 -15.5104      8.3995    208.1452   1.0985593845e+02   3.0250470998e+01     1.583385     1.031151 -51.45   0.01028571    2.213    0.548
        75  -9.3205     60.2057     21.0939   5.6868389460e+01   6.7539647178e+01    0.2170092    0.1866046   5.46 0.0005326798    1.217    0.179
        76 -10.7099    128.4127    200.7952   8.1754533080e+01   1.7576612806e+01    0.2341048    0.1612621  28.86 0.0006788105    1.201    0.168
        77  -8.8815     61.7578    235.3154   9.9496222568e+01   2.0284862320e+01    0.2620648     0.115269  52.59  0.001464302    2.010    0.503
        78  -9.3567     74.5002     15.9831   4.7837371220e+01   6.5142656129e+01    0.1992169    0.1141495 -53.95 0.0006104058    2.362    0.577
        79  -9.8731     32.3649     40.6689   8.2100637865e+01   6.8056071603e+01    0.2494566    0.2198163 -34.53 0.0004534369    1.089    0.081
