#   1 NUMBER                 Running object number                                     
#   2 MAG_AUTO               Kron-like elliptical aperture magnitude                    [mag]
#   3 X_IMAGE                Object position along x                                    [pixel]
#   4 Y_IMAGE                Object position along y                                    [pixel]
#   5 X_WORLD                Barycenter position along world x axis                     [deg]
#   6 Y_WORLD                Barycenter position along world y axis                     [deg]
#   7 A_WORLD                Profile RMS along major axis (world units)                 [deg]
#   8 B_WORLD                Profile RMS along minor axis (world units)                 [deg]
#   9 THETA_WORLD            Position angle (CCW/world-x)                               [deg]
#  10 FWHM_WORLD             FWHM assuming a gaussian core                              [deg]
#  11 ELONGATION             A_IMAGE/B_IMAGE                                           
#  12 ELLIPTICITY            1 - B_IMAGE/A_IMAGE                                       
         1 -15.2783     13.2807    157.8593   1.4459301081e+02   4.1009443774e+01     11.83395     4.137365  67.71   0.04749783    3.712    0.731
         2 -13.5591    193.3046     29.6991   6.9057599683e+01   3.3327072934e+01      1.43236     1.324342 -38.60  0.007372614    1.151    0.132
         3 -13.7804    208.3980     10.3574   6.1994074684e+01   3.1673019031e+01     1.351074     1.030897  33.62  0.007447762    1.687    0.407
         4 -11.9888      2.3969      4.7497   1.1821927482e+02   7.4225194390e+01    0.5935323    0.2670634 -44.92  0.003596546    1.706    0.414
         5 -10.7988     17.0005      3.7332   1.0922533245e+02   7.3201965759e+01    0.1955302    0.1302468 -44.51  0.001301686    1.640    0.390
         6 -12.2782      2.5356     23.4264   1.2572249535e+02   7.0997818082e+01     2.387506          nan -51.36  0.005286613   11.509    0.913
         7 -10.9330     11.5211    239.3228   1.4968730765e+02   2.4876462181e+01    0.3800248    0.1146788  58.04  0.001260209    2.394    0.582
         8 -12.0774    247.0423    246.2412   1.0900447023e+02  -1.0139068068e+01    0.6433434    0.3137428  22.28  0.003648141    1.953    0.488
         9 -10.7461    138.5557    249.7858   1.2844937558e+02   6.1073979341e+00    0.1906235    0.1641739  41.17  0.001387045    1.171    0.146
        10 -11.2919    124.1420    250.0720   1.3107150440e+02   8.3129091682e+00    0.4881793    0.1074218  40.93  0.001811306    3.619    0.724
        11  -9.7320    111.9135    250.5414   1.3330430406e+02   1.0104986913e+01    0.1784932   0.09032888  43.34 0.0003888136    1.548    0.354
        12 -11.2840     97.6593    247.4552   1.3555208686e+02   1.2716657947e+01    0.3742297    0.2314428 -78.08  0.002374295    1.885    0.469
        13 -10.8817    101.2616    245.9812   1.3477260964e+02   1.2428094873e+01    0.2105891     0.182577 -87.92 0.0004405843    1.311    0.237
        14 -10.4274     30.2025    250.3038   1.4720699173e+02   2.0989108630e+01     0.292675    0.1458833  55.54  0.001087367    1.421    0.297
        15 -11.3213     35.3192    245.1231   1.4610807815e+02   2.1295825172e+01    0.4740497    0.3435691 -72.92  0.003654658    1.629    0.386
        16 -10.5152      2.6454    249.6000   1.5146298353e+02   2.3991464325e+01     0.283987    0.1502685  50.55  0.002134137    1.449    0.310
        17 -10.5087      1.6021    241.7824   1.5134400283e+02   2.5424283217e+01    0.3656215   0.07986469 -81.48  0.001693123    4.092    0.756
        18 -10.8263    234.9645    239.5049   1.0995833040e+02  -7.6994870087e+00    0.1881889    0.1625696 -39.63  0.001371791    1.711    0.415
        19 -11.2793    120.5205    238.8992   1.3053732918e+02   1.0646296663e+01    0.3711331    0.1981604  76.31  0.001657497    3.342    0.701
        20  -9.4678    185.3368    238.6716   1.1853446500e+02   1.3665705005e-01    0.1169007   0.08710653  61.98 -0.0001683006    1.728    0.421
        21 -13.5078      4.3657    174.6204   1.4767838303e+02   3.8125762591e+01     2.180528    0.4011053 -75.24   0.00841645    3.996    0.750
        22 -10.7148    106.7238    247.9795   1.3398335265e+02   1.1290985878e+01    0.2608921    0.1585475  80.26  0.001290636    2.018    0.504
        23 -10.8719      6.6908    215.1371   1.4941340171e+02   2.9769674778e+01     0.226293    0.1909146  40.80  0.001509045    1.610    0.379
        24 -13.1323      9.2050    206.8577   1.4856456712e+02   3.1126608729e+01      0.72532    0.6515493  65.23  0.004240014    1.433    0.302
        25 -14.0059     43.3075    223.9180   1.4344034986e+02   2.4190243331e+01    0.8315334    0.6104795  66.22  0.003525022    1.045    0.043
        26  -9.0774    152.6631    212.9732   1.2100816229e+02   9.6168480007e+00    0.1653119    0.1557497  60.85 0.0003626617    1.131    0.116
        27  -9.5953     34.7840    202.4188   1.4351995296e+02   2.9377633183e+01     0.178706    0.1346916  72.20 0.0002511776    1.031    0.030
        28  -9.8476    192.4983    193.9769   1.0998262438e+02   5.5313923657e+00    0.3187684    0.1669842 -56.68  0.001298776    3.175    0.685
        29 -11.6967     63.4016    197.9665   1.3742318800e+02   2.6789325575e+01    0.3055148     0.232159 -48.90 0.0007523851    1.804    0.446
        30  -8.6560     24.2796    235.9979   1.4745274221e+02   2.4132306253e+01    0.1239035     0.110419  45.28 0.0007511743    1.621    0.383
        31  -9.3406     51.6696    197.3112   1.3976044430e+02   2.8434632534e+01    0.2154043    0.1110231  52.68  0.001186995    1.663    0.399
        32 -11.9317     69.1767    190.1103   1.3539566262e+02   2.7652185162e+01    0.2597092     0.228864 -75.20 0.0004838013    1.268    0.212
        33 -10.8517    230.5437    232.0159   1.0952151278e+02  -6.1836586350e+00    0.3071536    0.2322588 -59.88  0.001725242    2.604    0.616
        34 -11.0160     78.8790    177.4696   1.3175344490e+02   2.9000429941e+01    0.2305648    0.2058069  88.14 0.0003441826    1.112    0.100
        35 -13.2558     65.8882    175.4246   1.3444063166e+02   3.1288452342e+01    0.4688461    0.2753412 -47.03  0.001627588    2.247    0.555
        36  -8.9193    100.2142    176.8309   1.2680934977e+02   2.5804829718e+01    0.2088568    0.1565897  71.88 0.0005487244    1.309    0.236
        37  -9.5278     97.9980    171.5631   1.2652800549e+02   2.7321216911e+01    0.2089602    0.1264134  42.80 0.0005014685    1.586    0.370
        38 -11.9758     86.2868    167.9389   1.2872971667e+02   2.9999508580e+01    0.6382455    0.5653489  74.77  0.003912583    1.040    0.038
        39 -10.1491    228.4938    228.0048   1.0922524806e+02  -5.3914153371e+00    0.2632965    0.2117307 -62.82   0.00163762    2.312    0.567
        40 -10.0982     98.7520    151.9936   1.2313256154e+02   3.1602264729e+01    0.2965236    0.2777652  74.42 0.0008312978    1.069    0.065
        41 -11.9782     87.3097    151.3761   1.2589150163e+02   3.3621251354e+01    0.2855842    0.2454315 -49.14 0.0006060532    1.311    0.237
        42 -12.6777     67.1655    143.8551   1.2981825379e+02   3.8354872055e+01    0.8070744    0.5066849  71.45  0.003230337    1.813    0.448
        43 -11.7639     57.3943    132.0372   1.3054141001e+02   4.2430473396e+01    0.7756361    0.3038842 -76.86  0.002641917    3.675    0.728
        44 -10.8345      5.5912    227.3895   1.5014352924e+02   2.7595313815e+01    0.4103535    0.1882109  31.91  0.002479926    2.702    0.630
        45 -12.8078     37.2427    232.1931   1.4504264814e+02   2.3369940632e+01    0.2810245    0.2220814  84.96 0.0007625283    1.239    0.193
        46  -8.5482    192.2181    144.0436   9.9861795127e+01   1.4348858480e+01    0.1817684    0.1204144 -37.43 0.0003372782    1.532    0.347
        47  -9.8810    109.9884    137.2747   1.1745214771e+02   3.2997327837e+01    0.3631984    0.2568083 -22.31  0.001421998    2.196    0.545
        48 -10.5923     97.3540    134.4438   1.2018240736e+02   3.5912183159e+01    0.2620923    0.2350937 -42.15 0.0004035864    1.239    0.193
        49 -10.4921     81.9036    133.2631   1.2409355145e+02   3.8715630731e+01    0.2528393    0.2110843  66.84 0.0004474245    1.199    0.166
        50 -10.5201     35.1979    133.5150   1.3672303032e+02   4.4566897253e+01    0.2477577    0.1766606  58.85 0.0008202139    1.430    0.301
        51  -8.6371    116.3079    129.3549   1.1410487370e+02   3.3615237479e+01    0.1514163    0.1205184 -15.58 0.0007042515    1.722    0.419
        52  -9.3060    107.0243    123.9284   1.1534712173e+02   3.6626446905e+01    0.2094515    0.1995779  89.93  0.001162289    1.017    0.017
        53  -9.2953    101.7749    147.9563   1.2164398752e+02   3.2010824376e+01    0.2099634    0.1903861 -34.00 0.0005518764    1.323    0.244
        54 -10.5237    173.6432    222.2088   1.1830234287e+02   4.4617041040e+00    0.3065186    0.1470645  40.47  0.001500433    1.738    0.425
        55 -10.3195    167.8367    112.8955   9.7464147662e+01   2.5938952656e+01    0.3559929    0.2877793 -80.34 0.0008550161    1.510    0.338
        56  -9.6480    203.2197    111.7576   8.9941195191e+01   1.7822910446e+01    0.2098714    0.1778629   7.52 0.0006093364    1.351    0.260
        57 -10.0087     70.9698     84.8442   1.1644387307e+02   5.1640564336e+01    0.3797987    0.2110312  56.19  0.001309061    2.605    0.616
        58  -9.5460    157.4772     76.4667   8.9533105899e+01   3.5488891301e+01    0.1543769    0.1519917  85.13  0.000104191    1.006    0.006
        59 -11.4040     24.4200     59.0104   1.2647517462e+02   6.2522219325e+01    0.6926523    0.2003544  39.82  0.002605934    4.849    0.794
        60  -9.3227     46.8032    249.0003   1.4443373027e+02   1.9276430063e+01    0.2271749    0.1037665  64.74  0.001303925    1.818    0.450
        61  -9.1666     23.5682    245.7538   1.4804807808e+02   2.2497104989e+01    0.1386006   0.07303537  80.53 0.0006372429    1.550    0.355
        62  -8.9849     50.4489    245.4690   1.4360750227e+02   1.9436231685e+01    0.1096805   0.07873601  65.45 0.0003412132    1.023    0.023
        63 -10.3435      2.3823     38.7937   1.3051829095e+02   6.8067831728e+01    0.1657888    0.1244869 -36.86  0.001198595    1.152    0.132
        64 -10.1194     17.6359    249.2564   1.4914547321e+02   2.2531700115e+01    0.1671269    0.1079861 -83.99  0.001299354    1.482    0.325
