#   1 NUMBER                 Running object number                                     
#   2 MAG_AUTO               Kron-like elliptical aperture magnitude                    [mag]
#   3 X_IMAGE                Object position along x                                    [pixel]
#   4 Y_IMAGE                Object position along y                                    [pixel]
#   5 X_WORLD                Barycenter position along world x axis                     [deg]
#   6 Y_WORLD                Barycenter position along world y axis                     [deg]
#   7 A_WORLD                Profile RMS along major axis (world units)                 [deg]
#   8 B_WORLD                Profile RMS along minor axis (world units)                 [deg]
#   9 THETA_WORLD            Position angle (CCW/world-x)                               [deg]
#  10 FWHM_WORLD             FWHM assuming a gaussian core                              [deg]
#  11 ELONGATION             A_IMAGE/B_IMAGE                                           
#  12 ELLIPTICITY            1 - B_IMAGE/A_IMAGE                                       
         1 -16.1605      5.5073    125.4723   1.5068573112e+02   4.9113395789e+01     2.722192    0.5074534 -74.34  0.009808712    4.050    0.753
         2 -15.3144    196.2708     56.0448   8.1150266327e+01   2.8300329597e+01     2.084524     1.072225 -46.45  0.007604035    2.023    0.506
         3 -15.9558    225.6363     64.9985   7.9626567112e+01   2.0142474587e+01     2.269255      1.87045 -85.40   0.00985295    1.417    0.294
         4 -16.0346     10.2863     40.5843   1.3956922422e+02   6.9201494315e+01     1.554945     1.405734 -69.98  0.009523476    1.077    0.072
         5 -13.1756    248.8345     26.4749   6.7630590508e+01   1.9465501572e+01    0.7044246    0.3291731 -25.04  0.003376241    1.920    0.479
         6 -14.0739     92.3863     21.5654   9.0604680464e+01   6.0518163530e+01     1.449651    0.6006507 -30.36  0.005457651    2.477    0.596
         7 -15.2569     81.4810     21.7730   9.4514832128e+01   6.3026711776e+01     1.953029     1.101707 -35.37  0.008786676    1.780    0.438
         8 -14.9810     83.1003     10.0766   8.7694222304e+01   6.4273513189e+01     1.309286    0.8047125 -41.50  0.006162235    1.789    0.441
         9 -14.5975    191.0873     10.9828   6.8242242821e+01   3.4970816802e+01     1.884391      0.61902 -44.87  0.006663357    2.873    0.652
        10 -14.3084      5.1866     13.4685   1.3553024249e+02   7.5620432830e+01    0.8321158    0.5309087 -58.38  0.004754658    1.284    0.221
        11 -14.9288    229.8505      6.7025   6.3983496182e+01   2.5662240517e+01     1.219872    0.8232219  77.02  0.004721445    1.523    0.343
        12 -12.1561      1.6235      3.5003   1.3471621236e+02   7.7918233682e+01    0.4067236    0.1527232 -64.17  0.001967862    2.201    0.546
        13 -11.9186     42.3216    194.0528   1.4522535421e+02   3.1141204076e+01    0.1796657    0.1398824  38.29 0.0004219323    1.276    0.216
        14 -14.3824    211.5665    221.3215   1.1397639980e+02   2.7569750353e+00     1.343087    0.5827175 -36.21  0.007553383    2.841    0.648
        15 -14.4086    199.2677    158.3898   1.0561076859e+02   1.2469495277e+01     3.408807     1.098401  38.31   0.01282837    2.970    0.663
        16 -12.9948    223.1323    201.9420   1.0909421882e+02   3.1623324620e+00     1.165959    0.8645408 -27.36   0.00818559    1.584    0.369
        17 -16.2077    246.0076    237.7459   1.1081609175e+02  -3.2794526317e+00     2.144485    0.8915625 -21.85   0.01322238    2.617    0.618
        18 -16.4265    241.2664    195.2453   1.0507572376e+02   1.2622464547e+00     3.853323    0.8139648 -33.98   0.01495823    5.012    0.800
        19 -16.7792    233.1251    174.3283   1.0274385228e+02   4.7291736334e+00     1.957457     1.846488  -9.27   0.01422149    1.456    0.313
        20 -14.1572    195.6291    248.7741   1.2029313487e+02   2.1371756958e+00    0.8379872    0.2993004  34.66  0.003402903    1.994    0.499
        21 -11.8639    188.5615    244.2773   1.2094056723e+02   3.5377983060e+00    0.2265064    0.1658331  -4.99  0.001082525    1.527    0.345
        22 -18.4337     60.9379    244.2389   1.4430998101e+02   2.0439745051e+01     4.060406     2.229104  39.64   0.02390123    1.315    0.240
        23 -13.6766     15.9922    133.7760   1.4810022584e+02   4.6458313011e+01    0.7503641    0.3409501 -72.78  0.003219553    1.992    0.498
        24 -11.2191     12.4496    246.4645   1.5315276151e+02   2.5124663548e+01   0.09722479   0.06714604  52.57 0.0002585723    1.085    0.079
        25 -15.5099     10.3000    100.3770   1.4751345669e+02   5.4731515791e+01     1.475477    0.9714507  38.23  0.008525442    1.548    0.354
        26 -14.0931     28.5144     97.4136   1.4066191033e+02   5.4114944118e+01    0.7750597      0.59539  -0.69  0.003816005    1.678    0.404
        27 -14.7934      7.7034    157.2990   1.5151834196e+02   4.1891663019e+01    0.7828103    0.5807978  79.02  0.004659569    1.127    0.113
        28 -14.8751     16.2846    147.5546   1.4883692860e+02   4.3329512250e+01    0.8391452    0.6417577 -56.27  0.004891237    1.582    0.368
        29 -10.7685    104.0238    161.4895   1.2713210345e+02   2.9237674313e+01    0.1997938    0.1192279  39.40  0.000325431    1.466    0.318
        30 -13.0733     78.7116    157.7323   1.3307792063e+02   3.3949537131e+01    0.3397193    0.2193499  81.62  0.001749759    1.782    0.439
        31 -12.7946     93.7052    155.9413   1.2893424667e+02   3.2049929579e+01    0.3113579     0.279561   3.78 0.0008859321    1.407    0.289
        32 -11.2560    106.9795    156.0085   1.2555195203e+02   2.9856938925e+01    0.2010994    0.1676759  -2.27 0.0005075617    1.607    0.378
        33 -11.6647    105.1581    139.6380   1.2327307087e+02   3.3598419181e+01    0.2330977    0.2213579  62.57  0.000559908    1.067    0.063
        34 -10.7581     34.6859    134.0752   1.4266971750e+02   4.4730932021e+01    0.1689324    0.1443645  80.77 0.0003705969    1.052    0.049
        35 -13.9804     92.8189    187.6947   1.3319871972e+02   2.5873264850e+01     0.734609    0.3560519  46.40  0.003714171    1.683    0.406
        36 -10.8392    108.5741    126.2179   1.1977342371e+02   3.5881962701e+01    0.1955675    0.1384735 -41.86 0.0009392936    1.622    0.383
        37 -11.4585     35.0947    104.8971   1.3928851600e+02   5.1675784476e+01    0.2171527    0.1589907  66.94  0.001233163    1.313    0.239
        38 -12.5701     39.7299     99.7557   1.3691326131e+02   5.2472473373e+01    0.3198718    0.2454267  14.87  0.001400174    1.570    0.363
        39 -11.2043     22.3571    242.7307   1.5130589139e+02   2.4767624441e+01    0.1138314   0.09025045  48.45 0.0006410807    1.265    0.209
        40 -11.3983    222.4742    237.0180   1.1437705831e+02  -2.6150084580e-01    0.2637675    0.1343668  -1.94  0.001505374    2.625    0.619
        41 -14.0385    246.2923     58.5809   7.5678315692e+01   1.6471153893e+01    0.9476418    0.5163609 -49.27  0.004134536    1.909    0.476
        42 -12.0109      2.4918     58.7186   1.4663974122e+02   6.5201436060e+01    0.3148935    0.2024592 -80.38  0.001162599    1.312    0.238
        43 -11.4937     39.7618    183.1759   1.4513128867e+02   3.3545259223e+01    0.1812038    0.1497444  57.51  0.000316121    1.100    0.091
        44 -11.8355    157.0676     49.6447   8.5790211528e+01   3.9465794646e+01     0.266939    0.2154858 -48.59 0.0009834926    1.273    0.215
        45 -13.4664    128.4415     43.6240   8.9930342081e+01   4.8031777637e+01    0.9924246    0.5427482 -37.63  0.003779267    1.850    0.460
        46 -13.3294    169.3370     34.0304   7.8381512337e+01   3.8295278807e+01    0.5816491    0.5165555   4.50  0.002745365    1.264    0.209
        47 -12.0690    173.1121     26.5410   7.5328225638e+01   3.8174315630e+01     0.426819    0.2747179  12.80  0.001307158    2.172    0.540
        48 -13.6616    197.2145     31.0203   7.3663764483e+01   3.1219572444e+01    0.5447745    0.4879875 -38.84  0.002397258    1.087    0.080
        49 -19.2455     55.6251    107.1993   1.3253344795e+02   4.8807963045e+01     17.68189     1.089947 -65.55   0.02678416   16.942    0.941
        50 -10.7449      2.2492    227.4526   1.5459094923e+02   2.9058857020e+01   0.08348717   0.06865656 -63.37 0.0005334006    1.822    0.451
        51 -10.9666     99.4986    180.5104   1.3080652308e+02   2.6227220641e+01    0.1315504    0.1077801  49.14 0.0002859019    1.001    0.001
        52 -11.0941    167.2475    219.4180   1.2161144127e+02   9.4625246076e+00    0.2394733     0.134835  23.10  0.001121746    1.778    0.438
        53 -11.2720     19.1663    217.3028   1.5112582473e+02   2.9256655680e+01    0.2458623    0.1801167 -22.51   0.00163731    2.739    0.635
        54 -12.7955     98.5270    172.5548   1.3002405932e+02   2.7913650900e+01    0.6252615    0.2722369 -42.59  0.002449061    3.726    0.732
        55 -11.0920     11.7462    205.8123   1.5225205517e+02   3.1974892768e+01    0.1645023    0.1217522  40.48 0.0005907165    1.290    0.225
