#   1 NUMBER                 Running object number                                     
#   2 MAG_AUTO               Kron-like elliptical aperture magnitude                    [mag]
#   3 X_IMAGE                Object position along x                                    [pixel]
#   4 Y_IMAGE                Object position along y                                    [pixel]
#   5 X_WORLD                Barycenter position along world x axis                     [deg]
#   6 Y_WORLD                Barycenter position along world y axis                     [deg]
#   7 A_WORLD                Profile RMS along major axis (world units)                 [deg]
#   8 B_WORLD                Profile RMS along minor axis (world units)                 [deg]
#   9 THETA_WORLD            Position angle (CCW/world-x)                               [deg]
#  10 FWHM_WORLD             FWHM assuming a gaussian core                              [deg]
#  11 ELONGATION             A_IMAGE/B_IMAGE                                           
#  12 ELLIPTICITY            1 - B_IMAGE/A_IMAGE                                       
         1 -14.5200    247.4239     99.8748   2.4192699256e+01   1.3827189659e+01     2.870677     1.359183 -32.57   0.01497192    1.880    0.468
         2 -13.7382    185.2184    101.0316   3.3117749373e+01   2.4850372237e+01     1.546123    0.9014022  36.53  0.007068377    2.182    0.542
         3 -10.9286     40.9345     13.8625   4.3256097690e+01   6.9927592766e+01    0.2312187    0.1862435  17.81 0.0002611736    1.080    0.074
         4  -9.4216     97.5299     12.5682   2.3392232843e+01   5.7940493977e+01    0.2977687    0.2036642  15.61  0.001574259    1.850    0.460
         5  -9.3273      3.3809     12.1700   6.6678905451e+01   7.5277689791e+01    0.1564425    0.1102588 -56.69 0.0009560989    1.767    0.434
         6  -8.7417      6.7104      4.7084   5.9788902344e+01   7.6174147161e+01    0.1202253   0.07546165 -10.08 0.0001817597    1.545    0.353
         7  -8.3119     52.0176      3.0374   3.2309738281e+01   6.9019833724e+01    0.1478223    0.1243161  31.53            0    1.025    0.025
         8  -8.6648     67.6855      1.3299   2.6049001215e+01   6.5828078179e+01    0.1739081    0.0958826  52.50 0.0005505523    1.486    0.327
         9 -10.1282     16.5739    244.7984   9.6894592408e+01   1.9940001869e+01    0.2744048    0.1573275  64.03   0.00150531    1.561    0.360
        10 -11.2710    166.7351    242.0887   6.3931299533e+01   2.7849090069e+00    0.4502308    0.2173261  32.28  0.001771103    1.810    0.447
        11 -11.4570    167.4756    247.8707   6.4582942404e+01   1.8230143884e+00    0.6884592    0.2615962  31.87  0.003318785    2.222    0.550
        12 -10.7784    174.0111    244.7492   6.2853669410e+01   1.4992038217e+00    0.3810936    0.3545726 -39.43  0.002783317    1.532    0.347
        13  -9.8858     57.0229    246.7969   8.8278134148e+01   1.5461994425e+01    0.2719155    0.2070508  21.26  0.001016185    1.306    0.235
        14 -10.4376     13.5338    250.1691   9.7754282910e+01   1.9186482413e+01    0.4249648    0.1785817  25.81  0.001542025    2.176    0.540
        15 -10.2376     20.5935    249.7425   9.6276630959e+01   1.8620583183e+01    0.3715606    0.2166889  72.53  0.002300452    1.671    0.402
        16  -9.9438     13.0175    244.0190   9.7607529340e+01   2.0412176728e+01    0.2278889    0.1210806  45.62 0.0005262744    1.453    0.312
        17 -10.0124      3.9650    249.1647   9.9665257480e+01   2.0213511632e+01    0.2536148    0.1533969  45.89 0.0007150188    1.260    0.206
        18  -9.2971     73.7954    243.3689   8.4269410310e+01   1.4197986940e+01    0.1698713    0.1038717  21.20 0.0003954564    1.583    0.368
        19  -9.8796      6.1418    243.1890   9.9007652029e+01   2.1174754967e+01    0.2758294    0.1486143  20.69  0.001602161    1.962    0.490
        20  -9.4938     97.8609    241.8837   7.8717255859e+01   1.1549388577e+01    0.1947697    0.1536641   9.51 0.0008666303    1.291    0.225
        21  -8.4832    102.6626    241.3171   7.7579477920e+01   1.1049970109e+01    0.1299525   0.08380041  51.93 0.0005146837    1.701    0.412
        22  -9.5280    235.4747    240.4392   5.1093323888e+01  -4.7180381830e+00    0.1385147    0.1178928   0.53 0.0004967912    1.441    0.306
        23 -10.4784    238.3191    239.3044   5.0458637891e+01  -4.8596421436e+00    0.2047691    0.1176285  -1.48 0.0008917365    1.560    0.359
        24 -10.6011    108.2488    238.8027   7.6043496302e+01   1.0797321103e+01    0.3584556    0.3094499 -63.53  0.002365925    1.422    0.297
        25 -10.5434     52.2273    249.7607   8.9538956116e+01   1.5426421258e+01    0.3346218    0.1846198  27.58 0.0008915744    1.584    0.369
        26  -9.0344     17.1435    238.7626   9.6498679559e+01   2.1072928964e+01    0.2208817   0.06843087  54.77 0.0009525412    2.884    0.653
        27  -9.9508     90.3016    235.3825   7.9744057855e+01   1.3712810968e+01    0.2664682    0.2208406 -14.59  0.001579357    1.408    0.290
        28 -11.5798     89.3587    228.3845   7.9210001537e+01   1.5192734498e+01     1.171391    0.3223982  42.70  0.004183876    3.367    0.703
        29 -10.6946     89.0678    222.3540   7.8604915841e+01   1.6437625614e+01     0.534633    0.2727892 -37.33  0.002359561    2.729    0.634
        30 -11.5661     98.3904    225.2216   7.6724444486e+01   1.4648784143e+01     0.512619    0.4276838  67.94  0.001742853    1.398    0.284
        31 -11.1358     95.5578    217.4276   7.6461521735e+01   1.6588804856e+01    0.4752052    0.3649004  46.68  0.001857444    1.264    0.209
        32 -10.1423     99.9738    217.2845   7.5378490238e+01   1.6025485546e+01    0.2982026    0.2424299 -66.13  0.001251279    1.435    0.303
        33 -10.8119    231.0869    234.1155   5.0853943198e+01  -3.4724094911e+00    0.3235366    0.2069434 -23.61  0.001126606    1.303    0.232
        34 -10.3183    164.8267    232.6098   6.2963498693e+01   4.5082632243e+00    0.9107484    0.2160804  35.01  0.003318085    3.647    0.726
        35 -11.0440    162.4079    225.5854   6.2423881073e+01   5.9690428007e+00    0.4139564    0.2793613   6.45  0.002369811    1.449    0.310
        36 -11.2539    243.2725    224.4693   4.7370376575e+01  -3.4895329200e+00    0.3527375    0.1961534 -44.35  0.001592218    2.354    0.575
        37 -10.9142    249.8171    226.2122   4.6621147999e+01  -4.3683412963e+00    0.3734201    0.1667506 -39.16  0.002164277    2.206    0.547
        38 -11.3196    126.4330    221.1484   6.9668746522e+01   1.1646588581e+01    0.4481921    0.3372236 -82.75 0.0009748598    2.043    0.511
        39 -11.0621    122.4269    223.6218   7.0925396432e+01   1.1731424746e+01    0.6247934    0.3649011  67.75  0.002418999    4.020    0.751
        40  -9.5997    116.6851    227.0401   7.2693211636e+01   1.1866153979e+01    0.2056826    0.1744151  20.87 0.0005084717    1.023    0.022
        41  -8.7172    144.9901    227.5237   6.6424039441e+01   7.9650832727e+00    0.1947883    0.1104445  27.85 0.0004699161    1.533    0.348
        42  -8.8545    181.4931    226.4860   5.8682454561e+01   3.3473430162e+00    0.1979114    0.1302988  -3.49 0.0008669875    1.505    0.336
        43  -9.6488    169.4494    224.7864   6.0845043305e+01   5.1721080175e+00    0.4018013    0.2224522  47.69  0.001916118    2.641    0.621
        44 -11.3100    238.1914    230.2202   4.9085464862e+01  -3.7054890295e+00    0.3492854    0.2195401  -3.74  0.001714944    1.337    0.252
        45 -10.0336    108.4818    222.8075   7.4054802185e+01   1.3779371901e+01    0.3259546    0.2125041 -29.44  0.001691482    1.899    0.473
        46  -8.6896    174.4930    222.5123   5.9466279765e+01   4.8798808385e+00     0.127157    0.1036698   3.67 0.0008105264    1.002    0.002
        47  -8.6554    157.4718    221.5149   6.2850349652e+01   7.3171196316e+00    0.1296911    0.1085513   8.27 0.0004754802    1.002    0.002
        48  -9.4817    115.0397    220.9480   7.2277777524e+01   1.3250203011e+01    0.2046295    0.1753394   8.51 0.0006246042    1.123    0.110
        49  -8.9465    149.3577    219.7661   6.4335816702e+01   8.7309961559e+00    0.2251057    0.1410775 -26.93  0.001056036    1.763    0.433
        50  -9.3861    152.2446    216.0138   6.3134705041e+01   8.9962577466e+00    0.3793646    0.2018797   4.46  0.001526492    3.026    0.670
        51  -9.7459    131.6844    216.0739   6.7743290029e+01   1.1870944235e+01    0.5539222    0.2680512 -64.90  0.002185951    3.591    0.721
        52  -9.7673     74.9530    218.8274   8.1626479878e+01   1.8959701559e+01    0.2410369    0.1944591  83.51   0.00140587    1.398    0.285
        53  -8.9945    143.5608    216.7806   6.5164595851e+01   1.0071972735e+01    0.2284997    0.1228549 -43.86  0.001123162    1.977    0.494
        54  -9.7629     84.5423    215.9839   7.8970588213e+01   1.8338122082e+01    0.3189901    0.2041332 -42.79   0.00165552    1.834    0.455
        55  -9.2771    190.4582    215.2749   5.5149704339e+01   3.9535481449e+00     0.234246    0.1564462 -15.38  0.001372652    1.428    0.300
        56 -10.4213    170.2321    215.2208   5.9188000502e+01   6.6519839936e+00    0.2731057    0.2152373  -4.00 0.0007474186    1.137    0.120
        57  -9.2994    118.9899    215.4725   7.0606646458e+01   1.3769331829e+01    0.1945679    0.1812104 -28.37 0.0007696656    1.171    0.146
        58 -10.2967     22.1021    215.1157   9.4124823890e+01   2.5552167929e+01    0.5305641    0.1546457  28.43  0.002195757    2.839    0.648
        59 -10.2159     77.4450    211.0520   8.0162199793e+01   2.0302803724e+01    0.3445527    0.2888395 -30.58  0.002041948    1.391    0.281
        60  -8.3938    202.2901    212.6673   5.2481905250e+01   2.8446698509e+00    0.1015241    0.1004243 -65.08 0.0001988636    1.629    0.386
        61  -9.2867    115.0270    211.2462   7.0955557182e+01   1.5165015515e+01    0.3575649    0.2079042   4.41  0.001522276    2.527    0.604
        62  -8.8039     63.9155    213.0000   8.3743352521e+01   2.1557522233e+01    0.2221114   0.06799903  27.94 0.0008037727    2.952    0.661
        63  -9.6972    212.3965    207.8589   4.9843301850e+01   2.3061441812e+00    0.3547827    0.2457577  28.27  0.002247304    1.480    0.324
        64  -9.5122    212.7436    202.8788   4.8936169024e+01   3.0131950800e+00    0.3095375    0.2202846  43.54  0.001873538    1.926    0.481
        65  -8.2596    212.6723    198.6807   4.8225156848e+01   3.6631505290e+00    0.1826434    0.1040512 -22.83 0.0006301158    1.680    0.405
        66 -10.3387    124.0211    205.9898   6.8041175178e+01   1.4929378210e+01    0.1941261    0.1732495  17.82            0    1.004    0.004
        67  -8.1934     98.6475    205.9330   7.4227772725e+01   1.8565590337e+01    0.2066223    0.1141654  87.87  0.000702096    4.281    0.766
        68 -10.9871    179.3852    191.2846   5.3247207325e+01   9.4838085825e+00    0.7401966    0.2671075 -51.30  0.002607352    3.947    0.747
        69 -10.1991    172.8976    190.1115   5.4374865275e+01   1.0657450861e+01     0.353159    0.1860562 -45.70  0.001673532    1.966    0.491
        70 -11.2360    177.0303    197.5828   5.4840025532e+01   8.7242592887e+00    0.6279759    0.3839601  -1.85  0.003035767    2.072    0.517
        71 -10.8709    172.9712    195.5043   5.5315524452e+01   9.6807277254e+00    0.3713609    0.2816904 -20.51  0.001293942    1.250    0.200
        72  -9.0189    130.2570    201.3548   6.5844866465e+01   1.4939742520e+01    0.2701808    0.1734195 -49.26  0.001368602    1.678    0.404
        73 -10.2211    248.9302    192.7431   4.1276359079e+01   1.3307706210e-01    0.3553817    0.2003092 -14.46  0.002096058    1.770    0.435
        74  -9.7571    250.2983    200.5411   4.2389054500e+01  -1.0819369452e+00     0.235598    0.1195306 -35.29 0.0006163389    1.650    0.394
        75  -9.0069     57.9700    201.1271   8.4045937387e+01   2.4917161716e+01    0.2407728    0.1178565  49.04 0.0007216053    2.000    0.500
        76 -10.3060    167.4521    197.6543   5.6850339561e+01   1.0106955543e+01    0.2932378    0.2166301 -30.13  0.001669811    1.311    0.237
        77  -9.4865    144.2387    198.1213   6.2058267465e+01   1.3482859543e+01    0.3061163    0.2203362 -32.99  0.001650801    1.427    0.299
        78  -9.0382    112.8232    198.0595   6.9570479848e+01   1.8203745312e+01     0.321519    0.1822284  57.64  0.001326127    2.590    0.614
        79  -8.9618    113.0002    194.2322   6.8940570958e+01   1.8991978850e+01    0.2218761    0.2009687 -30.93 0.0003215118    1.158    0.136
        80  -9.4622    105.2568    197.5390   7.1389300346e+01   1.9423105174e+01    0.2623416    0.2058478 -32.08  0.001022013    1.407    0.289
        81 -10.1254    126.2338    196.7137   6.6071035079e+01   1.6482281807e+01     0.315608    0.2193061  14.98  0.001160234    1.500    0.334
        82  -9.3079    124.5591    192.9512   6.5871505948e+01   1.7514831687e+01    0.2448522    0.1791075   1.40 0.0009430569    1.564    0.361
        83  -9.1832     66.7325    194.6655   8.1032738342e+01   2.5336259463e+01    0.3676265    0.1716184  56.26  0.001439561    2.686    0.628
        84  -9.0554    162.4387    193.9421   5.7280911504e+01   1.1530355763e+01    0.1685214    0.1232809 -74.07 0.0005808881    2.427    0.588
        85  -8.5539     43.5238    193.0209   8.7040255132e+01   2.8442274792e+01    0.1980296   0.09921085  73.28 0.0008101843    2.593    0.614
        86  -8.4297     77.3103    192.6655   7.7973737898e+01   2.4427937615e+01    0.1472111   0.09887341  60.57   0.00070436    1.678    0.404
        87  -9.7334     24.6889    187.6457   9.1602500231e+01   3.1612454544e+01    0.1700536    0.1336264  -2.96 0.0009006126    1.583    0.368
        88  -9.6944     16.6971    191.0433   9.3950354458e+01   3.1514869137e+01    0.3238039    0.1775467  -4.56  0.001447944    2.900    0.655
        89  -8.9431    104.4917    189.0024   7.0299415268e+01   2.1403469006e+01    0.2387904    0.1889331   4.04 0.0006247654    1.390    0.281
        90 -10.8029     98.4126    188.4818   7.1803834989e+01   2.2420021724e+01     0.504283    0.3095464  48.09   0.00120161    1.703    0.413
        91 -10.9566     94.5284    182.8726   7.1981001496e+01   2.4268896653e+01    0.5168181    0.4370921 -55.52    0.0024425    1.249    0.199
        92 -10.0279    203.3231    186.9190   4.7824861559e+01   6.7822970938e+00    0.4185092    0.3503157  87.51  0.002397696    2.304    0.566
        93  -8.7663    128.7478    188.1902   6.4057021567e+01   1.7861852555e+01    0.2118376    0.1857913 -89.89  0.001174974    1.473    0.321
        94 -10.8157     10.9984    187.3076   9.5195044924e+01   3.2873254238e+01    0.3807797    0.2437657  29.26  0.001401488    1.536    0.349
        95 -11.1200      3.5721    178.5069   9.6631693293e+01   3.5546797869e+01    0.5743464    0.3642254  64.18  0.002633153    1.446    0.308
        96 -11.2788     20.1935    181.2725   9.2326286144e+01   3.3554507278e+01    0.4323122    0.3643298  52.89  0.001347509    1.097    0.089
        97 -11.1866     12.6273    179.1824   9.4234276493e+01   3.4695990520e+01     0.512633    0.3814882  -7.97    0.0029337    1.726    0.421
        98  -9.6203    227.9975    184.5246   4.3114618656e+01   3.8458087643e+00    0.2110023    0.1625116   9.99  0.001104813    1.261    0.207
        99 -10.0751    109.6109    184.8492   6.8316595885e+01   2.1550006360e+01    0.3991701    0.3100716  43.84   0.00206601    1.281    0.219
       100  -9.0066    209.3398    185.2903   4.6440215770e+01   6.2110346140e+00    0.1301659   0.08538228  -5.08 0.0005261762    1.645    0.392
       101 -10.2295    174.9026    183.8429   5.2817170201e+01   1.1488810436e+01    0.3477455    0.2630593 -82.41  0.001674913    2.619    0.618
       102  -9.3437    249.9996    184.3028   3.9663592189e+01   1.1830796163e+00    0.1626079    0.1257791 -12.42 0.0009216247    1.073    0.068
       103  -8.5046     44.3557    182.7454   8.5796374443e+01   3.0817277068e+01    0.1827247    0.1199759 -63.16 0.0005226101    1.534    0.348
       104  -9.2781    139.0755    187.7859   6.1503535744e+01   1.6327151039e+01    0.5045828    0.1519355 -45.54  0.001722836    3.364    0.703
       105  -8.5596    182.6838    180.3229   5.0573521469e+01   1.0930968466e+01    0.1214618    0.1097011  88.35 0.0007042577    1.665    0.399
       106  -9.4864    147.5915    179.8108   5.8078024062e+01   1.6581235414e+01    0.2558837    0.2166306  83.17   0.00103788    1.694    0.410
       107  -9.3167    138.6534    179.6809   6.0164063413e+01   1.8056190694e+01    0.2788133    0.2051199  69.19  0.001312705    2.095    0.523
       108  -9.4005    104.1246    179.7830   6.8927945237e+01   2.3530512091e+01    0.4737824    0.2344974 -33.24  0.001586918    2.984    0.665
       109  -9.4673     88.7367    177.0568   7.2659558719e+01   2.6477351417e+01    0.2859526     0.219207  52.38 0.0006330584    1.353    0.261
       110  -9.5030     87.6909    173.0022   7.2313957703e+01   2.7594158780e+01    0.2245116    0.1991186 -18.11 0.0006478198    1.229    0.187
       111  -9.7114     77.2761    175.7451   7.5659704118e+01   2.8427492490e+01    0.2722402    0.2021013  67.85 0.0008967401    1.546    0.353
       112  -9.9637    149.0046    174.5804   5.6774267541e+01   1.7406241017e+01    0.4243428    0.2606542  20.39  0.001938249    1.830    0.454
       113 -10.4268     24.2009    174.5391   9.0670323706e+01   3.4852376088e+01    0.2737338    0.1763851  63.93 0.0009389272    1.534    0.348
       114 -10.0714    204.8050    175.3530   4.5417940229e+01   8.4786470673e+00    0.2675724     0.207027   5.25  0.001567438    1.265    0.210
       115  -9.7475    177.5550    169.2373   4.9494656175e+01   1.3753561693e+01      0.40827    0.3024912 -41.91  0.002240211    1.340    0.254
       116  -8.7995    134.9251    171.1845   5.9496524687e+01   2.0456063941e+01    0.2187094    0.1979418  63.03 0.0009504462    1.307    0.235
       117 -10.6718    207.3243    168.0496   4.3579414526e+01   9.3242524240e+00    0.4529931    0.2317723 -30.65  0.002194769    1.864    0.463
       118  -9.5373    121.6459    169.3099   6.2494386907e+01   2.3082231448e+01    0.3615648     0.274039 -78.52  0.001160693    1.790    0.441
       119 -10.8613     29.1207    168.9058   8.8745358890e+01   3.5804946478e+01    0.4480266     0.155205 -58.07  0.001737631    2.686    0.628
       120  -8.8074     54.8291    169.0359   8.1208147485e+01   3.3004126828e+01    0.2465184    0.1481181  69.65  0.001073034    2.062    0.515
       121  -8.6624    200.1187    166.7425   4.4625671625e+01   1.0634263044e+01    0.1771956    0.1340622  -4.29 0.0003785293    1.347    0.257
       122 -10.7223    217.8415    165.3035   4.1244085799e+01   8.2314202119e+00    0.5542322    0.3130639  42.28  0.002962593    2.070    0.517
       123 -11.0336    146.3540    162.8663   5.5117164040e+01   2.0260075309e+01     0.501812    0.4182988 -89.78  0.001407309    1.686    0.407
       124 -10.2052    142.5546    158.5295   5.5149940417e+01   2.1833784362e+01    0.6037688    0.2266812  41.18  0.001728055    2.668    0.625
       125  -9.3926    139.3303    165.2336   5.7272606528e+01   2.0974468548e+01    0.3438635     0.243289  84.80  0.001392761    2.644    0.622
       126  -9.3664     98.7440    165.8093   6.8017346870e+01   2.7615878082e+01    0.3585739    0.2054425  53.10  0.001182524    2.106    0.525
       127 -11.0953     14.9913    164.3442   9.2466536961e+01   3.8181497212e+01     0.495225    0.3143095   2.69  0.002518044    1.983    0.496
       128 -12.4896    247.7465    120.7134   2.8228385864e+01   1.0745704962e+01     1.198664    0.4391408 -39.49   0.00567094    2.148    0.534
       129 -10.7752    247.2964    247.8548   5.0302004061e+01  -6.7409139186e+00    0.3777571    0.2280443  -5.16  0.001603525    1.296    0.228
       130 -12.0962    248.5041    154.4986   3.4531297652e+01   5.6530233305e+00     1.157369    0.2875156 -37.50  0.004546728    3.248    0.692
       131  -9.5310    167.8033    157.3734   4.9160195447e+01   1.7639924885e+01    0.3252856    0.1904709 -58.35  0.001382419    2.350    0.575
       132  -9.8883    105.2706    157.2585   6.4623555110e+01   2.8577834580e+01    0.3490112    0.2715172  82.32 0.0008432668    1.696    0.410
       133 -10.6598    208.5620    156.6981   4.1150901161e+01   1.1037956443e+01    0.3160284    0.1912476 -28.11  0.001653944    1.558    0.358
       134 -10.7474    205.3824    151.7716   4.0720098220e+01   1.2372343956e+01    0.6056379    0.1994264 -36.67  0.002290977    2.857    0.650
       135 -11.0848    208.7786    152.1950   4.0217807657e+01   1.1762006932e+01    0.4283276    0.3073981 -86.75  0.001964187    3.211    0.689
       136  -9.0141    197.0160    157.3674   4.3345826524e+01   1.2746472541e+01    0.1830027    0.1675885  -5.16 0.0006572604    1.088    0.081
       137  -9.2008    182.2000    141.4562   4.2852209838e+01   1.8131494405e+01    0.3235037    0.2047196 -53.56  0.001505612    1.810    0.448
       138 -10.0487    188.4930    156.2756   4.4730140344e+01   1.4332751375e+01    0.4008654     0.188973 -44.03  0.001501807    2.030    0.507
       139 -11.0747    189.6802    149.6440   4.3141607312e+01   1.5331503781e+01    0.5087262    0.3244448 -57.63  0.002340168    2.085    0.520
       140  -9.2436    157.6426    155.9471   5.1097646586e+01   1.9700503297e+01    0.2767554    0.1817103 -59.14  0.001181614    1.926    0.481
       141  -9.0946    119.8213    155.3063   6.0267024264e+01   2.6544299974e+01    0.2754514    0.2062346 -85.55  0.001089007    1.922    0.480
       142  -8.2364    178.3559    155.3304   4.6539383875e+01   1.6213588935e+01    0.1477844     0.103003  -4.62 0.0007044642    1.785    0.440
       143 -10.0903    133.7170    153.3363   5.6261166242e+01   2.4522207518e+01    0.5392464    0.3793791  88.26  0.001812902    2.559    0.609
       144 -10.1916    138.3026    146.7756   5.3725891076e+01   2.5113062828e+01    0.4328244    0.3054356 -41.59  0.001346649    1.404    0.288
       145 -10.0220     81.6585    153.3056   7.0756307055e+01   3.3305876728e+01    0.5368085    0.2787794 -65.82  0.001473503    2.163    0.538
       146  -9.4129     49.5030    154.6930   8.0905797100e+01   3.7283493633e+01    0.3311386    0.1988202  65.36  0.001087225    2.021    0.505
       147  -9.5271     99.6954    152.8616   6.5357980946e+01   3.0550736823e+01    0.4418323    0.2677276 -79.27  0.001644566    2.664    0.625
       148 -10.0710    223.1485    148.2403   3.7075533229e+01   1.0195378085e+01    0.3388354    0.3095892   8.69   0.00218463    1.195    0.163
       149  -9.3664     90.6202    151.0369   6.7658981047e+01   3.2471855734e+01    0.2827023    0.1909829  55.23  0.001260997    1.702    0.412
       150  -9.2391     28.2909    149.0542   8.6914119554e+01   4.0963982835e+01    0.3993798    0.1957783  70.79  0.001555995    2.693    0.629
       151  -9.0561    133.8619    147.2209   5.4933538174e+01   2.5832922711e+01    0.2773865    0.2093493 -19.80  0.001325514    1.525    0.344
       152  -9.3537    199.7999    147.8264   4.0903318298e+01   1.3959509191e+01    0.2825463    0.1705725 -45.64  0.001427264    1.621    0.383
       153 -10.1157     57.0500    146.1193   7.7226755899e+01   3.8574642467e+01    0.7187088    0.3275324  58.31  0.002377291    3.445    0.710
       154  -9.5665     39.3719    147.2325   8.3117816002e+01   4.0344498389e+01    0.4604316    0.2016787  59.29  0.001590261    3.289    0.696
       155 -10.3934    149.2850    144.9822   5.0687711191e+01   2.3461092841e+01    0.5416796    0.3845698 -83.75  0.001786501    2.501    0.600
       156  -9.3651    148.0507    138.2639   4.9491141838e+01   2.5092505730e+01    0.3852534     0.186341 -29.66  0.001333572    2.960    0.662
       157 -10.3937    107.6980    144.5128   6.1387706755e+01   3.1172939526e+01     0.687601    0.4652468  67.62  0.002875751    2.150    0.535
       158  -9.2965    195.4488    145.0177   4.1107112856e+01   1.5180940232e+01    0.3088771    0.1176264 -45.55  0.001200559    2.587    0.614
       159 -10.0226     68.2913    153.8070   7.4922171311e+01   3.5113265658e+01    0.4244113    0.2689833  63.78  0.001309014    1.981    0.495
       160 -10.0630     80.4458    144.1760   6.9450290217e+01   3.5771695721e+01    0.4559753    0.2183455  48.98  0.000989972    2.436    0.589
       161  -8.8534     13.4087    146.1597   9.1369543113e+01   4.2946134015e+01    0.1946349    0.1159414  85.41 0.0006031583    1.692    0.409
       162  -9.2456    166.1515    144.1551   4.6722066482e+01   2.0517843650e+01    0.3102977    0.2209823 -74.85  0.001382349    2.315    0.568
       163  -9.2241     80.6759    164.6049   7.2968425513e+01   3.0657454191e+01    0.3384242    0.2033374  72.64  0.001317152    2.605    0.616
       164 -10.1565    125.0304    142.1381   5.6117435870e+01   2.8588149264e+01     0.677814    0.3786136 -68.00  0.002398219    3.014    0.668
       165  -9.4286     88.3195    143.6865   6.6930660888e+01   3.4650620534e+01    0.3257974    0.2380497  69.34  0.001108395    1.749    0.428
       166 -10.1842    206.4490    141.5109   3.8444004799e+01   1.3948610479e+01    0.3213106    0.2674182  27.79  0.001682091    1.311    0.237
       167 -10.6061     69.4728    140.3428   7.2215055427e+01   3.8376472981e+01    0.5300411    0.3168341  78.91  0.001980972    2.764    0.638
       168  -9.5720     69.1891    133.9853   7.1108282544e+01   4.0041047027e+01    0.4153862    0.2340154 -23.49  0.001480772    2.949    0.661
       169  -9.1612      2.8493    142.2492   9.4398039908e+01   4.4660554554e+01    0.2427006   0.09674834  57.16 0.0009515015    2.828    0.646
       170  -9.4865     81.9921    139.1323   6.7986930272e+01   3.6793833891e+01    0.4667526    0.2934909 -80.93  0.001879627    2.252    0.556
       171  -9.9253     40.6697    140.1488   8.1706276554e+01   4.2056016262e+01    0.3475851    0.1902188  -0.81  0.001317341    2.740    0.635
       172 -10.1812    192.8395    129.2837   3.8218882823e+01   1.8430102101e+01    0.4291894    0.2096544 -45.20  0.001823144    1.942    0.485
       173  -9.7690    204.2612    136.5145   3.7776030322e+01   1.5168543306e+01    0.2896084    0.2230848  27.81  0.001581847    1.451    0.311
       174 -11.6551    197.9095    136.2460   3.8818914599e+01   1.6304430327e+01     0.593013    0.4160975  13.30  0.003060637    1.849    0.459
       175  -9.3303    172.4831    137.7251   4.3985905592e+01   2.0600967843e+01    0.3823283    0.2188353 -59.29  0.001368831    2.498    0.600
       176  -9.6409     23.6089    138.2209   8.7187319884e+01   4.4204692168e+01    0.5675219    0.2501422  66.59  0.002008735    3.328    0.700
       177  -9.6587     22.2566    131.7309   8.6860531811e+01   4.6019136581e+01    0.4443464    0.1674113 -45.76   0.00164777    2.832    0.647
       178 -10.4380    188.1799    135.0678   4.0330105265e+01   1.8232169227e+01    0.4982344    0.1963779 -43.59  0.001916386    2.368    0.578
       179  -9.9274    186.9233    128.2542   3.9068520660e+01   1.9694667352e+01    0.4357494    0.2534057 -49.29  0.001299199    1.762    0.433
       180 -10.4003    188.4161    122.7475   3.7567343753e+01   2.0407811094e+01    0.3849716     0.220319 -44.66  0.001573844    1.637    0.389
       181  -9.5532    138.4935    137.5288   5.1637452146e+01   2.7069883853e+01    0.2686514    0.1433524 -57.48  0.001027554    2.328    0.570
       182  -9.7567     56.9249    136.9732   7.5745235223e+01   4.0958823071e+01    0.4390841    0.2381945 -29.87  0.001653931    2.667    0.625
       183  -9.5533    162.7411    135.9086   4.5637576254e+01   2.2779002420e+01    0.2730401    0.1967158 -60.04  0.001243952    1.671    0.402
       184  -9.3875    179.8594    132.9121   4.1444160358e+01   2.0145224054e+01     0.421899    0.1842939 -48.16  0.001660177    2.384    0.581
       185  -9.3495    113.1340    133.3646   5.7414031424e+01   3.2799434791e+01    0.3592554    0.2615799  80.55  0.001344337    2.068    0.516
       186  -9.3910    117.1342    114.5209   5.1753640877e+01   3.6307840852e+01    0.3536079    0.2084108 -43.31  0.001191586    1.703    0.413
       187  -9.9507    116.3151    119.0105   5.3109916193e+01   3.5468907654e+01    0.3658807    0.3299958 -49.39  0.001047016    1.119    0.106
       188 -10.3333    110.9158    128.4920   5.6924709238e+01   3.4342771377e+01    0.5254306    0.3239512  21.00  0.001778596    2.087    0.521
       189 -10.6981    116.5044    124.8780   5.4486388913e+01   3.4107255195e+01    0.6903527    0.4216999  52.10   0.00251672    1.852    0.460
       190 -10.5235    131.9383    129.9353   5.1545586273e+01   2.9979844541e+01    0.7731447    0.3293425 -53.08  0.002340398    2.664    0.625
       191 -10.3448     83.6075    131.3095   6.5865295604e+01   3.8485670061e+01    0.5035291    0.3647522 -87.52   0.00142619    1.840    0.456
       192  -9.0243    143.0714    131.5439   4.9145156854e+01   2.7461178464e+01    0.2857169    0.2087115 -62.20 0.0008929811    1.635    0.388
       193 -10.2499     39.0125    131.7169   8.1014735273e+01   4.4443397628e+01    0.3100407    0.2426183 -65.01  0.001357302    1.210    0.173
       194 -10.0765    193.6913    134.7072   3.9241889878e+01   1.7314710759e+01    0.2802855    0.1773744 -20.02  0.001104909    1.893    0.472
       195  -9.7162    168.8757    129.0780   4.2789689991e+01   2.2943295271e+01    0.3708059    0.2600446 -56.66  0.001371706    1.624    0.384
       196 -10.0781    153.0022    128.0526   4.6000557261e+01   2.6236444693e+01    0.6415821    0.2579204 -50.43  0.002241948    2.768    0.639
       197 -11.4022    108.7589    113.2967   5.3844187357e+01   3.8243790220e+01     1.208129    0.4978092 -43.82  0.004239478    2.477    0.596
       198 -10.6556     98.9982    127.4835   6.0211228271e+01   3.6773597486e+01    0.6410033    0.4259889 -84.08  0.001946347    2.452    0.592
       199  -9.9031     98.3756    120.2846   5.8708754417e+01   3.8599451334e+01    0.6287937    0.3864406  10.36  0.002317282    2.669    0.625
       200  -9.6890     73.2092    128.7266   6.8719710066e+01   4.0777986306e+01    0.4738324    0.2789162 -79.90  0.001805997    2.500    0.600
       201  -9.8067     12.5704    128.7717   8.9889026545e+01   4.7528556032e+01     0.425754    0.2009163  69.84  0.001687909    2.724    0.633
       202 -11.9738    247.4970    140.1705   3.1988605080e+01   7.9039957279e+00    0.8409795    0.4718464 -31.85  0.004875402    1.468    0.319
       203 -10.3154     59.6332    123.8564   7.2378247240e+01   4.3989415232e+01     0.665084    0.3726985  74.83  0.002258889    3.421    0.708
       204  -9.9634    174.9190    109.4245   3.6984837000e+01   2.5440824084e+01    0.5842795    0.2175301 -41.66  0.002172698    2.497    0.600
       205 -11.4946    174.9790    100.9459   3.4923630318e+01   2.6953537470e+01    0.5650721    0.3114795 -47.22   0.00251881    1.768    0.434
       206  -9.7586    250.4070    241.2759   4.8838655666e+01  -6.2567846052e+00    0.2145441     0.131186 -20.81 0.0007698771    1.262    0.208
       207  -9.6714    158.5104    120.4680   4.2979506154e+01   2.6658325805e+01    0.3899966    0.2518041 -55.18  0.001319913    1.734    0.423
       208 -10.2382    202.4911    120.5445   3.4654248850e+01   1.8208104616e+01    0.2890704     0.118902 -38.81  0.001208893    2.159    0.537
       209  -9.2794    172.6238    120.0866   3.9952270303e+01   2.3925840603e+01    0.3643901     0.164462 -43.65  0.001234331    2.095    0.523
       210 -10.6238    141.7289    118.0388   4.6237066979e+01   3.0553958511e+01    0.8357045    0.3277365 -50.67  0.002825675    2.856    0.650
       211  -9.9251     71.1692    119.1463   6.7359392594e+01   4.3506532542e+01    0.4308139     0.276849 -76.49  0.001441584    2.015    0.504
       212 -10.1672    130.5321    117.6657   4.8941293821e+01   3.2915463226e+01    0.4939792    0.3022061 -65.84  0.001775622    2.400    0.583
       213 -10.2332      2.8041    116.4543   9.2071637652e+01   5.1331178434e+01    0.5509962    0.2394107  79.39  0.002139315    2.902    0.655
       214  -8.5653     37.5035    164.0144   8.5754714470e+01   3.6214712420e+01    0.2076353     0.105891  75.25 0.0008105524    2.589    0.614
       215 -11.5703    201.8938    115.4089   3.3624873139e+01   1.9187319311e+01    0.3752819    0.2829664  25.67  0.002084652    1.629    0.386
       216 -10.0099     79.3608    112.5567   6.3010755510e+01   4.3816051143e+01    0.5571887    0.3674207 -87.21  0.001838767    2.473    0.596
       217  -9.3046     78.8994    105.5823   6.1432695773e+01   4.5580260247e+01    0.4976548    0.3011034 -12.32  0.001741387    3.090    0.676
       218  -9.4164     22.3990    115.1971   8.4560088750e+01   5.0342739565e+01    0.2067689    0.1260211 -87.18 0.0009511047    1.794    0.443
       219 -10.3834     92.5954    111.8369   5.8444576280e+01   4.1657587973e+01    0.6097808    0.3750957 -70.94  0.002223396    2.358    0.576
       220  -9.5924     92.3959    104.7953   5.6686935485e+01   4.3338063724e+01    0.4658835    0.3147418  -5.61   0.00185849    2.329    0.571
       221 -10.6921     21.3071     92.3001   8.1147267521e+01   5.6333980099e+01    0.6367201     0.262159 -34.88  0.002371569    2.909    0.656
       222 -12.0458     15.9758    106.8888   8.5823271546e+01   5.2998499635e+01      1.09141    0.4572701 -49.66  0.004565373    2.150    0.535
       223 -10.7967     23.9288    102.5478   8.1915902673e+01   5.3500300338e+01    0.9102735    0.3841337  57.82  0.002911358    4.314    0.768
       224 -11.2043    193.0215    113.5115   3.4675094115e+01   2.1166393014e+01    0.4013285    0.2297214 -37.55  0.001321656    1.595    0.373
       225 -10.2652    122.0319    112.1022   4.9784461828e+01   3.5847520757e+01    0.4603797    0.2978102 -63.40  0.001576577    1.980    0.495
       226  -9.8675    123.3379    107.3338   4.8190190163e+01   3.6603662148e+01    0.2763719    0.1907056  23.03  0.001125703    1.811    0.448
       227  -8.8832    122.3061    163.3320   6.1192243309e+01   2.4304824571e+01    0.1534567    0.1130778 -13.67 0.0004609279    1.663    0.399
       228  -9.6101    159.1729    110.9066   4.0514821633e+01   2.8384636593e+01    0.3435275    0.2025001 -42.22  0.001007654    1.628    0.386
       229 -10.2909    180.7642    121.5177   3.8704190980e+01   2.2080080168e+01    0.7385324    0.3083428 -36.63  0.002884005    2.355    0.575
       230 -10.5965     66.3638    108.7251   6.6672960722e+01   4.6846929579e+01    0.6743568    0.3385327 -62.25  0.002620816    2.172    0.540
       231 -10.0271     61.3286    106.0519   6.7895487693e+01   4.8263949826e+01    0.3081933    0.2127306  11.21  0.001043909    1.709    0.415
       232 -10.3355     32.2712    108.9655   7.9716963182e+01   5.1078903374e+01    0.6997673    0.3255384 -71.14  0.002816139    2.210    0.547
       233 -10.0503    133.5566    108.2171   4.5764229082e+01   3.4282010043e+01    0.4819138    0.2810239 -49.48  0.001821768    1.762    0.432
       234 -12.8010    216.1403    104.5784   2.9102968265e+01   1.8379825939e+01    0.4995259    0.4039997 -80.71  0.003036592    1.523    0.343
       235 -10.6562     45.6056    101.8781   7.3007089834e+01   5.1426853151e+01    0.8104908    0.4180434  64.49  0.002630803    3.985    0.749
       236 -10.0339    166.6806    102.5496   3.6904513148e+01   2.8390530453e+01    0.4594992    0.2497392 -40.35  0.002021685    1.749    0.428
       237 -10.3574    149.9865    100.4312   3.9853147596e+01   3.2333870224e+01    0.7592903    0.2429284 -45.66  0.002444948    3.159    0.683
       238 -10.5947    128.6498     99.8192   4.4782856830e+01   3.7049047545e+01    0.5949555    0.3107892 -39.61  0.002389719    1.958    0.489
       239  -9.4930    159.7483     99.2471   3.7467786021e+01   3.0464106617e+01    0.4069661    0.1786435 -42.54  0.001585597    2.180    0.541
       240 -10.9333    109.1298     98.5856   4.9813791671e+01   4.1422274527e+01    0.7743842    0.5043793  75.11  0.002597043    2.698    0.629
       241  -9.7417    108.2128     91.8958   4.8188375902e+01   4.3033342305e+01    0.5475696    0.2978964  28.80  0.002035275    2.471    0.595
       242 -10.1052     82.1859     98.0806   5.8305044480e+01   4.6770694878e+01    0.7905595    0.2675169 -50.57  0.002574399    2.936    0.659
       243 -10.4317     63.7855     95.7045   6.4380922617e+01   5.0425171603e+01    0.5346725    0.3520927  82.81  0.001897422    2.698    0.629
       244 -11.7136    183.3189    114.2440   3.6554731277e+01   2.2903782690e+01    0.5389752    0.4231429  43.89  0.001828026    1.379    0.275
       245  -9.8334     94.9164     95.9552   5.3451599485e+01   4.4857095918e+01    0.5856732    0.2529059 -50.00  0.001855407    2.388    0.581
       246  -9.0355     96.9913     90.0163   5.1077885993e+01   4.5740698641e+01    0.3487105    0.2107583  18.59  0.001303987    2.571    0.611
       247 -10.7474     43.5515    122.2268   7.7828178134e+01   4.6430153102e+01    0.8615364    0.4994521  86.66  0.003459851    2.440    0.590
       248 -10.2746     44.5047     91.9285   7.1141488714e+01   5.4044001054e+01    0.4792787    0.2969067  -1.62  0.001900915    2.134    0.531
       249  -9.7221    139.7088    103.0546   4.2904498867e+01   3.4026794587e+01    0.5753961    0.3081236 -47.89  0.002366421    1.898    0.473
       250  -9.8560     30.0623    123.8743   8.3008375578e+01   4.7396390881e+01    0.4432981    0.2379801  55.96  0.001723446    2.265    0.559
       251  -9.0641    164.8784     92.6458   3.4757052204e+01   3.0560156829e+01    0.2636468    0.1892818 -31.87  0.001315477    1.432    0.302
       252  -9.8080    138.6007     89.8246   3.9594967904e+01   3.6842826414e+01     0.520573    0.2623152 -40.33  0.002110479    1.978    0.494
       253 -10.9969    125.1484     88.0099   4.2389037525e+01   4.0168903484e+01     0.952139    0.4342582 -35.78  0.003510759    2.443    0.591
       254  -9.3285     57.8755     91.8853   6.5676080261e+01   5.2236422112e+01    0.2197543    0.1900829 -19.00 0.0002831239    1.181    0.153
       255 -10.3947      5.0560     91.5470   8.8081001007e+01   5.7609428156e+01    0.3665466    0.1937146  74.06  0.001583208    2.540    0.606
       256 -10.7608      7.8290     84.1601   8.5673803637e+01   5.9314508463e+01    0.5840108     0.322595 -24.61   0.00279611    1.974    0.493
       257 -10.0285     34.6124     88.9427   7.4646118846e+01   5.5924169536e+01    0.5935488    0.3102038 -82.02  0.002213652    3.033    0.670
       258  -9.8966     35.8107     81.7796   7.2377013385e+01   5.7543154579e+01    0.5159189    0.2838318 -13.96  0.002056244    2.645    0.622
       259  -9.8920      6.6390    102.6407   8.8968266477e+01   5.4691438174e+01    0.2772163    0.1635479  59.94  0.001151616    2.017    0.504
       260 -10.0576     86.6598     86.3283   5.3392673478e+01   4.8575368592e+01    0.5198233    0.3669364 -86.63  0.001668801    2.387    0.581
       261 -10.0872     87.1606     80.4902   5.1436381227e+01   4.9723434155e+01    0.6949761    0.3418075  23.54  0.002166796    3.757    0.734
       262  -9.5847     64.2668     87.1343   6.1846313713e+01   5.2371383220e+01    0.3386427    0.2261909  -6.63  0.001441599    2.107    0.525
       263  -8.5449     69.5036    162.9863   7.6004785224e+01   3.2634876697e+01    0.2049343     0.123285  80.87 0.0007478917    2.445    0.591
       264  -9.7904     26.8891    119.5161   8.3518914512e+01   4.8829006978e+01    0.3819865    0.2320274 -32.74  0.001425979    1.872    0.466
       265  -9.9530     48.6354     84.2549   6.7421295255e+01   5.5364569358e+01    0.4742128    0.3043462  68.16   0.00195234    2.607    0.616
       266 -10.1154     49.1261     77.0993   6.5185731861e+01   5.6967992509e+01     0.504741    0.2896636   2.66  0.001899766    2.662    0.624
       267  -9.1937    116.8196     83.3822   4.3246156339e+01   4.2905962282e+01    0.2850929    0.2000713 -29.20 0.0005169128    1.601    0.375
       268  -9.3680    119.1888     78.4983   4.1143774209e+01   4.3316172798e+01    0.4806882    0.2098446 -42.30  0.001805728    2.320    0.569
       269 -10.1426    104.3330     82.3539   4.6510640575e+01   4.5812868663e+01    0.4751421    0.2799162 -58.05  0.001532714    2.153    0.536
       270  -9.5107    104.9663     77.0171   4.4671285291e+01   4.6732750115e+01    0.4484052    0.2567687  19.60  0.001499977    3.449    0.710
       271  -9.6446    140.8626     81.2641   3.6680681724e+01   3.7916235050e+01    0.4772214    0.2050191 -40.91  0.001816881    2.298    0.565
       272  -8.3089     47.3173    163.6553   8.2759784144e+01   3.5242544052e+01    0.1537007   0.09821685  62.02 0.0007048728    1.720    0.419
       273  -9.0326    158.5173     80.5103   3.2803495261e+01   3.4071676223e+01     0.251753    0.1393453 -25.97  0.001025741    2.299    0.565
       274  -9.1641     74.4633     80.2005   5.5879210497e+01   5.2187696522e+01     0.327464    0.1465366 -57.94  0.001124462    2.981    0.665
       275 -10.0040     24.4748     80.3853   7.7222954742e+01   5.9026412802e+01    0.3507027    0.2477688  75.51  0.001326623    1.922    0.480
       276  -9.3246    150.1482     78.4308   3.3899989027e+01   3.6311956029e+01    0.3634866    0.1677357 -33.56   0.00141021    2.351    0.575
       277  -9.5365     84.4402    122.4941   6.3653009879e+01   4.0526702899e+01    0.5023924    0.3195622  -6.05  0.001887742    2.646    0.622
       278  -9.5187    128.1722     75.0433   3.7825294183e+01   4.1919728149e+01    0.3684515    0.2182839 -60.29  0.001218942    2.269    0.559
       279  -9.8187    128.3234     70.2447   3.6341377655e+01   4.2731283383e+01    0.4359848    0.2921751  14.67  0.001802533    2.462    0.594
       280 -13.4345    235.0485    130.9590   3.1901321601e+01   1.1111044772e+01     1.152236    0.8099837 -79.39  0.006104585    2.674    0.626
       281  -8.7944    167.5200     75.5158   2.9819632870e+01   3.2897142427e+01    0.1380665    0.1316051 -62.51 0.0008100196    1.024    0.024
       282  -8.6348    157.5329     74.9340   3.1483489341e+01   3.5231613998e+01    0.1965986    0.1284963  -8.64  0.000808669    2.555    0.609
       283  -9.2300    140.6027     73.5480   3.4529452953e+01   3.9331884134e+01    0.4530264     0.184299 -33.78  0.001631128    2.731    0.634
       284 -10.4345     10.6355     74.2853   8.2493050113e+01   6.1577302435e+01    0.3925492    0.2211996   9.56  0.001318341    1.920    0.479
       285  -9.8638     82.3156     72.3018   5.0492901886e+01   5.2363635948e+01    0.3913391     0.270269 -67.70  0.001275097    2.065    0.516
       286 -10.3385     26.9886     71.5150   7.3834414205e+01   6.0916140211e+01    0.5808021    0.2720641 -17.84   0.00204988    3.538    0.717
       287  -8.9412    177.8252    160.7260   4.7747771907e+01   1.5293210530e+01    0.2505936    0.1839064 -68.08  0.001223595    2.089    0.521
       288  -8.6858    152.2999    161.6138   5.3475683492e+01   1.9486812911e+01    0.1424536    0.1168768  89.71 0.0007017126    1.784    0.439
       289  -9.0937    115.8744     71.4259   3.9844914420e+01   4.5366855071e+01    0.3757137    0.1627031 -42.75  0.001413868    2.362    0.577
       290  -9.4785    105.8297     71.5103   4.2669669417e+01   4.7593342005e+01    0.2986993    0.1925843 -57.97  0.001036479    1.925    0.480
       291  -9.1211    106.2834     67.0347   4.1085835379e+01   4.8313770483e+01    0.3487584    0.2148338  25.03  0.001327649    2.317    0.568
       292  -9.8129     94.9855     70.4953   4.5639930936e+01   5.0128874390e+01    0.5427685     0.229637 -51.99  0.001860052    3.050    0.672
       293  -8.8354     42.4234     71.6636   6.6566474930e+01   5.9115116869e+01    0.2708145    0.1384011 -71.90   0.00095673    3.401    0.706
       294 -11.0561      5.4186     70.6978   8.4352764297e+01   6.2752717328e+01    0.5018158    0.1420754 -57.83  0.001963282    2.565    0.610
       295 -10.3865    184.3253     77.3506   2.7520742035e+01   2.8949841087e+01    0.3922831    0.1409997 -47.38  0.001453131    2.813    0.645
       296 -10.3504     51.2184     69.0282   6.1780405956e+01   5.8474262323e+01    0.5165805    0.2591494 -65.67  0.001875176    3.197    0.687
       297  -9.1154    195.2012    121.9271   3.6185560480e+01   1.9295035836e+01    0.2852284    0.1402984 -54.15  0.001146711    2.612    0.617
       298  -8.7996    163.1145     69.7675   2.9063151137e+01   3.4807968496e+01    0.2679935    0.1907905  -1.11  0.001239642    2.200    0.546
       299  -9.6177     16.5037     69.2253   7.8449423371e+01   6.2378719500e+01    0.3936303    0.2066751 -81.23  0.001640594    2.664    0.625
       300  -9.5638      1.4295     69.2502   8.6082394136e+01   6.3301295025e+01     0.250161    0.1021437 -63.39 0.0009297004    2.010    0.502
       301  -9.0197    147.4010     63.8196   3.0313528916e+01   3.9361491078e+01    0.3297075    0.2338573   1.52   0.00150022    2.211    0.548
       302 -10.4077     82.9871     65.3174   4.7898269763e+01   5.3604735794e+01    0.5094785    0.3156672  -5.13  0.001871634    3.108    0.678
       303  -9.5591    138.1351     64.8304   3.2498213778e+01   4.1361842449e+01    0.4971543    0.2992567 -20.71  0.002110684    2.270    0.559
       304  -8.6415    121.5046     65.9732   3.6678911247e+01   4.5040584834e+01     0.214269     0.137218 -48.51 0.0007188179    1.662    0.398
       305  -9.0211    122.0168     61.9663   3.5283808874e+01   4.5596427453e+01    0.2907052    0.2010587  -1.97  0.001263255    2.246    0.555
       306  -8.5816    158.7723     63.9756   2.8247960849e+01   3.6705086820e+01    0.1813547    0.1130017 -36.52 0.0005058249    1.602    0.376
       307  -8.9816    110.2291     63.2605   3.8742183901e+01   4.8091780800e+01    0.3329714    0.1850776 -52.27  0.001072799    2.154    0.536
       308  -9.1842    111.0465     58.7823   3.7035971696e+01   4.8663580005e+01    0.3354366    0.1871614  32.34  0.001329062    2.390    0.582
       309  -9.2467     37.1746     63.5683   6.6544838931e+01   6.1595456988e+01     0.268021    0.1887817 -76.72  0.001162612    2.006    0.502
       310  -9.9669     18.1156     61.9473   7.5753533288e+01   6.3947440372e+01    0.3347524     0.171544 -45.71  0.001008848    1.711    0.415
       311  -9.8556    100.3943     59.6167   4.0307149294e+01   5.0934600503e+01    0.3710603    0.2072564 -57.26  0.001461894    2.546    0.607
       312  -8.9661    100.3968     54.8157   3.8636541101e+01   5.1744711513e+01    0.2871068    0.2116104 -14.89  0.001102482    1.666    0.400
       313  -9.7779     73.1515     59.0547   4.9264102676e+01   5.6737497822e+01    0.4217381    0.2487201 -53.02  0.001587815    2.036    0.509
       314  -9.8987     73.9824     51.8625   4.6271885379e+01   5.7885246468e+01    0.5501513    0.3349258  -4.66  0.002107248    3.027    0.670
       315  -8.4805    164.6559     59.6981   2.6077192456e+01   3.6004045712e+01    0.1366536    0.1062002  28.00 0.0004024574    1.681    0.405
       316  -9.6160     39.0471     57.9373   6.3763386680e+01   6.2572366698e+01    0.2353655    0.1548407 -17.14  0.001137872    1.753    0.429
       317 -11.2241      6.7676     56.7407   8.0540501474e+01   6.5960380506e+01     0.404779    0.3476724 -44.63  0.002112292    1.054    0.051
       318 -10.6668      8.4424     49.7163   7.7707506028e+01   6.7434905770e+01    0.3773466    0.1152015 -38.87  0.001401559    3.154    0.683
       319  -9.4014    119.1548     55.5163   3.3893924282e+01   4.7308185530e+01    0.2968237    0.1765897 -53.60  0.001075856    1.995    0.499
       320  -9.5247     92.9361    160.3535   6.8693894015e+01   2.9836792749e+01    0.3953597    0.2176199  54.62  0.001301361    2.316    0.568
       321  -9.5077     62.7839     54.1598   5.1562963333e+01   5.9595432735e+01    0.2825339    0.1933739 -53.55 0.0009612595    1.726    0.421
       322 -11.7168     45.3912     49.1948   5.7456530102e+01   6.3442699650e+01    0.4443122    0.2518539 -38.16 0.0005509915    1.762    0.433
       323  -9.9044     26.1144     54.6371   6.9303386504e+01   6.4821140381e+01    0.2668702     0.161184   0.44  0.001285232    1.905    0.475
       324  -9.7073     53.8813     53.1865   5.5036299118e+01   6.1321895839e+01    0.3457571    0.1960755 -58.28   0.00147887    2.423    0.587
       325  -8.6067    105.5169     52.5298   3.6393642129e+01   5.0950742292e+01    0.1430161    0.1356097  65.74 5.560825e-05    1.060    0.057
       326  -9.6218     31.0089     51.3279   6.5562421764e+01   6.4971983313e+01    0.2225722    0.1930521  89.70 0.0007996693    1.604    0.377
       327  -9.7130     92.4866     50.2448   3.9362344893e+01   5.4257409299e+01    0.3694126    0.2139416 -53.72  0.001359039    2.253    0.556
       328  -9.7126     22.5073     47.0839   6.8725563092e+01   6.6803044111e+01    0.4076127    0.2089635  -2.14  0.001712942    2.700    0.630
       329  -9.1782    130.3578     46.1373   2.8348274475e+01   4.6047774652e+01    0.2556897    0.1388117 -21.42 0.0007710538    2.449    0.592
       330  -9.1911     81.8950     46.2962   4.1304418128e+01   5.7193392297e+01    0.3870576    0.1814029 -40.75  0.001495389    2.270    0.560
       331  -9.2557     83.8202     40.0621   3.8218079733e+01   5.7746059139e+01    0.3162667    0.2115426  15.53  0.001098571    2.010    0.502
       332  -9.2955    150.0000     44.8505   2.4313867682e+01   4.1531890254e+01    0.3603638    0.0771353 -31.95  0.001040965    4.841    0.793
       333  -9.8361    113.4582     42.4536   3.0850507628e+01   5.0602368190e+01    0.5317022    0.2782087 -16.31  0.001708204    3.038    0.671
       334  -8.8408      1.6207     46.0384   8.0753306070e+01   6.8658858767e+01    0.1790208    0.1370285 -47.02 0.0004615462    1.123    0.109
       335  -9.4509     63.5217     47.7658   4.8775003029e+01   6.0624951381e+01    0.4208174    0.2576312  -3.83   0.00169323    2.781    0.640
       336 -10.1390     16.6560     41.9730   7.0325714287e+01   6.8435689769e+01    0.6033615    0.1474553 -45.69  0.002167412    3.358    0.702
       337  -9.5937     58.1889     42.3225   4.8802728027e+01   6.2552138109e+01    0.2534606    0.1852388 -67.77  0.001230008    2.197    0.545
       338 -10.5277      4.9775     40.5735   7.7071730403e+01   6.9646616332e+01      0.49641    0.2558755 -80.88  0.002096936    3.348    0.701
       339 -10.4860      6.3608     33.7193   7.3857288419e+01   7.0977411302e+01    0.2890454    0.1869372 -20.30  0.001193447    1.430    0.301
       340  -9.2471    123.6507     40.3105   2.7839273136e+01   4.8460025468e+01    0.2633555    0.1801355  27.44 0.0005713337    1.906    0.475
       341 -10.0236    105.8783     38.5482   3.1317062014e+01   5.2935847860e+01    0.4619838     0.207588 -25.43  0.001808966    2.794    0.642
       342  -8.8197     69.0021     41.0144   4.3848898039e+01   6.0702730015e+01    0.2105729    0.1752158 -87.28 0.0009567699    1.732    0.423
       343  -8.6023     37.0462     40.5543   5.8194346250e+01   6.6310394218e+01    0.1790289    0.1079439  51.92 0.0008071084    2.458    0.593
       344  -9.7936     95.6208     36.1917   3.3151422824e+01   5.5647816996e+01    0.4477414    0.1782815 -30.27  0.001728648    2.831    0.647
       345  -9.1602     26.0776     36.5454   6.2610483074e+01   6.8506141785e+01    0.2314771    0.1834398 -61.88  0.001349007    1.637    0.389
       346  -8.9091     69.9723     36.0277   4.1387999423e+01   6.1280776879e+01    0.2824915    0.1533545  14.52 0.0009475512    4.039    0.752
       347  -8.5856     38.3101     35.3412   5.5283454809e+01   6.7068861945e+01    0.1395068   0.09429837  -7.10 0.0003913216    1.693    0.409
       348  -9.0231    111.7329     32.2698   2.7656169233e+01   5.2365701515e+01    0.3966771    0.1806955 -23.79  0.001604204    2.741    0.635
       349  -8.2237     80.3205     34.3320   3.7041776084e+01   5.9339512476e+01    0.1450136    0.1004725  21.31 0.0007049137    1.696    0.411
       350  -9.2388    119.4787     32.1276   2.5938216428e+01   5.0519483147e+01    0.3459652    0.1385376 -29.12  0.001369834    2.764    0.638
       351  -9.4045    222.2219     32.3906   1.2731279010e+01   2.7287382094e+01    0.1589373   0.09810851 -85.57 0.0005732528    1.654    0.395
       352  -9.0957     60.3575     31.9223   4.3371929763e+01   6.3810855872e+01    0.2536642    0.1193614 -43.86  0.001086039    2.483    0.597
       353  -9.2270     12.8634     31.1244   6.8552200839e+01   7.0955178099e+01    0.1769738    0.1712657  -4.82 0.0007333716    1.282    0.220
       354  -9.3218    101.5126     27.2966   2.8209856356e+01   5.5409266348e+01    0.3143157    0.1418034 -25.15   0.00124098    2.619    0.618
       355  -9.6207     28.0140     27.1394   5.7258190887e+01   6.9955749952e+01    0.2932386    0.1108715 -31.01  0.001057584    3.678    0.728
       356 -10.3366      2.2972     27.0146   7.4151141430e+01   7.2604964045e+01    0.4269319    0.1503262 -44.23  0.001951029    2.296    0.564
       357  -8.6281     81.4876     27.0168   3.3607477970e+01   6.0059503583e+01    0.1805823    0.1096248 -55.75 0.0007632663    2.391    0.582
       358  -8.4344     91.5232     26.0334   3.0283482964e+01   5.7900153725e+01    0.1899253    0.1049139 -53.64 0.0008098971    2.538    0.606
       359  -9.0071    110.6517     24.4391   2.5065065356e+01   5.3556949049e+01    0.2104434    0.1588769  17.18 0.0005059487    1.644    0.392
       360  -9.1807     44.3134     25.1910   4.7450005898e+01   6.7756022212e+01    0.2112022    0.1546092  23.75 0.0004539234    1.258    0.205
       361  -8.6926    118.5358     24.4902   2.3481422898e+01   5.1645211067e+01    0.1352339     0.121449  64.61 9.226431e-05    1.024    0.024
       362 -10.2847     13.0087     21.0583   6.3971900496e+01   7.2806808794e+01    0.2705524    0.2005085  15.79 0.0007787775    1.263    0.208
       363  -8.5745     84.7510     21.3992   3.0254996734e+01   6.0000705589e+01    0.1851128    0.1107712  48.69 0.0002739707    1.469    0.319
       364  -8.1222     48.4736     21.4981   4.3621379893e+01   6.7549311347e+01    0.1297379     0.114764  21.68 0.0001672659    1.062    0.058
       365  -8.4830     40.8459     21.3875   4.7285590254e+01   6.8909044495e+01    0.1785767     0.106378  28.63 0.0002668252    1.604    0.377
       366  -8.7363    188.5355     20.5392   1.2909800419e+01   3.5600034436e+01    0.1219045    0.1048294 -74.76 0.0003878102    1.036    0.035
       367  -8.6631     63.3351     20.6513   3.6968144959e+01   6.4759436939e+01    0.1277771    0.1051214 -79.69 0.0007047639    1.779    0.438
       368  -9.5191     30.8042     19.1272   5.1585795736e+01   7.0851046552e+01    0.1790852    0.1303233   3.29 0.0002615939    1.337    0.252
       369  -8.8614      1.5226     19.4953   7.1629020702e+01   7.4105594318e+01    0.1228393   0.09732265 -20.50 0.0001443563    1.012    0.012
       370  -8.9917     50.3959     15.5063   3.9686701825e+01   6.7974457387e+01    0.2722258    0.1469694  25.50   0.00126035    2.184    0.542
       371 -11.1784    249.1566    237.1494   4.8410244279e+01  -5.6467379611e+00    0.3579248    0.2008445 -27.95  0.002269338    1.466    0.318
       372 -10.3589    161.4858    248.6137   6.5885665525e+01   2.4362635263e+00    0.2388373    0.1483487 -49.32  0.001089136    2.044    0.511
       373  -9.8613    107.4436    247.3790   7.7182727829e+01   9.3691691175e+00    0.3031601    0.2264807 -88.34    0.0018329    1.948    0.487
       374  -8.1645     93.2980    249.6998   8.0530633886e+01   1.0699777182e+01    0.1228516    0.0798682  50.98 0.0002969812    1.578    0.366
       375  -8.8760    196.4902    248.5133   5.9092506871e+01  -1.6407962896e+00     0.116462   0.08767572   3.24 5.860643e-05    1.011    0.011
