#   1 NUMBER                 Running object number                                     
#   2 MAG_AUTO               Kron-like elliptical aperture magnitude                    [mag]
#   3 X_IMAGE                Object position along x                                    [pixel]
#   4 Y_IMAGE                Object position along y                                    [pixel]
#   5 X_WORLD                Barycenter position along world x axis                     [deg]
#   6 Y_WORLD                Barycenter position along world y axis                     [deg]
#   7 A_WORLD                Profile RMS along major axis (world units)                 [deg]
#   8 B_WORLD                Profile RMS along minor axis (world units)                 [deg]
#   9 THETA_WORLD            Position angle (CCW/world-x)                               [deg]
#  10 FWHM_WORLD             FWHM assuming a gaussian core                              [deg]
#  11 ELONGATION             A_IMAGE/B_IMAGE                                           
#  12 ELLIPTICITY            1 - B_IMAGE/A_IMAGE                                       
         1 -14.3278    123.6498     13.5063   5.1554533608e+01   5.2279043302e+01     9.948018     3.849908 -52.35   0.02810786    6.211    0.839
         2 -13.3713    217.9075     30.6658   4.2801678704e+01   2.7162077633e+01     8.598282     2.411205 -31.47   0.02010486    3.319    0.699
         3 -12.8481    235.4363     28.1085   4.0414812078e+01   2.3461379767e+01    0.6863912     0.549787   3.87 0.0009671972    1.802    0.445
         4 -13.9928    242.5771     18.9583   3.7703587411e+01   2.2992180891e+01     1.128257    0.5306982 -26.69  0.001415504    2.363    0.577
         5 -15.4806    242.6860     51.8055   4.5211881688e+01   1.8716705971e+01     2.032395     1.554079  62.77  0.009647964    1.440    0.306
         6 -14.1616    249.7402     30.1114   3.9578876092e+01   2.0093599411e+01      1.41099    0.4925724 -30.05  0.005746979    2.901    0.655
         7 -14.3105    207.7930     76.0277   5.5893619415e+01   2.2951169191e+01     4.633785     3.128776 -68.00   0.02113647    1.819    0.450
         8 -14.0119    222.0343     80.9705   5.4975046185e+01   1.8854673899e+01     10.11062     2.207105 -47.66   0.02139228    7.763    0.871
         9 -10.9184    112.6451     20.8181   5.6758952473e+01   5.4082185118e+01    0.7115811    0.1703028 -24.77  0.002161378    4.666    0.786
        10 -12.9346    248.1559      7.7800   3.4843052615e+01   2.3063479840e+01     1.285615    0.5757832 -57.73  0.005793493    2.034    0.508
        11 -10.9946    142.8245     11.0920   4.7175382809e+01   4.7863666336e+01     1.059449    0.3653808 -13.09  0.003393669    4.696    0.787
        12  -9.5292     79.4909     12.1484   6.2150308705e+01   6.2075019645e+01    0.4503641    0.1220515 -25.48  0.001609142    3.793    0.736
        13 -14.0680    242.2912     74.7717   5.0669646861e+01   1.5404269716e+01     2.005101    0.9947075 -48.54  0.001663058    1.899    0.473
        14  -8.7890    164.3811      8.9069   4.3258493110e+01   4.2714098542e+01    0.1727505    0.1601048 -17.33 0.0004810344    1.216    0.177
        15  -9.8071    204.5525      7.3646   3.8295367119e+01   3.2990976904e+01    0.2721529    0.2052022   1.93 0.0009094954    1.844    0.458
        16  -8.3844    158.0489      5.5273   4.3074825041e+01   4.4601440622e+01    0.1933221    0.1800863 -33.63  0.000983764    1.184    0.155
        17  -9.1851    210.1780      3.3992   3.6795921618e+01   3.2054908194e+01    0.1769933    0.1635342 -16.82 0.0005642753    1.333    0.250
        18 -10.3867    244.5728    180.9482   7.4137038744e+01  -2.1836707688e+00    0.3334251    0.2096997 -46.59   0.00172521    1.981    0.495
        19  -9.8448    107.7519    250.3127   1.1143637799e+02   8.9572365348e+00    0.1925434    0.1338023  43.05  0.000578082    1.206    0.171
        20  -8.7905     61.6808    185.0050   1.1368832209e+02   2.8423231612e+01    0.1749341    0.1421771 -86.25 0.0002525764    1.090    0.082
        21 -10.3323    216.3138    183.5956   7.9758870679e+01   2.1577836812e+00    0.2643132     0.216767   5.48 0.0008615298    1.134    0.118
        22  -9.3273    207.3714    183.1798   8.1385051986e+01   3.8129275982e+00    0.2827209     0.170248 -59.52  0.001163864    2.972    0.664
        23 -10.5607    221.0431    176.9263   7.7521580870e+01   2.4225838086e+00    0.4217239    0.3626237  80.00  0.001908553    1.813    0.449
        24  -9.8415    221.1997    171.7415   7.6419514590e+01   3.2556306536e+00     0.558784    0.3926078  74.72  0.002437186    3.013    0.668
        25  -8.8932    203.8055    174.5109   8.0318869240e+01   5.9620176909e+00    0.3673839    0.2704459  83.70  0.001631204    2.692    0.628
        26 -12.6926     10.2549    167.7875   1.2344079802e+02   3.7849585011e+01    0.8364578    0.6242449 -89.69  0.003804188    1.026    0.025
        27  -9.9658    235.6326    174.0648   7.4291017840e+01   3.5513862609e-01    0.2733407    0.1926477  55.86  0.000844695    2.001    0.500
        28  -7.9878    183.3297    173.6861   8.4300692713e+01   9.9916055148e+00    0.1400774    0.1170872  84.54 0.0007044424    1.675    0.403
        29 -10.7378    230.6006    167.1407   7.3740916038e+01   2.3424101794e+00    0.4134831    0.2390864 -45.73  0.001957346    1.930    0.482
        30  -8.7033    186.1441    169.2846   8.2802803091e+01   1.0279983142e+01     0.256252    0.1980865  57.49 0.0006754512    1.534    0.348
        31  -8.2071     62.5054    169.4513   1.1158035990e+02   3.1901632744e+01    0.1327851    0.1164742 -87.93 0.0001793158    1.042    0.041
        32 -10.4276    248.6661    166.3572   7.0457431112e+01  -6.2737779063e-01    0.3901711    0.2325099 -48.49  0.001903689    2.118    0.528
        33  -9.6064    197.7851    176.1917   8.1858423224e+01   6.7867264000e+00    0.2512304    0.2307376  38.48 0.0002220573    1.177    0.150
        34  -8.0951    249.6144    239.1844   8.3950116250e+01  -1.0649010811e+01    0.1489785   0.08977298 -14.46 0.0004811918    1.558    0.358
        35  -8.4168    220.7773    228.7962   8.7237718441e+01  -5.3011296908e+00    0.1784585    0.1364977   7.07 0.0004854291    1.126    0.112
        36  -9.1158    219.4987    211.1274   8.4398446946e+01  -2.6404366279e+00      0.25294    0.2184134 -67.91   0.00112136    1.917    0.478
        37  -8.4609    233.1698    211.6133   8.2012144597e+01  -4.8356735595e+00    0.1806813    0.1002719  25.70 0.0007281853    1.730    0.422
        38 -12.9085    233.1293     44.7255   4.4580888332e+01   2.1809783745e+01    0.6151056    0.3787967 -33.76 0.0003988039    1.546    0.353
        39  -8.9803    207.2979    205.6738   8.5695228871e+01   1.6772501856e-01    0.2025893    0.1858987  32.95 0.0005662112    1.250    0.200
        40 -10.4123    238.9428    204.2052   7.9627844689e+01  -4.6824986072e+00    0.2202428     0.187837  14.66 0.0003572784    1.166    0.142
        41  -8.3694     94.5133    162.4437   1.0269948704e+02   2.8882213115e+01    0.2838104    0.1799135  85.71 0.0007746086    2.155    0.536
        42 -10.5828    245.4495    172.4490   7.2259470831e+01  -1.0351504336e+00    0.3413179    0.2251985 -10.73 0.0009536098    1.561    0.360
        43  -9.0472    203.3707    160.7061   7.7474743275e+01   8.5218200035e+00    0.2407369    0.1763933  53.67 0.0005854799    1.599    0.375
        44 -10.3692    242.7604    200.4794   7.8261206540e+01  -4.7411169929e+00    0.3779586    0.2544952  54.28  0.001568455    2.369    0.578
        45 -12.2150     67.8587    142.4383   1.0617700382e+02   3.7691475558e+01     1.336752     1.095611  62.97  0.004800831    1.260    0.206
        46 -11.6397     55.6009    147.1320   1.1017947553e+02   3.8129488204e+01    0.7466184    0.4266893 -80.75   0.00195043    1.824    0.452
        47 -11.6461     41.0498    153.9639   1.1483255227e+02   3.8152756686e+01    0.5227791    0.3947341   7.06  0.001148353    1.937    0.484
        48 -12.2615     48.6301    149.9298   1.1238727078e+02   3.8278804107e+01    0.8492022     0.668729 -81.45  0.002819994    1.099    0.090
        49  -8.7887    165.0090    157.2840   8.4800496508e+01   1.6869397055e+01     0.214386    0.1976212  37.45 0.0008829659    1.077    0.072
        50 -13.0927    223.8146     68.6258   5.1615237447e+01   2.0423831659e+01     1.149076    0.8023854  47.21  0.003284442    1.636    0.389
        51  -9.4363    192.5091    153.0269   7.7959119665e+01   1.2117222397e+01    0.3482031    0.2104142 -61.48   0.00116812    2.609    0.617
        52  -8.7479    189.5804    150.2546   7.7936544465e+01   1.3249763018e+01    0.2434451     0.206156   6.14 0.0009982603    1.255    0.203
        53  -8.3593    198.5261    153.4927   7.6844740725e+01   1.0814841294e+01    0.1484133    0.1359884  -7.00 2.814196e-05    1.030    0.029
        54  -9.6632    172.0902    149.3633   8.1469614160e+01   1.7047594244e+01     0.488771     0.320166 -78.92  0.001775174    3.097    0.677
        55  -7.9382    203.3574    151.7014   7.5484003519e+01   1.0181513202e+01    0.1426761    0.1190613 -84.29 0.0007035522    1.705    0.414
        56  -9.6482    133.7241    145.2948   8.9531620404e+01   2.5796212848e+01    0.7096698    0.2172793 -55.54  0.001879007    4.513    0.778
        57 -10.0448    132.8440    138.8447   8.8302516898e+01   2.7439389455e+01    0.5004122    0.4580677  61.41  0.002631119    1.129    0.115
        58  -8.8699     28.6572    147.3437   1.1713910417e+02   4.0992879792e+01    0.1373323   0.08156534  71.23 0.0007047054    1.786    0.440
        59  -8.2085    192.1234    144.0970   7.5999718489e+01   1.3919093646e+01    0.1934438    0.1798045 -76.46  0.000352232    1.267    0.211
        60  -8.4340    147.6589    143.9788   8.5849683483e+01   2.3270363199e+01     0.254972      0.12619 -65.66 0.0007049889    4.374    0.771
        61  -8.7276    152.8848    138.6501   8.3373678612e+01   2.3347414502e+01    0.2192652    0.2046891  57.87  0.001142622    1.114    0.103
        62  -9.4280    210.8902    137.1092   7.0681076949e+01   1.1350632522e+01    0.2821906     0.201159 -52.32 0.0007851965    1.572    0.364
        63 -10.1187    181.6861    135.6377   7.6179017353e+01   1.7804809036e+01     0.312195    0.2324972   2.66  0.001265585    1.755    0.430
        64 -10.5020    160.0665    129.2109   7.9411008550e+01   2.3841340403e+01    0.5194996    0.4394092  12.45  0.002545645    1.351    0.260
        65 -10.0592    135.9452    128.4414   8.5062981174e+01   2.9168494540e+01    0.6507636    0.2129453 -50.76  0.001942854    3.264    0.694
        66  -9.2775    134.9993    120.7063   8.3375143244e+01   3.1108572965e+01    0.3870704    0.1825808 -49.95  0.001269514    2.139    0.533
        67 -10.4081    203.9997    127.2931   6.9647732469e+01   1.4619891105e+01    0.5009118    0.2381306 -33.96  0.001381458    2.084    0.520
        68 -10.0204    201.2282    122.0447   6.8893980981e+01   1.6207689468e+01     0.262634      0.25385 -84.41 0.0002056279    1.149    0.130
        69  -8.9443    144.6578    123.8290   8.1745019516e+01   2.8354575200e+01    0.2575356    0.2165731  41.49 0.0002448117    1.220    0.181
        70  -9.9330    215.1980    118.7820   6.5510535532e+01   1.3795083534e+01    0.6596116    0.4259568 -67.27  0.002709763    2.449    0.592
        71 -11.8655    207.0664    108.2540   6.4357368778e+01   1.7483035992e+01    0.8582625    0.7210346 -22.46  0.003329434    1.196    0.164
        72 -11.8394    129.5900     84.1213   7.4537437359e+01   4.0144370069e+01    0.6883286    0.5395361  58.57  0.003304205    1.404    0.288
        73 -12.7685    124.4182     81.9532   7.5247483563e+01   4.1723377178e+01      1.16404    0.7663634 -19.06  0.004305301    1.960    0.490
        74 -11.0273    135.2912    109.8330   8.0450028930e+01   3.3461242571e+01     0.877843    0.3683127 -41.42  0.003034177    2.367    0.577
        75  -9.7522    195.9938    111.7784   6.7322055019e+01   1.9312792673e+01    0.3519778    0.2266609  52.24  0.001565933    1.657    0.396
        76  -8.6610    179.9512    110.6842   7.0264549814e+01   2.3184014334e+01    0.3045005    0.2100927  70.01  0.001291816    1.901    0.474
        77  -8.3293     38.2195    109.6376   1.0893128158e+02   4.9223688577e+01    0.2491855     0.140265 -74.27 0.0007096227    1.739    0.425
        78  -9.3551    147.8681    103.5870   7.5588841882e+01   3.2011148457e+01    0.3446538    0.2811233  34.58 0.0007947898    1.302    0.232
        79 -10.5185    157.4695     99.0771   7.2053236300e+01   3.0728629809e+01    0.6090502    0.3359692  37.50  0.002334929    2.103    0.524
        80  -9.4978    134.2838     99.1682   7.7754134392e+01   3.5987554255e+01    0.2871026    0.2490659  73.24 0.0005853875    1.322    0.243
        81  -9.9967    168.1002     97.9874   6.9365439374e+01   2.8449966338e+01    0.4681653    0.3211679  43.10  0.001321938    1.527    0.345
        82 -11.0266    172.9500     92.2461   6.6728716513e+01   2.8406484526e+01    0.7458975    0.5067468  35.87  0.003265266    1.684    0.406
        83  -7.8362     83.4489     99.4634   9.2418225799e+01   4.5790207321e+01    0.1473502     0.135066 -49.99 0.0001544759    1.024    0.023
        84  -9.0036     90.7188     98.0216   8.9787373893e+01   4.4903955458e+01    0.2294372    0.2116388  29.01 0.0003978977    1.165    0.141
        85  -9.2062    196.6418     96.7472   6.3291455937e+01   2.1962485074e+01    0.2837658    0.2509907  86.76 0.0008996667    1.267    0.210
        86  -7.4279    147.7082     97.7451   7.3985087259e+01   3.3260315499e+01    0.1514622    0.1234179   9.73            0    1.488    0.328
        87  -8.0867     34.3779     97.1927   1.0777753307e+02   5.2577315661e+01    0.1815917    0.1107206 -72.14 0.0003278275    1.574    0.365
        88  -9.8314    141.3022     94.0342   7.4492852147e+01   3.5487851120e+01    0.3415695    0.3071324 -78.27 0.0009448913    1.249    0.200
        89 -10.6834    126.1485     88.3822   7.6744552681e+01   4.0036337443e+01    0.4090289    0.3836838  47.01  0.001161528    1.108    0.098
        90 -10.4252    167.3699    115.0612   7.4137428146e+01   2.5181312763e+01    0.5044336    0.3647594  29.62  0.002250717    1.602    0.376
        91 -13.2754    235.4226     81.6314   5.3220890008e+01   1.5795524308e+01     1.777253    0.7311969 -54.62  0.002325451    3.420    0.708
        92 -10.8972    156.0078     90.2265   6.9865184032e+01   3.2831829058e+01    0.3522087    0.2876451 -32.02 0.0004932058    1.224    0.183
        93 -12.2837    122.5143    102.3412   8.1774716550e+01   3.7828466728e+01     1.753736    0.6491548 -55.64  0.004770175    4.227    0.763
        94  -9.2848    208.4817    200.9965   8.4608735049e+01   7.0195470078e-01    0.2489964    0.2036156   6.00  0.000819101    1.117    0.105
        95 -10.5003    106.8606     78.0245   7.8973580343e+01   4.6219016189e+01    0.2717344    0.2588792  -2.13 0.0002721204    1.039    0.038
        96  -8.0233     79.5483     76.4464   8.7081918023e+01   5.1562857512e+01    0.1434184    0.1309876 -33.66 7.844841e-05    1.032    0.031
        97 -10.0449    125.9358     68.9978   7.0708030191e+01   4.3875761003e+01    0.3753876    0.2207228 -44.64  0.001309324    1.739    0.425
        98 -11.3741    137.0130     61.9948   6.5618412235e+01   4.2547350123e+01    0.4087586    0.3724432  68.56  0.002183129    1.174    0.148
        99  -8.1408    123.2316     58.9402   6.8051122946e+01   4.6269958064e+01    0.1968667    0.1217286 -35.97 0.0005230643    1.603    0.376
       100 -10.0234    176.7510     52.8867   5.4596132548e+01   3.4205206951e+01    0.4532171      0.22182 -41.28  0.001840232    1.997    0.499
       101  -8.3968    194.0335     50.4981   5.1118702513e+01   3.0256500857e+01    0.1966416    0.1778509  77.93  0.000346291    1.093    0.085
       102 -10.8444    188.9104     46.5734   5.0794461871e+01   3.2087432558e+01    0.9346636    0.2649489 -39.20  0.003098642    3.152    0.683
       103  -9.7023    191.7575     43.9839   4.9641391288e+01   3.1742924679e+01    0.6058533    0.2163439 -36.64  0.002244609    2.572    0.611
       104  -9.8181    199.0636     43.2592   4.8403411940e+01   3.0041668591e+01    0.6539136    0.1827767 -31.68  0.001097114    3.426    0.708
       105 -10.4127    162.8457     39.6954   5.3027135275e+01   3.9577231207e+01    0.6532283    0.2540452 -33.07  0.002455311    2.526    0.604
       106 -13.6344    172.1809     79.2892   6.3198647289e+01   3.0985619186e+01     2.157015     1.724949 -88.01   0.00610015    1.507    0.336
       107  -9.2753    204.9556     36.4381   4.5798309226e+01   2.9518178309e+01    0.4583787    0.2825814 -21.11  0.002174709    1.918    0.479
       108  -8.9350    190.0664     35.2072   4.7425491640e+01   3.3336003966e+01    0.2123482    0.1894917 -38.46 0.0002312369    1.153    0.133
       109 -10.2598    144.8690     30.7736   5.3453329910e+01   4.5219035764e+01      0.39002    0.2113593 -20.67  0.001216072    2.112    0.526
       110  -9.4642    208.9892    196.6415   8.3694240701e+01   1.3088393630e+00    0.2238672    0.1796936 -24.45  0.001319524    1.226    0.184
       111  -8.3012    171.0571     28.5001   4.8237953747e+01   3.8934294182e+01    0.2196297    0.1702117 -29.54 0.0007045519    1.362    0.266
       112  -8.4002    159.8599     27.3280   4.9652882432e+01   4.1891403895e+01    0.2327138     0.178398 -42.32 0.0003243487    1.355    0.262
       113  -8.7254    177.6267     25.8202   4.6478743153e+01   3.7601273093e+01    0.2124202    0.1705537  58.21 0.0003412193    1.211    0.174
       114  -8.8611     92.2245     25.4993   6.4085587501e+01   5.7972660080e+01      0.24171    0.1710459 -22.17  0.000746968    1.404    0.288
       115  -9.7347    192.6098    194.0880   8.6412762499e+01   4.5950560199e+00    0.8453671    0.4010282 -59.71  0.002353518    6.760    0.852
       116  -9.3337    229.7888    194.0348   7.9325550171e+01  -1.7610764924e+00    0.3745858    0.1745557  51.89  0.001498269    3.410    0.707
       117  -8.0320    231.9739     18.2900   3.8447189421e+01   2.5416760070e+01    0.1677869    0.1432795 -65.35 0.0005306758    1.028    0.028
       118 -11.9514    218.2423     47.2694   4.6948157937e+01   2.4878086316e+01    0.4785087    0.3018834 -29.89 0.0008928191    1.614    0.380
       119  -8.4173    235.0710    191.8507   7.7955506312e+01  -2.2877897296e+00    0.1838224    0.1531865  66.17 0.0007665036    1.974    0.493
       120  -9.9313    176.8138    191.6087   8.9162721560e+01   7.8850848656e+00      0.22953    0.2238155   8.46 0.0003253914    1.103    0.093
       121  -8.1254    129.0903    191.0765   9.9364884771e+01   1.6628683647e+01    0.1761039    0.1514523  73.63            0    1.216    0.178
       122  -7.8134    222.6492    188.6896   7.9587466928e+01   2.4763597880e-01    0.1415089   0.09395093   4.81 0.0007044775    1.718    0.418
       123  -9.4515    249.3522    185.8153   7.4292952550e+01  -3.6578381394e+00    0.3162278    0.2273498  68.20  0.001545222    3.091    0.676
