#   1 NUMBER                 Running object number                                     
#   2 MAG_AUTO               Kron-like elliptical aperture magnitude                    [mag]
#   3 X_IMAGE                Object position along x                                    [pixel]
#   4 Y_IMAGE                Object position along y                                    [pixel]
#   5 X_WORLD                Barycenter position along world x axis                     [deg]
#   6 Y_WORLD                Barycenter position along world y axis                     [deg]
#   7 A_WORLD                Profile RMS along major axis (world units)                 [deg]
#   8 B_WORLD                Profile RMS along minor axis (world units)                 [deg]
#   9 THETA_WORLD            Position angle (CCW/world-x)                               [deg]
#  10 FWHM_WORLD             FWHM assuming a gaussian core                              [deg]
#  11 ELONGATION             A_IMAGE/B_IMAGE                                           
#  12 ELLIPTICITY            1 - B_IMAGE/A_IMAGE                                       
         1  -8.9724      6.5620     12.8494   1.1362523434e+02   7.0467462154e+01    0.3347895    0.1058345 -31.83    0.0016302    2.854    0.650
         2  -8.0614     46.0170      8.2180   9.4097612522e+01   6.6813673104e+01     0.147642   0.07917386  35.33 0.0008438282    1.686    0.407
         3  -8.5777      8.9284      1.9983   1.0781182897e+02   7.1707951407e+01    0.1745231   0.09275682 -11.13  0.001125403    1.707    0.414
         4  -9.7019    156.8268    245.7242   1.2226697327e+02   7.9212908254e-01    0.2139637    0.1482138  29.11  0.001107447    1.448    0.309
         5  -9.8214    247.0312    191.1195   9.4766520596e+01  -6.0082154325e+00    0.4493387    0.2821318  -2.55   0.00216258    2.071    0.517
         6 -10.3571    227.0844    217.9757   1.0366005811e+02  -6.9363676690e+00     1.126011    0.4545224 -22.85   0.00342163    5.445    0.816
         7 -10.7523    233.7919    210.7358   1.0102927231e+02  -6.9249469213e+00     1.000812    0.5417485  -6.27  0.003906286    3.348    0.701
         8  -9.6805    247.6031    205.6929   9.7515906435e+01  -8.3913403638e+00    0.4074678     0.282301   4.19  0.001569193    1.509    0.337
         9 -10.7600    246.7561    199.4061   9.6450538137e+01  -7.2815197135e+00    0.9081956    0.5528444  19.49  0.004611355    1.847    0.459
        10 -10.7869    234.7224    217.6861   1.0216111830e+02  -8.1466407192e+00     1.398491    0.7163872  -2.02  0.004574542    5.019    0.801
        11 -10.8266    210.2991    247.0573   1.1196697339e+02  -8.5035323809e+00     1.106591    0.4363382  26.97  0.004206413    3.363    0.703
        12 -11.5817    214.4892    235.4485   1.0921072985e+02  -7.5007578463e+00     1.721662    0.9439241  -4.20  0.006889789    3.503    0.715
        13 -10.6546    218.1626    246.7420   1.1041782527e+02  -9.7145907498e+00     0.874001    0.3987592 -24.19  0.003822022    3.131    0.681
        14 -10.9212    226.3008    229.7085   1.0594153405e+02  -8.5793543419e+00     1.314566    0.6694372   4.14  0.004294635    5.164    0.806
        15 -10.5481    240.6556    218.8412   1.0127213918e+02  -9.2677747538e+00    0.7143687    0.3814008 -13.27  0.003187244    2.624    0.619
        16 -11.2317    225.1286    244.0905   1.0865967681e+02  -1.0440006055e+01     1.040047    0.4170195 -33.69  0.004785211    2.767    0.639
        17 -10.6828    230.4491    235.0083   1.0609567434e+02  -1.0003304295e+01    0.5535842    0.4258923   9.70  0.003500729    1.139    0.122
        18 -10.9343    236.2978    227.0364   1.0358201752e+02  -9.7800085061e+00    0.7691344    0.4619595  20.90  0.004132347    1.657    0.396
        19 -11.1721    248.4124    215.1188   9.9160098102e+01  -9.9296812076e+00     1.358167    0.5243489 -24.14  0.004853535    4.012    0.751
        20 -11.2349    232.8803    244.6319   1.0730560227e+02  -1.1701331023e+01    0.9773589    0.5156889  -8.10  0.004410833    2.963    0.663
        21 -10.9924    242.5160    237.4262   1.0428695156e+02  -1.2177169853e+01    0.9730636     0.472511  -7.43  0.003611614    4.353    0.770
        22 -10.8939    247.3765    226.3163   1.0141649579e+02  -1.1376941825e+01    0.8537364    0.4382167 -10.56  0.003718265    2.954    0.662
        23 -12.3760    246.6005    244.9929   1.0486014364e+02  -1.3764929862e+01     1.268663     1.035472   0.38  0.008897397    1.104    0.094
        24 -10.8368    249.9832    232.4559   1.0205294865e+02  -1.2605865840e+01    0.4468113    0.2145668 -33.28 0.0009825609    2.065    0.516
        25  -9.2277    191.6425    248.6660   1.1583052384e+02  -5.6644170875e+00    0.3447056     0.218324   2.50   0.00129479    2.332    0.571
        26  -8.4551    196.9757    250.5187   1.1508642080e+02  -6.8249108077e+00     0.238245    0.1376585  39.48 0.0008929108    1.458    0.314
        27  -9.5980    197.5512    245.5975   1.1419206132e+02  -6.1960874605e+00    0.4046859    0.2526749   4.24  0.001393441    2.294    0.564
        28  -9.1726    200.8418    240.7389   1.1275772147e+02  -6.0190299904e+00    0.2736675    0.1867935   6.68 0.0009885468    1.728    0.421
        29  -9.5486    187.0049    246.1952   1.1635096213e+02  -4.5067365873e+00    0.3260522    0.2152422 -13.64  0.001705961    2.108    0.526
        30  -9.3155    167.2430    249.8348   1.2079602195e+02  -1.6882618235e+00    0.2734322    0.1481246  29.92  0.001324277    1.901    0.474
        31  -8.1355     89.9753    250.4445   1.3590712667e+02   1.1113518734e+01    0.1916859    0.1015334  44.65   0.00102708    1.592    0.372
        32  -8.2183     74.2794    250.5181   1.3882253506e+02   1.3451037018e+01    0.2245479   0.09197065  46.42 0.0007200981    1.969    0.492
        33  -9.8134     64.8184    248.7241   1.4038239023e+02   1.5141559758e+01    0.5005488    0.1592028  52.64  0.002192767    2.681    0.627
        34  -9.0536     50.0290    250.0484   1.4311775120e+02   1.6894623898e+01    0.3937608    0.1448706  41.23  0.001956797    2.422    0.587
        35  -9.4104     20.1082    248.7437   1.4807965649e+02   2.0780553573e+01    0.3520663    0.1619277  55.95  0.002153916    1.693    0.409
        36  -9.5045     15.1162    240.3239   1.4839691271e+02   2.2934816109e+01    0.3783511    0.1689194  54.97  0.002273313    1.786    0.440
        37  -9.6660     11.4119    247.9775   1.4943826065e+02   2.1876929158e+01    0.4475604    0.1685039  42.96  0.002570041    2.311    0.567
        38  -8.7020     10.1871    244.2491   1.4942864327e+02   2.2709792140e+01    0.2144244    0.1068654  68.14  0.000853845    1.575    0.365
        39  -9.1916      9.2831    239.5608   1.4931240257e+02   2.3699568676e+01    0.2937106    0.1595153 -81.12  0.001945582    1.532    0.347
        40 -10.2431     34.8007    248.3989   1.4561618621e+02   1.9129760020e+01    0.6579041    0.2998948  56.91  0.003809206    1.751    0.429
        41  -9.5479     26.5138    249.1041   1.4704994151e+02   1.9980778775e+01    0.3500911    0.1630078  49.11  0.001366268    1.751    0.429
        42  -9.3899     20.4599    239.9890   1.4748412837e+02   2.2414407134e+01    0.3475851    0.1519363  47.47  0.001333221    1.919    0.479
        43 -10.1345     24.7482    238.2975   1.4664664810e+02   2.2261640136e+01    0.7753913    0.2021789  58.20  0.003093485    3.904    0.744
        44  -9.9141    177.0352    243.9066   1.1796624450e+02  -2.4335780504e+00    0.4145453    0.2563716  12.18   0.00193286    2.451    0.592
        45  -9.0785     44.4517    244.7871   1.4369157712e+02   1.8622072694e+01     0.405926    0.1271933  43.01  0.001922895    2.625    0.619
        46 -10.2850      3.2543    242.4982   1.5044426204e+02   2.3756561594e+01     0.419282     0.178448  73.12  0.002435551    1.993    0.498
        47  -9.2523    192.2725    242.7209   1.1476277608e+02  -4.8700581985e+00    0.3456728     0.236426  21.78  0.001930788    1.451    0.311
        48  -8.5524    163.3197    244.6889   1.2081952654e+02  -1.6964424081e-01    0.1298881   0.09444502  64.41 0.0002738915    1.646    0.392
        49  -8.4041    152.3637    244.2990   1.2295526398e+02   1.8139077892e+00    0.1310372   0.09685934  15.63   0.00070339    1.722    0.419
        50  -8.2381     83.1878    244.1882   1.3655301071e+02   1.3332343599e+01    0.1834708     0.116454  62.54  0.001063401    1.353    0.261
        51  -8.3753     75.1602    241.4848   1.3780419980e+02   1.5053052041e+01    0.2485607    0.1405014  86.91  0.001310885    1.967    0.492
        52  -8.3901    169.8212    240.4681   1.1887951661e+02  -6.1038293523e-01    0.2363171     0.162004   1.56  0.001167418    2.219    0.549
        53  -9.0277     53.8567    239.8265   1.4161108466e+02   1.8365164361e+01    0.3361199    0.1795295  73.68  0.001846569    1.811    0.448
        54  -8.7115     38.1824    240.7717   1.4449114169e+02   2.0187383657e+01    0.2027214    0.1454942  70.82 0.0008017828    1.044    0.042
        55  -8.9548    183.8121    237.0773   1.1553205246e+02  -2.5157679994e+00    0.2879424     0.196812 -40.13  0.001599105    1.686    0.407
        56  -8.7659     44.7842    237.2209   1.4304355120e+02   2.0062167265e+01     0.265328    0.1392478  60.14  0.001525768    1.598    0.374
        57  -9.6033    206.4791    235.4058   1.1076002713e+02  -6.1589988220e+00     0.305217    0.2550533  19.28  0.001045819    1.027    0.026
        58  -9.1427    207.2325    230.5632   1.0977864449e+02  -5.5408429718e+00    0.3570156    0.2154261  12.06  0.001543093    2.186    0.542
        59  -9.5721     64.1357    233.5128   1.3912904790e+02   1.8219818406e+01    0.4946315    0.2291875 -88.50   0.00222388    2.767    0.639
        60  -8.4946    189.5807    235.2591   1.1407903833e+02  -3.2323061769e+00    0.2723088    0.1664803 -11.49  0.001223084    2.656    0.624
        61  -8.8910    194.8581    230.4786   1.1221964370e+02  -3.3852247356e+00    0.3655304    0.2268159   4.28  0.001647533    2.491    0.599
        62  -7.6857     93.5063    235.5090   1.3362040845e+02   1.3424613302e+01    0.1309393    0.1059359  64.84   0.00013057    1.008    0.008
        63  -9.3348    195.3248    236.6654   1.1316869957e+02  -4.4524466817e+00    0.2660869    0.2008814  19.86   0.00155429    1.262    0.207
        64  -9.9168     22.2146    244.3202   1.4746263157e+02   2.1383094079e+01    0.5219458    0.2260299  39.48   0.00297228    2.299    0.565
        65  -9.0866    201.9831    231.4864   1.1097370468e+02  -4.7853928924e+00    0.2450794    0.1757349 -11.83 0.0008404569    1.617    0.381
        66  -9.3332     27.4594    231.7579   1.4572580011e+02   2.3247084367e+01    0.2634404    0.1315762  69.17  0.001501526    1.763    0.433
        67  -8.3225    187.8448    230.3506   1.1360880767e+02  -2.1255544374e+00    0.3282891    0.1854292  16.74  0.001367651    2.707    0.631
        68  -8.5610     47.9119    229.9503   1.4186815806e+02   2.1125595248e+01    0.2577561    0.1326756  85.68  0.001348486    1.989    0.497
        69  -8.1912     39.7963    229.6501   1.4334526973e+02   2.2207930639e+01    0.1612255    0.1250125  87.74 0.0005393082    1.126    0.112
        70  -9.6439      3.7188    248.9651   1.5070299137e+02   2.2497242610e+01      0.44153    0.1183452  45.78  0.002335333    2.729    0.634
        71  -9.8171      5.6688    229.7574   1.4934883227e+02   2.5977319198e+01    0.2193208    0.1351023  66.60  0.001529956    1.255    0.203
        72  -9.4169      5.8199    235.4167   1.4964643327e+02   2.4854955216e+01    0.2412868    0.1371811  54.93  0.001090705    1.464    0.317
        73  -9.2354     31.6654    229.0736   1.4477927928e+02   2.3300832945e+01    0.2608145    0.1418296  51.15   0.00157718    1.583    0.368
        74  -8.9484    212.0364    225.7185   1.0798267662e+02  -5.6037148997e+00    0.3082777     0.208347 -12.91  0.001112289    1.725    0.420
        75  -9.3958    216.7502    221.0926   1.0622761539e+02  -5.6807795016e+00    0.3365507    0.2381361  -8.54  0.001085754    1.565    0.361
        76  -8.5331    199.1703    225.4469   1.1048521851e+02  -3.3254167637e+00    0.2564803    0.1896884   7.97 0.0009934796    1.485    0.327
        77 -10.5046     26.7379    224.5623   1.4533346631e+02   2.4786686696e+01    0.3527608    0.1525325  56.62  0.001860036    2.003    0.501
        78 -11.3622     18.8409    222.2802   1.4659102427e+02   2.6121184014e+01    0.8123362    0.2418834  36.74  0.003792444    3.310    0.698
        79  -8.7731     54.5677    222.5269   1.3993025128e+02   2.1789359427e+01    0.2869312    0.1742974 -89.64   0.00163516    1.543    0.352
        80  -9.6897     12.6297    216.0376   1.4727573197e+02   2.8050156848e+01    0.2832188    0.1521738  40.03  0.001498231    1.944    0.486
        81  -8.0936     63.8107    221.5459   1.3801494528e+02   2.0733751808e+01    0.1769082   0.09600499  54.20 0.0009296521    1.618    0.382
        82  -8.5619     44.6578    220.3859   1.4165020235e+02   2.3519707669e+01    0.2244482    0.1477941  73.79 0.0009715049    1.286    0.222
        83  -8.2466    202.0467    219.4651   1.0884387286e+02  -2.8488835504e+00    0.2013092    0.1773611 -19.87 0.0008848892    1.186    0.157
        84  -8.8769    221.6264    213.5079   1.0387718492e+02  -5.3086121709e+00    0.3395357    0.2206229  11.45  0.001521313    1.796    0.443
        85  -8.1795    211.1660    216.5802   1.0649849166e+02  -3.9879511863e+00    0.2625912    0.1662976 -18.80  0.001214289    1.897    0.473
        86  -9.7574     33.2745    216.1416   1.4346136470e+02   2.5789139356e+01     0.286424    0.1719041  82.94  0.001712915    1.444    0.308
        87  -8.6730    206.0085    223.3676   1.0875264893e+02  -4.1882887763e+00    0.2459358    0.1762568 -13.87  0.001235984    1.579    0.367
        88  -7.9142    205.9184    215.9740   1.0743188158e+02  -2.9579570999e+00    0.1684168    0.1416408  25.56 0.0009840513    1.059    0.056
        89  -8.0646    193.8531    216.1500   1.0990696822e+02  -8.0442424268e-01     0.196871    0.1547605   8.61  0.001076258    1.361    0.265
        90  -8.7845      7.0296    216.5219   1.4830729288e+02   2.8505188439e+01    0.1504987   0.09403841  48.67 0.0007211229    1.549    0.355
        91  -8.2369     19.2107    215.4083   1.4603388726e+02   2.7501492519e+01    0.1590918   0.08391482  53.26 0.0009445707    1.666    0.400
        92  -8.4098     58.1337    212.4895   1.3822462681e+02   2.3449653811e+01    0.2647874    0.1455592  87.68  0.001324539    1.940    0.484
        93  -8.2248     43.9772    212.7038   1.4108524895e+02   2.5237107809e+01    0.1785031    0.1357381  68.04   0.00089402    1.110    0.099
        94  -7.9176      1.4877    212.0228   1.4900387393e+02   2.9953159550e+01    0.1637617   0.08440249 -83.66 0.0005595007    1.517    0.341
        95  -8.9212     20.7668    210.6075   1.4538530713e+02   2.8345854914e+01    0.1961461    0.1220721  55.27  0.001150456    1.441    0.306
        96  -8.9755     11.9484    210.8792   1.4704304064e+02   2.9190769052e+01    0.3168886    0.1078873  46.65  0.001614265    2.532    0.605
        97  -9.3624    216.6379    207.6888   1.0375091698e+02  -3.4840352638e+00    0.3588161    0.2262555   2.36  0.001632094    2.217    0.549
        98  -8.5530     35.0782    207.8263   1.4239796779e+02   2.7356656092e+01    0.1946833    0.1341546  73.83  0.001117929    1.215    0.177
        99  -9.0700    229.2694    205.0763   1.0080203430e+02  -5.2606368105e+00    0.3157814    0.2213344  17.31  0.001231768    1.455    0.313
       100  -8.3507     51.0495    206.0551   1.3900952629e+02   2.5789132766e+01    0.2203809     0.123586  69.84  0.001137917    1.784    0.440
       101  -8.8812    235.4730    202.1448   9.9061463879e+01  -5.8440755270e+00    0.2629914    0.1873823   4.33  0.000975231    1.502    0.334
       102  -9.5153     11.6008    203.4085   1.4657170191e+02   3.0801257021e+01    0.3821359    0.1414778  50.15  0.001963556    2.423    0.587
       103  -8.3801    225.4411    206.5455   1.0181834467e+02  -4.8396523080e+00    0.2397676     0.118594 -27.18  0.001024179    2.365    0.577
       104  -9.0587    230.2759    198.5198   9.9332530291e+01  -4.3600655363e+00    0.4031207    0.2372012   1.11  0.001673003    2.740    0.635
       105  -8.1674    223.6168    200.1456   1.0092950197e+02  -3.4595246724e+00    0.1912214    0.1199128 -24.29 0.0005793865    1.712    0.416
       106  -7.8177     52.5047    198.5542   1.3791009664e+02   2.7267621297e+01    0.1314113    0.1036341  79.11 0.0002498617    1.064    0.060
       107  -8.9700      6.1617    204.7741   1.4768422143e+02   3.1028613048e+01    0.2288822    0.1176916  41.67  0.001395253    1.972    0.493
       108  -8.3951    240.4850    194.4758   9.6623773532e+01  -5.4518369319e+00    0.2094703    0.1484208   3.93 0.0008724263    1.547    0.354
       109  -7.6620    215.7036    196.6785   1.0179732605e+02  -1.4350054503e+00    0.1427086    0.1029373   1.49 0.0007020022    1.618    0.382
       110  -8.2423     12.9745    196.2308   1.4576376655e+02   3.2210158806e+01    0.1367749   0.08980136  42.29 0.0008809167    1.650    0.394
       111  -7.8695     18.6498    194.3087   1.4448801142e+02   3.2075130002e+01    0.1276341   0.06980748  69.26 0.0004273396    1.712    0.416
       112  -8.1630     38.6841    193.3342   1.4028488444e+02   3.0134391989e+01    0.1342055   0.07806508  72.17 0.0007047255    1.690    0.408
       113  -8.6259    231.5922    191.9317   9.7775089538e+01  -3.4897434130e+00    0.2638099    0.1797012  19.29  0.001348841    1.590    0.371
       114  -9.0652    242.6627    188.4992   9.5032328108e+01  -4.8435893949e+00    0.4663784    0.2170296 -20.19  0.001641483    3.651    0.726
       115  -8.1203    224.4526    190.0573   9.8762652688e+01  -1.8862094982e+00    0.1963172    0.1138808 -15.51 0.0005840011    2.443    0.591
       116  -8.3203    236.7104    196.8460   9.7791594948e+01  -5.1956319626e+00    0.2567308    0.1751411  17.28 0.0009849758    1.564    0.360
       117 -10.1398    237.3257    186.2177   9.5551233160e+01  -3.5371349091e+00    0.3420982    0.2773792   1.34  0.001968401    1.212    0.175
       118  -7.6291     22.3071    187.3539   1.4313384609e+02   3.3247288200e+01    0.1174251   0.08054013 -52.50  0.000704233    1.718    0.418
       119  -8.8850    249.3944    183.6305   9.2843321993e+01  -5.1862242491e+00    0.2428227    0.1572849 -33.79 0.0008119876    1.422    0.297
       120  -9.3843    243.6267    179.7734   9.3088695906e+01  -3.5550712719e+00    0.3669084    0.1961499  18.80  0.001434764    3.067    0.674
       121  -8.5323    235.6065    179.7058   9.4539119858e+01  -2.1185302161e+00    0.1464361    0.1010364   6.05 0.0007006688    1.788    0.441
       122  -8.3750    240.5007    176.5334   9.2987562300e+01  -2.4514172258e+00     0.138859     0.121722  -8.63 0.0001939529    1.047    0.045
       123 -10.0574    101.0122    175.9901   1.2362067313e+02   2.5181332640e+01    0.2069643    0.1896338  81.81  0.001162263    1.001    0.001
       124  -9.3179    247.8990    174.6956   9.1286353091e+01  -3.4441235118e+00    0.2425399    0.1685144 -25.09 0.0008121365    1.370    0.270
       125  -7.9307      4.0093    174.0000   1.4577125951e+02   3.7880684773e+01    0.1564909   0.06551538  28.38 0.0008018013    2.938    0.660
       126  -7.8418    250.5897    156.1950   8.6964630360e+01  -7.5367591535e-01    0.1951304    0.1196869 -28.53 0.0009416502    1.608    0.378
       127  -8.7148    249.7603    150.0180   8.5795097753e+01   4.7511707638e-01      0.18905    0.1059945 -38.60 0.0008221986    1.607    0.378
       128  -7.5273    177.9710    149.0168   9.9568111307e+01   1.5637503508e+01    0.1799151    0.1699566  45.89            0    1.050    0.048
       129  -8.9736    243.5939    147.2460   8.6242878416e+01   2.1262560375e+00     0.205267    0.1244858 -29.22 0.0009513402    1.678    0.404
       130  -8.1731    234.5871    145.3531   8.7396985844e+01   4.2284583593e+00    0.2878822     0.131577 -37.49  0.001154222    2.072    0.517
       131  -9.9538    224.4693    142.9680   8.8695735586e+01   6.7314392978e+00     0.256148    0.2447889 -44.00 0.0003411304    1.049    0.047
       132  -9.7082      4.0456    136.7588   1.4213881815e+02   4.6248176107e+01    0.3096301    0.1531233  80.25  0.001522662    2.470    0.595
       133  -8.6116      4.3243    124.3245   1.4058337103e+02   4.9033091649e+01     0.123411   0.06935216 -47.38 0.0006749941    1.688    0.407
       134  -9.4067      5.6272    110.8052   1.3839976515e+02   5.1972169567e+01    0.1734772    0.0936489 -77.36 0.0007230642    1.701    0.412
       135  -9.2133      1.2831     93.7458   1.3707344565e+02   5.5934374907e+01    0.3501196   0.09319176 -70.13  0.001333917    3.585    0.721
       136  -8.3446    237.8139     68.7956   6.9731035812e+01   1.6988133472e+01    0.1905564    0.1824298  75.91 0.0006117385    1.210    0.173
       137  -8.0738    230.0000     20.9431   6.0231334848e+01   2.5478824955e+01     0.187722   0.06883889 -34.32 0.0004128705    2.867    0.651
       138  -8.8989    151.9521    248.8546   1.2367870467e+02   1.1146225988e+00    0.2131009    0.1383354  21.22 0.0009469714    1.991    0.498
       139 -11.8629     15.3181    230.4064   1.4775024509e+02   2.4856512724e+01      2.38206     0.422501  50.01  0.009697638    3.958    0.747
