#   1 NUMBER                 Running object number                                     
#   2 MAG_AUTO               Kron-like elliptical aperture magnitude                    [mag]
#   3 X_IMAGE                Object position along x                                    [pixel]
#   4 Y_IMAGE                Object position along y                                    [pixel]
#   5 X_WORLD                Barycenter position along world x axis                     [deg]
#   6 Y_WORLD                Barycenter position along world y axis                     [deg]
#   7 A_WORLD                Profile RMS along major axis (world units)                 [deg]
#   8 B_WORLD                Profile RMS along minor axis (world units)                 [deg]
#   9 THETA_WORLD            Position angle (CCW/world-x)                               [deg]
#  10 FWHM_WORLD             FWHM assuming a gaussian core                              [deg]
#  11 ELONGATION             A_IMAGE/B_IMAGE                                           
#  12 ELLIPTICITY            1 - B_IMAGE/A_IMAGE                                       
         1 -10.3201      6.6075     15.0712   5.8979706027e+01   7.2092996268e+01    0.2466225    0.1695389 -53.55  0.001048111    1.905    0.475
         2 -11.4656     21.2502     17.0367   5.1948414072e+01   7.0424950889e+01     0.353952    0.2581248  30.79  0.001883387    1.550    0.355
         3  -9.7799    128.0520     14.3590   1.5801239838e+01   5.0949649473e+01    0.2284181    0.2001744  67.45 0.0009197592    1.026    0.026
         4 -10.9685     49.6433     14.0435   3.7476190294e+01   6.7006116365e+01    0.2879865    0.2183045  19.16   0.00100746    1.118    0.105
         5 -10.1143     45.6676     12.0483   3.8190883784e+01   6.7856883332e+01    0.2222476    0.1738448  12.60 0.0006889669    1.054    0.051
         6  -8.6203    157.4252     13.5309   1.0888854924e+01   4.4013079353e+01    0.1295903    0.1108355  74.82 0.0001384928    1.047    0.044
         7 -11.0723    123.7533      6.4547   1.4010545017e+01   5.2683352207e+01    0.2836043    0.2040736  76.69 0.0008776899    1.314    0.239
         8 -10.3147     78.9551     11.5162   2.6190615686e+01   6.2003517187e+01    0.2043901    0.1882802 -72.05 0.0008094648    1.441    0.306
         9 -11.0425     74.8601      9.0427   2.6383703224e+01   6.3046053335e+01    0.2893444    0.1958118 -15.15  0.001392358    1.604    0.377
        10 -10.2122     64.7526     11.6895   3.0781835026e+01   6.4688127201e+01    0.2306585    0.1785828  22.09 0.0008780259    1.128    0.113
        11 -11.6990    119.1250      8.9991   1.5700326679e+01   5.3531360543e+01    0.3090465    0.2578076 -44.11 0.0002947566    1.380    0.276
        12 -11.4158     56.6804      8.8367   3.2376055276e+01   6.6407737116e+01    0.3671242    0.2543975  20.51  0.001400138    1.312    0.238
        13  -9.7014     27.4576     10.8222   4.5911174511e+01   7.0539268466e+01    0.1660754    0.1478347  14.39  0.000722356    1.364    0.267
        14 -10.1715    104.8022      9.3278   1.8742676511e+01   5.6747814749e+01    0.2410022    0.1912241  27.18  0.001374396    1.301    0.231
        15  -9.5542     32.1299      9.6643   4.3089281357e+01   7.0080990604e+01    0.1836224    0.1382805 -27.56   0.00086844    1.392    0.282
        16 -10.2930     97.8961      7.6671   1.9696774761e+01   5.8411584386e+01    0.3974659    0.2003052 -52.34  0.001758214    3.207    0.688
        17 -10.0252     69.3663      9.0389   2.8096039287e+01   6.4099072054e+01    0.2354333    0.1371166  30.40  0.001308931    1.637    0.389
        18 -10.2275      3.2851      8.2561   5.7835774731e+01   7.3359533873e+01    0.1969496    0.1475902 -26.24 0.0007505865    1.171    0.146
        19  -8.4967    213.4382      8.5066   3.6335122322e+00   3.1435501476e+01    0.1231907   0.09769698 -79.79 0.0002461737    1.024    0.024
        20 -10.7630     85.5473      7.4775   2.2703683854e+01   6.1044444194e+01    0.2266388    0.2119477 -17.79 0.0008053521    1.244    0.196
        21 -10.9393     88.5487      5.5642   2.1163171813e+01   6.0587349226e+01    0.2304162    0.1912471  38.21 9.365147e-05    1.047    0.045
        22  -9.6537    236.9006      7.0834   1.5612271538e+00   2.6543240221e+01    0.1906344    0.1222752 -71.15 0.0007755508    1.241    0.194
        23 -10.6938    130.7353      4.9573   1.2347403668e+01   5.1180185532e+01    0.3333772    0.2133366  -3.15  0.001163965    2.162    0.537
        24 -10.3319    242.9620      5.0526   7.6392161325e-01   2.5523868003e+01    0.1563376    0.1324533  58.87 0.0006291649    1.648    0.393
        25 -11.2296    174.0384      3.6526   6.2331456759e+00   4.1011768082e+01    0.3165293    0.2372024 -56.75  0.001187693    1.328    0.247
        26  -8.9698     22.5798      5.4264   4.5719211927e+01   7.1799101423e+01    0.1103728   0.08493026   0.74 0.0001260162    1.016    0.016
        27  -9.0968     16.2714      4.9675   4.8835723581e+01   7.2575552113e+01    0.1305626   0.08180799 -29.61  0.000517494    1.462    0.316
        28  -9.5500      8.0429      5.3231   5.3645029593e+01   7.3355309499e+01    0.1518365    0.1084553   3.11 0.0006226437    1.162    0.139
        29 -11.1273    183.8967      3.0920   5.0769392943e+00   3.8747885586e+01    0.2934979    0.1505576  72.01  0.001540859    1.638    0.389
        30  -9.9832     37.6002      2.1197   3.6848307438e+01   7.0150014807e+01    0.2038956    0.1589839  18.79 0.0008370892    1.061    0.057
        31 -11.1716    114.4154      1.8549   1.4164875814e+01   5.5214231916e+01    0.3454849    0.1597405  65.84 0.0008918526    1.854    0.461
        32 -10.0057    178.9517      1.4362   5.1673202515e+00   4.0063954951e+01     0.183798    0.1024508  74.29 2.394201e-05    1.498    0.332
        33  -9.2376     87.4780     97.5278   5.3279656115e+01   4.6171332718e+01    0.1471763    0.1410048 -30.20 4.452525e-05    1.028    0.027
        34 -10.4249     64.3909     96.1277   6.0575386845e+01   5.0237831768e+01     0.278497    0.2604899 -10.48  0.000781287    1.100    0.091
        35  -8.8404     94.3248     96.2481   5.0772794988e+01   4.5199246997e+01    0.1448324    0.1165363   0.60 0.0002299247    1.537    0.349
        36 -10.0290      4.0818     96.0473   8.1958173181e+01   5.6248135744e+01    0.1855713    0.1452992 -55.02 0.0003842828    1.072    0.067
        37  -9.9782     20.1981     95.1447   7.6083012552e+01   5.5379599560e+01    0.1739569    0.1430928  86.96 0.0006573023    1.367    0.269
        38  -9.9688    132.4944     92.6043   3.8930145014e+01   3.7973240865e+01    0.2584311    0.2525475 -86.29 0.0006084518    1.008    0.008
        39  -8.6753     90.2835     94.3264   5.1505077449e+01   4.6373823165e+01    0.1492481     0.114801 -15.35 0.0003741115    1.602    0.376
        40  -9.5388     60.9415     91.5006   6.0571910148e+01   5.1782383715e+01      0.22338    0.1694028 -52.22 0.0004890718    1.237    0.192
        41  -9.8412     11.8945     85.8119   7.7330780458e+01   5.8114539186e+01     0.185373    0.1399803 -43.48 0.0003080155    1.163    0.140
        42  -8.6636    188.6706     82.2849   2.4250790132e+01   2.6705673991e+01    0.1515279    0.1075587 -76.99 0.0002506181    1.611    0.379
        43  -8.8537     96.6841     81.7164   4.5831138759e+01   4.7824859528e+01    0.1460478     0.114735   1.84 0.0006734921    1.581    0.368
        44 -11.7408     54.7981     79.0417   5.9385886579e+01   5.5360896620e+01    0.2759536    0.2512566 -59.20 0.0004122974    1.186    0.157
        45  -9.7806     26.0000     78.8912   7.0410539400e+01   5.8582880212e+01    0.3652717   0.06380864 -60.36   0.00105939    5.008    0.800
        46  -9.0131    216.3369     78.2040   1.8964523381e+01   2.1102780902e+01    0.1869579    0.1122824 -49.60 0.0003009335    1.503    0.335
        47  -9.0251     31.5705     77.5150   6.7885794875e+01   5.8371644891e+01    0.1299002    0.1098563 -40.75 9.165586e-05    1.014    0.014
        48 -10.2606      3.0670     75.1002   7.8634507850e+01   6.1014923332e+01    0.1921952    0.1311013 -42.12 0.0005430771    1.249    0.199
        49  -9.3678     83.9408     74.5305   4.7708204442e+01   5.1670032872e+01    0.2077217    0.1378821  38.46 0.0006908934    1.516    0.340
        50  -8.5518    128.6641     71.2967   3.3694920439e+01   4.2933164807e+01    0.1509511    0.1161652 -85.68 0.0006873878    1.650    0.394
        51 -12.2399     64.0449     69.4856   5.3083033967e+01   5.5999317870e+01    0.2588408    0.2277998 -31.83 0.0003010862    1.071    0.066
        52  -9.6830     35.3994     69.7621   6.4287137064e+01   5.9637253162e+01    0.3532475    0.1783748  50.68  0.001471239    3.388    0.705
        53  -9.9069      7.7343     68.8017   7.5420377466e+01   6.2108503236e+01     0.185334    0.1424332 -26.81 0.0004828017    1.240    0.194
        54  -9.4871     82.9373     68.2324   4.6034982946e+01   5.3069012221e+01    0.1904558    0.1731836  21.50 0.0003788316    1.073    0.068
        55 -10.0667     70.2350     66.2184   4.9782168260e+01   5.5653361094e+01    0.2435361    0.2092783 -35.26 0.0005113927    1.130    0.115
        56  -9.2850    192.0294     65.9010   1.9605886646e+01   2.8684644067e+01    0.1652371     0.145988 -83.63 0.0003340098    1.027    0.026
        57  -9.2093    152.5335     66.4820   2.6843851235e+01   3.8106187884e+01    0.1460958    0.1387983  68.92 0.0003720472    1.054    0.051
        58  -9.1254    204.3234     65.6413   1.7721135529e+01   2.5859648045e+01    0.1534514   0.09534857 -68.85 0.0007044085    1.773    0.436
        59 -10.5383      4.7114     63.5944   7.5503292814e+01   6.3380770498e+01    0.2423323    0.1748961 -50.64 0.0007960132    1.111    0.100
        60 -10.8939      3.4903     59.2395   7.5005585923e+01   6.4348418130e+01    0.3544381    0.2193693 -38.98  0.001756189    1.335    0.251
        61  -8.6447    126.6277     64.2797   3.2059467112e+01   4.4625174151e+01    0.1497762    0.1135959 -88.77 0.0005706781    1.696    0.411
        62  -8.6819     75.3047     64.6495   4.7470175107e+01   5.5096134645e+01    0.1334894    0.1118476 -87.51 0.0007041299    1.703    0.413
        63 -10.4796     99.0670     61.8129   3.8800621825e+01   5.1095177404e+01    0.3969394    0.2777531 -63.71  0.001871688    1.977    0.494
        64 -10.6928     43.4147     62.4030   5.8840453105e+01   6.0223694734e+01    0.2407718    0.2101116 -22.81 0.0004301941    1.005    0.005
        65 -10.5231    232.3615     60.0640   1.2901417055e+01   2.0518951167e+01    0.2507888    0.2148222  62.93  0.001569651    1.370    0.270
        66  -9.3019     13.2121     61.2899   7.1287057940e+01   6.3322899241e+01    0.2288312    0.1047442   6.27  0.001092994    2.751    0.637
        67  -8.6758    114.3037     60.7127   3.4113035137e+01   4.8018706311e+01    0.1398178    0.1132426 -85.40 0.0002628552    1.564    0.361
        68 -10.4542     85.2042     58.3560   4.1989698198e+01   5.4435469334e+01    0.2975132    0.2214199 -58.66 0.0008484249    1.706    0.414
        69  -9.4451     56.9507     60.2264   5.2754738078e+01   5.8841405993e+01    0.1815256    0.1623723  -4.25 0.0004324351    1.039    0.037
        70 -11.8066     24.1771     57.1944   6.5369036908e+01   6.3274288316e+01    0.4294356    0.3401214 -15.46  0.002816756    1.183    0.155
        71  -9.6654      9.5235     57.1104   7.1811979100e+01   6.4420609596e+01    0.1797196   0.09886394 -56.31 0.0004583217    1.544    0.352
        72 -10.1474     77.7268     55.3584   4.3466826864e+01   5.6332426771e+01    0.2223872    0.2090729  62.48 0.0007867136    1.273    0.214
        73  -9.4673     45.0110     56.2558   5.6195321978e+01   6.1206486988e+01    0.2313751    0.1377941  48.91  0.001129835    2.377    0.579
        74  -9.5825     34.8794     60.8435   6.1884673132e+01   6.1503069724e+01    0.1815376     0.146915 -17.45 0.0003075918    1.145    0.127
        75  -8.9242     99.4413     55.4786   3.6568530175e+01   5.2085232659e+01    0.1395297    0.1299136  21.69 0.0001293301    1.031    0.030
        76 -10.7146     63.5833     51.7645   4.7290257726e+01   5.9353417859e+01     0.343067    0.2131374 -30.89  0.001725645    1.620    0.383
        77  -9.1777     88.3890     52.7396   3.9016040026e+01   5.4765938691e+01    0.1737802    0.1280216 -23.74 0.0003651935    1.445    0.308
        78 -11.0165     69.5568     51.3550   4.4935484216e+01   5.8439821853e+01    0.3496166      0.24077  42.67   0.00138614    1.490    0.329
        79  -9.0861    111.5751     51.7153   3.1898631542e+01   5.0071848578e+01    0.1521347    0.1017155  25.91 0.0002260336    1.850    0.459
        80  -9.2077    130.1816     49.6229   2.6641368484e+01   4.6122844300e+01     0.210679    0.1185338  47.25  0.000778979    1.709    0.415
        81 -11.6886     94.0454     48.5131   3.5776521898e+01   5.4304863713e+01    0.2527482    0.2217491 -20.65 -9.385237e-05    1.174    0.148
        82 -10.8663     52.0106     46.3926   4.9862948615e+01   6.2023732053e+01    0.4028645    0.2309044  31.03  0.001792837    1.737    0.424
        83 -10.7480     39.0008     43.5974   5.4316059803e+01   6.4227887801e+01     0.410732     0.266513  22.41  0.002397662    1.540    0.351
        84  -9.0355      7.0000     44.9351   6.9568671494e+01   6.6963565638e+01    0.1857823   0.05574249 -57.41  0.000794465    2.887    0.654
        85  -9.7189    249.6775     44.3290   7.8934970492e+00   1.9229136217e+01    0.1347551    0.0738316 -65.35 0.0004890264    1.694    0.410
        86  -9.9649    206.0971     43.2066   1.2182605753e+01   2.8801438775e+01    0.2107667    0.1742763 -57.92 0.0003719484    1.138    0.121
        87 -10.2663     32.1988     43.9138   5.7450782852e+01   6.4961520079e+01    0.3285976    0.1606087  33.06  0.001698017    2.164    0.538
        88 -10.2686    118.8713     42.6474   2.7037308310e+01   4.9755417605e+01    0.2731588    0.1913839 -37.42 0.0004666534    1.535    0.348
        89 -10.0018    185.8543     41.6525   1.4416160291e+01   3.3779951123e+01    0.1992939    0.1834181 -44.85 0.0003441981    1.238    0.192
        90  -9.0538     71.5150     42.4996   4.0973646591e+01   5.9525739404e+01    0.1312406    0.1168635   9.94 0.0008105061    1.000    0.000
        91  -9.3483    238.0103     40.7595   8.2435663889e+00   2.2110526329e+01    0.1675555    0.1340746 -71.01 0.0002560164    1.018    0.018
        92  -9.9825    158.9760     39.2619   1.7881376022e+01   4.0624909375e+01    0.2109063    0.1932753 -70.03 0.0003803379    1.103    0.094
        93  -9.3438      1.2883     39.7876   7.0808659480e+01   6.8273679596e+01    0.1565947   0.07587241 -48.73 0.0003554428    1.595    0.373
        94  -9.6892     96.0189     38.0432   3.1456199046e+01   5.5418660368e+01    0.1987795    0.1760711  39.33 0.0003784244    1.037    0.036
        95  -9.6944     47.2495     36.8598   4.8201687748e+01   6.4252227104e+01    0.3429704    0.1936876 -60.25  0.001059588    3.987    0.749
        96  -9.9945     13.2629     34.5673   6.3111141142e+01   6.8396172767e+01    0.2020022    0.1363778 -35.66  0.001037329    1.209    0.173
        97 -10.7295     40.5237     36.0074   5.0763118206e+01   6.5294047877e+01    0.4044581    0.1603456  37.46   0.00186871    2.603    0.616
        98  -9.3898    119.2783     35.1043   2.4434644536e+01   5.0667895402e+01    0.1750807     0.172211 -17.30 0.0005155772    1.117    0.105
        99  -9.9685    173.9970     34.3946   1.4211457746e+01   3.7602478052e+01    0.2343522    0.1668847 -58.98 0.0003681715    1.401    0.286
       100  -9.3324     25.3682     33.8629   5.6904561522e+01   6.7404715008e+01     0.169804   0.08820587 -34.41 0.0003917612    1.719    0.418
       101  -9.8220     50.6625     32.5234   4.5042350460e+01   6.4417506991e+01    0.3623294    0.1637483  46.10  0.001600696    2.637    0.621
       102 -10.9033      4.7713     31.8088   6.6471332681e+01   6.9499545964e+01    0.3924942    0.1809103  36.49  0.001902963    2.970    0.663
       103 -10.1396    153.7239     32.0215   1.6697440492e+01   4.2833624244e+01    0.2474075    0.1773184  60.02 0.0005887348    1.268    0.211
       104  -9.3044    139.3327     32.7233   1.9470228390e+01   4.6231898461e+01    0.1376696     0.100013 -80.25 0.0002320432    1.602    0.376
       105 -10.4138     17.6304     31.5568   5.9816287452e+01   6.8536267618e+01     0.193378    0.1604535 -19.61 0.0002962306    1.086    0.079
       106  -9.3003     92.6755     31.0529   2.9848915027e+01   5.7034240785e+01    0.1736695    0.1569494  16.73 0.0006336643    1.078    0.072
       107  -9.1736     82.6977     31.7263   3.3103606434e+01   5.8965033432e+01    0.1308797   0.09090965  21.42 0.0001790991    1.537    0.349
       108  -9.6879    104.5647     29.5191   2.6072361135e+01   5.4678016244e+01    0.2883236    0.1838405 -46.95  0.001477323    1.885    0.470
       109  -9.4197     64.6904     29.9251   3.8517906731e+01   6.2527725878e+01    0.1698585    0.1479759  -3.52 0.0004608829    1.089    0.082
       110  -9.2130    164.6942     28.3256   1.3934925262e+01   4.0614609845e+01    0.2065198     0.134722 -71.39 0.0002502342    1.684    0.406
       111  -8.7487     42.4548     28.5385   4.6882321812e+01   6.6175949769e+01    0.1224118   0.09953129  -1.33 8.606614e-05    1.034    0.033
       112  -9.6339    160.8225     27.1127   1.4178931696e+01   4.1699896379e+01    0.2018393    0.1622154 -85.87 0.0005821371    1.179    0.152
       113 -10.2850     46.9528     26.8184   4.4222181284e+01   6.5783756265e+01    0.1865491    0.1520948 -12.01 0.0003720439    1.110    0.099
       114 -10.4444    120.9799     26.0413   2.1032385797e+01   5.1368902525e+01    0.3612959    0.1687314  53.57  0.001641705    1.838    0.456
       115 -11.8479     96.9175     22.0431   2.5322707199e+01   5.7202088737e+01    0.3646156    0.2527206  65.43 0.0003639807    1.526    0.345
       116  -9.6223     60.7027     25.9878   3.8377031985e+01   6.3729664303e+01    0.1709311    0.1396167 -10.83 0.0006109099    1.171    0.146
       117  -9.9411     88.0015     24.9676   2.8894188368e+01   5.8737895940e+01    0.1913134    0.1578789 -73.19  0.001122815    1.701    0.412
       118  -9.4337     83.2462     25.2232   3.0408616590e+01   5.9667368849e+01    0.1573975    0.1488216  84.51 0.0003231693    1.326    0.246
       119  -8.8261    250.8401     24.0836   3.8440635103e+00   2.1673569506e+01    0.1452042   0.07150937 -42.29 0.0003187616    1.776    0.437
       120  -9.6557    239.7000     24.1932   4.7306611658e+00   2.3929548927e+01    0.2750099    0.1298794  65.58   0.00128705    2.119    0.528
       121  -9.2548    128.8385     24.1704   1.8809565083e+01   4.9738957961e+01    0.1810461    0.1362034  45.01 0.0002673048    1.290    0.225
       122  -9.4037    111.3133     24.4632   2.2646570714e+01   5.3761974710e+01    0.1828763     0.120358  70.04 0.0005169653    1.605    0.377
       123  -9.8459     72.8488     22.6718   3.2696851598e+01   6.1979072741e+01    0.1931078    0.1555795   4.69 0.0004600677    1.213    0.175
       124 -10.0371     38.2667     22.7633   4.6275223981e+01   6.7565449096e+01    0.2033794    0.1569408  10.53 0.0003506193    1.120    0.107
       125  -8.9060    196.2840     22.6534   8.4687398483e+00   3.3736653667e+01      0.13785   0.08205634 -66.32 0.0003867431    1.647    0.393
       126  -9.8925     84.8381     20.2757   2.7989812324e+01   5.9915052945e+01    0.1844685    0.1727263 -37.23 0.0004307767    1.274    0.215
       127  -9.3419     66.5183     20.8425   3.4100307525e+01   6.3356446275e+01    0.1601487    0.1163353 -22.52 0.0003754735    1.419    0.295
       128  -9.5758     48.8178     19.3952   4.0221726734e+01   6.6489621784e+01     0.179947    0.1487373 -23.48 0.0004689743    1.280    0.219
       129 -10.0788      4.6078     19.6867   6.2031561898e+01   7.1533799698e+01    0.1954836    0.1209646 -15.59 0.0006104246    1.423    0.297
       130  -9.8262    244.4037    180.2275   3.6256103151e+01  -2.2034563763e+00    0.1810119    0.1085987 -45.75 0.0007288856    1.667    0.400
       131  -9.2504    109.4972     19.4894   2.1320015370e+01   5.4710705302e+01    0.1319057    0.1128782  46.98 0.0008102559    1.041    0.039
       132 -10.3432    100.9928    175.9910   6.6395840757e+01   2.4702748103e+01    0.2105151    0.1957898  76.24            0    1.005    0.005
       133  -9.8510     11.4180     17.7805   5.7488273641e+01   7.1278244150e+01    0.2430377    0.1288924 -20.12  0.001415651    1.855    0.461
       134  -9.4243     14.7007     17.7013   5.5682787805e+01   7.0990243160e+01     0.191609    0.1225901  13.13 0.0006098738    1.460    0.315
       135  -8.8016    147.7426     17.9894   1.3587504814e+01   4.5886205950e+01    0.1451422    0.1153728 -31.90 0.0002767946    1.443    0.307
       136  -8.7222     70.6527     18.3049   3.1619372616e+01   6.2892463456e+01    0.1133385   0.09909721 -87.72 0.0007041609    1.696    0.410
       137  -9.2595    206.8154     15.8076   5.8225126248e+00   3.2108132273e+01    0.1690171    0.1172566 -69.77  0.000287415    1.251    0.200
       138  -9.9106     85.1308     15.7579   2.6119382271e+01   6.0336507492e+01    0.3593016    0.1393981  52.91  0.001601973    2.216    0.549
       139 -10.3320    183.1933     14.9598   8.0542269062e+00   3.7693238055e+01    0.2047301     0.146695 -75.43 0.0005334708    1.283    0.221
       140  -8.8879     20.3647    174.6895   8.6750489048e+01   3.5955755442e+01    0.1402444   0.07882094  65.45 0.0007039076    1.754    0.430
       141 -10.1732    224.4672    173.0144   3.8288226720e+01   2.2587013329e+00    0.2127184    0.1223981 -39.07  0.001030428    1.591    0.371
       142  -8.8266     28.6506    160.3498   8.3162021596e+01   3.8659927858e+01     0.146101   0.08532993  68.27 0.0007038281    1.823    0.451
       143  -9.0301     17.1920    155.2109   8.5616953907e+01   4.1008099940e+01    0.1768113    0.1278171  76.16 0.0003452086    1.296    0.229
       144  -9.6806    244.3059    148.6555   3.0034815383e+01   3.1968375855e+00    0.1323184   0.09784509 -64.32 0.0007042236    1.692    0.409
       145  -9.4736     26.0233    146.4391   8.2203963050e+01   4.2380873628e+01    0.1788102    0.1293339  32.68 0.0004899501    1.569    0.363
       146  -9.2859      7.0000    143.0821   8.7081308200e+01   4.4797224290e+01    0.2133936   0.05971055 -73.61 0.0007969528    2.905    0.656
       147  -9.4398     91.8580    137.8556   6.1645447700e+01   3.5751852579e+01    0.2058488    0.1729876  83.17 0.0003139732    1.277    0.217
       148  -9.9743     34.9889     13.9522   4.3790651836e+01   6.9170793893e+01    0.1762163    0.1399807   5.19 0.0004348443    1.013    0.013
       149  -9.1787    200.3079     11.3149   5.4207567273e+00   3.4095740385e+01    0.1168836   0.09023246  49.64 0.0003899152    1.628    0.386
       150  -9.1906     28.6100    138.2500   8.0383887857e+01   4.4179817844e+01    0.1815527    0.1049165 -60.39 0.0002350163    1.488    0.328
       151  -9.3847     10.9853    133.3079   8.4873897767e+01   4.6892465796e+01    0.1724789    0.1517223 -86.36  0.001138738    1.091    0.083
       152  -9.9522     17.6139    132.1392   8.2790370219e+01   4.6666232658e+01    0.1970221    0.1632994  63.94 0.0004733105    1.276    0.217
       153  -9.9228     58.0380    130.0221   7.0171538752e+01   4.2912961631e+01    0.2104826    0.1922937 -69.55  0.001210021    1.008    0.008
       154  -8.9215     40.2609    125.2340   7.4831611765e+01   4.6247776333e+01    0.2077336   0.09349561  40.82 0.0008809947    2.399    0.583
       155  -9.2648     64.2673    122.0652   6.6645623152e+01   4.4047941243e+01    0.2019953    0.1732526 -65.04 0.0005014269    1.086    0.079
       156 -10.3469    245.7886    120.1908   2.3963781101e+01   7.9029820134e+00    0.2287404    0.1329233 -70.27 0.0009575023    2.857    0.650
       157  -9.0818     65.8204    117.1960   6.5108897689e+01   4.5026145447e+01     0.191381    0.1579784 -37.07 0.0002919459    1.256    0.204
       158  -9.1665     91.7273    116.4170   5.6821967392e+01   4.1025675933e+01    0.1994015    0.1485942  24.39 0.0003933106    1.555    0.357
       159 -10.6116     95.9371    111.9701   5.4444488548e+01   4.1312884482e+01    0.2915103    0.2085492 -50.49 0.0004136649    1.355    0.262
       160  -9.6950     19.2152    108.0326   7.8730289923e+01   5.2412221756e+01    0.1998232    0.1481369 -43.87 0.0006230842    1.289    0.224
       161 -10.2195      2.0466    104.8128   8.3955422408e+01   5.4319060219e+01    0.3429055    0.1249492 -54.20  0.001596797    2.110    0.526
       162  -9.4696     12.8660    105.8601   8.0506417523e+01   5.3397188346e+01     0.167403     0.133923  85.59  0.001037867    1.322    0.243
       163  -9.9573     78.1199    102.7542   5.7682601958e+01   4.6584293524e+01    0.3554336    0.2017412 -45.38  0.001191018    1.701    0.412
       164  -9.2744    231.6717    102.3529   2.2184966886e+01   1.3724262201e+01    0.1475182   0.09612817 -67.60 0.0007047019    1.771    0.435
       165  -9.9792    117.9242    102.2892   4.5497414086e+01   3.9129244917e+01     0.219229    0.1953923  47.34 0.0006145401    1.128    0.113
       166  -9.1274    108.9932    103.0000   4.8223959832e+01   4.0827673843e+01    0.2486012   0.08729332  43.04 0.0007936988    2.882    0.653
       167  -9.6066     49.0179    101.4695   6.7199310511e+01   5.1038276587e+01    0.1954973    0.1383874  24.16  0.001023791    1.577    0.366
       168 -10.2806     27.4180    100.5299   7.4560489883e+01   5.3516915153e+01      0.34444    0.1551988 -22.46  0.001195526    4.364    0.771
       169 -11.4411     39.4558     96.2292   6.9387572811e+01   5.3354108314e+01    0.4361158    0.2723219 -76.69  0.002116419    1.917    0.478
       170  -9.5894    102.8502     96.5420   4.8256583382e+01   4.3485301201e+01    0.3284228    0.2280817 -23.69  0.001123831    1.850    0.459
