#   1 NUMBER                 Running object number                                     
#   2 MAG_AUTO               Kron-like elliptical aperture magnitude                    [mag]
#   3 X_IMAGE                Object position along x                                    [pixel]
#   4 Y_IMAGE                Object position along y                                    [pixel]
#   5 X_WORLD                Barycenter position along world x axis                     [deg]
#   6 Y_WORLD                Barycenter position along world y axis                     [deg]
#   7 A_WORLD                Profile RMS along major axis (world units)                 [deg]
#   8 B_WORLD                Profile RMS along minor axis (world units)                 [deg]
#   9 THETA_WORLD            Position angle (CCW/world-x)                               [deg]
#  10 FWHM_WORLD             FWHM assuming a gaussian core                              [deg]
#  11 ELONGATION             A_IMAGE/B_IMAGE                                           
#  12 ELLIPTICITY            1 - B_IMAGE/A_IMAGE                                       
         1 -10.0036    223.5035     16.0955   5.0903263162e+01   2.6826827665e+01    0.4865466    0.2811047 -56.28  0.001686424    1.821    0.451
         2 -12.3594    187.0695      7.8250   5.2290317302e+01   3.7206559307e+01     2.557977      1.19125  82.01  0.009768534    2.492    0.599
         3 -13.3507    235.2019     64.7901   6.3110972504e+01   1.8041726685e+01     6.153675    0.4317657 -37.88   0.01368972    6.822    0.853
         4 -14.1168    223.1657     41.3908   5.8176793952e+01   2.3990990392e+01      13.0661          nan -33.66   0.02579317    8.326    0.880
         5 -10.9987    225.2548      2.0824   4.6778645472e+01   2.7781589562e+01    0.3877805    0.2396068  77.22 0.0006876147    1.631    0.387
         6 -12.7784    180.9437     79.2253   7.5894496607e+01   2.9097730546e+01     2.799596     1.109533 -50.78  0.004572841    3.761    0.734
         7 -12.8339    121.3027     35.1682   7.4120775385e+01   5.0848684844e+01     2.173863     1.044527  63.12  0.008303058    2.577    0.612
         8 -12.3133    211.5683     68.6189   6.7552442277e+01   2.3189644404e+01     2.702369     1.117574 -56.04  0.007004473    5.556    0.820
         9 -12.6580    163.9319     53.2812   7.1189741276e+01   3.7572320078e+01     3.678059       1.9878 -79.43  0.009630064    5.643    0.823
        10 -11.4459    213.9012      3.6645   4.8213127819e+01   3.0528161513e+01     1.388673     0.698825  80.03  0.005995519    2.076    0.518
        11  -9.5642    250.3666     18.9740   4.9250539233e+01   1.9976290947e+01    0.4084986    0.2284552 -29.41  0.001848342    1.582    0.368
        12 -10.9119    246.8183     22.7163   5.0538449755e+01   2.0407125619e+01      0.63894    0.2502443 -46.55  0.001699153    2.450    0.592
        13 -10.4219    241.8087     21.4528   5.0654783540e+01   2.1736325816e+01    0.3928256    0.2268167 -38.62 0.0007575891    1.534    0.348
        14 -10.5300    131.1059     20.8661   6.6130973521e+01   5.0479307908e+01    0.4438699    0.3181219 -10.89  0.002170253    1.465    0.317
        15 -10.2075    153.6088     15.5991   5.9777568616e+01   4.5338090716e+01     0.688642    0.2727649  36.46  0.002174552    3.557    0.719
        16  -9.0105    115.9827     12.5189   6.5993718204e+01   5.5144328330e+01    0.2904978     0.253611  47.62  0.000986106    1.145    0.127
        17 -10.5541    120.3031      8.7453   6.3376641468e+01   5.4531259307e+01    0.4537927    0.3872635  43.05  0.001606011    1.129    0.114
        18  -9.0919    134.6533      8.4966   6.0376550010e+01   5.0998204206e+01    0.2858626    0.1755972 -25.55  0.001333455    1.610    0.379
        19  -9.4499    140.1372      7.0707   5.8799720575e+01   4.9740732827e+01    0.3146501    0.1947562 -26.67  0.001114255    1.604    0.377
        20  -8.9303    249.4600      2.2989   4.5011572021e+01   2.1871528195e+01    0.2772962    0.1844385 -47.47  0.001512494    1.336    0.252
        21  -8.6322    233.9907      2.2046   4.6117814349e+01   2.5596579420e+01    0.2406897    0.1854017 -25.22 0.0008723938    1.273    0.214
        22  -8.2196     96.1265    150.0978   1.1102022036e+02   3.2623021006e+01    0.1664215     0.128399  70.45 0.0009882787    1.215    0.177
        23 -11.9731    235.5066    247.7905   1.0000321141e+02  -4.0253335935e+00    0.2150612    0.1619675  30.41 0.0004547344    1.144    0.126
        24  -9.7546     66.5118    144.4847   1.1690573181e+02   3.8048073684e+01    0.4154664      0.22616 -74.49  0.001664193    1.752    0.429
        25 -13.1578     44.0681    176.2037   1.2495430183e+02   3.4321338892e+01    0.8951136     0.709955  66.86  0.003598446    1.129    0.114
        26  -8.5013    192.3523    144.1381   8.9863382127e+01   1.5697424707e+01    0.1835676    0.1681809 -26.70  0.000472364    1.148    0.129
        27  -9.2826    157.9282    140.8540   9.5953397700e+01   2.3254639877e+01     0.305164    0.1981367 -53.33 0.0008429175    1.714    0.417
        28  -9.3962    229.6027    141.0887   8.2668107305e+01   8.6670568384e+00    0.2372341    0.1733755  35.33 0.0003500989    1.286    0.222
        29  -8.6324    215.5576    139.7944   8.4757586618e+01   1.1639575877e+01    0.1844497    0.1250306 -41.84  0.000587607    1.634    0.388
        30 -10.0580    188.9450    138.5557   8.9313119431e+01   1.7290860369e+01    0.2682872    0.2357603   6.06  0.001544258    1.179    0.152
        31  -7.5496    162.3161    135.3231   9.3889275707e+01   2.3363344199e+01    0.1418333    0.1106131   9.83 0.0007042564    1.665    0.399
        32 -10.4303    202.6013    126.3884   8.4051749535e+01   1.6353340519e+01    0.3546819    0.2975942 -79.06  0.001144233    1.607    0.378
        33 -12.3541    196.3360    120.0400   8.3713107633e+01   1.8721985718e+01    0.8005084    0.6604421  38.37  0.003568644    1.179    0.152
        34  -9.0601    227.8214    175.5854   8.9863698493e+01   4.5498528372e+00    0.1700574    0.1101199  51.98 0.0009458588    1.712    0.416
        35  -9.5107    236.0077    174.4034   8.8317270060e+01   3.2605997259e+00    0.2891879    0.2069438  66.81  0.001583796    2.326    0.570
        36  -8.3098    141.1918    121.4314   9.5389872348e+01   3.0320644457e+01    0.2024922    0.1327243  59.29 0.0006124664    1.647    0.393
        37  -9.3887    242.2017    165.6850   8.5670334929e+01   3.2089846443e+00    0.2244039    0.1699889   2.01 0.0002687682    1.223    0.182
        38  -9.2144    224.0092    119.0275   7.8615093690e+01   1.2898149797e+01    0.2207859    0.1575311  11.91 0.0003776765    1.589    0.371
        39 -10.1572    167.7955    113.6447   8.7779427113e+01   2.6130255554e+01     0.379962    0.2940805 -61.52  0.000837523    1.504    0.335
        40  -8.5472    134.3133    113.3186   9.5096544861e+01   3.3335749688e+01    0.3034951    0.1721695 -66.56  0.001172181    2.614    0.617
        41  -9.0271    135.0000    109.0115   9.3905223475e+01   3.4063255302e+01    0.3024177    0.1191431 -45.49  0.001098404    2.527    0.604
        42 -11.2011    203.2943     57.5296   6.5634314401e+01   2.6850302967e+01      0.51897    0.4220804  15.64  0.001229564    1.385    0.278
        43 -10.7234    205.2121    110.6092   7.9805845975e+01   1.8263405867e+01    0.4782878    0.2914138  35.91  0.002157996    1.763    0.433
        44  -8.2115    143.6665    101.7226   9.0057315251e+01   3.3682224261e+01    0.1467229    0.1177161  12.44 0.0002886833    1.605    0.377
        45  -9.7765    224.8382     96.7877   7.3023745315e+01   1.5948874298e+01    0.3934981    0.2642824  88.79  0.001682542    2.537    0.606
        46  -8.6973     97.1741    165.1463   1.1295406740e+02   2.9460196886e+01    0.1650863    0.1496855  71.19 0.0003072965    1.125    0.111
        47  -9.1549    150.5394     96.6218   8.7145467431e+01   3.3156251206e+01    0.2991265    0.2426017  19.10 0.0007599538    1.482    0.325
        48  -9.2640    171.0088     93.9471   8.2012571070e+01   2.8947040455e+01    0.2188192     0.217004 -56.35            0    1.031    0.030
        49  -8.9587    135.4945     93.9584   8.9925180351e+01   3.6977913548e+01    0.2933512    0.2045716  69.32  0.001328623    1.778    0.437
        50  -9.2276    159.9594     89.3439   8.3065867774e+01   3.2363902667e+01    0.4381418    0.2340203  36.84  0.001231794    2.277    0.561
        51  -9.7562    163.4824     87.4618   8.1781467321e+01   3.1879210455e+01    0.3548523     0.295417 -42.11  0.001133273    1.191    0.160
        52 -10.0370    144.6590     85.6934   8.5455093445e+01   3.6568169894e+01    0.3136039    0.2851322 -41.25  0.000869288    1.080    0.074
        53 -12.1306    179.4385     58.5649   6.9954762004e+01   3.2790832530e+01     0.572265    0.3881812   3.74  0.002408724    1.998    0.500
        54  -8.2090    202.3722     80.0968   7.2270588997e+01   2.3717203432e+01    0.2138919    0.1277517 -42.48 0.0004276693    1.684    0.406
        55 -11.2807    160.4923     77.1697   7.9423266527e+01   3.4432019394e+01    0.4368203    0.3552867 -41.11  0.001197343    1.210    0.174
        56  -8.1502    113.9875     75.7074   9.0179355394e+01   4.5143145882e+01     0.190593    0.1839454 -60.71 0.0004365696    1.030    0.029
        57  -9.5171    249.9230     67.6206   6.1976378820e+01   1.4313267186e+01    0.3024477    0.2163627 -48.50  0.001578354    1.452    0.311
        58  -9.2471    160.4712    128.4630   9.2777067551e+01   2.4995176586e+01     0.269143    0.2140809 -31.70 0.0009742284    1.367    0.268
        59  -8.4308    148.9656     65.4939   7.8324866569e+01   3.9267287063e+01    0.2058779    0.1377521  87.83 0.0008066609    2.349    0.574
        60  -9.2299     36.3778     62.3568   1.1089822948e+02   5.9777998578e+01    0.3568878    0.1889836 -77.67  0.001276861    2.334    0.572
        61  -9.2421    244.3419     60.0632   6.0694554373e+01   1.6540648618e+01    0.3435099    0.1887203 -52.27  0.001485581    2.111    0.526
        62  -9.9438    144.2560     59.0948   7.7293959204e+01   4.1510021111e+01    0.3822229    0.2764425 -52.38 0.0007860147    1.495    0.331
        63  -8.3032    116.8783     60.8308   8.4655018747e+01   4.7444300907e+01    0.2030754    0.1713303 -68.38 0.0004655631    1.351    0.260
        64  -7.8616     72.7046     58.3045   9.7102993072e+01   5.6105405461e+01    0.1305481    0.1037542 -81.69 0.0003930871    1.581    0.367
        65  -8.6841    247.9932     54.0421   5.8681292722e+01   1.6464566366e+01    0.3956019    0.1744485 -12.38  0.001111577    3.224    0.690
        66 -10.8079     61.0857    163.9976   1.2038323511e+02   3.4713988343e+01    0.2425924       0.1569 -67.17  0.001516518    1.508    0.337
        67  -9.4101    211.3981     48.2172   6.1696993722e+01   2.6075406793e+01    0.2930173    0.1895467 -55.14  0.001308148    1.727    0.421
        68 -10.2948    127.1822     53.4250   7.9428719277e+01   4.6505131289e+01    0.2691749     0.240835 -19.43 0.0003164206    1.113    0.101
        69  -8.5603    174.3666     48.9137   6.7792379863e+01   3.5548956348e+01    0.2161424    0.1868081 -27.58 0.0005342633    1.139    0.122
        70 -11.3401    247.5058     44.3920   5.6198164044e+01   1.7758254975e+01    0.5072977    0.3252155 -60.51  0.002459855    1.787    0.440
        71  -9.9347    186.3810     40.6468   6.3088365139e+01   3.3570100180e+01    0.6781135    0.3076255 -50.71  0.001800183    2.728    0.633
        72  -9.5095    207.2417     42.5039   6.0580640295e+01   2.7888587805e+01    0.4264123    0.2135913 -53.65  0.001180664    2.440    0.590
        73 -10.6595    197.4569     61.4017   6.7711931562e+01   2.7768813495e+01    0.6036243    0.3955208 -37.98 0.0009645203    1.468    0.319
        74 -10.9214    185.6404     68.6665   7.1914911621e+01   2.9643831837e+01    0.7232738    0.4242118 -64.93   0.00245012    2.711    0.631
        75  -9.0896    243.4208     32.8313   5.3550557431e+01   2.0079025384e+01    0.3563387    0.2039225 -50.17  0.001043643    1.748    0.428
        76  -7.9669    187.3618     31.2216   5.9899295375e+01   3.4530089910e+01    0.2116133    0.1263731 -38.09 0.0007014942    1.619    0.382
        77 -12.3389    187.1778    111.5967   8.3391216449e+01   2.2155851961e+01     2.465042    0.6845907 -30.43  0.006266012    5.482    0.818
        78 -12.4085    134.4245     25.1813   6.7139936659e+01   4.9105042301e+01     1.280442    0.3040149  57.37  0.003821994    3.753    0.734
        79 -11.3824    145.5039     23.9154   6.4391793022e+01   4.6466585252e+01    0.4777476    0.3487831  26.74   0.00229514    1.508    0.337
        80  -8.4067    207.1907    164.2072   9.1214968848e+01   9.8004501802e+00    0.1681796    0.1460962  58.95 0.0004208623    1.351    0.260
        81  -8.1546    163.4980    162.5319   9.9002629091e+01   1.8390239959e+01    0.1324339    0.1190337  43.48 -5.762875e-06    1.018    0.018
        82  -9.0422    241.2170    170.5529   8.6761942535e+01   2.8085957713e+00    0.1886436    0.1525109  32.79 0.0002955605    1.172    0.147
        83  -9.0094    242.6191    160.9979   8.4684810297e+01   3.6940343549e+00    0.1729965    0.1422258  -1.05  0.001109726    1.099    0.090
        84 -10.0223    179.6566     23.9343   5.8627566208e+01   3.7462458325e+01    0.5284384    0.3663559  58.62  0.002424642    1.415    0.293
        85  -9.2959    158.6653     22.3175   6.1396198525e+01   4.3234880349e+01    0.2504058    0.1485005 -29.22  0.001094222    1.649    0.394
        86  -9.8981    156.5976     19.8044   6.0830854577e+01   4.4075302855e+01    0.3012269    0.1395966  57.83  0.001185617    2.022    0.505
        87  -8.3702    168.8001     20.7454   5.9176053709e+01   4.0731375567e+01     0.203284    0.1661575 -61.88 0.0003649186    1.322    0.243
        88  -8.2793    204.4508    152.5256   8.9390613845e+01   1.1999038374e+01    0.1341973    0.1193771  21.82 0.0001022982    1.018    0.017
        89  -9.8549    142.6025     18.5021   6.2866300707e+01   4.7867584734e+01     0.306392    0.1441048  63.65  0.001204169    2.142    0.533
        90  -9.2411    173.7525     16.0203   5.6788938031e+01   3.9935371443e+01    0.2715123    0.2105592  72.44 0.0008576657    1.297    0.229
        91 -10.6796    158.5826     15.1497   5.8788230761e+01   4.4074938899e+01    0.5866934    0.1469672  54.17  0.001822327    3.321    0.699
        92 -10.0358    210.3564    158.6591   8.9579070007e+01   9.9744146570e+00    0.2259253      0.20534  33.43 0.0003442783    1.109    0.098
        93  -9.9484     69.5045    145.5041   1.1635715688e+02   3.7438030977e+01    0.3395343    0.2381901  71.75  0.001341413    1.339    0.253
        94 -10.0447    147.6218    224.4651   1.1092549627e+02   1.1716582576e+01    0.1991774    0.1582106  47.43 0.0002008764    1.036    0.035
        95 -11.7615    233.8025     35.0002   5.5148152544e+01   2.2140933584e+01    0.5442311    0.3753368  34.63  0.001712721    1.725    0.420
        96 -12.0442      3.2106    210.0680   1.3408599012e+02   3.2266984678e+01     0.553516    0.3494839 -83.19  0.003432539    1.471    0.320
        97 -13.7750     29.9682    187.0346   1.2839490406e+02   3.3783472713e+01     1.045319     0.893501  23.27  0.008258796    1.845    0.458
