#   1 NUMBER                 Running object number                                     
#   2 MAG_AUTO               Kron-like elliptical aperture magnitude                    [mag]
#   3 X_IMAGE                Object position along x                                    [pixel]
#   4 Y_IMAGE                Object position along y                                    [pixel]
#   5 X_WORLD                Barycenter position along world x axis                     [deg]
#   6 Y_WORLD                Barycenter position along world y axis                     [deg]
#   7 A_WORLD                Profile RMS along major axis (world units)                 [deg]
#   8 B_WORLD                Profile RMS along minor axis (world units)                 [deg]
#   9 THETA_WORLD            Position angle (CCW/world-x)                               [deg]
#  10 FWHM_WORLD             FWHM assuming a gaussian core                              [deg]
#  11 ELONGATION             A_IMAGE/B_IMAGE                                           
#  12 ELLIPTICITY            1 - B_IMAGE/A_IMAGE                                       
         1 -13.2596     65.5158     52.2657   6.7639686253e+01   5.7564902955e+01     1.208023     0.594987 -36.12  0.005633293    1.988    0.497
         2 -14.8629      6.5040     71.3388   9.2046318867e+01   5.9084572914e+01    0.9442176    0.5607258 -60.23  0.004931453    1.235    0.191
         3 -13.7209    188.3475     25.2839   2.7636791497e+01   3.4898883069e+01     1.793391    0.7340078 -55.71  0.005475487    3.969    0.748
         4 -13.9230    187.6349     12.2158   2.3743011679e+01   3.6606000030e+01     1.547152    0.7090751 -44.46  0.006227486    2.313    0.568
         5 -14.6331    166.4288     28.7856   3.2409109494e+01   4.0247702754e+01     1.362728     1.026688  68.39    0.0046072    1.328    0.247
         6 -13.2030    120.5979     26.7644   4.1548683981e+01   5.1762573032e+01    0.9802443    0.7176508  27.87  0.005075194    1.395    0.283
         7 -14.5124    146.6724     30.0066   3.6711431035e+01   4.5136416609e+01     1.631459    0.7060045  60.37  0.006186372    2.319    0.569
         8 -14.2453    122.1669     36.9989   4.4980134709e+01   4.9949581969e+01     1.306893    0.5819739  42.06   0.00512396    2.323    0.570
         9 -13.4533    132.0061     32.6144   4.0938540783e+01   4.8333392223e+01    0.7951258    0.5426556 -39.18  0.003247691    1.526    0.345
        10 -13.4542    141.4465     21.8141   3.4891013067e+01   4.7478567321e+01     1.286024     0.414562  62.79  0.003017701    3.385    0.705
        11 -13.7504      3.1052     10.2444   7.7977471655e+01   7.1124533412e+01    0.7570364    0.4305943 -49.56  0.005203944    1.346    0.257
        12 -13.2802      7.9254      2.6557   7.2585003258e+01   7.2069841606e+01    0.5261744    0.3577727  35.22  0.003783926    2.140    0.533
        13 -16.0881     14.2917     19.9701   7.6394552691e+01   6.8736801933e+01     1.939513    0.7928305 -37.49  0.008811553    2.003    0.501
        14 -14.5521     24.9002     13.6661   6.9265469085e+01   6.8968644590e+01    0.6616052    0.4538825  22.26  0.004606416    1.678    0.404
        15 -13.8300    216.3271     28.3559   2.4621266016e+01   2.7127130605e+01     1.233965    0.3419185 -40.04   0.00403219    3.225    0.690
        16 -13.0993    224.5757      4.5918   1.7267631143e+01   2.7768380102e+01    0.9231798    0.4285095 -11.57  0.003510685    3.309    0.698
        17 -13.3700    218.9032     15.8712   2.0877865666e+01   2.7973231931e+01    0.6722429    0.3764733  54.49  0.002467852    1.792    0.442
        18 -12.5247     46.6796     20.6448   6.2977358184e+01   6.5570740299e+01    0.3713298    0.2729498   1.85  0.002413219    1.379    0.275
        19 -14.0761    215.0344     10.1187   1.9743873562e+01   2.9622989610e+01     0.849144    0.6823291 -55.53  0.002940262    1.210    0.173
        20 -15.2727     98.6198     11.3752   4.1172868246e+01   5.8394551867e+01     1.591917     0.884365  51.75  0.004650447    1.804    0.446
        21 -12.4722     69.9059     16.0945   5.2281244852e+01   6.3009737579e+01    0.3466522    0.2994976 -46.57  0.001929077    1.507    0.337
        22 -11.9623     59.1400     16.0376   5.6168299596e+01   6.4642274615e+01    0.3612169    0.2690172  11.34  0.002291904    1.316    0.240
        23 -12.0461     46.8061     13.0178   5.9641251415e+01   6.6732494956e+01      0.27127    0.2363202 -14.56  0.001443824    1.188    0.158
        24 -13.9790     41.7503      4.4284   5.7747699465e+01   6.8581960840e+01    0.6465038    0.4739738  -8.13   0.00360223    1.148    0.129
        25 -13.1174     85.7311     14.2890   4.6241266960e+01   6.0533018608e+01    0.5522302    0.3816388 -33.63   0.00304257    1.467    0.319
        26 -12.5093    152.9462      8.7917   2.8023566452e+01   4.6045855815e+01    0.3279421    0.2709174  36.65  0.001028352    1.179    0.152
        27 -11.2496     74.6749      8.7582   4.7350454029e+01   6.3186114927e+01    0.3549317    0.1404829 -24.84  0.001533883    2.533    0.605
        28 -10.8682     59.3807      7.7748   5.2318744799e+01   6.5749865197e+01    0.1853298    0.1316003  23.83 0.0008666469    1.372    0.271
        29 -12.2281    120.1879      3.6140   3.2553040737e+01   5.4536723770e+01    0.4685414     0.241486  71.57  0.001981263    2.514    0.602
        30 -10.8313     67.1529      4.2146   4.7811210436e+01   6.4989154559e+01    0.1506589    0.1416017  -7.96 0.0005627059    1.326    0.246
        31 -11.2532    169.2457      1.7767   2.3050501425e+01   4.2510362684e+01    0.3709104    0.1197522  58.73   0.00135619    2.508    0.601
        32 -10.8987    232.9583      1.5262   1.5692134337e+01   2.5982178178e+01    0.2081266    0.1234414  76.21 0.0009070553    1.588    0.370
        33 -11.6046     61.0196      1.5572   4.8731103148e+01   6.6276503732e+01    0.3371213    0.1301502  45.28  0.001574591    2.748    0.636
        34 -11.4235     81.6263      1.4991   4.1761067048e+01   6.2782732479e+01    0.4280616   0.09866197  49.26  0.001533995    3.823    0.738
        35 -12.1066     48.8927    181.9247   9.5447406622e+01   3.1605785568e+01    0.3021494    0.2173879 -72.87  0.001980705    1.340    0.253
        36 -12.9797    107.4474    246.6374   9.1148740069e+01   1.2039415073e+01    0.6685832    0.4176723  82.49  0.004442537    1.732    0.423
        37 -13.4467     98.0167    239.3077   9.2018951704e+01   1.4560973504e+01     0.723218    0.4236867  48.76  0.004752846    1.379    0.275
        38 -12.3236     51.0788    248.6507   9.9990390522e+01   1.9383585623e+01    0.3500801    0.2713757  63.20  0.002972587    1.305    0.234
        39 -12.4503     58.6633    246.3060   9.8718628494e+01   1.8815190811e+01    0.4168455    0.2701123  45.97  0.003110938    1.568    0.362
        40 -12.6571      2.8199    248.8880   1.0677436701e+02   2.4621025222e+01    0.3856699    0.1889258  82.42  0.002882706    1.481    0.325
        41 -13.4472      9.5253    245.8323   1.0575413103e+02   2.4439312105e+01    0.5866246     0.257569  68.02  0.003375734    1.586    0.369
        42 -11.8594    200.8516    191.9539   6.7334611005e+01   4.2189425534e+00    0.2636693    0.2534665 -17.24  0.001150826    1.192    0.161
        43 -12.2507    198.5169    181.5486   6.5879053765e+01   6.2621253640e+00    0.2787806     0.240982  65.08  0.001650223    1.323    0.244
        44 -11.1013    121.7162    180.8551   8.0926584515e+01   2.1066549403e+01    0.3976606    0.2041848 -88.62  0.001241964    5.360    0.813
        45 -12.1935     84.5428    179.7388   8.8270588724e+01   2.7303433269e+01    0.3009452    0.1148911 -66.96  0.001316327    2.692    0.629
        46 -12.7102    124.1422    166.6545   7.8205198198e+01   2.3451044892e+01    0.5830376    0.3652778 -73.50  0.002834669    1.898    0.473
        47 -10.7230    177.4882    167.4856   6.7297682964e+01   1.2849938794e+01    0.1414476     0.128893  46.57 8.027493e-05    1.006    0.006
        48 -12.2108     25.1759    158.8799   9.7988075195e+01   3.8877677379e+01    0.3055074    0.2422166  43.79  0.002080857    1.530    0.347
        49 -12.0033     76.8651    156.8692   8.6916075011e+01   3.3199281660e+01    0.3546318    0.2564631  40.66  0.001562849    1.543    0.352
        50 -13.3510     73.4766    153.5201   8.7196843273e+01   3.4398604362e+01    0.6276206    0.4619272  41.71  0.003277004    1.508    0.337
        51 -12.5212    212.6961    155.2926   5.7952071049e+01   7.5857894211e+00    0.2476845    0.2354378  86.15  0.001448398    1.260    0.206
        52 -11.4143    110.3982    154.9485   7.9234591287e+01   2.8321260904e+01     0.452971    0.2284916 -83.03  0.001441672    4.575    0.781
        53 -12.4968      7.2333    146.6580   1.0057998814e+02   4.2983225420e+01     0.588949    0.2596318 -66.86  0.003499065    1.828    0.453
        54 -11.4535    103.2900    150.2108   8.0026050506e+01   3.0549251124e+01     0.293347    0.2201794 -35.86  0.001550971    1.812    0.448
        55 -12.5927    245.5947    148.7421   5.0651305950e+01   1.8691045045e+00    0.3930369    0.3369055 -47.01  0.002285322    1.398    0.285
        56 -12.5844     60.6492    147.2752   8.9198126168e+01   3.7456070030e+01    0.3593949    0.2787429  19.28  0.002180979    1.935    0.483
        57 -12.2469     40.7859    137.3856   9.2419189461e+01   4.1915705140e+01    0.3053834    0.1845807  83.43   0.00175369    1.627    0.385
        58 -12.6332    246.7383    136.1940   4.7669706172e+01   3.5043929784e+00    0.3743365    0.3227338  85.77  0.002085306    1.607    0.378
        59 -12.2481     44.9379    133.0794   9.0913877430e+01   4.2422610183e+01    0.4859472     0.258905 -81.78  0.002557212    1.795    0.443
        60 -11.7523    135.0446    125.9607   6.7874627293e+01   2.9884961355e+01    0.2866596    0.2107348 -50.57 0.0006651011    1.359    0.264
        61 -12.9661     82.1520    113.5918   7.8405128941e+01   4.2062305698e+01    0.9443163    0.6606702  63.29  0.005001184    1.618    0.382
        62 -13.9601    106.3248    121.2886   7.3826427366e+01   3.6394423012e+01     1.285394     1.063213  29.50  0.007016852    1.444    0.307
        63 -14.4953    105.7138    105.8361   7.0511407840e+01   3.9932613144e+01     1.311366     1.088903 -49.11  0.006387742    1.161    0.139
        64 -12.8019     28.4998    122.0275   9.3393353446e+01   4.6486838489e+01    0.3845158    0.2640499 -68.41   0.00252538    1.187    0.157
        65 -11.9811      4.5222    119.7888   9.8803024569e+01   4.8846934260e+01    0.4008039    0.1788159  21.65  0.002256775    3.234    0.691
        66 -12.7239     42.2479     90.6941   8.4849819140e+01   5.2150636285e+01    0.2949465    0.2200633 -77.62 0.0004206457    1.263    0.208
        67 -12.2942     36.7932     93.0148   8.6847549167e+01   5.2159587894e+01    0.3934295    0.3055808 -12.99  0.001447868    1.772    0.436
        68 -13.4722      2.3243     97.3952   9.6925881631e+01   5.3775099041e+01    0.7319535    0.3309946 -76.00  0.003024109    1.692    0.409
        69 -14.1550     17.9920    110.6096   9.4542348480e+01   4.9862358439e+01     1.008905    0.5432946 -65.48  0.006112429    1.427    0.299
        70 -14.4488     22.7901     95.1547   9.1129866333e+01   5.2877227964e+01     1.086029    0.9127632  37.59  0.007947152    1.495    0.331
        71 -13.1167     29.5662     89.4068   8.8274929675e+01   5.3591444480e+01    0.8858532    0.4640812  77.86  0.004009497    3.207    0.688
        72 -14.0059     11.6639    103.6624   9.5277193852e+01   5.1832971855e+01    0.5718062    0.4687698 -88.93  0.004179839    1.148    0.129
        73 -11.3774    121.5776    112.4419   6.8020836921e+01   3.5502916246e+01    0.2825017    0.2361372 -77.07 0.0008230374    1.264    0.209
        74 -11.7144     62.9029    110.8559   8.2940908661e+01   4.5319619810e+01    0.3292139    0.2281798  74.01   0.00180741    1.680    0.405
        75 -10.9954     42.6879    107.0122   8.7634993510e+01   4.8473232992e+01    0.1942662    0.1634018  -3.43  0.001274437    1.667    0.400
        76 -12.2235    136.1575    103.1180   6.2078997525e+01   3.4509138066e+01     0.562342    0.3066061  50.53  0.001562123    1.891    0.471
        77 -12.2933    121.0994    101.6889   6.5493174547e+01   3.7926803838e+01    0.3487202     0.298624 -25.69  0.001556266    1.318    0.241
        78 -12.3257     50.2570     98.6908   8.4101684171e+01   4.9538840704e+01     0.635895    0.4292606  12.45  0.003325056    2.196    0.545
        79 -12.3030     49.2416     93.6424   8.3412460826e+01   5.0774687166e+01    0.3885382    0.3179354 -75.29  0.002510603    1.124    0.110
        80 -11.8706     61.0063     97.7580   8.0904927970e+01   4.8501616085e+01    0.3636397    0.2476434  81.44  0.001919535    1.883    0.469
        81 -12.5888    135.6366     95.0833   6.0070093106e+01   3.6298675906e+01     0.424545    0.3262888  41.11  0.002064462    1.358    0.264
        82 -10.4851     81.4859     93.4837   7.4163456362e+01   4.6665003192e+01     0.138082    0.1219452 -48.83 0.0005097771    1.082    0.076
        83 -13.2702     95.6590    110.4659   7.4208669219e+01   4.0638989657e+01    0.8224202    0.6792699 -76.82  0.004603295    1.203    0.169
        84 -11.7369     35.6494     86.7688   8.6023334394e+01   5.3640071416e+01     0.250894     0.210917  85.30 0.0009687846    1.276    0.216
        85 -12.4544    188.3852     84.4472   4.5244314226e+01   2.5771690232e+01     0.638813      0.25437  44.74   0.00211068    2.707    0.631
        86 -11.9456    158.8177     65.2332   4.5759650837e+01   3.6623890980e+01    0.9004572    0.2887906 -46.33    0.0025594    3.802    0.737
        87 -13.3581    164.0597     71.7545   4.6606251317e+01   3.4165033224e+01     1.425097    0.6141793  47.13  0.005055709    2.334    0.571
        88 -14.0390    169.5262     77.0073   4.6990451810e+01   3.1853795274e+01     1.407566     0.519199  51.24  0.004654621    2.640    0.621
        89 -11.9686    158.1726     83.6151   5.1439361817e+01   3.3412198186e+01     0.401897    0.2628688  58.81 0.0007577263    1.626    0.385
        90 -12.7486    161.3219     80.1773   4.9723103717e+01   3.3297920559e+01    0.6764336    0.3741167  39.33  0.002284865    2.038    0.509
        91 -12.6565     28.3330    246.0114   1.0313940973e+02   2.2435790782e+01    0.3759606    0.2147477  69.30  0.002954439    1.187    0.157
        92 -13.1074     91.5602     57.9893   6.1117583379e+01   5.2441063868e+01    0.5270215    0.4562741 -32.40  0.002653928    1.051    0.048
        93 -13.2870     87.3650     65.3473   6.4747277405e+01   5.1710068252e+01    0.9576784     0.607421  -0.10  0.003986548    2.870    0.652
        94 -12.9921     54.6408     82.2226   7.9387844725e+01   5.2694653459e+01    0.5340621     0.351256 -62.46  0.002680479    1.340    0.254
        95 -14.0719     61.1373     75.7931   7.5839057943e+01   5.3312362819e+01    0.6556342    0.4188563 -38.54  0.001205683    1.554    0.357
        96 -13.2076     71.3655     75.0044   7.2466055000e+01   5.2137950322e+01    0.5584357    0.3943891  -9.36  0.002871468    2.019    0.505
        97 -12.1437     77.1501     73.3075   7.0222690491e+01   5.1668867523e+01    0.5471565    0.2544412 -36.69  0.001688158    2.471    0.595
        98 -11.8242     47.3343     81.7410   8.1497466533e+01   5.3601069364e+01    0.3267974    0.2199325 -62.55  0.001484488    1.261    0.207
        99 -12.5217    213.1540     78.8937   3.9134312961e+01   2.0475644573e+01    0.8171902    0.4831067 -86.07  0.002773365    3.301    0.697
       100 -12.5615    135.8911     79.9005   5.5686080574e+01   3.9315935082e+01    0.6377595    0.3514061  46.18   0.00213864    1.853    0.460
       101 -11.8566    113.7047     80.1772   6.1584790620e+01   4.3928489627e+01     0.395926    0.3079714 -43.05 0.0005749448    1.222    0.181
       102 -11.8006    237.3975     80.2802   3.5592083946e+01   1.4318071563e+01    0.3860932    0.1433569  65.16  0.001219546    3.662    0.727
       103 -11.2647     41.5180     76.4906   8.2129764394e+01   5.5328555440e+01    0.2515432    0.1263622 -57.32 0.0008027576    1.584    0.369
       104 -13.8621    170.9933    242.4199   8.0215922506e+01   2.5002717923e+00    0.8118751    0.5249839  38.02  0.005155618    1.325    0.246
       105 -14.1699      4.9902     63.6168   9.1178544341e+01   6.0782248185e+01    0.5799705    0.5073344 -31.73  0.004030309    1.339    0.253
       106 -11.5726     26.5282     75.2641   8.6548284891e+01   5.6908860824e+01    0.3879986    0.2193645  81.07  0.001887292    2.894    0.654
       107 -13.2386    199.2454     70.1009   3.9129470682e+01   2.5466692373e+01    0.8312224    0.4634147  44.87  0.002867757    1.899    0.474
       108 -11.8078    214.9535     71.5029   3.6813657257e+01   2.1225724121e+01    0.2374681    0.1506099  59.01  0.001038155    1.605    0.377
       109 -10.3767     95.9930     69.7529   6.3506054070e+01   4.9355785581e+01    0.1616535    0.1217171  40.22 0.0002530863    1.438    0.304
       110 -12.2505    134.2026     66.4338   5.1972910487e+01   4.2271287866e+01    0.5379654    0.3170612  47.05  0.002078727    1.718    0.418
       111 -12.1862     31.3988     62.9804   8.2300053873e+01   5.9116573463e+01    0.5519541    0.2441176 -68.53   0.00255684    2.475    0.596
       112 -11.9543     24.7343     59.1976   8.3665254648e+01   6.0435957404e+01    0.4540963    0.2307689 -55.98  0.001908287    1.484    0.326
       113 -10.6078     99.9882     65.5017   6.1015362182e+01   4.9485351394e+01     0.205411    0.1416827  42.89 0.0006411364    1.555    0.357
       114 -11.9943    199.7707     61.6098   3.6603003990e+01   2.6705277607e+01    0.2634295    0.2592649  27.06  0.001403424    1.053    0.051
       115 -13.5005    177.7693     57.3716   3.9381042378e+01   3.3116359573e+01    0.9609983    0.6404185 -46.57  0.003323902    1.564    0.361
       116 -12.5274     79.2491     60.7819   6.5854891283e+01   5.3911274292e+01    0.4732811    0.3916619 -41.68  0.002031805    1.079    0.073
       117 -13.0782     82.3037     54.4101   6.2824095986e+01   5.4667895063e+01    0.6220884    0.4887014  15.34  0.003021378    1.436    0.304
       118 -10.9558     38.8058     59.9956   7.9048383298e+01   5.9074320456e+01    0.1965934    0.1335856 -83.45  0.001089186    2.040    0.510
       119 -14.5440    119.6311     54.5458   5.1863818003e+01   4.7629521377e+01     1.001818    0.6682821  37.95  0.004753914    1.572    0.364
       120 -11.4886     17.7584     55.3734   8.5186586704e+01   6.1720951654e+01    0.2980748    0.1463636 -60.89  0.001699981    1.573    0.364
       121 -13.6828    102.8130     50.3862   5.5156968811e+01   5.1782940060e+01     1.052401    0.6237013 -57.99  0.002818617    2.441    0.590
       122 -12.8794     97.8559     50.5610   5.6688696445e+01   5.2688246808e+01    0.4760653    0.3297495 -52.52  0.001849813    1.628    0.386
       123 -11.8898     36.6990     53.5980   7.8066885825e+01   6.0576283584e+01    0.2909844    0.1933082  -9.42  0.001714461    1.947    0.486
       124 -10.9410      5.4857     50.9092   8.8508630767e+01   6.3361210659e+01    0.1865953    0.1184068 -42.95  0.001277937    1.361    0.266
       125 -11.6050    136.2483     49.6556   4.5928726956e+01   4.4733997407e+01    0.2811561    0.2520952   9.87  0.000660926    1.143    0.125
       126 -10.8856     23.2754     50.1850   8.1958794620e+01   6.2382915817e+01    0.1777832    0.1213412 -42.34 0.0006401009    1.220    0.180
       127 -13.0400    157.3490     44.3332   3.9349963381e+01   4.0409232784e+01    0.9989085    0.4426902  40.88  0.003515691    2.613    0.617
       128 -12.9117      3.8259     43.5584   8.7475787104e+01   6.4915918474e+01    0.4375507    0.3148802 -34.22  0.003224747    1.346    0.257
       129 -12.4087     11.7500     43.6874   8.4546208318e+01   6.4452603133e+01    0.3790475    0.2168268 -28.93  0.001872578    1.845    0.458
       130 -14.1148    212.3283     41.3692   2.8812869897e+01   2.6438733728e+01     2.305499    0.7758862  71.99  0.006539794    4.288    0.767
       131 -14.0475     91.4223    231.6209   9.2419417376e+01   1.6760142326e+01    0.6229608    0.5183358  81.49   0.00480661    1.223    0.182
       132 -12.8605     24.6631    217.2905   1.0218501760e+02   2.7652837476e+01    0.5528171      0.19279  57.39   0.00319419    2.218    0.549
       133 -13.7993     26.3026    226.5598   1.0244296479e+02   2.5867574413e+01    0.6142699    0.3256795 -61.84   0.00415287    2.409    0.585
       134 -12.1146    109.6913     42.0511   5.0196490440e+01   5.1831769209e+01    0.4663281    0.2041149  47.66  0.001259342    2.324    0.570
       135 -13.6480     20.2985    224.0530   1.0322033696e+02   2.6932971406e+01    0.4744533    0.3334085  89.36   0.00268566    1.249    0.199
       136 -12.0741     14.2188    222.6950   1.0406779853e+02   2.7787738142e+01    0.3473901    0.1616676  82.82  0.001435067    1.694    0.410
       137 -12.9842     57.5876    202.6004   9.5679576058e+01   2.6519239332e+01     1.409112    0.3098134 -67.14  0.005741854    4.105    0.756
       138 -13.6787     65.1771    223.3346   9.6070045396e+01   2.1790568399e+01    0.8860614     0.493975  57.80  0.005837222    1.385    0.278
       139 -13.6907     64.1428    214.4552   9.5532565558e+01   2.3495162385e+01     0.471811    0.2881134  71.66  0.002625546    1.342    0.255
       140 -12.4245     75.7413     37.2663   5.8903380734e+01   5.8802720299e+01    0.3603214    0.2361931  36.56  0.001061999    1.647    0.393
       141 -11.5969     70.4847     36.4537   6.0392862810e+01   5.9748109489e+01    0.2749731    0.2233053 -31.75  0.000834754    1.096    0.088
       142 -12.4691    242.1198     36.0523   2.3539019618e+01   1.9599674597e+01    0.5556716    0.2872008  66.78  0.001907106    1.962    0.490
       143 -12.7017     59.3972    212.8062   9.6205989069e+01   2.4406039569e+01    0.3089319    0.1939982 -58.20  0.001336059    2.041    0.510
       144 -11.2516    249.0067    225.5174   6.4730801504e+01  -8.4148013750e+00    0.1838776   0.09252665  39.79  0.001043481    1.623    0.384
       145 -13.3734     78.7767    220.2548   9.3536155789e+01   2.0488175797e+01      0.44625    0.1947734  56.89  0.002445976    1.913    0.477
       146 -13.2341     94.9016    218.6066   9.0603355448e+01   1.8446551413e+01    0.4720116    0.2097415  42.98  0.002493613    2.034    0.508
       147 -13.2157     54.1888     68.0565   7.6043707705e+01   5.5784867352e+01     1.443016    0.7222418  30.37  0.007200154    2.401    0.583
       148 -13.2710     55.3511     27.2542   6.2298879221e+01   6.3411754620e+01    0.5192382    0.3759335  37.00  0.002488478    1.625    0.385
       149 -12.4494     63.1793     25.3143   5.8612314279e+01   6.2655052359e+01     0.532823    0.3330533  -5.47  0.002553469    1.983    0.496
       150 -12.2568    223.2368     20.8695   2.1732933622e+01   2.6267143967e+01    0.6454403    0.3191098  78.06  0.002666219    2.181    0.541
       151 -11.6181    249.0547    216.2050   6.3168980491e+01  -7.4312012791e+00    0.1766597    0.1344494  59.64  0.001092585    1.995    0.499
       152 -11.7445    156.7259    214.4382   7.9029042907e+01   8.9445719372e+00    0.2813676    0.1068191 -43.07   0.00120362    3.528    0.717
       153 -12.6265    147.1008    237.4597   8.3647010680e+01   7.1440560916e+00     0.503318    0.2489873 -68.85  0.002423488    3.583    0.721
       154 -11.6145     36.2865     23.2387   6.8234564521e+01   6.6293187774e+01    0.3319544    0.1632867 -38.25  0.001838836    1.640    0.390
       155 -12.1704      4.0640    212.0830   1.0510021139e+02   3.0619308264e+01    0.3743846    0.1362411 -87.25  0.002232407    2.248    0.555
       156 -11.2820     51.5083     20.5591   6.1038747984e+01   6.4987325963e+01    0.2324208     0.163258  17.68  0.001080731    1.503    0.335
       157 -10.9258    136.4429    211.2257   8.2301116586e+01   1.3011212229e+01    0.1581371    0.1143981 -79.10 0.0009478536    1.628    0.386
       158 -11.9035     72.5894    207.6821   9.3478906431e+01   2.3598623285e+01    0.3822155    0.2337238 -82.19  0.002430119    1.543    0.352
       159 -12.5104     41.2415    206.6441   9.8813695971e+01   2.7741958796e+01    0.2560436    0.1426204 -87.62  0.001496716    1.520    0.342
       160 -10.9801     34.9727     34.7635   7.2950665654e+01   6.4380241257e+01    0.2010599    0.1570262 -17.57 0.0006929706    1.252    0.201
       161 -14.6419     15.4792    196.7244   1.0248143496e+02   3.2326396013e+01     1.229286    0.8091174  48.47  0.009368749    1.552    0.356
       162 -12.9540     45.2731     33.4805   6.8505986264e+01   6.3553652185e+01    0.6469753    0.4675905  33.53  0.004142308    1.657    0.397
       163 -12.7293     22.4288    166.4356   9.9158267822e+01   3.7583745076e+01    0.3562433    0.2123977  56.47 0.0007050261    1.535    0.348
       164 -13.7293     29.8881    169.4500   9.7973068520e+01   3.6232189797e+01    0.7238865    0.4927527 -41.82  0.003739555    2.457    0.593
       165 -10.4847    123.4854     11.4647   3.4924368911e+01   5.2969887908e+01    0.1389736    0.1250773  27.64 0.0001680581    1.003    0.003
       166 -13.4212     22.2624    181.1059   1.0029641802e+02   3.4659568675e+01     0.598267    0.2993676 -68.09  0.003079149    1.804    0.446
       167 -15.0782      8.0534    183.6020   1.0296135055e+02   3.5508483611e+01     1.036056    0.6962309  76.06   0.00801714    1.088    0.081
       168 -15.3828     15.8185    174.8441   1.0102196513e+02   3.6513132153e+01     2.015972    0.8749486  73.65   0.01124684    2.176    0.540
       169 -13.4486     38.5749    194.9302   9.8411884039e+01   3.0249197143e+01    0.5071675     0.275642  63.50  0.003250642    1.518    0.341
       170 -11.7456    250.0092    199.5420   6.0076901172e+01  -5.6957183139e+00     0.217271    0.1693022 -37.86  0.001384166    1.633    0.388
       171 -12.8614    164.4159    195.8956   7.4844923870e+01   1.0528338645e+01    0.4022619    0.2631954 -75.69  0.001972635    2.393    0.582
       172 -11.6110     30.7971     25.5688   7.1381708998e+01   6.6423047727e+01    0.2878377     0.190692  -1.20  0.001522278    1.723    0.420
       173 -11.0210     79.9860    192.8358   9.0652534789e+01   2.5371072330e+01    0.3151796    0.0901231  51.52  0.001259484    3.216    0.689
       174 -12.2615     97.5581    188.1458   8.6730977509e+01   2.3652873736e+01    0.2113156    0.1392832  44.89   0.00122154    1.474    0.322
       175 -11.2273     25.9529     44.5016   7.9435265662e+01   6.3306078977e+01    0.1508071    0.1144869  15.88    0.0010373    1.603    0.376
       176 -11.8932    155.9759    184.8304   7.4690919447e+01   1.4026572013e+01    0.2299069    0.2055725 -57.07  0.001415114    1.258    0.205
