#   1 NUMBER                 Running object number                                     
#   2 MAG_AUTO               Kron-like elliptical aperture magnitude                    [mag]
#   3 X_IMAGE                Object position along x                                    [pixel]
#   4 Y_IMAGE                Object position along y                                    [pixel]
#   5 X_WORLD                Barycenter position along world x axis                     [deg]
#   6 Y_WORLD                Barycenter position along world y axis                     [deg]
#   7 A_WORLD                Profile RMS along major axis (world units)                 [deg]
#   8 B_WORLD                Profile RMS along minor axis (world units)                 [deg]
#   9 THETA_WORLD            Position angle (CCW/world-x)                               [deg]
#  10 FWHM_WORLD             FWHM assuming a gaussian core                              [deg]
#  11 ELONGATION             A_IMAGE/B_IMAGE                                           
#  12 ELLIPTICITY            1 - B_IMAGE/A_IMAGE                                       
         1 -13.8677      3.8086     53.1554   1.2664131248e+02   6.3582819076e+01     2.304533    0.4955522 -59.44  0.006577318    4.718    0.788
         2 -15.0299     11.6469    149.1623   1.4079648716e+02   4.2835858696e+01     10.89623     4.908158  83.13    0.0468132    3.177    0.685
         3 -13.2757    199.4729     29.0854   6.5764384279e+01   3.1539042924e+01     1.303304     1.202921  38.98  0.006922472    1.324    0.244
         4 -12.8160      3.9888      6.1706   1.1091699764e+02   7.0989623961e+01    0.7809237    0.3851919 -38.88  0.005142161    1.793    0.442
         5 -13.3038    215.6435     10.8054   5.9816572375e+01   2.9834963929e+01    0.8959965    0.7601084  63.56  0.003691352    1.286    0.223
         6 -11.9656     96.9501    245.6687   1.3348850257e+02   1.1385751589e+01    0.4673938    0.2275962  44.31  0.001816639    1.729    0.421
         7 -12.0142    246.6284    249.0809   1.0521683602e+02  -1.3418521506e+01    0.6963035    0.2605865  33.92  0.003343214    2.375    0.579
         8 -11.4681    141.0756    249.8122   1.2542021515e+02   3.4414942461e+00    0.4678262    0.2027894  33.67  0.002015263    2.438    0.590
         9 -11.6376    124.2078    249.8482   1.2871443441e+02   6.2503911481e+00    0.6128481    0.1437077  41.08  0.002127278    3.541    0.718
        10 -11.2700     46.1493    248.7264   1.4309182081e+02   1.7992019694e+01    0.3741229    0.2014958  86.42  0.001970354    1.827    0.453
        11 -12.1908     35.4329    245.0482   1.4466860845e+02   2.0004611812e+01    0.6053779    0.3885313 -63.01  0.004013785    1.778    0.438
        12 -11.7229      2.7964    246.5543   1.5013265505e+02   2.3294389162e+01    0.7056237    0.3409835 -79.44  0.002468152    1.739    0.425
        13 -11.5558     12.0403    250.0754   1.4886423386e+02   2.1695194649e+01    0.6738505    0.1982367  37.20   0.00333637    3.388    0.705
        14 -12.9230     11.4881    240.3893   1.4838783887e+02   2.3564352861e+01    0.9998004    0.5045552  55.22  0.006477824    1.611    0.379
        15  -9.8931     88.7927    249.5751   1.3545207365e+02   1.1910736812e+01    0.1795459   0.09112195  51.57 0.0008198417    1.645    0.392
        16 -11.1737    199.3503    246.9843   1.1362940894e+02  -5.9230063095e+00    0.2659166    0.2318159 -66.45  0.001709726    1.681    0.405
        17 -10.5499     65.4104    248.8384   1.3968615354e+02   1.5425673710e+01    0.2576937    0.1720847  79.74 0.0009017586    1.371    0.271
        18 -11.0595    104.7673    244.6437   1.3186417184e+02   1.0345611274e+01    0.2107111    0.1740856  84.50  0.001045931    1.214    0.176
        19  -8.4425     57.3002    240.3039   1.4040409272e+02   1.8155430233e+01   0.09937754   0.09302402 -47.99 0.0003241222    1.589    0.371
        20 -10.2075    185.8430    238.8502   1.1495105596e+02  -2.4236547478e+00    0.1722292    0.1517699  58.50 0.0006419187    1.346    0.257
        21 -10.5810     53.0112    237.9848   1.4098645214e+02   1.9172822026e+01     0.187813    0.1403974  70.75 0.0004485039    1.058    0.054
        22 -11.4127    215.4182    248.4075   1.1081011689e+02  -8.6962764202e+00    0.2862475     0.246183  13.16  0.001954729    1.093    0.085
        23 -11.2573    193.7079    249.3445   1.1508731690e+02  -5.3446174814e+00    0.4738941     0.100198  41.19  0.001557461    4.003    0.750
        24 -11.4576      4.5067    228.9921   1.4886420562e+02   2.6460236758e+01    0.3397557    0.1896563 -74.51  0.001698754    1.561    0.359
        25 -11.7388      6.4986    225.9967   1.4834320630e+02   2.6853092541e+01    0.4575113    0.2081811  61.79  0.002700014    1.897    0.473
        26 -12.5386     44.7289    213.2965   1.4031146294e+02   2.5253747645e+01    0.6746359    0.5977846 -85.84  0.002987671    1.219    0.179
        27  -9.8535      6.7949    215.2302   1.4759420952e+02   2.8976835699e+01     0.193443    0.1504849 -61.09 0.0008575666    1.575    0.365
        28 -12.4207      9.6850    207.0420   1.4649577913e+02   3.0381166821e+01    0.6718536    0.4861611  29.88  0.002987729    1.834    0.455
        29  -8.6337    152.5290    212.9781   1.1754161241e+02   8.1024691633e+00    0.1819855     0.140287 -48.79 0.0003465646    1.436    0.304
        30 -10.7104     54.3095    204.3266   1.3745596830e+02   2.5969566995e+01    0.4996347    0.1726961  55.14  0.001803667    3.372    0.703
        31  -9.6359     34.9332    202.7012   1.4125409326e+02   2.8672566636e+01    0.1988677    0.1444583 -86.45 0.0004578712    1.150    0.130
        32 -11.6083     57.5536    197.4885   1.3600000266e+02   2.7046928808e+01    0.3379768    0.2398132 -65.57  0.000609871    1.354    0.262
        33 -11.7720     64.1080    189.1140   1.3353516961e+02   2.8042422287e+01    0.2654731    0.2380804 -67.92 0.0004537823    1.196    0.164
        34 -12.7233     29.5171    230.7811   1.4465138054e+02   2.3468694202e+01    0.2933663    0.2310515 -78.29 0.0007410809    1.296    0.228
        35 -13.1583     61.4420    174.2875   1.3215263538e+02   3.1795135954e+01    0.5363558     0.282394 -45.21  0.001925917    2.300    0.565
        36 -10.7459     74.9209    176.4284   1.2927015390e+02   2.9418109884e+01    0.2413125    0.2177672 -88.87 0.0003221677    1.021    0.020
        37  -9.7187     94.3839    171.3250   1.2375332131e+02   2.7571265872e+01      0.36389    0.1748386  48.10  0.001504743    2.125    0.529
        38 -11.7481     82.7257    167.2417   1.2592416707e+02   3.0384915484e+01    0.6743175    0.6026093 -51.30  0.003943397    1.192    0.161
        39 -13.8146     34.8995    223.9808   1.4313808787e+02   2.4214606672e+01    0.7342413     0.577673  76.07  0.002390858    1.039    0.037
        40 -10.0308     95.9665    151.9030   1.1979504193e+02   3.1844222992e+01      0.31521    0.2830904 -34.06 0.0008523431    1.228    0.186
        41 -11.8893     84.4167    150.7753   1.2258278868e+02   3.3991104929e+01    0.2985806    0.2396075 -44.40 0.0006328655    1.295    0.228
        42  -9.0151     99.0739    147.6951   1.1814829817e+02   3.2297471460e+01    0.1962683    0.1886336  39.05 0.0004201848    1.102    0.092
        43 -12.1076     67.3388    143.4602   1.2574354564e+02   3.8223774274e+01    0.6798044    0.4403754  63.23  0.003294014    1.914    0.477
        44  -9.5495    108.4861    136.9914   1.1338752087e+02   3.3096771521e+01    0.4200427     0.268769 -19.54   0.00131607    2.637    0.621
        45 -10.6655    229.3005    229.5179   1.0498592611e+02  -8.2050324038e+00    0.3801363    0.2232926 -59.18  0.001555957    4.166    0.760
        46 -10.3548     95.4011    134.2637   1.1630663898e+02   3.6055310142e+01    0.2583704     0.237283 -22.98 0.0004702613    1.179    0.152
        47 -11.0987     26.0314    128.5391   1.3439517398e+02   4.6315461667e+01    0.2815206     0.205898  48.82   0.00134413    1.581    0.368
        48  -8.6058     73.8316    127.6166   1.2087249760e+02   4.1006650895e+01    0.1866631    0.1268748  48.28 0.0005134449    1.630    0.387
        49  -8.8994    105.9846    123.7155   1.1100561401e+02   3.6581372761e+01    0.1938059    0.1819074  37.37 0.0002503658    1.094    0.086
        50  -9.9677    167.7134    112.7056   9.2738629426e+01   2.5749164058e+01    0.2876383    0.2534148 -80.24 0.0007259464    1.258    0.205
        51 -10.2624    244.5100     95.5311   7.4793149558e+01   1.1494856722e+01    0.1372686    0.1216324 -59.44 0.0001030938    1.022    0.022
        52  -9.7027     62.1075     79.4474   1.1278367501e+02   5.3056733999e+01    0.4077841    0.2764189  66.04  0.001893044    2.791    0.642
        53  -9.7035    158.9774     77.5143   8.5317175685e+01   3.4383074027e+01    0.2295752    0.1425774  54.04  0.000529957    1.544    0.352
        54  -8.8054     55.8011     74.7531   1.1357674766e+02   5.4793807828e+01    0.1564416    0.1512875  65.71 0.0004555463    1.344    0.256
        55 -12.1262     14.3406    122.5613   1.3668121582e+02   4.8603050479e+01     0.570588    0.3080239  47.37  0.003054447    2.274    0.560
        56 -10.7488    162.9215    249.2480   1.2105961472e+02  -1.6831305216e-01    0.2574714    0.1635763  27.89  0.001384862    1.597    0.374
        57 -10.8615    156.3723    249.2363   1.2234226875e+02   9.4627088869e-01    0.2386093    0.1655666  43.64  0.001371801    1.206    0.171
