#   1 NUMBER                 Running object number                                     
#   2 MAG_AUTO               Kron-like elliptical aperture magnitude                    [mag]
#   3 X_IMAGE                Object position along x                                    [pixel]
#   4 Y_IMAGE                Object position along y                                    [pixel]
#   5 X_WORLD                Barycenter position along world x axis                     [deg]
#   6 Y_WORLD                Barycenter position along world y axis                     [deg]
#   7 A_WORLD                Profile RMS along major axis (world units)                 [deg]
#   8 B_WORLD                Profile RMS along minor axis (world units)                 [deg]
#   9 THETA_WORLD            Position angle (CCW/world-x)                               [deg]
#  10 FWHM_WORLD             FWHM assuming a gaussian core                              [deg]
#  11 ELONGATION             A_IMAGE/B_IMAGE                                           
#  12 ELLIPTICITY            1 - B_IMAGE/A_IMAGE                                       
         1 -13.4649    240.8775    105.7978   4.6271954212e+01   1.2369825168e+01     3.419337     1.007379 -40.44   0.01298083    2.860    0.650
         2 -12.5211    214.6013     25.7522   3.2574223144e+01   2.9415170680e+01     1.594839     1.206905 -66.38   0.00667898    1.095    0.086
         3 -13.0314    243.8995     15.9135   2.8375733667e+01   2.4720503758e+01     1.310427    0.9365087  -4.45  0.003691358    3.194    0.687
         4 -12.1040    227.9447     90.5960   4.4817120889e+01   1.7307471040e+01     4.345811     1.029575 -52.54  0.008248352   11.932    0.916
         5 -12.9127    247.0475     81.0505   4.0568403411e+01   1.5267337820e+01     1.854426    0.9603559 -39.43  0.007685177    1.705    0.414
         6 -14.8567    242.6460     60.4848   3.6969250627e+01   1.9167080253e+01       2.9047     1.996565 -59.55    0.0182506    1.197    0.165
         7 -12.7636    249.4599     30.0482   3.0579507859e+01   2.1982347606e+01     1.042962    0.4637276 -35.59   0.00555663    2.309    0.567
         8 -11.1328    162.5560     52.8383   4.5580488135e+01   3.7556556602e+01    0.6550911    0.4498018 -55.37  0.003407636    1.497    0.332
         9 -10.4291    129.7956     19.9107   4.1823656391e+01   4.9373472625e+01    0.4383914    0.2636367  12.53  0.002028721    2.807    0.644
        10 -10.3258    126.9097     14.6637   4.0709682921e+01   5.0563313538e+01    0.3747593    0.2518961  70.87  0.001589089    1.324    0.245
        11  -9.5893    135.2682     14.9152   3.9394964537e+01   4.8589912760e+01    0.3087539    0.1596808 -26.56  0.001547544    2.273    0.560
        12  -9.9926    142.0000     14.5182   3.8239427003e+01   4.7052902166e+01    0.4396297    0.1883876 -37.98  0.001612772    2.463    0.594
        13 -10.5541    143.1742      9.6632   3.6686857027e+01   4.7236209784e+01     0.791578    0.2401135 -23.95  0.003030979    4.219    0.763
        14 -11.2107    119.1181      9.7780   4.0537799502e+01   5.2811402562e+01    0.6209067    0.3960146  50.80  0.002406172    1.385    0.278
        15  -9.9204    113.9471      4.3770   3.9704569652e+01   5.4447689628e+01    0.3665108    0.2397484 -55.90  0.002082984    1.888    0.470
        16  -7.8932    187.4703     10.5135   3.1765171539e+01   3.6994386801e+01    0.1724026    0.1218814 -12.81  0.001010464    2.137    0.532
        17  -8.1374    164.2562      9.9645   3.4077078347e+01   4.2312449861e+01    0.1571978    0.1435052 -69.13 0.0003812202    1.176    0.150
        18  -8.6766    157.7996      6.7859   3.4015028992e+01   4.4101679840e+01    0.2736297    0.1878683  27.73   0.00154974    2.112    0.526
        19  -8.3966    239.2903      2.7509   2.6270713867e+01   2.7052056402e+01    0.2519906    0.1637269 -79.20  0.001331635    1.212    0.175
        20  -9.1229    225.2926      4.0459   2.7389913744e+01   2.9655118842e+01     0.343011    0.2378873   5.73  0.001566298    3.495    0.714
        21  -9.0143    233.4823      5.3787   2.7109459292e+01   2.7894670474e+01    0.2596674     0.205663 -36.17  0.001305977    1.574    0.365
        22  -8.5082    229.4917      4.2129   2.7146734821e+01   2.8802291831e+01    0.2432842    0.1135125 -48.30 0.0008529294    1.770    0.435
        23  -9.7211    205.5320      4.8387   2.8968061090e+01   3.3648426182e+01    0.2445746      0.19968 -11.45  0.001118104    1.872    0.466
        24  -8.1193    210.8270      1.4177   2.7870454320e+01   3.2880075225e+01     0.143681    0.0908882  72.41 0.0005068073    1.466    0.318
        25  -9.8206    222.5960    176.8088   6.3496947784e+01   2.8065814393e+00    0.4537639     0.383535 -89.44  0.002600564    1.849    0.459
        26  -9.1171    249.0359    249.3482   7.1744190900e+01  -1.1998541171e+01    0.1803965    0.1523705 -30.44  0.001345233    1.579    0.367
        27  -9.2788    237.2532    175.2375   6.0666185176e+01   8.7499550650e-01     0.323005    0.2272796  62.84   0.00169959    2.427    0.588
        28  -9.3187    193.2411    170.3224   6.7776738490e+01   8.9012787370e+00    0.3304935    0.2357264  80.59  0.001421651    2.682    0.627
        29  -9.8906    230.6752    167.3348   6.0234022355e+01   3.2517752682e+00    0.4706792    0.2114569 -48.95  0.002025723    2.315    0.568
        30 -11.5576      3.2862    161.4089   1.1597568677e+02   3.9998019486e+01    0.8963474    0.3625092 -74.58  0.003836832    2.036    0.509
        31  -8.1458    212.6674    166.8200   6.3310761005e+01   6.2462396126e+00    0.2710766    0.1643538  65.21 0.0009967102    3.327    0.699
        32  -9.5658    239.9322    164.1383   5.8083277497e+01   2.4010153543e+00    0.3836413    0.1857936 -32.68  0.001792779    1.934    0.483
        33  -8.2017    203.2499    160.7087   6.3823536961e+01   9.0339098935e+00    0.2298273    0.1748085  43.66 0.0008020079    1.463    0.316
        34  -8.2235    194.0293    156.7036   6.4777263884e+01   1.1485956893e+01    0.2010912    0.1924142 -13.62 0.0007717725    1.062    0.059
        35 -10.8157    236.3902    152.4166   5.6342421881e+01   5.0067251253e+00     1.030267    0.5989681  19.37  0.004585652    2.946    0.661
        36 -10.8535    239.8086    144.8522   5.4303279119e+01   5.7952837460e+00    0.6352149    0.4490167   9.61  0.003396008    2.049    0.512
        37  -8.2903    150.5449    153.2970   7.3586363947e+01   2.0587025527e+01    0.3649136     0.197943  69.17 0.0009103548    5.937    0.832
        38  -9.7103    171.2097    154.6716   6.9118129323e+01   1.6227799247e+01    0.2768891    0.2343894 -39.52 0.0003170241    1.126    0.112
        39  -8.6534    176.4479    151.7669   6.7342301960e+01   1.5829976780e+01    0.2626465     0.212024  40.74 0.0005479127    1.305    0.234
        40 -11.4627     64.7676    140.2710   9.4893824887e+01   3.9110432367e+01     2.294202      1.23464  36.54  0.009774175    1.914    0.477
        41 -11.6917     41.4341    145.8419   1.0310784962e+02   4.0577860235e+01     0.900835    0.6953683 -84.24  0.002972915    1.280    0.219
        42  -8.6280    114.8034    150.0301   8.2110217231e+01   2.8300057461e+01    0.2389699     0.215604  41.61 0.0002723927    1.123    0.109
        43 -11.1075     48.0330    143.8456   1.0075263157e+02   4.0343490662e+01    0.6526282    0.4498052 -81.03  0.001830075    1.514    0.340
        44  -9.7677    249.8071    144.3923   5.2728030628e+01   4.3063381884e+00    0.5357136    0.1787049 -44.57  0.002187109    2.519    0.603
        45  -8.0353    215.5047    144.5322   5.8199491460e+01   9.9673188751e+00     0.234346    0.1179267 -50.59  0.000570058    2.013    0.503
        46  -7.9520    192.0439    143.9824   6.2422169449e+01   1.4422207681e+01    0.2202798    0.1730512 -73.21 0.0004810239    1.614    0.380
        47  -8.6282    192.1284    138.8601   6.1274620225e+01   1.5437395950e+01     0.357849    0.2402972 -73.52  0.001215639    2.315    0.568
        48 -11.4875     33.7148    148.8458   1.0589467058e+02   4.0611766114e+01    0.5706215    0.5195003  47.47  0.001293177    1.189    0.159
        49 -10.4719    217.4892     91.2564   4.6381570470e+01   1.9253894294e+01    0.3645714    0.3200083 -68.68  0.000689669    1.063    0.059
        50 -11.4458    185.5154     92.6788   5.1753549987e+01   2.5744596279e+01     1.651608    0.3027267 -44.07  0.002119626    4.943    0.798
        51 -11.1940    198.0846     86.4566   4.8183315622e+01   2.4108365328e+01      0.85545    0.7010352  24.41  0.003478988    1.687    0.407
        52 -12.7285    178.3858     81.1663   5.0174823865e+01   2.9372178397e+01     1.923774    0.9558729  41.18  0.001716955    2.692    0.628
        53  -8.2805    237.2001    249.5971   7.3830551287e+01  -1.0746067431e+01    0.1546479   0.09040059  14.05 0.0005145997    1.570    0.363
        54  -8.0485     42.2568    247.0254   1.1378156475e+02   1.6089668261e+01    0.1438334     0.096788 -80.22 0.0004925504    1.489    0.328
        55  -9.8408    182.3084    243.2491   8.3255157027e+01  -2.8633869177e+00    0.3245095    0.2552145  35.87  0.001589041    1.342    0.255
        56 -10.3318    203.4388    237.4676   7.8114233207e+01  -4.8235088652e+00    0.2234285    0.1929011  -4.98 0.0001453442    1.120    0.108
        57  -9.7008    170.4196    236.9715   8.4730723148e+01  -9.7130462847e-02    0.2944213    0.2363478  44.70 0.0003126524    1.421    0.296
        58 -13.3993    216.9789     78.7233   4.3709130457e+01   2.1431599818e+01     2.057813     1.388432 -83.10   0.01090606    1.708    0.415
        59 -11.8099    231.5247     73.9012   4.0876657840e+01   1.9291125025e+01    0.5603034    0.4297005  64.62  0.001507724    1.451    0.311
        60  -9.2677    171.9903    232.7706   8.3731866719e+01   4.1010705782e-01      0.25023    0.1926243 -29.55 0.0005956018    1.318    0.241
        61  -8.4344    136.0000    129.9697   7.1814745062e+01   2.8881547923e+01    0.2649899   0.08833212 -47.24 0.0008022405    2.941    0.660
        62  -9.2331    186.6566    124.6848   5.9129410935e+01   1.9377813949e+01    0.2868646    0.2403067   7.44  0.001480976    1.492    0.330
        63 -10.3926    184.3999    122.7854   5.9129569939e+01   2.0223481173e+01    0.7067925     0.359001 -30.43  0.002653256    2.519    0.603
        64  -7.4670    121.2132    124.9547   7.4520665166e+01   3.3083454993e+01    0.2023405    0.1259935 -49.48 0.0003241557    1.586    0.369
        65  -8.1510    134.8107    119.8233   6.9608543427e+01   3.1427623008e+01    0.2188001    0.1854113 -76.34 0.0007845098    1.343    0.255
        66  -8.5913     64.6712    116.8884   9.0034030504e+01   4.5080593964e+01    0.2234843    0.1976921  -0.30 0.0006862077    1.217    0.178
        67  -9.2430    133.7868    146.4941   7.6254554251e+01   2.5484912994e+01    0.8842706    0.2632651 -55.94  0.002165995    4.987    0.799
        68  -8.6930    134.6098    112.5195   6.7788617103e+01   3.3082958962e+01    0.4447467    0.1483487 -45.15  0.001385773    2.960    0.662
        69  -8.3083    197.7804    111.9089   5.4131266211e+01   1.9570585197e+01    0.2760467    0.1876329 -89.39  0.001102441    2.178    0.541
        70  -8.6520    210.1976    108.8833   5.1369320258e+01   1.7616115767e+01    0.3469507    0.1923947 -58.52  0.001252545    2.060    0.514
        71  -9.3161    205.8934    110.0751   5.2335501085e+01   1.8260259019e+01    0.3770323    0.2795902  52.00  0.001440883    1.491    0.329
        72  -8.9639    178.6018    108.9645   5.6984663367e+01   2.4189243460e+01    0.3669734    0.2490025 -31.28    0.0015588    1.619    0.382
        73  -8.2502     98.4388    107.8041   7.6748635745e+01   4.1571451469e+01    0.2816206    0.2152967  34.92 0.0007911811    1.338    0.252
        74  -8.1698    134.6839    106.5737   6.6208762283e+01   3.4347467305e+01    0.3928562    0.1501121 -50.63  0.001260919    2.898    0.655
        75  -9.7318    135.4520    100.4226   6.4367056727e+01   3.5467925498e+01    0.3917009    0.3396111 -45.02 0.0008605047    1.149    0.130
        76 -11.3526    119.6862     99.3362   6.8217884083e+01   3.9129362144e+01     1.214789    0.8730906 -67.18  0.005422099    1.751    0.429
        77  -8.1645    241.5171    229.5383   6.9768380587e+01  -8.4078897561e+00    0.1174995   0.09437759 -11.37 0.0001913118    1.095    0.087
        78  -8.2492    207.1182    103.2589   5.0604183753e+01   1.9253355068e+01    0.2535048    0.1892957  88.86  0.001048205    1.620    0.383
        79  -9.4083    160.5322    100.5717   5.8586965931e+01   2.9824299963e+01    0.5459042    0.2504602  40.82  0.001984527    2.597    0.615
        80  -9.6769    168.2522     98.7969   5.6529170759e+01   2.8438818207e+01    0.3218172    0.2888377 -51.07  0.001746532    1.074    0.069
        81 -10.2193     83.2204     99.4183   7.9354871609e+01   4.6281055928e+01    0.2959292    0.2455012 -33.49 0.0003359031    1.194    0.163
        82 -10.2763    129.6993     98.0039   6.5173752010e+01   3.7236435027e+01    0.5279103    0.2740855 -57.28  0.001665524    2.488    0.598
        83 -10.3820    177.7266     94.1813   5.3533068540e+01   2.7192735363e+01    0.5499023    0.3964194  41.33  0.001634619    1.588    0.370
        84 -10.8138    159.3371     91.7005   5.6540162104e+01   3.1803291355e+01    0.4301811    0.3303699 -21.94   0.00120972    1.588    0.370
        85  -9.7843    143.5247     95.1258   6.0970279717e+01   3.4732961514e+01    0.3707671    0.3004894  82.00 0.0008103197    1.436    0.304
        86  -7.4988     94.6940     99.6855   7.5707288065e+01   4.4120573182e+01     0.154881    0.1186582  -9.57 0.0003821073    1.623    0.384
        87  -8.6692    149.8759    104.5968   6.1999752004e+01   3.1402229426e+01    0.2845318    0.2192643 -49.26 0.0005929242    1.281    0.219
        88 -10.4080    157.1006     83.0945   5.4729628693e+01   3.3904791798e+01    0.4257279    0.3310773  34.37  0.002130443    1.509    0.337
        89  -8.2724    140.3847     80.7400   5.7732822424e+01   3.8187792089e+01     0.204163    0.1430369 -30.23 0.0007894271    1.602    0.376
        90 -10.0097    172.3567     64.5006   4.6985221836e+01   3.3506277913e+01     0.359319    0.2415542  75.65   0.00169778    1.568    0.362
        91  -9.6054    198.3914     58.2073   4.1548594523e+01   2.8572349470e+01    0.6211371    0.3589955 -71.11  0.002186138    2.051    0.513
        92 -10.8661    150.4717     50.7339   4.7138760303e+01   4.0709776774e+01    0.9641013    0.3207079  47.45  0.003312924    3.314    0.698
        93 -10.2475    150.3181     45.1958   4.5608680738e+01   4.1518345096e+01    0.3815247    0.2713404  79.82  0.002008661    1.440    0.306
        94 -10.4285    169.2218     55.6447   4.5213094382e+01   3.5584942538e+01    0.5366977    0.3984718 -13.12  0.002756986    1.903    0.474
        95  -8.9510    172.9802    227.9495   8.2739001707e+01   1.1236288148e+00    0.1976891    0.1720367   0.78 0.0002950737    1.039    0.037
        96  -7.4997    187.6301     59.2772   4.3294335189e+01   3.0812564963e+01    0.1432763   0.09467351 -76.30 0.0004335436    1.685    0.407
        97  -7.7786    208.5931     56.2309   3.9804401682e+01   2.6648631426e+01    0.1678271    0.1206388 -33.09 0.0003765305    1.560    0.359
        98  -9.5794    191.3277     50.5467   4.0686572907e+01   3.1251956235e+01      0.52179    0.3972899 -17.34  0.002891331    1.824    0.452
        99  -9.0656    188.6264     45.4255   3.9821107967e+01   3.2571427827e+01    0.4435779    0.1817538 -39.12  0.001592065    2.333    0.571
       100  -8.7595    209.5056    136.9841   5.7643688491e+01   1.2491541214e+01    0.2606874    0.2173928  49.82 0.0008068692    1.354    0.262
       101  -8.6481    190.4165    131.6847   5.9999316349e+01   1.7215263869e+01     0.251768    0.1839999  62.98 0.0009562996    1.639    0.390
       102  -8.4140    211.4073     49.6055   3.8010610241e+01   2.6993637881e+01    0.2992258    0.1180883 -35.44  0.001288892    2.587    0.613
       103  -9.2613    199.2279     46.3175   3.8699070023e+01   3.0084499055e+01    0.3641244    0.1761375 -42.76 0.0008425606    1.912    0.477
       104  -9.9639    133.1694     45.1919   4.8901827224e+01   4.5566165223e+01    0.3143205    0.2513489 -29.36   0.00119819    1.398    0.285
       105 -11.3774    140.8855     40.4683   4.5973591780e+01   4.4377999014e+01    0.7190542     0.405413  74.32  0.003288912    1.959    0.489
       106  -9.8538    136.5110     45.9998   4.8461763343e+01   4.4670145055e+01    0.2614284    0.2492906 -17.46 0.0009837395    1.187    0.157
       107 -10.2193    136.4873     42.5240   4.7428247685e+01   4.5145581785e+01    0.3749301    0.2260316  74.62  0.001616642    1.842    0.457
       108  -8.9844    117.1090     44.3636   5.2205476331e+01   4.9402671642e+01    0.2772005    0.2250376  -5.46 0.0004447822    1.470    0.320
       109  -8.7711    204.6678     39.7702   3.6592513459e+01   2.9774879332e+01    0.4112165    0.1280194 -30.64   0.00144314    4.296    0.767
       110  -8.0663    192.2402     40.7434   3.8256180939e+01   3.2386577053e+01    0.1515548    0.1496447  65.97 0.0004019405    1.298    0.230
       111  -8.9185    122.5734     37.8019   4.8853554684e+01   4.9011960628e+01    0.1837882    0.1231595 -46.78 0.0006463188    1.673    0.402
       112  -8.3881    111.4019     36.7731   5.1068060628e+01   5.1700712176e+01    0.1782699    0.1312006 -11.73 0.0009026811    1.653    0.395
       113  -8.2541    189.9596     35.3003   3.7252582427e+01   3.3601500744e+01    0.1740323    0.1441358  85.74 0.0001763524    1.081    0.075
       114  -8.2127    167.1924     35.3908   4.0248502172e+01   3.8819174435e+01    0.1869656    0.1140248  81.06 0.0007210535    1.654    0.395
       115  -8.9676     91.9697     30.6021   5.3932694583e+01   5.6732722562e+01    0.4773945    0.1819181 -31.59  0.001987531    2.864    0.651
       116 -10.3464    133.9906     30.1871   4.4195818170e+01   4.7268646918e+01    0.3078274    0.2244366 -14.53  0.001366187    1.742    0.426
       117  -8.1546    145.0000     29.9801   4.2201562188e+01   4.4697176994e+01    0.1972557   0.07604934 -30.45 0.0007969922    2.905    0.656
       118  -9.3267    135.4595     58.5636   5.2424472157e+01   4.3079940114e+01    0.3493367    0.2429484 -59.50  0.001334809    1.676    0.403
       119  -8.7412    112.3070     28.9597   4.8237794013e+01   5.2437687059e+01     0.213446    0.1722297  71.01 0.0004275352    1.238    0.192
       120  -8.9638    199.5154     23.7998   3.3582088529e+01   3.2879195502e+01    0.3354578     0.194885 -49.57  0.001567338    1.578    0.366
       121  -8.7411    203.3160    130.9985   5.7440991242e+01   1.4814513191e+01    0.2102202    0.1702062 -42.71 0.0005846414    1.113    0.102
       122  -7.8898    200.8326    225.6340   7.6642029547e+01  -2.5386833407e+00    0.1679565    0.1114928  37.01 0.0004110007    1.590    0.371
       123 -10.1916    139.9982    221.0571   8.8890256265e+01   7.5825675302e+00    0.2590329    0.2295107 -41.86 0.0004830431    1.210    0.173
       124  -8.5421     91.9064    215.0006   9.9338181233e+01   1.6426796441e+01    0.1984292    0.1899341  48.49 0.0003120397    1.067    0.063
       125  -8.9688    243.5714    208.0635   6.5681644379e+01  -5.4035062088e+00    0.2049442    0.1583005  78.28  0.001032401    3.486    0.713
       126  -8.6367    163.0141    207.1613   8.1356448500e+01   6.6506627647e+00    0.2003822    0.1840623   4.33 0.0003276145    1.005    0.005
       127  -7.9608     79.0000     14.9413   5.1618927819e+01   6.1150821110e+01    0.1847954   0.07092907 -25.90  0.000802792    2.945    0.660
       128  -7.8864    162.5077     14.0325   3.5329243210e+01   4.2315563751e+01     0.155592    0.1240702 -34.80 0.0003453886    1.446    0.308
       129  -7.6622    148.3812    204.1915   8.4156690727e+01   9.6960072972e+00     0.195747    0.1387189 -61.33 0.0009466464    1.686    0.407
       130  -9.5099    247.5147    196.4635   6.2934409789e+01  -4.0689139661e+00    0.4431183    0.1588385 -30.16  0.001077871    3.121    0.680
       131  -9.2841    230.7718    194.6346   6.5446445532e+01  -1.5156195627e+00    0.2229601    0.1981849  26.19 0.0005478928    1.324    0.245
       132 -10.6832    240.4228    199.1481   6.4608621218e+01  -3.5765140167e+00    0.6142121    0.3707672  52.83  0.003061722    2.937    0.660
       133  -9.2927    235.8581    196.6812   6.4938486893e+01  -2.5605845503e+00    0.3901139    0.2098838  41.46  0.002018648    2.240    0.554
       134  -9.1423     23.8348    199.6610   1.1410575957e+02   2.8764441051e+01    0.2246807    0.1905769 -88.86 0.0004129621    1.073    0.068
       135  -9.1579    192.0220    193.3679   7.2585492497e+01   4.5969596093e+00    0.7748467    0.3902507 -62.25  0.002426828    4.950    0.798
       136 -10.2886    221.1892    186.4356   6.5612889434e+01   1.2987365715e+00    0.3905669    0.2438756  50.30  0.001536355    2.197    0.545
       137  -8.9784     26.7019    184.1527   1.1199015887e+02   3.2275223482e+01    0.2077779    0.1925215 -56.43  0.001317035    1.236    0.191
       138  -7.4383    157.3997    181.1793   7.7777657613e+01   1.3062710485e+01    0.1991428    0.1416738 -59.51   0.00048425    1.616    0.381
