#   1 NUMBER                 Running object number                                     
#   2 MAG_AUTO               Kron-like elliptical aperture magnitude                    [mag]
#   3 X_IMAGE                Object position along x                                    [pixel]
#   4 Y_IMAGE                Object position along y                                    [pixel]
#   5 X_WORLD                Barycenter position along world x axis                     [deg]
#   6 Y_WORLD                Barycenter position along world y axis                     [deg]
#   7 A_WORLD                Profile RMS along major axis (world units)                 [deg]
#   8 B_WORLD                Profile RMS along minor axis (world units)                 [deg]
#   9 THETA_WORLD            Position angle (CCW/world-x)                               [deg]
#  10 FWHM_WORLD             FWHM assuming a gaussian core                              [deg]
#  11 ELONGATION             A_IMAGE/B_IMAGE                                           
#  12 ELLIPTICITY            1 - B_IMAGE/A_IMAGE                                       
         1 -14.3786    154.5122     51.5901   8.8345973081e+01   4.0003253180e+01     1.529631     1.157426  27.62  0.004529163    1.405    0.288
         2 -14.5768    165.6154     35.6234   8.0684037176e+01   3.9448093502e+01     1.232896    0.9734408  -0.95     0.004305    1.314    0.239
         3 -14.0082    179.4374      4.6571   6.8127194610e+01   3.9172953861e+01    0.9857147    0.6646624  70.75  0.003919357    1.495    0.331
         4 -11.6841    158.7776    194.3164   1.2166180912e+02   1.4693129258e+01    0.2324284     0.198288  79.94 0.0007569968    1.805    0.446
         5 -19.8440     69.7738    168.6451   1.3754267190e+02   3.1650892255e+01     16.37015     6.348492 -69.22   0.07391767    2.803    0.643
         6 -12.1996    135.3757    195.8399   1.2656285111e+02   1.7892289646e+01    0.2827422     0.210667  73.91  0.001100142    1.998    0.499
         7 -11.3448    124.8235    228.4474   1.3247020579e+02   1.4468864611e+01    0.2967292    0.1895708  61.22  0.001009624    2.027    0.507
         8 -12.5371    169.6606    194.5235   1.1957339986e+02   1.3038805069e+01    0.4408863    0.2793734 -60.97  0.002274134    2.975    0.664
         9 -10.9344    165.3981    188.7187   1.1949702835e+02   1.4519961682e+01    0.1914189    0.1528628 -36.49 0.0007630051    1.442    0.307
        10 -13.6441    207.5098    183.5194   1.1069597488e+02   8.7905469429e+00    0.6406579    0.4205931 -47.21  0.003591857    2.375    0.579
        11 -13.1365    210.4945    181.5335   1.0981270593e+02   8.5887089390e+00    0.4184617    0.2691319 -16.60  0.001783249    1.508    0.337
        12 -11.0748     15.1309    189.1425   1.5096558639e+02   3.3025721559e+01    0.1343992    0.1180979  69.78 0.0003511307    1.179    0.152
        13 -11.0084    157.5026    184.5156   1.2040676347e+02   1.6363975041e+01    0.1853087    0.1228017 -56.41  0.001019623    2.119    0.528
        14 -10.9277    140.0371    249.6289   1.3187891824e+02   9.8227066437e+00    0.2279954    0.1579812  52.57  0.001020404    1.609    0.378
        15 -11.4017     27.9664    184.0090   1.4807973195e+02   3.2915910202e+01    0.1710149    0.1333479  43.17 0.0003431672    1.221    0.181
        16 -10.8719    108.5553    182.6901   1.3046284453e+02   2.3923744140e+01    0.2522192    0.1696263  56.42  0.000675284    1.583    0.368
        17 -12.3304    197.6616    176.1914   1.1117706975e+02   1.1270933225e+01    0.3825709    0.3055952 -44.11  0.001428867    1.715    0.417
        18 -10.8485    220.3045    227.5176   1.1552708542e+02   2.0646759602e+00    0.1605008   0.08837852 -26.08 0.0007587675    1.952    0.488
        19 -12.6127    178.9796    174.3234   1.1440473033e+02   1.4515076753e+01     0.381523    0.2748436 -26.13  0.001798771    1.438    0.305
        20 -10.8571    177.4886    169.4803   1.1382604610e+02   1.5480494918e+01    0.1711469    0.1236576 -44.95 0.0009716407    1.694    0.410
        21 -11.8604    138.3099    172.1719   1.2244775480e+02   2.1370211293e+01     0.432348     0.287828  72.74  0.002026488    2.805    0.644
        22 -12.7216    145.7659    169.9962   1.2048095398e+02   2.0562108964e+01    0.5501394    0.3985141  68.69  0.002896325    2.139    0.533
        23 -11.6980    226.7434    168.6275   1.0460479605e+02   7.7069755493e+00    0.4803154    0.2828271 -52.30   0.00199775    4.488    0.777
        24 -11.2088    205.9543    170.2934   1.0856568765e+02   1.0749598965e+01    0.4695915    0.2273715  19.15  0.002039614    2.671    0.626
        25 -11.9040    112.6550    169.0416   1.2766841873e+02   2.5843968453e+01    0.3746969    0.2104177  49.03  0.000487546    1.803    0.445
        26 -10.7410      4.2583    228.1245   1.5424124531e+02   2.7179015138e+01   0.07237195   0.05208542  33.75 0.0002591198    1.438    0.305
        27 -12.0359    230.0115    166.1943   1.0358739731e+02   7.5013615729e+00    0.2235005    0.1579292 -15.43 0.0008962384    1.254    0.203
        28 -10.3102    123.5476    166.5214   1.2481237878e+02   2.4673942154e+01    0.2207237    0.1064501  45.57 0.0005679769    2.033    0.508
        29 -11.7685    208.0263    227.0141   1.1748379371e+02   3.6924870896e+00    0.1526052    0.1250657  41.29 0.0009791006    1.708    0.414
        30 -11.2579    200.0323    164.0760   1.0846779897e+02   1.2556148545e+01    0.2904327      0.26704  31.78  0.001450586    1.373    0.272
        31 -10.5115    101.0647    224.4618   1.3652185004e+02   1.8013516116e+01    0.1513625    0.1193003  44.26 0.0008652869    1.039    0.038
        32 -10.7847    110.1580    222.9318   1.3466085119e+02   1.7118403719e+01    0.1568722    0.1197309  50.91 0.0004489189    1.214    0.176
        33 -12.9586    134.2380    148.2462   1.1918768824e+02   2.6370826958e+01    0.6036115    0.2795315 -57.11  0.002399576    2.937    0.659
        34 -13.3257    133.6119    143.3974   1.1840406047e+02   2.7402425964e+01    0.7693415    0.2928703 -54.43  0.002737555    3.451    0.710
        35 -10.9858    174.2865    148.4979   1.1040888907e+02   1.9324451062e+01    0.2944096    0.2567516 -49.39  0.001239642    1.446    0.308
        36 -14.2078    143.5570    144.4955   1.1630113578e+02   2.5470351511e+01     1.289127    0.7712569 -72.07  0.004631345    4.137    0.758
        37 -12.0944    131.1632    120.6542   1.1418378443e+02   3.2328397878e+01    0.2930864    0.2477961 -34.22  0.001589998    1.182    0.154
        38 -13.3406    135.3398    122.7962   1.1363258339e+02   3.1124949246e+01    0.9010749    0.2720889 -48.64  0.002844049    3.670    0.728
        39 -12.4659     13.7103    144.0404   1.4896516657e+02   4.2274821632e+01    0.3505341    0.1734125  89.99   0.00169949    1.803    0.445
        40 -10.0504    177.3244    143.6804   1.0877728209e+02   1.9563665242e+01    0.1263482    0.1131812  87.40 0.0007045661    1.676    0.403
        41 -12.9042      6.9296    139.3208   1.5037666640e+02   4.3771582153e+01    0.4352542    0.3024237  30.09  0.002266833    1.583    0.368
        42 -12.4388     24.3288    140.6203   1.4604223140e+02   4.2220016034e+01     0.347981    0.1772832  17.90  0.001828397    2.462    0.594
        43 -10.4903     20.9013    219.2344   1.5107424731e+02   2.7254327896e+01    0.1329393   0.09040377  57.95  0.000429254    1.094    0.086
        44 -11.0786     22.9522    240.3853   1.5147167238e+02   2.3743157935e+01      0.13604   0.08349339  36.12 0.0007821533    1.412    0.292
        45 -11.9130    160.3233    128.6027   1.0909682979e+02   2.5304706453e+01    0.4252186    0.3067856 -11.49   0.00211675    1.568    0.362
        46 -11.8729     18.9362    128.3028   1.4648481432e+02   4.5413260824e+01    0.3225703    0.1400708 -61.05  0.001623651    2.096    0.523
        47 -10.4279    139.4411    216.7633   1.2842795326e+02   1.4191160141e+01    0.2475974    0.1696088  82.78  0.001382528    2.946    0.661
        48 -11.2969     21.2310    235.4402   1.5159367146e+02   2.4643659230e+01    0.1218004   0.09537581  52.92 0.0008064577    1.134    0.118
        49 -11.1472     25.7990    232.0137   1.5069323948e+02   2.4776602502e+01     0.129047    0.1081099  62.13 0.0005386932    1.189    0.159
        50 -12.5670    153.1013    145.3072   1.1430502675e+02   2.3639880011e+01     0.321792    0.3070315  54.84  0.001966743    1.236    0.191
        51 -10.5241     12.6686    212.6591   1.5232431149e+02   2.9040948300e+01   0.08555512   0.07282294 -45.55 0.0007051463    1.747    0.427
        52 -12.4257      4.3110    112.2324   1.4938117665e+02   5.0067607615e+01    0.3644657    0.2662914  -3.13  0.002360934    1.848    0.459
        53 -10.8158    205.4520    110.1678   9.5556360905e+01   1.9448942628e+01    0.2995376    0.1909354  34.04 0.0008842795    1.587    0.370
        54 -10.2832      3.1955    211.4017   1.5399249796e+02   2.9998996624e+01   0.08437481   0.06207882 -70.97 0.0004988725    1.617    0.382
        55 -12.0851    170.1607    204.9095   1.2103320183e+02   1.1531214940e+01    0.2740727    0.2147028 -45.18 0.0004808558    1.668    0.400
        56 -11.7982    134.5363    104.5634   1.0939089617e+02   3.4919350431e+01    0.5416064    0.1433266 -44.13  0.001586011    3.763    0.734
        57 -10.5567    155.1407    104.9556   1.0447955542e+02   3.0651906449e+01    0.2156224    0.2006918  -4.69 0.0003144395    1.018    0.018
        58 -11.8606    165.7092    207.3459   1.2221975036e+02   1.1840112944e+01    0.2540733     0.203816  26.50   0.00108727    1.053    0.050
        59 -10.7837    124.3634     94.8789   1.0947624262e+02   3.8907588109e+01    0.2325947     0.207186  47.75 0.0004320875    1.199    0.166
        60 -12.1751    164.6976    204.3533   1.2198575036e+02   1.2394384408e+01    0.2798977    0.2279402 -83.96  0.001333631    2.209    0.547
        61 -10.4563    144.6156     79.1238   9.9629423459e+01   3.7695198474e+01    0.2195351    0.1405258 -22.71  0.000559381    1.691    0.409
        62 -10.1709     30.4164    205.1530   1.4869853764e+02   2.8815256093e+01    0.1453668    0.1122459  33.37 0.0004852923    1.356    0.263
        63 -10.3723    125.0000    246.0156   1.3414835712e+02   1.2103785549e+01    0.1153932   0.06058229 -54.86 0.0003506037    2.569    0.611
        64 -11.5562     13.6290    244.3232   1.5311911830e+02   2.3946412674e+01    0.2277168    0.0759237 -77.51  0.001426366    3.156    0.683
        65 -10.4717     13.5423     59.9472   1.4008147162e+02   6.2198855586e+01     0.177575    0.1573347 -62.04 0.0003994043    1.096    0.088
        66 -12.9367    169.0153     28.3095   7.7584771304e+01   3.9471321356e+01    0.4680121    0.3618517   2.87  0.001248266    1.369    0.270
        67 -10.7211    143.1641     33.3723   8.4111298433e+01   4.5440942596e+01    0.3207381    0.2298062  77.87  0.001286174    1.739    0.425
        68  -9.7376    138.2612     31.6258   8.4472819313e+01   4.6912170373e+01    0.1563723     0.110784 -51.90 0.0006979542    1.660    0.398
        69 -11.1105    189.6844     14.9693   7.0361692772e+01   3.5640725446e+01    0.2032521    0.1753952 -23.75 0.0006341428    1.109    0.098
