#   1 NUMBER                 Running object number                                     
#   2 MAG_AUTO               Kron-like elliptical aperture magnitude                    [mag]
#   3 X_IMAGE                Object position along x                                    [pixel]
#   4 Y_IMAGE                Object position along y                                    [pixel]
#   5 X_WORLD                Barycenter position along world x axis                     [deg]
#   6 Y_WORLD                Barycenter position along world y axis                     [deg]
#   7 A_WORLD                Profile RMS along major axis (world units)                 [deg]
#   8 B_WORLD                Profile RMS along minor axis (world units)                 [deg]
#   9 THETA_WORLD            Position angle (CCW/world-x)                               [deg]
#  10 FWHM_WORLD             FWHM assuming a gaussian core                              [deg]
#  11 ELONGATION             A_IMAGE/B_IMAGE                                           
#  12 ELLIPTICITY            1 - B_IMAGE/A_IMAGE                                       
         1 -11.5538     14.5133     38.9736   1.0060070987e+02   6.7045575683e+01    0.6263471    0.3614311 -60.71  0.002851788    1.805    0.446
         2 -12.5834     61.8035     44.0191   8.1491402306e+01   6.0941116313e+01     0.592528    0.2878066 -38.17 0.0005363812    1.891    0.471
         3 -10.0151     40.9239     21.1331   8.0682287577e+01   6.7555817578e+01    0.3783465    0.2831831 -50.87   0.00129973    1.950    0.487
         4 -11.1915    221.5758     29.2190   4.0828229072e+01   2.7022047542e+01    0.4835014    0.2647512 -38.58   0.00244185    1.683    0.406
         5 -10.2211     15.9740     17.4841   9.1578813546e+01   7.0802959231e+01    0.3932304    0.2439579  -3.00  0.001918424    1.556    0.357
         6 -11.2020     18.3705     22.4771   9.2472989115e+01   6.9765516861e+01    0.5081379    0.2439302 -47.43  0.002129187    1.874    0.466
         7  -9.5878    127.3292     18.5234   5.1533799681e+01   5.1170332662e+01    0.4437881    0.2600806 -60.10   0.00192161    2.611    0.617
         8 -10.6939     62.2698     23.7182   7.2731922562e+01   6.4048002273e+01    0.5133099    0.2730493  25.83    0.0022437    1.996    0.499
         9 -10.1614     60.7092     17.5896   7.0514542353e+01   6.5117932103e+01    0.4433955     0.236223  21.45  0.001906509    2.118    0.528
        10 -10.9562     68.0003     15.2736   6.6663817202e+01   6.4145272184e+01    0.2921501    0.2383529  -5.61 0.0003460919    1.122    0.109
        11  -9.7375     69.6669     11.7510   6.4410199092e+01   6.4244564370e+01    0.2093161    0.1653006  30.08 0.0002077687    1.137    0.120
        12 -10.6072    182.8095     17.8500   4.2311887715e+01   3.7585883558e+01     0.538256     0.321634  25.51  0.001753107    2.572    0.611
        13 -12.5163    116.8952     22.3050   5.5242589762e+01   5.3216465489e+01    0.2950523    0.2792838  48.89 0.0005735343    1.105    0.095
        14 -10.8526     26.8652     21.2158   8.7546643071e+01   6.9174823101e+01    0.5701096    0.2768663 -15.49  0.002656603    2.681    0.627
        15  -9.7267     32.4493     12.3667   8.0526973947e+01   6.9885634922e+01    0.2236158    0.1846229 -27.49 0.0007726293    1.369    0.269
        16 -11.7060      5.3953     16.2692   9.6910898338e+01   7.1799148989e+01     0.444039    0.3641706 -65.94  0.001620438    1.830    0.454
        17  -9.9410    199.4836     18.2983   4.0463777807e+01   3.3482165675e+01    0.3556149    0.2138956 -28.41  0.001504224    1.774    0.436
        18 -11.4808    165.6433     18.2972   4.4771825906e+01   4.1788411792e+01    0.4067363     0.286051  52.05 0.0008438539    1.361    0.265
        19  -9.8549    209.6517     14.2701   3.8382642537e+01   3.1507727887e+01    0.3065616    0.2370458 -28.17 0.0008701037    1.431    0.301
        20  -9.6517    225.4207     17.0761   3.7574556215e+01   2.7572751488e+01    0.2929772    0.2370386  -0.32   0.00147416    1.725    0.420
        21 -10.4437    230.2310     15.2359   3.6729933916e+01   2.6703018304e+01    0.3545896    0.2100662 -28.02 0.0008558265    1.822    0.451
        22  -9.5466     45.5328     15.7379   7.6006587378e+01   6.7699229449e+01    0.3801032    0.2857825  27.64  0.002456711    1.339    0.253
        23  -9.4301    116.9151     15.1753   5.2532757750e+01   5.3961856983e+01    0.3396073    0.1954863  48.33  0.001070888    1.521    0.342
        24  -9.6720     23.6899      1.3700   7.9275492004e+01   7.2392731127e+01    0.1623379    0.1156212  23.71 0.0001570476    1.426    0.299
        25 -10.0888     17.4689      1.8829   8.3010696070e+01   7.3003443663e+01    0.3353598    0.2008074   3.50  0.000815945    1.559    0.359
        26 -11.0827     24.8898      6.7107   8.1517626604e+01   7.1550660646e+01    0.2324357    0.1800692 -32.07 0.0004276537    1.444    0.307
        27 -10.9051     13.9691     11.2200   8.9790187825e+01   7.1975034645e+01    0.3796055    0.1966371 -20.58 0.0003957616    1.805    0.446
        28 -11.9053     20.1363      7.0023   8.4244103276e+01   7.2020510829e+01    0.3530615    0.2047664 -33.62  0.001805681    1.480    0.324
        29 -10.9073    175.1799     11.4970   4.1476661834e+01   4.0116175747e+01    0.5306976    0.2952644  38.85  0.001197339    2.200    0.545
        30 -10.9124    133.1687     12.7831   4.8338550194e+01   5.0336792221e+01    0.2304161    0.2096391  24.41 0.0003022886    1.124    0.110
        31 -10.2672     89.1022     13.3839   5.8909891346e+01   6.0273390019e+01     0.221081    0.1878715   9.47 0.0004293906    1.091    0.083
        32  -7.4638     51.9907     13.7871   7.2239491932e+01   6.6996631629e+01    0.6485035    0.3274089 -21.02  0.003297538    1.981    0.495
        33  -8.6169     46.4891      8.5453   7.1979776428e+01   6.8479251759e+01    0.1982266    0.1468674  18.24 0.0001463263    1.163    0.140
        34  -9.4329     53.4980      9.6700   6.9566270982e+01   6.7259717444e+01    0.3326987    0.2529693  78.48  0.001223114    3.326    0.699
        35  -9.0192     49.6393      8.2934   7.0486255611e+01   6.8029145957e+01    0.2603432    0.1989347   2.57  0.001240067    1.060    0.056
        36 -10.5742    147.0500     11.9987   4.5655535994e+01   4.7022324314e+01    0.5864089     0.413781 -82.72  0.001350168    1.659    0.397
        37  -9.3622    142.2501      8.1870   4.5177114493e+01   4.8548997918e+01    0.2155982    0.1723968  15.44 0.0006712943    1.409    0.290
        38  -9.6555    138.8601      6.8953   4.5301843738e+01   4.9489238652e+01    0.3087183    0.1848221 -17.11  0.001186718    1.910    0.476
        39  -8.3037     75.8063     12.6775   6.2738224031e+01   6.2995282277e+01    0.2663567    0.1225005 -44.44  0.001083349    3.454    0.710
        40  -9.0957     26.2545     12.2289   8.3616781340e+01   7.0619737146e+01    0.2083648     0.133955 -39.00 0.0006338665    1.572    0.364
        41 -11.3346     16.0222      8.0203   8.7058727895e+01   7.2276115666e+01     0.274161    0.2432862 -27.15 0.0008547076    1.496    0.332
        42  -8.9874    219.1197     11.8023   3.6900989445e+01   2.9580997640e+01    0.2047127    0.1506464 -67.94  0.001160782    1.225    0.184
        43  -8.3706     98.2567     11.6689   5.5648267856e+01   5.8503056035e+01    0.2105425     0.114538 -21.14 0.0007683433    1.940    0.484
        44  -9.0271     97.7916      7.4283   5.3993848579e+01   5.9000084571e+01    0.3042993    0.1371427  -3.70 0.0009966353    3.213    0.689
        45  -8.8727     79.4291     10.3123   6.0479473219e+01   6.2540885009e+01    0.2454076    0.1189462 -13.63   0.00112588    2.343    0.573
        46  -9.0545     41.9207     10.9610   7.5272106830e+01   6.8839125660e+01     0.280882    0.1721396  13.83  0.001464463    1.586    0.370
        47  -8.4796     38.0072     10.2878   7.6763201710e+01   6.9460800725e+01     0.160714    0.1505771 -36.08 0.0009311081    1.672    0.402
        48  -9.7306    212.2332      8.7860   3.6798757147e+01   3.1483127308e+01    0.3762192    0.2088566  56.59  0.001953629    1.866    0.464
        49 -10.1133    208.8593      4.8330   3.6143747248e+01   3.2665892946e+01    0.3250671    0.2607529  67.74  0.001991055    1.243    0.196
        50 -10.0552    165.0464      7.6774   4.1666382141e+01   4.2979792335e+01    0.3553484    0.1991846 -40.88  0.001058858    1.872    0.466
        51 -10.8514    160.3188      2.8231   4.0828339007e+01   4.4573507326e+01    0.4154843    0.2809109  62.60  0.001026122    1.296    0.228
        52  -8.9991    108.7365      1.4290   4.8984855831e+01   5.7059891723e+01     0.355538    0.1493007  54.72  0.001623619    1.927    0.481
        53 -10.4537    107.7352      6.9436   5.1398953680e+01   5.6833369717e+01    0.3791501    0.3623352 -75.95  0.001929732    1.268    0.211
        54  -9.4651    111.4953      6.4911   5.0380976005e+01   5.6015746757e+01    0.2522143    0.2032875 -36.02  0.001141391    1.433    0.302
        55  -9.5740      5.9351      9.0717   9.3403237856e+01   7.2949681606e+01     0.262006     0.211417  -0.45  0.000999801    1.296    0.228
        56 -10.7563    247.9879      5.0500   3.3167313407e+01   2.3990339102e+01    0.3696518    0.2870156   4.47 0.0004208422    2.060    0.515
        57 -10.0564    224.8349      8.9701   3.5750741233e+01   2.8587281375e+01    0.2166428    0.1610079 -76.16            0    1.190    0.160
        58  -9.4841    224.3024      3.5454   3.4554616258e+01   2.9266449283e+01    0.2426215    0.1940317 -30.92  0.001104928    1.399    0.285
        59  -9.9279    202.7491      8.7162   3.7673195212e+01   3.3713085765e+01    0.2250371     0.203753 -82.47  0.001471997    1.060    0.057
        60 -10.9057    194.8542      3.7208   3.7173054956e+01   3.6079536904e+01    0.6884614    0.3008305  58.43  0.003198237    2.130    0.530
        61  -9.3361    128.3569      8.1825   4.7605687624e+01   5.1913652233e+01    0.2283249    0.1616455  61.30 0.0001460271    1.265    0.210
        62  -9.3083    120.0340      7.5327   4.8985738209e+01   5.3944016262e+01    0.2833465    0.1827194 -36.83   0.00141617    1.757    0.431
        63 -11.1062    119.4843      2.0558   4.7045847439e+01   5.4525222652e+01    0.2693197    0.1881706  49.54 0.0003916125    1.225    0.184
        64 -10.4114    115.6577      1.7516   4.7680295663e+01   5.5442348071e+01    0.2369298    0.1657078  47.69 0.0002448955    1.223    0.182
        65  -9.1836     92.3582      8.0436   5.5682796548e+01   6.0112665409e+01    0.2712677    0.2084202 -12.49  0.001632361    1.341    0.254
        66  -9.7644     86.7319      6.0464   5.6368090046e+01   6.1474999135e+01    0.4577958    0.2154627  49.15  0.002230221    1.811    0.448
        67  -9.8317     89.7026      1.6659   5.3616507309e+01   6.1230105992e+01    0.4284449    0.1448367  53.73  0.001093603    2.406    0.584
        68  -9.0054     74.1408      8.1375   6.1180609958e+01   6.3786208903e+01    0.1993177    0.1434679  21.41 0.0006011032    1.223    0.182
        69  -8.9016     29.4775      7.4610   7.9515455760e+01   7.0916234680e+01    0.1574059   0.09126735 -21.70 0.0006451343    1.489    0.328
        70 -10.3228     30.8218      3.0961   7.6492249037e+01   7.1311766110e+01    0.2614555    0.1550568 -30.64 0.0004767071    1.583    0.368
        71  -9.3435     62.2379      5.8399   6.4230725577e+01   6.6207623384e+01    0.2542236    0.2173936 -27.30   0.00169642    1.427    0.299
        72 -10.6474    238.2107      3.3015   3.3470087941e+01   2.6240902363e+01    0.3286898    0.3013354   1.91  0.002219954    1.514    0.340
        73  -9.2044     39.6603      4.5503   7.2979264988e+01   6.9949165003e+01      0.30719    0.2260441  -1.90  0.002061397    1.085    0.078
        74 -11.5526    179.7295      2.2152   3.8336614348e+01   3.9868880869e+01    0.3774137    0.2300011 -88.98 0.0006708606    1.651    0.394
        75  -9.1210    173.7062      5.1078   3.9832728465e+01   4.1081729615e+01    0.3373982    0.1681095  61.25  0.001620979    1.754    0.430
        76 -10.4422    218.8895      2.6965   3.4788359274e+01   3.0571077012e+01    0.3059507    0.2215443  70.92  0.001070396    1.330    0.248
        77  -9.8682    145.9343      2.6863   4.2788929626e+01   4.8116523365e+01    0.5110559    0.1995681  57.37  0.002214123    2.086    0.521
        78  -8.6176    133.4248      6.3396   4.6037945800e+01   5.0854692602e+01    0.2390096    0.1140065  66.55  0.001072729    1.920    0.479
        79  -9.1705     81.3285      1.7444   5.5974763584e+01   6.2959018700e+01    0.3365073    0.1773331  61.24  0.001664381    2.094    0.522
        80 -10.4983     74.0454      1.7942   5.8207192290e+01   6.4401094112e+01    0.2985929    0.1987825  45.23 0.0009030922    1.340    0.254
        81  -9.2796     69.5202      1.5341   5.9548414297e+01   6.5291119806e+01    0.2571166    0.1525166  36.90  0.001121568    1.431    0.301
        82 -10.4985     49.7923      2.1728   6.7236991490e+01   6.8683054691e+01    0.3056818    0.1577313  31.14 0.0003265096    1.750    0.428
        83  -8.6732      3.9375      2.6926   9.1489716624e+01   7.4084617076e+01    0.1550804     0.113716 -15.07  0.001149264    1.074    0.069
        84  -8.6269     43.0098      1.2064   6.9645002822e+01   6.9838971841e+01    0.1728846   0.08960163  29.41 0.0009486675    1.757    0.431
        85  -9.1546    186.1051      1.2431   3.7399643683e+01   3.8409686304e+01    0.1794367    0.0981244  81.90 0.0008830569    1.729    0.422
        86  -9.1687    127.3266      1.5259   4.5407657260e+01   5.2710934032e+01    0.3274493    0.1013071  61.55  0.001273688    2.568    0.611
        87 -10.6182      2.5461    115.9775   1.2034330061e+02   5.0477895257e+01    0.4081596    0.2584858 -81.08   0.00150644    1.301    0.231
        88  -9.3320    201.4305    249.6219   9.2630846490e+01  -4.8430081022e+00    0.2206078    0.1486685  31.49 0.0007958263    1.229    0.186
        89  -9.6994    115.9147    248.7992   1.0885633219e+02   8.0782065847e+00    0.2132099    0.1982002  72.00 0.0008330903    1.183    0.155
        90  -9.5630      4.3659    112.2302   1.1938137272e+02   5.1267521282e+01    0.2522236    0.1186666 -73.91 0.0006193359    1.676    0.403
        91  -9.8519      8.8129     98.9802   1.1625678386e+02   5.4162761690e+01    0.3144143    0.2004723  80.89   0.00111521    1.790    0.441
        92  -9.7460      3.9371     97.9805   1.1768332442e+02   5.4658688714e+01     0.216928    0.2108156  24.34  0.001095748    1.316    0.240
        93  -9.1155     83.6845    117.7675   9.6016899228e+01   4.1710211238e+01    0.2663195    0.1827629  65.12 0.0008343708    1.950    0.487
        94  -9.4095     66.9607    118.2870   1.0123349116e+02   4.3997900338e+01    0.1869128    0.1853824 -11.18 0.0005017305    1.118    0.106
        95  -9.2223    123.6362    121.0387   8.5281543501e+01   3.3782035029e+01    0.2410993    0.2128609  58.76 0.0003737666    1.224    0.183
        96  -9.2840     61.7192    114.9549   1.0216413860e+02   4.5495993777e+01    0.2570344     0.183925 -57.51 0.0002432132    1.234    0.190
        97 -10.4510     62.9366    110.9885   1.0094027672e+02   4.6310854456e+01    0.3367039    0.2092146 -53.59            0    1.412    0.292
        98  -8.6727     96.9355    113.6948   9.1061048196e+01   4.0506920125e+01    0.2415218    0.1275693  14.45 0.0007033984    4.381    0.772
        99  -9.0535     71.9996    112.9825   9.8525177554e+01   4.4605550283e+01    0.2097843    0.1892622 -60.50  0.001183563    1.044    0.042
       100  -8.5509     49.2267    111.9759   1.0549575235e+02   4.7698452037e+01    0.1864771    0.1008833 -62.21 0.0008631735    1.607    0.378
       101  -9.7178    129.7315    109.4180   8.0594195812e+01   3.5161152192e+01    0.3024688    0.1530182  47.32  0.001138358    2.081    0.519
       102  -9.2846     37.2733    108.1155   1.0857966781e+02   4.9850989649e+01    0.2875384    0.1458207 -50.35 0.0006508262    1.700    0.412
       103  -9.5845     36.1265    103.8537   1.0816045031e+02   5.0990315145e+01    0.3011374    0.2031022  69.80   0.00155367    1.943    0.485
       104 -10.1928    137.1287    107.2664   7.8044938719e+01   3.4053671861e+01    0.3075277    0.2546195  40.39 0.0004697885    1.236    0.191
       105  -8.5699    153.8749    107.1263   7.3797911587e+01   3.0372326563e+01    0.2120301     0.183309   8.28  0.001028452    1.290    0.225
       106  -8.9351     52.0200    105.6702   1.0331728524e+02   4.8924209216e+01    0.4215026    0.1744563 -71.07  0.001460777    3.266    0.694
       107  -9.0067     92.8053    106.2875   9.0435886447e+01   4.2967088818e+01     0.337014    0.1387799  34.50  0.001201449    2.696    0.629
       108  -9.7598     74.5269    104.5388   9.5746938376e+01   4.6279254545e+01    0.3090545    0.1325248 -54.38  0.001195894    2.118    0.528
       109 -11.2339    109.9944     99.3901   8.3386056284e+01   4.1400804094e+01    0.6929249    0.5986966  76.33  0.001811868    1.414    0.293
       110 -10.4522    102.9884    100.9934   8.5919670526e+01   4.2373871326e+01     0.626459    0.4007087  -8.87    0.0016705    2.720    0.632
       111  -9.8998    100.8362     98.3648   8.5843656899e+01   4.3367454300e+01    0.3684773    0.2399251  27.16 0.0001844123    1.773    0.436
       112 -10.3191    104.0782     90.9753   8.2735928786e+01   4.4399057553e+01    0.4746725    0.3131083  59.39            0    2.026    0.506
       113  -9.4973    101.5478     88.5598   8.2796183879e+01   4.5404694397e+01    0.2523112    0.2222247 -30.60 6.889355e-05    1.079    0.073
       114  -9.3645    174.9305    102.9469   6.7857395383e+01   2.6389416787e+01    0.2256305    0.2177278 -27.74            0    1.003    0.003
       115  -9.3500     68.4099    103.2544   9.7416042334e+01   4.7452688394e+01    0.3638334    0.1038269  37.71  0.001198299    3.660    0.727
       116 -10.0850     49.9589    100.1592   1.0281253841e+02   5.0484824142e+01    0.5785097    0.2274093 -40.41  0.001982067    2.868    0.651
       117 -10.6566     57.0194    100.1085   1.0043686339e+02   4.9678093374e+01    0.3881314    0.2069653 -47.72 0.0009132341    1.653    0.395
       118  -8.4493     29.5078    102.4953   1.1008197280e+02   5.1893108353e+01    0.1334198    0.1084168 -57.85 -0.0001049561    1.030    0.029
       119  -9.0152     16.9592     98.3962   1.1350845301e+02   5.3804136723e+01    0.3735025    0.1947791 -45.88  0.001954313    1.723    0.420
       120 -10.1496    124.6861     98.1741   7.8842310248e+01   3.8682965731e+01    0.4951021    0.3357975  29.35  0.001526051    1.681    0.405
       121  -8.7610     78.6462     99.7081   9.3202389109e+01   4.6806454640e+01    0.1511095    0.1092431 -18.89  0.000702923    1.681    0.405
       122  -8.8845     33.8461     97.8779   1.0776901457e+02   5.2632247293e+01    0.1997002     0.148571 -45.92 0.0004804885    1.203    0.169
       123  -8.5101     67.2481     97.6619   9.6430863158e+01   4.8940582773e+01    0.1800972    0.1349142  15.52 0.0004196725    1.555    0.357
       124  -9.5262     12.2937     94.0004   1.1434487797e+02   5.5136839356e+01    0.3724565    0.1530308 -75.70  0.001469507    2.363    0.577
       125  -9.5908    135.4761     96.4473   7.5433767301e+01   3.6719900294e+01    0.1553804    0.1518473 -24.19 -2.827342e-05    1.019    0.018
       126 -10.1015     23.5655     95.3355   1.1077044750e+02   5.4070330139e+01    0.2394729     0.194976 -57.96 0.0008143558    1.013    0.013
       127  -9.3308     80.9715     95.1833   9.1247474060e+01   4.7496736270e+01    0.2187506    0.2021819  86.99  0.001213601    1.263    0.208
       128  -9.0264    179.0601     94.1585   6.4598015641e+01   2.7106925642e+01    0.2350416    0.2058648   1.57 0.0005023776    1.275    0.215
       129  -9.9604     51.9589     93.9903   1.0072674744e+02   5.1728850620e+01    0.2012921    0.1777349 -51.60 0.0002964799    1.036    0.035
       130 -10.3315     46.9172     93.4673   1.0234844365e+02   5.2410547059e+01    0.3620857    0.1850292 -49.52  0.001696596    1.650    0.394
       131  -8.5147     21.4086     87.5508   1.1005598153e+02   5.6061204102e+01    0.1491051    0.1161822 -18.20 0.0001257566    1.442    0.307
       132  -9.2798     32.7181     92.3779   1.0704925588e+02   5.4039339537e+01    0.4007786    0.2407113 -39.88  0.001458134    1.588    0.370
       133 -10.9508     29.0062     86.4931   1.0713128179e+02   5.5733035834e+01    0.8329463    0.2979509 -45.76   0.00350111    2.393    0.582
       134  -9.0158    129.8641     96.8586   7.7047850655e+01   3.7858806714e+01    0.2277197    0.2064219  -6.15  0.001156076    1.151    0.131
       135  -9.3510    117.0799     91.3850   7.9008574272e+01   4.1723848109e+01    0.2648636    0.2060678 -27.23 0.0006453559    1.331    0.249
       136  -8.6699    157.7991     90.5956   6.8227880372e+01   3.2795974934e+01    0.2052502    0.1519166  63.14 0.0003138023    1.527    0.345
       137 -10.1711    124.5774     88.9381   7.6162457770e+01   4.0657528943e+01    0.3914914     0.273944 -54.09  0.001280783    1.577    0.366
       138 -10.1097     87.6681     87.1753   8.6796217420e+01   4.8204586182e+01    0.7174345    0.2829166 -52.18  0.002538264    2.623    0.619
       139  -8.5962     52.5006     90.5173   9.9702046475e+01   5.2482594252e+01     0.138135    0.1217682 -51.32 0.0008099128    1.051    0.049
       140  -9.6077    189.2672     87.1375   6.0671211933e+01   2.5982601916e+01    0.2418418    0.2335493 -10.90   0.00050482    1.069    0.065
       141 -10.1856     68.9669     87.1436   9.3080398093e+01   5.1137952923e+01    0.4597975    0.3262317   7.29  0.002059749    1.733    0.423
       142 -10.6348     73.3997     81.2984   8.9872367411e+01   5.1794866670e+01    0.6047972    0.3107183 -42.09  0.002623481    1.795    0.443
       143  -9.3696     48.2370     87.9278   1.0057255367e+02   5.3567072859e+01    0.2118579    0.1857582  38.00            0    1.335    0.251
       144 -11.0808     46.7656     68.1115   9.5779901105e+01   5.8175478370e+01    0.8326669    0.4083058 -28.12  0.002830605    2.562    0.610
       145 -10.4399     49.8757     83.1713   9.8785023661e+01   5.4481493984e+01    0.6027395    0.3725354  -2.97  0.002219751    2.235    0.553
       146 -11.9935     53.0261     75.1525   9.5437490425e+01   5.5915037325e+01    0.2797708    0.2428168 -24.78 0.0002837559    1.083    0.077
       147 -10.5429     52.9105     70.3123   9.4063994473e+01   5.6983362939e+01    0.3135573    0.1974003 -52.89 0.0005199543    1.477    0.323
       148  -9.7370     43.6447     88.0973   1.0224889265e+02   5.4015070971e+01    0.2205145    0.1965246  19.52 0.0004366098    1.289    0.224
       149  -9.2054     94.1483     86.8588   8.4610747991e+01   4.7138920345e+01    0.2422348    0.2083825   6.21 0.0002666609    1.236    0.191
       150  -9.0037     54.7119     86.6729   9.7954035966e+01   5.3114261597e+01    0.2035112     0.162346 -17.92  0.000711748    1.333    0.250
       151  -8.6994      2.2418     86.7240   1.1660531874e+02   5.7364642470e+01    0.1643293    0.1063888 -49.88 0.0006014141    1.291    0.225
       152 -10.2451    129.6603     85.7696   7.3817371310e+01   4.0196191538e+01    0.2992968    0.2643173  30.86 0.0007668482    1.151    0.131
       153  -9.3348     79.2855     85.0242   8.8950420344e+01   5.0060578226e+01    0.2893321    0.2575812 -36.74  0.001471055    1.029    0.028
       154  -8.8723     81.6786     82.3260   8.7343805146e+01   5.0267792168e+01    0.2254769    0.1503424  38.10 0.0007809583    1.610    0.379
       155 -10.4468    155.1342     84.8339   6.7165662648e+01   3.4527481333e+01     0.356273    0.2775747  35.83 0.0002611468    1.356    0.262
       156 -10.8636    151.3050     79.8739   6.6580100878e+01   3.6363860119e+01     0.480787    0.3953192  15.76  0.001228432    1.397    0.284
       157 -10.4533    117.8434     84.0114   7.6559133623e+01   4.3102711945e+01     0.383895    0.2216582 -40.79  0.001608643    1.687    0.407
       158  -9.7267     35.5651     82.5247   1.0386061563e+02   5.6089650176e+01    0.2710182    0.2028258 -60.01 0.0005934704    1.192    0.161
       159  -8.5538     38.4212     79.5155   1.0207528982e+02   5.6512296646e+01    0.1331255    0.1116679 -49.23 0.0002392041    1.041    0.039
       160  -9.3386     12.0279     74.8328   1.1097340372e+02   5.9587412150e+01     0.166199    0.1498915 -66.68 0.0004423926    1.185    0.156
       161  -9.5641     20.5728     81.8105   1.0921269124e+02   5.7452946191e+01    0.2992486    0.2178977  54.99  0.001396978    1.798    0.444
       162  -9.5030     16.1636     79.0886   1.1028349530e+02   5.8369814219e+01    0.2804211    0.1849954   8.60  0.001090235    1.846    0.458
       163 -11.3117     16.9345     73.8661   1.0890273716e+02   5.9508663231e+01    0.2946665    0.2285923 -39.27 0.0003822804    1.156    0.135
       164  -9.2083    133.0679     81.6977   7.1664916863e+01   4.0242631554e+01    0.2171115    0.1980041  22.71 0.0008911599    1.112    0.101
       165 -10.4236    110.5950     77.2168   7.6538364844e+01   4.5981209567e+01    0.5551178    0.3393324 -10.12  0.002038029    2.795    0.642
       166  -9.7913    107.0446     77.4835   7.7688535079e+01   4.6648608680e+01    0.5754687    0.3239124 -25.61  0.002250165    2.244    0.554
       167  -9.3149     42.5075     80.4007   1.0077755089e+02   5.5906404794e+01    0.3413395     0.178046 -40.88  0.001626506    1.747    0.427
       168  -9.6067      1.7795     79.5695   1.1562446885e+02   5.9028267627e+01    0.3966742    0.1442675 -74.05  0.001562069    2.524    0.604
       169  -9.4977    173.7285     68.9912   5.8548135215e+01   3.2856667023e+01    0.4066796    0.2511296  27.48  0.001179144    2.339    0.572
       170 -10.2501    179.6392     74.7553   5.9065601804e+01   3.0446805479e+01    0.4847131    0.3339935   8.55  0.002023918    2.229    0.551
       171 -10.1978    168.5694     78.0318   6.2217375132e+01   3.2558054521e+01    0.4586873    0.3095231 -13.22  0.001939423    1.962    0.490
       172  -9.2630    175.2923     75.2928   6.0062968924e+01   3.1408619797e+01    0.2512892    0.2058088  46.57 0.0002130026    1.250    0.200
       173 -10.5614    170.5635     73.6251   6.0524959996e+01   3.2844572662e+01    0.5215695    0.2885796  59.17  0.002137366    1.905    0.475
       174  -9.6472    140.7932     78.8236   6.8800862719e+01   3.9026670756e+01    0.2585714    0.2432346  -6.16 0.0003677676    1.067    0.063
       175 -10.9681    158.0246     76.7430   6.4106624416e+01   3.5331394541e+01     0.355909    0.3015643  36.41 0.0004624436    1.221    0.181
       176 -10.6989     63.4284     75.6768   9.1748753822e+01   5.4461249437e+01    0.4676884    0.3901935  41.10  0.001931666    1.400    0.286
       177 -12.0787    199.7375     71.8305   5.4689240531e+01   2.6105067041e+01    0.3593998    0.2780256 -27.60 0.0004572973    1.332    0.249
       178  -9.5213    126.3073     75.6512   7.1573690393e+01   4.2922581524e+01    0.3146948    0.2404606  10.95 0.0005735959    1.584    0.369
       179  -9.3875     82.9758     74.7717   8.4566288002e+01   5.1663301773e+01      0.39342    0.2521533  -8.79  0.001486892    2.272    0.560
       180  -9.4728     93.4625     67.0295   7.8511717345e+01   5.1352011252e+01     0.365803    0.2061687 -39.13  0.001098371    1.700    0.412
       181 -11.0488     89.6485     72.6619   8.1642613102e+01   5.0935954006e+01    0.6097183      0.35287 -47.00  0.002717912    1.712    0.416
       182 -10.4091     94.1144     72.1544   8.0012123357e+01   5.0221879176e+01    0.5303657    0.2877304 -27.61     0.002117    2.220    0.550
       183 -10.2349     58.0697     82.8102   9.5728313439e+01   5.3583130159e+01    0.4596274    0.2842175  58.44   0.00199328    2.613    0.617
       184  -8.8694     28.8656     75.3515   1.0466989511e+02   5.8304649393e+01    0.1838939    0.1471743 -35.88   0.00114624    1.134    0.118
       185 -10.4804    152.1250     72.2701   6.4078836426e+01   3.7545780391e+01    0.2783248    0.2393049 -41.19 0.0001962243    1.167    0.143
       186  -9.4362     68.9565     74.0396   8.9248907516e+01   5.4029312784e+01    0.2170212    0.1853654 -33.91 0.0006748271    1.042    0.040
       187 -10.4084    138.0480     72.1718   6.7408821271e+01   4.0895903812e+01    0.4281181    0.2360159  45.87 0.0004004154    1.807    0.447
       188  -8.6755    147.6750     64.6562   6.2723825606e+01   3.9929984401e+01     0.215566    0.1579812 -11.86 0.0008086488    1.636    0.389
       189 -10.6761    143.4077     66.4656   6.4291372507e+01   4.0643176263e+01    0.4773178    0.3547973 -21.45  0.001973378    1.461    0.316
       190 -10.4758    135.7239     64.5966   6.5555226435e+01   4.2778965873e+01    0.5924903    0.3183447  48.82  0.002448886    1.825    0.452
       191 -11.7040     79.7981     69.9318   8.4094369953e+01   5.3191868648e+01    0.2632579    0.2429839 -13.36 0.0003318553    1.044    0.042
       192 -10.0240     75.3233     66.0123   8.4371181451e+01   5.4713962987e+01    0.3720017    0.2452644 -31.03 0.0002932363    1.465    0.318
       193  -8.9368    101.0371     70.0066   7.7094913764e+01   4.9320543611e+01    0.2256455    0.2091211 -18.51 0.0004750617    1.028    0.027
       194  -9.2724    157.4001     68.7707   6.1834774475e+01   3.6879480073e+01    0.2608238    0.2090518  56.32 0.0005451536    1.256    0.204
       195  -8.7964     63.9900     69.2788   8.9571990658e+01   5.5750190512e+01    0.1888575    0.1683091  -3.98 0.0004103224    1.114    0.102
       196  -9.6031     36.0092     52.0338   9.5155142913e+01   6.2657881384e+01    0.9309274    0.1965695 -50.47  0.003192114    3.648    0.726
       197 -10.1025     39.9477     58.1587   9.5473618612e+01   6.1009892670e+01    0.3268505     0.247527 -13.83  0.001124241    1.304    0.233
       198 -10.7795     23.3340     62.9429   1.0374430424e+02   6.1483384284e+01    0.7420338    0.3836572 -44.32  0.002407599    1.546    0.353
       199 -10.2104     22.1580     57.8545   1.0285960970e+02   6.2661315965e+01    0.7829579    0.3513315 -73.75  0.002821974    4.387    0.772
       200  -9.9084     46.9488     47.1806   8.8786749841e+01   6.2387880174e+01     0.645734    0.2583655 -49.99  0.002280704    2.492    0.599
       201  -9.3251     32.3946     41.9792   9.3273644338e+01   6.4976045954e+01    0.3233542    0.2518961 -53.33  0.002030493    1.438    0.305
       202 -10.2284     29.6840     53.1447   9.8241536597e+01   6.3029724166e+01    0.3127139    0.2211279  -8.02  0.001878912    1.472    0.321
       203  -9.8473     25.2020     53.1593   1.0019164657e+02   6.3406788695e+01    0.4550032    0.1549262 -49.58  0.002020176    2.199    0.545
       204 -11.2062     40.7838     38.0554   8.8001652930e+01   6.4794684802e+01    0.5852637    0.3043628 -21.60  0.001692598    2.226    0.551
       205 -10.2591     37.7912     46.0627   9.2330631924e+01   6.3645413738e+01    0.3329692    0.3156687 -11.90 0.0009523991    1.274    0.215
       206 -11.4436     32.3822     64.5540   1.0048367575e+02   6.0391231300e+01    0.5489357    0.3438118 -37.87  0.001104472    1.373    0.272
       207 -10.4715     31.4675     58.4688   9.9105633319e+01   6.1767921231e+01    0.3070191    0.2425535 -63.91  0.001428226    1.412    0.292
       208  -8.8419     10.3042     69.1829   1.1046845283e+02   6.0953155299e+01    0.2057779    0.1094026 -48.20  0.000780573    1.454    0.312
       209  -9.7253     14.9703     64.8186   1.0763104784e+02   6.1646646509e+01    0.3007013    0.2255266 -13.52  0.001386951    1.435    0.303
       210 -10.7338      2.2603     67.5882   1.1328947047e+02   6.1703797978e+01    0.3862768    0.1973197 -57.60  0.001741578    1.424    0.298
       211 -10.3247      8.9834     62.2166   1.0946691184e+02   6.2560319283e+01    0.3450325    0.2475245 -25.83    0.0010555    1.376    0.273
       212 -10.8767      1.7209     61.9661   1.1237366077e+02   6.2964160946e+01     0.388293    0.1660158 -61.39 0.0006570838    1.724    0.420
       213 -11.0911      6.1007     59.1269   1.0995289744e+02   6.3378645457e+01    0.3616204    0.3116811  83.71 0.0007448672    1.483    0.326
       214  -9.5539    119.8319     66.9029   7.0500918461e+01   4.5982468882e+01    0.3405055    0.3061762   0.54  0.001477423    1.112    0.101
       215  -8.8709    121.2726     63.3417   6.8909345592e+01   4.6300289768e+01    0.2352225     0.202129   9.58 0.0004093951    1.209    0.173
       216  -9.4926    106.1762     66.9137   7.4472492975e+01   4.8879984136e+01    0.3349371    0.3096997  20.25   0.00151395    1.066    0.062
       217 -10.1677    203.3312     63.4009   5.1871346029e+01   2.6584695035e+01    0.4152586     0.383573  -7.25   0.00150105    1.221    0.181
       218  -8.6264    170.9641     64.9656   5.7905592360e+01   3.4196107158e+01    0.1758486    0.1700568 -42.31 0.0003309079    1.033    0.032
       219 -10.1482     83.1059     63.0663   8.0628452165e+01   5.3990440326e+01    0.3984744    0.2792609 -52.98 0.0009951862    1.643    0.391
       220  -9.2882     99.6761     63.9467   7.5464740706e+01   5.0740315639e+01    0.3117918    0.1927154  41.42  0.001146567    1.640    0.390
       221 -11.4759    161.5632     60.3887   5.8398729062e+01   3.7244949116e+01     1.169886    0.4873054  44.19  0.004147895    2.630    0.620
       222 -10.3585    167.2288     56.7842   5.6187020457e+01   3.6411343775e+01    0.3060465    0.2884013  17.89 0.0003196487    1.129    0.114
       223  -9.6944    163.2787     54.8412   5.6360431396e+01   3.7685527425e+01    0.3136595    0.2322983 -70.66  0.001142704    1.660    0.397
       224  -9.7548    194.1900     60.9150   5.2638164562e+01   2.9157431962e+01     0.359595    0.2428678 -39.03 0.0003274874    1.424    0.298
       225  -9.9162    151.7226     59.5944   6.0221589496e+01   3.9782845103e+01    0.4653122    0.2572016  52.60  0.001545837    1.756    0.431
       226 -10.5861     70.6357     60.0783   8.4043811336e+01   5.6627057229e+01    0.3123586    0.2874233  46.04 0.0008104972    1.340    0.254
       227  -7.9693    216.6491     60.6956   4.9234795508e+01   2.3879318992e+01    0.1392211    0.1084325  24.87 0.0007041083    1.704    0.413
       228  -9.7767    180.3915     58.5729   5.4301057182e+01   3.2886100328e+01     0.462226    0.2724971 -30.14  0.002040989    1.757    0.431
       229  -9.7284    136.8284     55.8547   6.2407741957e+01   4.3969789118e+01    0.4095611    0.2847165   1.28  0.001420496    1.927    0.481
       230  -9.5394    129.1237     58.4203   6.5171748119e+01   4.5358664414e+01    0.3658547     0.282869 -59.07  0.001781253    1.578    0.366
       231  -9.9366     15.9229     59.8708   1.0602531691e+02   6.2662034067e+01    0.5512316    0.2432257 -73.24   0.00228301    3.205    0.688
       232  -9.2568      8.3315     43.9348   1.0505706441e+02   6.6443952491e+01    0.1682238    0.1524604 -21.93 0.0003696416    1.241    0.194
       233 -11.0389      5.0811     37.9361   1.0482564327e+02   6.7818208107e+01      0.44565    0.3762169  87.19  0.002111122    1.734    0.423
       234  -9.8377      5.1829     31.6728   1.0278673812e+02   6.9026845425e+01    0.4225895    0.2218926   6.60  0.002484635    2.116    0.527
       235  -8.7048    192.3355    248.3169   9.4132039515e+01  -3.3405630042e+00    0.1249064   0.08051232   9.14 0.0006095067    1.696    0.410
       236 -11.1455     11.5337     46.7766   1.0440183344e+02   6.5680754697e+01    0.8036656    0.1933846 -54.81  0.003324829    2.777    0.640
       237 -10.3165      6.8520     50.2852   1.0747149188e+02   6.5218552721e+01    0.3193516    0.2063909 -65.87  0.001379272    1.487    0.328
       238 -10.4101     71.1458     51.8669   8.0897809393e+01   5.8091382770e+01    0.4304021    0.2922686  -0.02  0.001197092    1.742    0.426
       239  -9.7560    163.7587    246.6317   9.9338234264e+01   1.2045119397e+00    0.1789453   0.09492804  42.52 0.0009496384    1.628    0.386
       240 -10.6285     65.4023     49.5320   8.2199710697e+01   5.9416032082e+01    0.4348812    0.2559666 -18.94  0.001425191    2.008    0.502
       241 -10.6262     67.6971     44.1897   7.9266699185e+01   5.9999307393e+01    0.4182323    0.2802936   9.82  0.001764327    1.673    0.402
       242  -9.0461    105.0932     57.3929   7.1497969295e+01   5.0821958519e+01    0.2391071    0.1882615 -20.71 0.0004789786    1.267    0.211
       243 -12.2517    225.8271     55.3097   4.6692027400e+01   2.2578577060e+01    0.2946635    0.2378503 -49.87 0.0003116994    1.117    0.105
       244 -10.0163     83.3571     52.5013   7.6748041172e+01   5.5895394059e+01    0.5747768    0.2770733 -21.82  0.002060254    3.161    0.684
       245  -8.7904     79.8391     49.1754   7.6729522723e+01   5.7101869293e+01    0.3251657    0.2267846 -62.75  0.001229036    2.355    0.575
       246  -7.9532     55.2702     57.3318   8.8978054048e+01   5.9372861236e+01    0.1395825   0.09074265 -22.31 0.0002456957    1.588    0.370
       247  -8.0837     48.6470     57.7155   9.1763996653e+01   6.0126623133e+01    0.1387893   0.08994995 -18.47 0.0007019744    1.662    0.398
       248 -10.9407    119.8051     53.2868   6.5849302565e+01   4.8324032892e+01    0.9505074    0.4887918  40.09  0.001982832    1.995    0.499
       249 -11.5294    125.2014     45.6175   6.1748549484e+01   4.8273610984e+01    0.4665823    0.4015527  19.61  0.001006937    1.165    0.142
       250 -10.1846    124.5113     29.9650   5.6304086317e+01   5.0546395954e+01     1.030964    0.5533844  75.06  0.004005548    2.864    0.651
       251 -10.8223    127.2696     39.5148   5.9083701589e+01   4.8658357140e+01    0.6047849    0.3274086  58.63  0.000777346    1.864    0.463
       252 -10.2133    131.1806     36.1073   5.6970151335e+01   4.8188266552e+01     0.413303    0.3314909  67.97  0.001052666    1.324    0.245
       253  -8.4699    243.2686     55.6399   4.4717585986e+01   1.8721885392e+01    0.1654787     0.119586  58.24 0.0005800098    1.545    0.353
       254 -10.7238    191.4901     54.3707   5.1267065470e+01   3.0796951649e+01    0.2983095     0.257273 -29.68 0.0008490332    1.203    0.169
       255 -10.6625    154.0878     49.3089   5.6464842119e+01   4.0782623555e+01     0.529541    0.4376135  67.06  0.002788166    1.227    0.185
       256  -9.8425    149.4005     54.8287   5.9210210344e+01   4.1101328854e+01    0.3579563    0.2122332  47.24 6.450366e-05    1.651    0.394
       257  -9.4628    145.4062     52.1974   5.9232439970e+01   4.2477964261e+01    0.3412276    0.2376225 -32.87  0.001636304    1.466    0.318
       258  -9.3777    146.4923     48.5334   5.7800392378e+01   4.2760876943e+01    0.2710048    0.1486902 -26.42  0.001135621    1.987    0.497
       259 -10.0331     84.0014     45.6467   7.3926466409e+01   5.6945761043e+01    0.3978277    0.2492183 -53.27  0.001180822    2.236    0.553
       260 -12.2473    103.6375     39.5065   6.5323967650e+01   5.3977166690e+01    0.5777512    0.4350227 -27.48 0.0006496682    1.336    0.252
       261  -9.3244     93.2838     54.9658   7.4324330512e+01   5.3610825855e+01    0.2571194    0.2143691 -20.42 0.0006197416    1.137    0.120
       262 -11.8952     94.8878     48.4792   7.1406137427e+01   5.4396296853e+01    0.9753067     0.579514  42.18  0.002955017    1.660    0.397
       263  -9.2624     52.4954     54.1988   8.9005178677e+01   6.0348864502e+01    0.2414164    0.2050334 -51.72  0.001056202    1.341    0.254
       264  -8.5087    106.7775     53.0719   6.9447951768e+01   5.1202998175e+01    0.1920464    0.1555009  12.08  0.000290511    1.278    0.217
       265 -10.0932     18.2534     47.1441   1.0145147089e+02   6.5164071454e+01    0.6614106    0.2847778 -62.68  0.003034012    2.530    0.605
       266  -8.5616     21.8108     45.9791   9.9467903715e+01   6.5132440104e+01    0.1769997    0.1138908 -31.11            0    1.321    0.243
       267  -8.9937    175.7156     50.1371   5.2664872672e+01   3.5298640472e+01    0.2631178    0.2052575  -3.00   0.00131419    1.591    0.372
       268  -9.0674    181.2312     48.9493   5.1390223986e+01   3.4102934513e+01     0.228154    0.1873641 -63.08  0.001209693    1.260    0.207
       269  -8.4944    137.2821     49.6293   6.0218840322e+01   4.4826455332e+01    0.1502755    0.1129669 -64.35 0.0007014605    1.698    0.411
       270  -9.7372    203.9744     46.5016   4.7305567301e+01   2.8901733772e+01    0.3888685     0.209347  45.81   0.00162628    2.169    0.539
       271  -8.9030    196.7593     48.2764   4.8797745522e+01   3.0392084836e+01    0.1905445    0.1594678  39.31 0.0009281416    1.357    0.263
       272  -9.4618     31.7385     47.8035   9.5605890203e+01   6.3914476401e+01    0.1761262    0.1364752 -28.65 0.0005081485    1.058    0.055
       273  -9.9722     60.8155     57.8882   8.6996024271e+01   5.8509844262e+01    0.5086538     0.250154 -46.71  0.001040374    1.894    0.472
       274  -9.9572    232.1616     46.4050   4.3799135805e+01   2.2410514635e+01    0.2848016    0.2532944 -73.28  0.001204702    1.058    0.055
       275 -10.2722    114.5505     46.2210   6.4752100531e+01   5.0605060603e+01    0.2959198    0.2337553 -12.19 0.0009955582    1.318    0.241
       276  -9.4688     26.6713     44.9234   9.6907781319e+01   6.4940413196e+01    0.4058765    0.1364171 -42.79  0.001403681    2.354    0.575
       277  -9.7072    245.1504     45.1111   4.2118098065e+01   1.9774302531e+01    0.3460974    0.2685175 -80.01  0.002101076    1.274    0.215
       278  -9.0523    164.3443     46.3502   5.3556788008e+01   3.8665637651e+01    0.3425343    0.1483107  48.02 0.0009841267    2.317    0.568
       279  -9.1346    176.0244     44.5406   5.0970396050e+01   3.6011659147e+01    0.2513719    0.2224845  72.78 0.0008780225    1.098    0.089
       280  -9.4686    179.5112     42.9796   4.9947286648e+01   3.5359369929e+01    0.4950135     0.223239 -22.72  0.001862836    2.782    0.641
       281  -9.6499    200.0047     43.4285   4.7033749541e+01   3.0275668895e+01    0.2458591    0.1990918 -35.32 0.0003348219    1.247    0.198
       282  -9.5064    140.9213     43.8468   5.7456327986e+01   4.4791290179e+01    0.4583858      0.15616  47.70  0.001573541    2.797    0.642
       283  -9.7993    149.3015     42.8703   5.5366986078e+01   4.2878571014e+01    0.6533113    0.1913427  53.16  0.002163151    2.998    0.666
       284 -10.1280     53.1580     42.9034   8.4563450119e+01   6.2371892568e+01     0.246511    0.1970297 -45.79    0.0004341    1.400    0.286
       285  -8.8079    157.7784     43.3971   5.3868430755e+01   4.0709386270e+01    0.2497028    0.1509597  35.85  0.000732524    1.942    0.485
       286  -9.0701    158.1551     39.0334   5.2423515189e+01   4.1204434338e+01    0.2785858    0.1928546 -51.65  0.001075806    1.594    0.373
       287  -9.0178    191.0845     39.9552   4.7340992237e+01   3.2909242454e+01    0.3276273    0.1887099 -19.72   0.00144958    2.143    0.533
       288  -9.3093     90.9920     40.9930   6.9781980912e+01   5.6350909607e+01    0.2056236    0.1902215  -4.66 0.0004381335    1.095    0.087
       289  -8.9627    215.0216     38.9877   4.3963962728e+01   2.7301034003e+01    0.2250328    0.1440746 -67.19 0.0009954056    1.675    0.403
       290  -9.5422    186.5051     37.0053   4.7179215940e+01   3.4419056306e+01    0.2506763    0.2185235 -87.75 0.0006556619    1.113    0.102
       291  -9.3742    182.1955     38.8364   4.8337158142e+01   3.5246156136e+01    0.2474671    0.1924711 -79.35 0.0005254629    1.375    0.272
       292  -9.7414    176.4519     36.2362   4.8469394591e+01   3.7007843764e+01    0.3907825    0.2473132  82.15  0.001244569    1.788    0.441
       293  -8.8797    165.9152     39.5100   5.1182288345e+01   3.9208445513e+01    0.2066609     0.135751  62.93 0.0003665381    1.461    0.316
       294 -10.2413     83.2029     33.0131   6.9137934813e+01   5.9035552931e+01    0.5939209    0.3880985  40.77  0.002389769    1.475    0.322
       295 -10.1373     77.8065     34.5613   7.1642429087e+01   5.9812919262e+01    0.4693692    0.2832066  43.65   0.00120706    1.684    0.406
       296  -9.9644     82.6104     38.8802   7.1734006430e+01   5.8278921599e+01    0.2945685    0.2153895  24.74 0.0004422831    1.325    0.245
       297  -8.9166     86.2548     36.6849   6.9618502601e+01   5.7919499623e+01    0.2439568    0.1495265 -25.43 0.0001790328    1.626    0.385
       298  -9.9357     71.2205     29.9192   7.2059584386e+01   6.1661382110e+01     0.281546    0.2512961 -39.59 0.0007624885    1.405    0.288
       299 -10.3505     75.3183     28.1366   6.9806849170e+01   6.1183759901e+01    0.3752894    0.2737039 -23.87  0.001459061    1.317    0.241
       300  -9.5342     24.5985     38.6547   9.5685818625e+01   6.6326574629e+01    0.2504098    0.1557934 -29.75 0.0009963711    1.358    0.264
       301 -10.0585    238.0706     37.8303   4.1172989842e+01   2.2252745242e+01    0.2246462    0.1982167 -88.91 0.0002951643    1.134    0.118
       302  -8.7036    202.4591     38.2953   4.5344380518e+01   3.0366341078e+01      0.23567    0.1532008 -80.41 0.0006430569    1.770    0.435
       303  -9.6618    136.0195     36.3018   5.5962088191e+01   4.7001548112e+01    0.2783863    0.2119593 -26.01 0.0009148447    1.379    0.275
       304 -11.3032    116.6009     33.6295   5.9571333907e+01   5.1918111790e+01    0.5150607    0.3337881  12.19 0.0005384664    1.962    0.490
       305 -10.2867    208.4360     34.3771   4.3580919619e+01   2.9442926949e+01    0.4811405    0.3210906  -9.24  0.001929248    2.105    0.525
       306 -10.4522    228.2744     37.7409   4.2165122189e+01   2.4428970946e+01    0.3704539    0.1961045 -40.55  0.000390828    1.686    0.407
       307  -8.9822    217.6597     34.0523   4.2431154541e+01   2.7322601904e+01      0.34651    0.1840027 -74.22  0.001403536    2.446    0.591
       308 -10.2629    154.2389     31.4147   5.0717651644e+01   4.3144194460e+01    0.7478177    0.1959129  55.71  0.002478545    3.137    0.681
       309  -9.1800    144.5159     34.5218   5.3582780565e+01   4.5161088726e+01    0.4305566    0.1765437  36.75  0.001411159    3.542    0.718
       310 -10.9278    145.2762     29.0238   5.1601597679e+01   4.5648275382e+01    0.6990489    0.4925715  34.07  0.003551115    1.519    0.342
       311  -9.3051    140.6642     25.9767   5.1466709817e+01   4.7134690417e+01    0.2051168    0.1720318  59.01 0.0003768175    1.112    0.100
       312  -9.6487    142.9001     22.7055   4.9935077630e+01   4.6952656518e+01    0.2250647    0.1993721  -8.41 0.0002797584    1.227    0.185
       313  -9.0164      1.4868    244.2327   1.2907006870e+02   2.2821344052e+01    0.1731802   0.07786257  89.10 0.0005697487    1.877    0.467
       314  -9.7551     36.0723     20.8100   8.2820967888e+01   6.8210369967e+01    0.2425038    0.1630611 -34.08 0.0005241039    1.363    0.266
       315 -10.8919     57.5881     33.9571   7.9101216416e+01   6.3254695854e+01    0.5827888    0.3343717  32.56  0.001736612    1.754    0.430
       316  -9.6971     51.9015     28.9586   7.9329807463e+01   6.4872197351e+01    0.2109033    0.1656137  28.19 0.0004206527    1.342    0.255
       317  -9.9462     48.6855     25.8530   7.9342460978e+01   6.5802613722e+01    0.3913737    0.2384643  36.86  0.002186544    1.767    0.434
       318  -9.2621     47.4693     34.6331   8.3664174842e+01   6.4560983447e+01    0.2123495    0.1408452  17.49 0.0005838608    1.521    0.343
       319 -10.2094     97.6619     27.3265   6.2264185955e+01   5.6889736466e+01     1.130703    0.3432229  46.90    0.0041162    2.907    0.656
       320 -10.6665    106.7101     32.3243   6.1687067132e+01   5.4301974309e+01    0.2940162    0.2873257  53.78 0.0008382938    1.185    0.156
       321 -12.0233    107.9761     28.5138   5.9865308052e+01   5.4508391883e+01    0.3106936     0.290664 -79.35  0.001864143    1.330    0.248
       322  -8.8850     55.5991     29.2590   7.7903279837e+01   6.4286458238e+01    0.2140408    0.1299497 -24.51 0.0005845005    1.534    0.348
       323  -8.7202    188.3090    244.7007   9.4357849951e+01  -2.2405826881e+00     0.111755   0.08972733  52.98 0.0002817009    1.598    0.374
       324  -9.9215    202.9368    242.2395   9.1227124292e+01  -4.0765443193e+00    0.1896548    0.1566184   1.64 0.0004607618    1.133    0.117
       325  -9.6466     38.2995     26.9681   8.4537472670e+01   6.6974098124e+01    0.7221034    0.4345992   1.01  0.003920355    1.855    0.461
       326  -8.0652     14.0835     28.7756   9.7215017657e+01   6.8996206561e+01    0.3921388    0.1873452  31.50  0.002122049    2.568    0.611
       327  -8.5302     36.3156    240.2897   1.2297331052e+02   2.0017982400e+01   0.09064313   0.08521102 -54.69 0.0004431072    1.592    0.372
       328  -9.7881     32.4101     26.4853   8.7125469182e+01   6.7726975878e+01    0.4389845    0.2177435 -43.85   0.00152244    1.865    0.464
       329 -10.7845     19.2979     29.0758   9.4682294256e+01   6.8536446959e+01    0.2678129     0.179862 -19.72 0.0003807253    1.285    0.222
       330 -11.5590     27.8330     31.2055   9.1307518652e+01   6.7391474404e+01    0.2884786    0.1802059 -27.75 0.0004172799    1.344    0.256
       331 -11.4113     23.4897     30.6827   9.3223004068e+01   6.7889038899e+01    0.3239622    0.2539549  -5.23  0.001319888    1.195    0.163
       332  -9.1197    233.0060     32.2378   4.0385114252e+01   2.4075507504e+01     0.188637      0.15617  70.99 0.0004507735    1.265    0.209
       333  -8.3063    235.3100     29.7078   3.9578912687e+01   2.3882284958e+01    0.1693527    0.1180241 -25.72 0.0003640463    1.606    0.377
       334 -10.7347    186.3859     29.9853   4.5231006827e+01   3.5324232213e+01    0.6973754    0.4341169  82.84  0.002050053    1.727    0.421
       335 -11.1927     42.1242     51.2065   9.2264096451e+01   6.2175833560e+01    0.9242309    0.3458686 -51.44  0.003868274    2.505    0.601
       336  -9.4348    247.5593     30.1263   3.8556810319e+01   2.1198749004e+01    0.2546528    0.1831915  51.18  0.001149521    1.723    0.420
       337  -8.9469    178.0122     25.0007   4.4977738481e+01   3.7980302728e+01    0.2910268    0.1704004  85.99 0.0009122152    1.961    0.490
       338  -8.9087    211.8712     27.9356   4.1552869811e+01   2.9428091429e+01    0.1800404    0.1755143  59.93 0.0003881111    1.197    0.164
       339  -9.1590    207.8688     26.8176   4.1717099603e+01   3.0505899902e+01    0.2354911    0.1796934 -84.39 0.0004942462    1.265    0.210
       340  -9.4399    204.9823     23.9893   4.1319585567e+01   3.1524275289e+01    0.2449755    0.2283678 -30.06   0.00117085    1.215    0.177
       341 -10.4721    164.9359     25.7881   4.7153489751e+01   4.1143554152e+01    0.3834901    0.2621213 -78.98  0.001232101    1.744    0.427
       342 -10.1637    159.1552     24.5298   4.7692211884e+01   4.2726483471e+01    0.2388066    0.2278363 -68.62  0.001448739    1.090    0.082
       343  -9.4724    133.2259     26.8883   5.3284327944e+01   4.8836394942e+01    0.3651291    0.2086374  76.97  0.001545782    2.318    0.569
       344  -9.3214    132.3873     21.8367   5.1678951337e+01   4.9606013510e+01    0.3152522    0.2351724 -28.44 0.0009044969    1.437    0.304
       345  -9.0548    247.6844    239.3565   8.2707253179e+01  -9.9345643644e+00   0.09612507   0.09233314  13.01 0.0007044828    1.746    0.427
       346 -11.0930      2.0113     24.8023   1.0207625735e+02   7.0484666703e+01    0.3342875    0.1477281 -56.50  0.001206955    1.996    0.499
       347 -11.1088    153.6560     23.0130   4.8127330660e+01   4.4262338085e+01    0.2906354    0.2390724  42.87 0.0003014815    1.207    0.171
       348  -8.7480    152.1595     18.5730   4.6952489797e+01   4.5108438638e+01    0.2011495    0.1869541 -13.16 0.0006756459    1.184    0.155
       349  -9.6665    221.1628    237.5019   8.7103235827e+01  -6.0889015355e+00    0.1969003    0.1370082   3.15 0.0006580647    1.315    0.240
       350  -8.9930    168.2901    237.6715   9.7194841917e+01   1.8733408252e+00    0.1174626   0.09328431  61.63  0.000370502    1.620    0.383
       351  -8.5896     32.1366    232.7975   1.2326018067e+02   2.1892569852e+01    0.1371929    0.1166199 -84.78 0.0004567145    1.307    0.235
       352  -9.3839    186.4978    231.4924   9.2688965599e+01  -3.4625345503e-02    0.1285722    0.1050436  18.70 0.0008103305    1.039    0.038
       353  -9.3986    234.6790     24.5723   3.8464398976e+01   2.4643565059e+01    0.2866911    0.1191972  75.02  0.001270049    2.515    0.602
       354  -9.0918    170.1395     23.3215   4.5617726688e+01   4.0126002645e+01    0.2865863    0.1887931 -82.43  0.000852654    1.780    0.438
       355  -9.6935    175.5346     21.3351   4.4264027326e+01   3.9005537293e+01    0.5031489    0.2249378  54.36  0.002150382    2.080    0.519
       356  -8.4404    162.1992    225.1806   9.6557371956e+01   4.8648392978e+00    0.2772664    0.1709565 -77.80  0.001088525    4.198    0.762
       357 -10.0866    123.7092     22.5093   5.3762088721e+01   5.1602732459e+01    0.3966766    0.2558101  89.76  0.001270294    2.392    0.582
       358  -8.7180    223.6948    225.0013   8.4543552454e+01  -4.7756955217e+00    0.1714917    0.1365765  -1.03 0.0005858844    1.079    0.073
       359 -11.1426    105.4754     21.0785   5.7597045093e+01   5.5938159537e+01     0.482601    0.2577911  60.60 0.0003886794    1.977    0.494
       360  -8.5639     85.7936     23.1834   6.4147329240e+01   5.9836714845e+01    0.1878218    0.1371058  10.31   0.00103792    1.357    0.263
       361  -8.5590      1.7999    224.3772   1.2818998600e+02   2.6505615282e+01    0.1185806   0.09478419  40.05 0.0002782077    1.517    0.341
       362  -8.6149    196.4844    222.5050   8.9277865564e+01  -2.4306890556e-01    0.1313283    0.1069641  13.24 -0.0001300956    1.058    0.055
       363  -8.9242     10.1172     22.7178   9.6945572126e+01   7.0363421627e+01    0.1541336    0.1116947 -24.94 0.0004400637    1.069    0.064
       364  -8.6850    189.3387     21.4899   4.2501338076e+01   3.5586998246e+01    0.2425326    0.1275471  -7.04 0.0009528066    3.257    0.693
       365  -8.4863     80.1759     22.4021   6.5640273144e+01   6.1029345186e+01    0.1732595     0.123163  56.41 0.0009336453    1.696    0.411
       366  -9.2166     88.7725    221.0092   1.1123122178e+02   1.7115027620e+01    0.2157747    0.1643552  45.65 0.0005896142    1.179    0.152
       367  -8.3225    183.4916    219.4998   9.1346318804e+01   2.3229597799e+00    0.1312222    0.1128595  21.71 0.0001008791    1.028    0.027
       368  -9.4303    199.1061     14.1461   3.9428923886e+01   3.4019842701e+01    0.2549583    0.1680647  68.52 0.0002648917    1.408    0.290
       369  -9.0535    203.0493    217.9254   8.7220781267e+01  -5.8590057284e-01    0.1942074    0.1586038  11.88 0.0003566274    1.042    0.040
       370  -8.3480      2.3138    212.2609   1.2753269534e+02   2.8854486852e+01   0.09207104   0.07683864 -64.41 0.0002253807    1.536    0.349
       371  -9.1065    230.8475    209.4738   8.0469410088e+01  -3.6510990708e+00    0.2037512    0.1453925   0.76 0.0003990963    1.289    0.224
       372 -10.6713    218.9259     19.0871   3.8654112954e+01   2.8823505562e+01    0.5835392     0.253349  79.95  0.002532314    2.489    0.598
       373  -9.6859    211.0925     19.8182   3.9611593442e+01   3.0558473675e+01    0.2140658    0.2119992 -16.50 0.0002928674    1.224    0.183
       374  -8.9853     93.6947     20.0769   6.0428552668e+01   5.8591096475e+01    0.2050831    0.1723774  55.89 0.0003647405    1.313    0.238
       375  -9.7887    234.3380     18.5993   3.7141030291e+01   2.5416661787e+01    0.3301624    0.1732634  81.01  0.001685028    1.927    0.481
       376  -8.2994      8.2494    203.6257   1.2597081551e+02   3.0106498774e+01    0.1199807   0.06221809  71.41 0.0006952513    1.638    0.389
       377  -9.3395     34.9377    200.8172   1.2047120659e+02   2.8109530496e+01    0.2484429    0.1223871  74.45  0.001175499    2.104    0.525
       378  -9.0284    144.3833     16.6981   4.7656651562e+01   4.7219577488e+01    0.3299267    0.1550974  69.92  0.001386678    2.166    0.538
       379  -9.1064     73.0035     16.5470   6.5469579513e+01   6.3086417705e+01    0.2031202    0.1598055 -30.76 0.0004743036    1.420    0.296
       380  -8.6327    120.4130    199.2292   1.0155178771e+02   1.6678761328e+01    0.1762501    0.1307057 -75.39 0.0005540269    1.571    0.364
       381  -9.7805      6.9252    194.7024   1.2571073705e+02   3.2103760010e+01    0.2312128    0.2019428  47.62  0.001579941    1.376    0.273
       382  -8.3074     91.9818    188.2766   1.0646693614e+02   2.3559856296e+01    0.1689908    0.1136313  40.62 0.0008714813    1.434    0.303
       383  -9.4721     55.4392    181.4084   1.1412226777e+02   3.0115035650e+01    0.2194331    0.1884608  79.95 0.0004128989    1.020    0.020
       384  -9.5238      7.6009    174.7961   1.2428597510e+02   3.6410684427e+01    0.1778009   0.08834464  88.60 0.0007554916    1.737    0.424
       385  -9.3208     17.4587    174.5133   1.2210568516e+02   3.5653250233e+01    0.1214265   0.09585413  88.80 3.275788e-05    1.016    0.015
       386 -10.0353    242.9848     14.2409   3.5475898011e+01   2.4041411881e+01    0.1744161    0.1423456 -72.70 0.0005534645    1.044    0.042
       387  -9.5903     16.4442    169.5095   1.2192691513e+02   3.6884791976e+01    0.1217878   0.09631114 -88.09 5.163252e-05    1.029    0.028
       388  -8.8791    179.4697     13.4799   4.1503861401e+01   3.8861989398e+01     0.222248    0.1199908  69.34 0.0005415355    1.683    0.406
       389  -9.3698    139.3316     13.8222   4.7576068822e+01   4.8740673303e+01    0.2547401    0.1668491  56.00 0.0006191586    1.346    0.257
       390 -10.8789      7.2672    167.5127   1.2383422311e+02   3.8083836140e+01    0.3885323    0.2412782  10.52  0.002276406    2.447    0.591
       391 -11.6345     37.8218    159.4962   1.1586521930e+02   3.7245993533e+01    0.6007702    0.3444623  60.37  0.002548081    1.844    0.458
       392 -12.0925     30.3004    154.5778   1.1719223218e+02   3.9158819179e+01    0.6292022    0.4213502  60.32   0.00328299    1.511    0.338
       393  -9.1106     20.6713    161.3324   1.2022980347e+02   3.8421478125e+01    0.1745019    0.1075147  53.14 0.0005956819    1.619    0.382
       394 -10.3475     11.3998    151.7016   1.2157964808e+02   4.1431874624e+01    0.2953659     0.209209 -71.09  0.001275493    1.189    0.159
       395 -11.5149     15.9712    142.6019   1.1955621075e+02   4.3244416006e+01    0.6530725    0.4030904 -18.34  0.002815901    2.581    0.613
       396 -11.3314      4.8047    145.7374   1.2266798905e+02   4.3301363927e+01    0.6425788    0.2396013 -76.95  0.002637336    2.133    0.531
       397  -8.9384      9.4508    147.4944   1.2167755581e+02   4.2565441177e+01    0.1960797    0.1326449 -70.43 0.0005577506    1.218    0.179
       398 -10.5904     45.6751    151.8408   1.1292426198e+02   3.8268887416e+01    0.3605054    0.1977663 -51.12  0.001768678    1.834    0.455
       399 -10.6635      2.1537    153.6394   1.2395307139e+02   4.1639660569e+01    0.6047007    0.1251052 -74.85  0.002225048    3.588    0.721
       400  -8.5240    230.2953    147.6934   6.8008581270e+01   6.3392408643e+00    0.1320041    0.1095628 -61.85 0.0002426087    1.585    0.369
       401 -10.2028     24.6058    162.7617   1.1942821021e+02   3.7738879103e+01    0.2143758    0.1875903  70.57 0.0002523109    1.159    0.137
       402  -9.4751     54.1150    145.9831   1.0985867202e+02   3.8750838845e+01    0.2010445    0.1727444 -77.44 0.0003095308    1.020    0.019
       403  -9.3104     41.8427    139.2099   1.1222649483e+02   4.1765550367e+01    0.2028584    0.1641759  82.74 0.0006448332    1.206    0.171
       404  -9.2658    236.0282    136.9755   6.4622625802e+01   7.1102815584e+00    0.2148412    0.1902722 -29.22 0.0005238202    1.072    0.067
       405  -9.1924     49.6616    136.7380   1.0968048687e+02   4.1539524526e+01    0.1923577    0.1146591 -74.96 0.0004901802    1.598    0.374
       406  -9.7038     34.4052    136.5814   1.1391452785e+02   4.3140591966e+01    0.2581545    0.2131928  45.57  0.001009528    1.349    0.259
       407  -9.3103     69.1177    135.8605   1.0401225974e+02   3.9367360607e+01    0.2026644    0.1753454  85.10            0    1.179    0.152
       408 -10.8747      3.1635    132.2012   1.2185268850e+02   4.6596516495e+01    0.7122369    0.1503035 -68.09  0.002761013    3.057    0.673
       409 -10.8920     11.8894    126.8799   1.1893929451e+02   4.7307092529e+01    0.3444999    0.2429567 -70.00  0.001577582    1.127    0.113
       410 -10.3524      8.4394    133.0430   1.2054190362e+02   4.6062578777e+01    0.3569577    0.1789363 -33.69  0.001587152    2.842    0.648
       411  -9.9315     12.7150    130.9893   1.1917451230e+02   4.6264349552e+01    0.1852584    0.1390331  86.72  0.001167249    1.212    0.175
       412  -9.7649      3.0781    123.4324   1.2099848397e+02   4.8679585550e+01    0.2709719    0.1444366  69.22  0.001118696    2.128    0.530
       413 -10.1992      6.9974    123.4738   1.1991661007e+02   4.8436918286e+01     0.229341    0.1770836 -56.15  0.001039801    1.237    0.192
       414 -10.3810     42.9165    131.0112   1.1071067438e+02   4.3675434296e+01     0.594024    0.2307224 -47.30  0.002372946    2.653    0.623
       415 -10.3882     61.3515    131.3572   1.0543557937e+02   4.1491637862e+01    0.3994443    0.2725868  42.16  0.001586919    1.586    0.369
       416  -9.2663     23.6873    133.4080   1.1645818810e+02   4.4853273221e+01    0.1997595    0.1787085  31.64 0.0006115526    1.359    0.264
       417 -10.2631     20.1553    131.3201   1.1717552266e+02   4.5639585001e+01    0.3217295    0.1602727 -64.89 0.0003710279    1.593    0.372
       418 -12.0420     28.7343    131.9593   1.1487181205e+02   4.4782394731e+01     0.283307    0.2192784 -71.28 0.0003138245    1.068    0.064
       419 -10.4338     33.8954    128.8813   1.1298271859e+02   4.5076232005e+01    0.4995077    0.3359739  66.11  0.002718319    1.681    0.405
       420  -8.4539    232.5291    128.4818   6.3280768834e+01   9.2325988172e+00    0.1438048    0.1255178 -20.69 8.531108e-05    1.045    0.043
       421  -8.3969     88.4133    127.1714   9.6707534819e+01   3.8674440831e+01    0.2083791    0.1376576 -68.35 0.0006725021    1.638    0.390
       422  -9.6593     59.8183    125.6694   1.0484912552e+02   4.3091164913e+01    0.2488662    0.1725963 -61.52 0.0001676041    1.275    0.216
       423  -9.7162     35.7146    123.3169   1.1161999182e+02   4.6274959638e+01    0.4453075    0.2181352  82.16  0.000822069    3.484    0.713
       424  -9.5890     32.6166    122.1441   1.1235756231e+02   4.6844637668e+01    0.2208085    0.1818279 -51.73  0.001361239    1.178    0.151
       425  -8.8228    217.8553    125.3786   6.5106506577e+01   1.2704236937e+01    0.2109025    0.1781669 -43.47  0.001131649    1.166    0.142
       426 -10.4352     40.4714    123.4820   1.1023473123e+02   4.5778507018e+01    0.4348095    0.3393058 -28.46  0.002515679    1.512    0.338
       427  -8.4139     71.7131    123.3733   1.0084213753e+02   4.2099697115e+01    0.1484122    0.1083309  83.13 0.0007018978    1.716    0.417
       428  -9.6736    236.9709    120.8401   6.0790954148e+01   9.6795850585e+00    0.2324862    0.1580795  16.30   0.00109393    2.018    0.505
       429 -10.7528     19.5052    109.4564   1.1442193529e+02   5.0980565951e+01    0.4516814     0.274151 -50.40  0.001585252    1.456    0.313
       430 -10.1139      9.2040    117.9016   1.1864805217e+02   4.9632838008e+01    0.3533189    0.1554881 -62.40  0.001339168    1.724    0.420
       431  -9.5100     33.8483    114.1740   1.1071644259e+02   4.8685973747e+01    0.4586976    0.2422962  75.47  0.001866663    3.088    0.676
       432  -9.9992     14.0702    113.5431   1.1666058224e+02   5.0368142521e+01    0.3501451    0.2554481  74.04  0.001346819    1.481    0.325
       433 -11.1498     21.2509    119.5871   1.1534739250e+02   4.8401745449e+01    0.5210521    0.3634159  79.90  0.003019175    1.517    0.341
       434 -10.9279     27.3215    115.8185   1.1298247476e+02   4.8842275148e+01    0.6568764     0.301096 -53.71  0.002777063    1.820    0.451
       435  -9.5878     93.4374    119.1754   9.3425047410e+01   3.9793172844e+01    0.2879971     0.252789 -37.50  0.001193926    1.131    0.116
       436  -9.0032     44.6427    119.8715   1.0837375030e+02   4.6246163166e+01    0.2142304    0.1851984  -5.50 0.0007318695    1.402    0.287
       437  -9.0151     73.5515    119.1485   9.9399910362e+01   4.2880120998e+01    0.3089749    0.1472278  59.56 0.0009625396    4.253    0.765
       438 -10.8846     54.7084    118.1175   1.0497052115e+02   4.5570046837e+01    0.2265512    0.2142111 -74.08 0.0002433234    1.085    0.079
       439  -9.4465      8.1749    107.5050   1.1764310540e+02   5.2176457128e+01    0.3449597    0.1484642 -78.07  0.001612452    2.090    0.521
       440  -9.3315      2.0167     92.9548   1.1760222003e+02   5.5928721296e+01    0.1838746    0.1446346 -70.77 0.0007064892    1.067    0.063
       441 -10.2061      3.3865    103.3321   1.1857255013e+02   5.3426482392e+01     0.826232    0.2155023 -78.49  0.002700838    4.422    0.774
       442  -9.8877     16.4497     86.3612   1.1158663834e+02   5.6671527643e+01    0.4106383    0.2465339 -46.36  0.001788125    1.416    0.294
       443  -9.1798      6.2405     93.6922   1.1631489523e+02   5.5546730473e+01    0.3436334    0.1893212 -69.66  0.001916769    1.433    0.302
       444  -9.2413      7.2684     89.1900   1.1527153952e+02   5.6544848966e+01    0.2176484     0.179836 -86.68 0.0006159583    1.253    0.202
       445  -9.3920     11.0327     85.9896   1.1343147068e+02   5.7083936821e+01    0.2694864    0.1348022 -57.71   0.00130286    1.498    0.332
