#   1 NUMBER                 Running object number                                     
#   2 MAG_AUTO               Kron-like elliptical aperture magnitude                    [mag]
#   3 X_IMAGE                Object position along x                                    [pixel]
#   4 Y_IMAGE                Object position along y                                    [pixel]
#   5 X_WORLD                Barycenter position along world x axis                     [deg]
#   6 Y_WORLD                Barycenter position along world y axis                     [deg]
#   7 A_WORLD                Profile RMS along major axis (world units)                 [deg]
#   8 B_WORLD                Profile RMS along minor axis (world units)                 [deg]
#   9 THETA_WORLD            Position angle (CCW/world-x)                               [deg]
#  10 FWHM_WORLD             FWHM assuming a gaussian core                              [deg]
#  11 ELONGATION             A_IMAGE/B_IMAGE                                           
#  12 ELLIPTICITY            1 - B_IMAGE/A_IMAGE                                       
         1 -13.2184    121.6316     37.3124   4.4311938402e+01   4.9210482497e+01    0.4178392    0.3265915 -57.53 0.0009006138    1.514    0.340
         2 -11.1073      2.0537     20.4454   8.3844784726e+01   7.1249704591e+01    0.3279122    0.2030906 -48.55 0.0005653863    1.774    0.436
         3  99.0000     15.3615      9.0682   7.1128728034e+01   7.1645504379e+01    0.6640126    0.2418997  24.40  0.003224335    2.652    0.623
         4 -11.5649     14.4900     16.3877   7.5021556353e+01   7.0765558292e+01    0.4033656    0.2700347 -49.42  0.001382861    2.203    0.546
         5 -10.2327     39.5778     15.3311   6.1963468560e+01   6.7737175047e+01     0.250596    0.1289808 -33.78  0.001105053    2.104    0.525
         6 -11.3265     68.8805     17.6176   5.1603963610e+01   6.2511814394e+01    0.3558235    0.2326275  57.04  0.001661309    1.690    0.408
         7 -11.3774    235.0566     14.7394   2.4051609514e+01   2.6954406749e+01    0.2315675    0.1752739  69.95 0.0007890969    1.468    0.319
         8 -11.1261     85.6918     11.5950   4.4242782235e+01   5.9758013242e+01    0.2463014    0.1881345  25.21  0.000929229    1.267    0.211
         9 -10.1304     60.4271     15.0288   5.3452641893e+01   6.4335118953e+01    0.2570101    0.1805653  15.14  0.001594147    1.345    0.257
        10 -11.1705    207.9916     12.9031   2.5825383164e+01   3.2564229978e+01    0.2113958    0.1777953 -45.37 0.0005443956    1.372    0.271
        11 -11.4063    203.1270     11.7914   2.6021534215e+01   3.3698850210e+01    0.3252171    0.1451547  74.79 0.0008352284    1.971    0.493
        12 -12.4048    194.3039     11.6844   2.6803979840e+01   3.5584267573e+01    0.4982008    0.3493968 -23.87  0.002884096    1.924    0.480
        13 -11.9337    125.9574     10.7763   3.5317890832e+01   5.1020984188e+01    0.3234452    0.2348642 -71.12 0.0002186916    1.631    0.387
        14 -10.9916     34.6233     12.1736   6.2774587515e+01   6.8825142490e+01    0.3038505    0.2116297  34.94 0.0008129508    1.408    0.290
        15 -11.9121     29.6161      7.9209   6.3141797591e+01   7.0008485363e+01    0.4661866    0.2570184  15.23   0.00196294    1.767    0.434
        16  -9.2811    135.0051     10.9989   3.3890686488e+01   4.8943025718e+01     0.150517    0.1207125  68.11 0.0009642557    1.037    0.036
        17 -10.2446     57.0713      9.6777   5.2369858139e+01   6.5466505918e+01    0.3136743    0.1366267 -34.42  0.001570814    2.715    0.632
        18  -9.6195     50.9890     10.9714   5.5226344586e+01   6.6394405308e+01      0.15824    0.1420134  59.91 0.0005216593    1.620    0.383
        19 -10.0682    182.1605      9.8565   2.7594763750e+01   3.8406854732e+01     0.184424    0.1369341 -81.26 0.0004901841    1.165    0.142
        20 -12.2996    116.8514      8.4879   3.6240598356e+01   5.3271311265e+01    0.2516209    0.2357492  73.49 0.0004642879    1.143    0.125
        21  -9.9377     97.5122      8.6491   4.0265411533e+01   5.7515113175e+01    0.2979602    0.1748629   7.16   0.00155189    2.363    0.577
        22 -10.2270     45.6153      9.8806   5.6890372791e+01   6.7395312862e+01    0.2023725    0.1462937  37.73 0.0005509268    1.284    0.221
        23 -11.1480    149.0625      8.1764   3.1065366457e+01   4.5991266894e+01    0.2939315    0.1845403  49.79  0.001706542    1.587    0.370
        24  -9.8243     22.0456      9.3581   6.7660065662e+01   7.0829963818e+01    0.2276555   0.08631485  27.11  0.001102158    2.477    0.596
        25 -10.8471      3.7750      6.9043   7.6834593067e+01   7.3081093851e+01     0.295043    0.1537366 -33.79  0.001806271    1.701    0.412
        26 -11.2116    164.6559      3.3134   2.7929819675e+01   4.2904139814e+01    0.2437587    0.1526483 -80.30  0.001025914    1.570    0.363
        27  -9.5899     88.6592      6.7885   4.1696649000e+01   5.9550708291e+01     0.147743    0.1107101 -30.31 0.0009241936    1.604    0.377
        28 -11.3254    191.0645      9.9572   2.6738674799e+01   3.6458294132e+01    0.2485642    0.1944113 -14.89 0.0003061338    1.869    0.465
        29 -10.3110    104.7606      4.1378   3.7164726386e+01   5.6303520063e+01    0.1973882    0.1434869  59.63 0.0004809421    1.129    0.114
        30  -9.2738     43.6379      4.2537   5.5101597940e+01   6.8270026513e+01    0.1014991   0.08704656  52.91 0.0005817874    1.620    0.383
        31 -12.0123     18.7907      2.5798   6.6031416377e+01   7.2015507719e+01    0.4482346    0.1815936  27.63  0.002169301    2.189    0.543
        32 -10.0852     59.5201      3.1953   4.8691373064e+01   6.5604689107e+01    0.2192029    0.1427607  62.01 0.0008771918    1.874    0.466
        33  -9.4121     53.9568      3.0524   5.0571480577e+01   6.6621328891e+01    0.1444532    0.1084044  32.50 0.0008962033    1.046    0.044
        34 -10.6028    149.1637      2.5486   2.9573340737e+01   4.6455836822e+01    0.2387617    0.1025314  75.09  0.001136578    2.083    0.520
        35 -10.9516    123.0810      1.8184   3.3109706331e+01   5.2409719582e+01    0.1936336    0.1451235  67.88 0.0006066745    1.099    0.090
        36  -9.7939     81.1821      1.8049   4.1709659941e+01   6.1491503115e+01    0.1669295     0.144306  70.86 0.0007019362    1.324    0.244
        37 -10.0601    168.4992      1.4745   2.7075294735e+01   4.2210079079e+01    0.1195614   0.09550211  85.17 -6.921566e-05    1.001    0.001
        38  -9.4528    115.0241      1.2086   3.4282018920e+01   5.4258521926e+01    0.1668264    0.0801918  64.26 0.0003596604    1.674    0.403
        39  -9.7503     28.4220      1.3287   6.0472658348e+01   7.0872122711e+01    0.1888695   0.08613118  37.68 0.0006996979    1.873    0.466
        40  -9.5402     68.7089    178.8439   9.5763966805e+01   2.8477296408e+01    0.2569416    0.1471851 -27.12 0.0009633609    2.822    0.646
        41 -10.3131    110.0375    250.5667   9.5300329864e+01   5.9576005125e+00    0.2037505    0.1142129  33.07 0.0005444956    1.563    0.360
        42 -11.0261     28.9112    250.5077   1.1265549191e+02   1.6432503605e+01    0.2966171    0.1047716  31.53  0.001349148    2.674    0.626
        43 -11.9811     18.3846    248.5222   1.1461754380e+02   1.7959601008e+01    0.3257585     0.241261 -50.43  0.001989332    1.796    0.443
        44 -12.0157      4.0134    233.1299   1.1658133048e+02   2.2623147070e+01    0.3526274    0.2947902  73.95  0.001225197    1.091    0.084
        45 -12.7210     10.5109    243.4975   1.1587149954e+02   1.9797460606e+01     0.805039    0.2485835 -77.51  0.003557727    3.020    0.669
        46 -12.8321      5.3986    240.0814   1.1668473601e+02   2.1006942408e+01    0.5776522    0.4682851   4.73  0.003938425    1.834    0.455
        47 -11.5115      2.9256    246.1279   1.1747356914e+02   1.9974088551e+01    0.6834143    0.2513097  52.75  0.002923917    2.205    0.547
        48  -9.3010      3.5029    177.5468   1.1297934984e+02   3.5655140660e+01     0.128436    0.1066176 -84.29 5.367097e-05    1.023    0.022
        49  -9.7183      2.0000    170.9644   1.1281526706e+02   3.7397988783e+01    0.2174019    0.0619096 -75.45  0.000631326    2.923    0.658
        50 -10.7087      5.7071    155.0002   1.1036143243e+02   4.1156894906e+01    0.2408471    0.2013384  78.47 0.0006655314    1.172    0.147
        51 -10.2730      1.7505    153.3752   1.1129868907e+02   4.1826924368e+01    0.2289886    0.1244447   2.55  0.001115963    2.541    0.606
        52 -10.8275      6.5395    145.4529   1.0911989494e+02   4.3524315796e+01    0.2326791    0.1933131 -86.70 0.0001402629    1.113    0.102
        53 -10.3225     29.0186    143.0634   1.0205002938e+02   4.2392954378e+01    0.2039898    0.1799173 -65.68 0.0002984623    1.006    0.006
        54  -9.6462     52.9922    141.7415   9.4314026609e+01   4.0205381579e+01    0.1935135    0.1857829 -70.26            0    1.053    0.050
        55  -9.6608    235.9649    138.2935   4.8301922942e+01   7.9414940001e+00    0.1758685     0.162003 -37.92 0.0005927243    1.102    0.093
        56  -9.6787     95.8879    133.8652   7.9210945561e+01   3.5851776074e+01    0.2124384    0.1885192  89.43 0.0006507102    1.295    0.228
        57  -9.4003    213.9322    134.0000   5.1021503402e+01   1.2579741621e+01    0.2122346   0.08149467  47.32 0.0008047462    2.958    0.662
        58  -9.4064     61.4802    129.9788   8.9305880288e+01   4.2169992290e+01    0.2278368    0.1394142 -58.70  0.001012628    1.533    0.348
        59 -11.1531     28.4730    127.9546   9.9892466859e+01   4.6336429162e+01    0.2226789    0.2156435   7.84  0.001381709    1.166    0.143
        60 -10.2793     41.5233    127.5140   9.5463447231e+01   4.5187527503e+01    0.1437728    0.1290264 -54.24 9.853185e-06    1.010    0.010
        61 -11.6111     10.3307    121.6346   1.0494101007e+02   4.9304959110e+01    0.4717017    0.2963349 -80.56 0.0005203248    1.565    0.361
        62  -9.0226     81.2676    123.6887   8.1432336367e+01   4.0840335149e+01    0.1475626     0.121295  81.88 0.0001989807    1.543    0.352
        63 -10.7057     25.6970    122.0149   9.9834872621e+01   4.8084306637e+01    0.3221256    0.2366895  40.26  0.001758898    1.562    0.360
        64 -10.0084     86.1897    118.8164   7.8668771400e+01   4.1221268959e+01    0.2189502     0.176912 -21.14 0.0005141292    1.333    0.250
        65  -9.6599    226.4895    124.5364   4.6963489058e+01   1.2072218783e+01    0.1365981    0.1166841 -48.86 4.892109e-05    1.031    0.030
        66 -10.6855     69.1178    116.3893   8.3737732688e+01   4.4511939254e+01    0.2882425     0.209911 -60.62 0.0008859397    1.405    0.288
        67  -9.8391     73.9006    113.1280   8.1328058362e+01   4.4585180426e+01    0.3035646    0.1668452 -34.70  0.001207146    2.057    0.514
        68 -10.2180      1.9219    113.9945   1.0668118893e+02   5.1681160563e+01    0.1954868    0.1558712 -60.98  0.001213202    1.022    0.021
        69 -10.6577     25.5995    112.0190   9.8103845217e+01   5.0595061316e+01    0.2993352    0.1753705  40.96  0.001029627    2.024    0.506
        70 -10.9561     13.2157    104.0993   1.0114913063e+02   5.3447277757e+01    0.2681937    0.2004741 -72.94 0.0004414305    1.310    0.237
        71 -11.2344     15.4789    111.4656   1.0159959696e+02   5.1496036902e+01    0.2236525    0.1801617 -54.65 0.0006658849    1.038    0.037
        72 -10.7133     13.4886    108.5023   1.0180849501e+02   5.2357322207e+01     0.260409    0.1200634 -70.84  0.001148903    2.050    0.512
        73 -10.1673     44.3266    110.0536   9.0980529053e+01   4.9269472477e+01    0.1991205    0.1674735 -51.18 0.0004026862    1.086    0.079
        74  -9.6381     35.4785    110.4931   9.4262876366e+01   5.0082975287e+01    0.1415203    0.1232908 -44.86 0.0002737884    1.004    0.004
        75  -9.4918     42.2880    107.2991   9.1114976751e+01   5.0165742009e+01    0.1468949   0.09576113 -31.73 0.0002021232    1.556    0.357
        76 -10.4591     39.1304    105.1503   9.1799663451e+01   5.1021520320e+01    0.2206515    0.1679674 -32.67 0.0005347146    1.239    0.193
        77 -11.1026     21.8544    104.7581   9.8097554035e+01   5.2675504295e+01    0.2639895    0.1715862  81.63  0.001258104    2.207    0.547
        78 -10.3030      1.4252    104.1791   1.0542746967e+02   5.4094411825e+01    0.2360266   0.09648433 -63.32 0.0006044724    1.877    0.467
        79  -9.6718     66.4794    104.5237   8.1735386379e+01   4.7752006127e+01    0.2448104    0.1430046  14.86 0.0009161221    2.140    0.533
        80  -9.9676      5.4685    103.4614   1.0386132270e+02   5.4060108395e+01    0.1311386    0.1071293 -54.09 0.0002022006    1.004    0.004
        81 -10.2731    247.0233    101.5008   3.9433924629e+01   1.2465575925e+01    0.1616904    0.1248264  60.92 0.0006533868    1.532    0.347
        82 -12.6579    197.1753     97.6158   4.5835710265e+01   2.2688660735e+01    0.2705511    0.2458488 -64.77 0.0004226193    1.018    0.018
        83 -12.3097     19.9837     92.9738   9.6445696754e+01   5.5629386532e+01    0.5246838    0.3058707 -27.99  0.002654267    1.736    0.424
        84 -11.4254      7.0890     90.6260   1.0101525664e+02   5.7015210763e+01    0.2349533    0.1835164 -53.01 0.0004046851    1.064    0.060
        85 -11.7047    125.0956     93.0469   6.0105728947e+01   3.9375021863e+01    0.2638373    0.2370511  31.71            0    1.117    0.105
        86 -11.4866     57.5338     91.5608   8.1576287923e+01   5.1995893510e+01     0.476424    0.2816605 -26.52  0.001797412    1.949    0.487
        87 -10.2387    106.1308     92.5474   6.5344385756e+01   4.3443242544e+01    0.3500904    0.1787222 -58.31  0.001238614    2.841    0.648
        88  -9.7171     11.5407     88.3189   9.8811503095e+01   5.7289000253e+01    0.2252994    0.1574187 -39.28  0.001253511    1.212    0.175
        89  -9.1177     83.5774     90.4297   7.1936209568e+01   4.8158889526e+01    0.1494788    0.1342796  -8.21 2.583939e-05    1.073    0.068
        90 -11.7351     11.3066     93.1380   9.9853854847e+01   5.6181844505e+01    0.4786024    0.2047112 -43.49 0.0005082298    1.955    0.488
        91  -9.9973    159.9310     89.1442   5.0764481697e+01   3.2375637778e+01    0.2224189    0.1902197 -84.57 0.0003982424    1.265    0.209
        92  -9.5502    141.0458     88.7542   5.4883538548e+01   3.6697059764e+01    0.1871521    0.1249548  51.53 0.0002965872    1.483    0.326
        93 -10.2605     17.8018     85.1207   9.5613982773e+01   5.7602159305e+01    0.2150873    0.2070486 -36.11 0.0006521865    1.193    0.162
        94  -8.9281     35.2903     84.3143   8.8318674613e+01   5.6266892307e+01    0.1435073   0.08871584 -28.82 0.0007002539    1.591    0.371
        95  -9.4092     30.2462     84.6157   9.0436550662e+01   5.6689879703e+01     0.168948    0.1192214  -3.42 0.0004231776    1.482    0.325
        96 -10.8157      7.6049     83.3896   9.9391631168e+01   5.8650422663e+01    0.3644461    0.1644512 -46.21  0.001676104    1.738    0.424
        97  -9.9471      2.6874     84.0810   1.0151743670e+02   5.8751715294e+01    0.1874142    0.1347914 -51.83   0.00114228    1.111    0.100
        98 -10.6065     65.3978     80.9454   7.5597120211e+01   5.3150316396e+01    0.4147969    0.2578521 -10.11   0.00178943    2.207    0.547
        99  -9.4899     43.2135     80.9139   8.4210043163e+01   5.6151347384e+01    0.1817043    0.1541517 -31.90            0    1.051    0.048
       100  -9.7293    250.4848     80.5235   3.4979966469e+01   1.5220318255e+01    0.1231826   0.09807743 -58.01  0.000254372    1.007    0.007
       101 -10.1500     86.4350     78.5125   6.7402423035e+01   5.0075110124e+01    0.3982607    0.2927966  68.21  0.001849075    2.061    0.515
       102  -9.4442     87.3411     75.3232   6.6107561459e+01   5.0520792949e+01    0.2103527    0.1425058  23.01 0.0007790255    1.600    0.375
       103 -10.1506     48.0683     78.9362   8.1701715571e+01   5.5988613614e+01    0.2082785    0.1743552 -18.85 0.0003740044    1.069    0.065
       104 -11.6221     13.4266     76.2879   9.5412634119e+01   5.9881191552e+01    0.4677981    0.2470909 -11.91  0.001902153    2.140    0.533
       105 -11.5841      4.9088     75.6569   9.8888800235e+01   6.0528476071e+01    0.4201309     0.154401 -55.41  0.001676398    2.023    0.506
       106 -10.7132     54.2591     75.9991   7.8375776988e+01   5.5789603840e+01    0.3683787    0.2750262  -6.16  0.001269822    1.369    0.270
       107  -9.6919     22.5003     76.8886   9.1708344290e+01   5.9077158423e+01    0.1899021    0.1157124 -55.84 0.0004660652    1.503    0.335
       108  -9.8809    176.9998     76.4862   4.4272050389e+01   3.0752639933e+01    0.2143011    0.1343277  58.49  0.001031591    1.587    0.370
       109  -9.6771     68.9748     74.0992   7.2164971926e+01   5.3969446246e+01    0.2069879    0.1735177  66.92  0.001099933    1.691    0.409
       110  -9.9863     34.8932     73.2418   8.5479405208e+01   5.8705597608e+01    0.2514348    0.1532916  17.15  0.001298464    1.693    0.409
       111  -9.5074    151.4278     72.4557   4.8117178884e+01   3.7244470829e+01    0.1410314    0.1347858  79.58 2.302979e-05    1.007    0.007
       112  -9.4807    105.9874     71.8063   5.9190783592e+01   4.7464094537e+01    0.1926436    0.1083934  45.35 0.0005422224    1.697    0.411
       113  -9.8183     93.4974     71.5454   6.2914237460e+01   5.0043062332e+01    0.3046007    0.1359261  45.40  0.001199555    2.203    0.546
       114  -9.3276    181.5921     70.4794   4.2019552883e+01   3.0706747607e+01    0.1348926    0.1259891 -76.42  4.95487e-05    1.048    0.046
       115  -9.0845    157.7124     70.3340   4.6276713564e+01   3.6152796676e+01    0.1454209    0.1064033 -73.87 0.0005804646    1.627    0.385
       116  -8.9905    129.3586     70.2907   5.2485063976e+01   4.2636367406e+01    0.1495856    0.1100258  22.45 0.0007027694    1.689    0.408
       117 -10.8558     80.8160     67.4240   6.5784752126e+01   5.3190400007e+01    0.3020695    0.2258752 -36.80 0.0003030016    1.362    0.266
       118 -12.6897      7.8103     65.6125   9.5290805690e+01   6.2531382815e+01    0.6480623    0.3468376 -62.26  0.002240544    1.822    0.451
       119 -14.4884     19.9287     57.8270   8.7587630584e+01   6.3251930946e+01    0.5791021    0.4048358  -8.45  0.001523222    1.331    0.249
       120  -9.5383     58.6047     66.7541   7.3759732424e+01   5.6999466415e+01    0.3850343    0.1162795 -42.89   0.00135363    3.187    0.686
       121  -9.3935    211.5626     67.4885   3.6947966111e+01   2.4705997174e+01    0.1298975     0.112256 -68.11 0.0001187111    1.020    0.019
       122  -9.6809     44.8445     68.7505   7.9966577733e+01   5.8488687860e+01    0.2458629    0.1283644 -47.74  0.001157877    1.823    0.451
       123 -10.3850     40.2074     65.1824   8.0807229494e+01   5.9757136186e+01    0.2191234    0.2086747  35.71 0.0007632073    1.360    0.265
       124  -9.9624     38.9450     61.3332   8.0125589291e+01   6.0654597317e+01    0.1865093    0.1737669 -18.26 0.0005612672    1.216    0.178
       125  -9.4031    104.3075     64.3371   5.7334580572e+01   4.9103821954e+01    0.1473532    0.1080465  11.15 0.0005346306    1.678    0.404
       126  -9.7864     63.0107     62.2149   7.0540286894e+01   5.7166366606e+01    0.2373073    0.1697832 -50.73  0.001248096    1.656    0.396
       127 -10.3100     51.7766     66.3583   7.6358958914e+01   5.8052166130e+01    0.3380749    0.2066699  -0.86  0.001571576    2.057    0.514
       128  -9.8463    145.8958     59.1113   4.5585741930e+01   4.0643371734e+01    0.2147856    0.1828051 -88.91 0.0007395534    1.239    0.193
       129 -10.2039     58.1210     58.9881   7.1353100611e+01   5.8504524239e+01    0.2213188    0.1723149  22.86 0.0006122428    1.208    0.172
       130  -9.8831     48.9736     59.2390   7.5161743161e+01   5.9777241163e+01    0.1899558    0.1800906  27.96  0.001206743    1.324    0.245
       131 -13.8621    114.5261     53.1302   5.0981800697e+01   4.8662604951e+01    0.4147048    0.3862918  40.61 0.0008285732    1.019    0.019
       132 -13.0783    106.3114     50.3932   5.2270530350e+01   5.0854370640e+01    0.3927367    0.3044506  56.80 0.0004664614    1.285    0.222
       133 -12.4935    119.3604     47.2572   4.7938225374e+01   4.8424208858e+01    0.3301548    0.2918883  57.06  0.000373105    1.066    0.062
       134  -9.1971    130.6694     57.2639   4.8339128598e+01   4.4420734335e+01    0.1377213    0.1073589 -89.43 0.0003138331    1.574    0.365
       135 -10.8060     71.2998     56.4592   6.5457960632e+01   5.6794428719e+01    0.4317545     0.227735  44.71  0.001981815    1.961    0.490
       136 -12.1497     66.9306     52.5832   6.5707892263e+01   5.8185510088e+01    0.4203234    0.2288072  33.97   0.00123114    1.733    0.423
       137 -10.5800     32.8323     55.4389   8.0904180074e+01   6.2464355687e+01    0.4742083    0.2229193   4.74 0.0008488495    3.211    0.689
       138  -9.9466     36.4773     53.9924   7.8778755954e+01   6.2320251915e+01    0.2430042    0.1728511 -26.65 0.0007450901    1.242    0.195
       139 -10.0159     38.7037     51.3276   7.6863448799e+01   6.2534443717e+01    0.2860088    0.1530493 -46.60  0.001260997    1.905    0.475
       140 -12.4748     86.4434     53.7632   5.9311929166e+01   5.4435791318e+01    0.4364955    0.2999493  37.14 0.0002028891    1.338    0.253
       141  -9.4560    225.6628     53.3328   3.2316752575e+01   2.3920340858e+01    0.1340599   0.07803932 -68.43 0.0007052014    1.741    0.426
       142 -10.1066     45.0536     52.2164   7.4395009721e+01   6.1566027817e+01    0.2361297    0.1495609 -17.39  0.001203329    1.645    0.392
       143  -9.5211    181.8459     51.9043   3.7482504466e+01   3.3446125250e+01    0.1854517    0.1395315 -68.90 0.0004875283    1.310    0.237
       144  -9.5896    149.0748     52.3303   4.3076308424e+01   4.0902343341e+01    0.1939992    0.1632869  70.10 0.0005362305    1.109    0.098
       145  -9.8911      4.3904     48.2148   9.2199287636e+01   6.6238067653e+01    0.2624542    0.1100563 -61.73  0.001099421    2.667    0.625
       146 -11.3013      3.4700     42.3531   9.0885583899e+01   6.7400160908e+01    0.4307359    0.2782024  -2.18  0.002732223    1.443    0.307
       147  -9.8339    232.6374     50.4416   3.1021515906e+01   2.2953166057e+01    0.2130434    0.1004715 -40.69  0.001098495    1.938    0.484
       148 -10.9394    137.9682     49.3881   4.4447747379e+01   4.3885842758e+01    0.4719153     0.344866 -39.70  0.002090725    1.474    0.321
       149 -10.2777     14.2617     50.5127   8.8036376996e+01   6.5123767807e+01    0.3602147    0.2208391 -17.52  0.001077023    1.501    0.334
       150 -11.1538      9.6997     47.2412   8.9258301293e+01   6.6078632572e+01    0.3155688    0.2612133  11.43  0.002178373    1.333    0.250
       151 -10.2845     74.5150     47.6847   6.1196259475e+01   5.7624236201e+01     0.237775    0.1919947  62.64  0.001183384    1.678    0.404
       152 -10.2808     51.5813     47.9440   7.0089920913e+01   6.1376345190e+01    0.2700664    0.1729018  43.05  0.001143531    1.804    0.446
       153 -10.5547    154.9919     46.9608   4.0528908389e+01   4.0276312397e+01    0.2073709    0.1917044 -62.40 0.0004855008    1.126    0.112
       154 -10.6788     68.6649     46.4313   6.2841609740e+01   5.8859780952e+01    0.2530002    0.1830302  25.34  0.001012011    1.264    0.209
       155 -10.5791     79.2835     45.4056   5.8736428831e+01   5.7076621627e+01    0.2246971    0.2016418  27.89 0.0002901583    1.091    0.084
       156 -10.4207     26.1401     45.0054   8.0441687892e+01   6.5065713667e+01    0.3001928    0.2643805  30.51  0.002018447    1.482    0.325
       157  -9.8374     31.1474     43.5659   7.7541504858e+01   6.4774123180e+01    0.3228552    0.1325568 -31.61  0.001407214    2.571    0.611
       158  -8.9298    158.6765     45.2694   3.9443995831e+01   3.9650925567e+01    0.1347613   0.09634443 -80.60 0.0003597994    1.570    0.363
       159 -11.1532     16.7341     42.7513   8.4263662805e+01   6.6353290527e+01    0.4044359     0.253183 -40.93   0.00139843    1.402    0.287
       160  -9.6738    221.2178     43.0638   3.0700688949e+01   2.6217346775e+01    0.1662231    0.1311561 -65.93 0.0003020819    1.059    0.056
       161 -10.0525     95.1189     43.1159   5.2971932569e+01   5.4248014541e+01    0.2127199    0.1622278  28.48 0.0004974831    1.264    0.209
       162 -10.6594     37.3178     41.7284   7.3992722001e+01   6.4343047544e+01    0.3856125    0.2053619  16.89  0.001937465    1.959    0.490
       163 -10.8147    184.5018     40.5296   3.4405128809e+01   3.4388175348e+01    0.2990035    0.2286269 -86.19  0.001799351    1.215    0.177
       164 -10.9285    170.7220     40.1370   3.6227952263e+01   3.7551924969e+01    0.2247426    0.1823283 -85.40  0.001357831    1.157    0.136
       165 -10.1383    140.7070     40.7322   4.1415847656e+01   4.4406087096e+01    0.3074474    0.1882456 -77.19  0.001367297    2.459    0.593
       166  -9.7404     58.7331     41.0440   6.4604013724e+01   6.1348195016e+01    0.2440499    0.1640277  61.12  0.001164392    2.693    0.629
       167  -9.7399     67.5875     39.8111   6.0772558133e+01   6.0023750509e+01     0.167135    0.1215967 -42.14 0.0004922391    1.648    0.393
       168  -9.8080     43.8958     39.9313   7.0356644571e+01   6.3759083084e+01    0.1894775    0.1423337  -0.23 0.0003584708    1.178    0.151
       169  -8.9918     22.6689    179.6902   1.0829590759e+02   3.3530202310e+01    0.1354917   0.09236149 -43.24 0.0004212589    1.669    0.401
       170 -11.6712    206.2487     32.6482   3.0086262417e+01   3.0653083962e+01    0.3216003     0.196023 -61.25  0.001854001    1.520    0.342
       171  -9.9595     49.9279     33.5248   6.5238197981e+01   6.3829956379e+01    0.1858885    0.1485171 -17.37  0.000354363    1.212    0.175
       172  -9.6231     40.9236     34.5932   6.9578415825e+01   6.4983686603e+01    0.1737613    0.1068326  28.77 0.0005764534    1.490    0.329
       173 -11.2303     28.5389     33.1606   7.4816238605e+01   6.6768349338e+01    0.2349757    0.1570437  -3.44 0.0005691822    1.363    0.267
       174 -11.5166    135.7699     29.1485   3.8999557028e+01   4.6935556390e+01     0.311946    0.2307733 -62.49 0.0002857285    1.558    0.358
       175 -10.5810     92.7541     32.0786   4.9784599450e+01   5.6153918831e+01    0.3276685    0.1351098 -44.99  0.001297719    3.415    0.707
       176 -10.7809    144.5549     30.4619   3.7818930029e+01   4.4758377129e+01     0.411494    0.2407842 -28.26  0.001539483    2.012    0.503
       177 -10.4179    188.5068    248.4747   7.7971666918e+01  -4.8786502845e+00    0.1286201    0.1061676   5.52 -7.843814e-06    1.027    0.026
       178 -10.2089      6.4934     20.4344   8.1279681698e+01   7.0908121898e+01    0.2253722    0.1418629  -1.26 0.0009715854    1.349    0.259
       179  -9.6556    188.3928     30.3969   3.1571868733e+01   3.4786078516e+01    0.2064696    0.1219881 -13.35 0.0009492221    3.169    0.684
       180  -9.4585    129.0728     31.4891   4.0969220390e+01   4.8208375524e+01    0.1971422     0.114407  58.46 0.0009965819    1.492    0.330
       181  -9.3413     59.2139     30.9292   6.0459973033e+01   6.2684344169e+01    0.1530157   0.09779657 -30.23 0.0004112822    1.645    0.392
       182  -9.1706     44.6208     30.7252   6.6371490830e+01   6.5018501501e+01    0.1318783   0.08175244   7.95 0.0007001527    1.702    0.412
       183 -10.3410     38.9513     30.1524   6.8666439149e+01   6.5902354209e+01    0.1862522    0.1449401   5.97 0.0005289708    1.040    0.038
       184 -12.9401     10.1025     29.5610   8.2917298072e+01   6.9166835021e+01    0.4328845    0.2148347  32.01  0.002378454    2.332    0.571
       185  -9.9796     54.2638     29.2523   6.1728231589e+01   6.3726342510e+01    0.1496142    0.1396077  18.36 0.0003776299    1.309    0.236
       186  -9.8761     99.2849     28.2194   4.6666837393e+01   5.5219533685e+01     0.281639    0.1485147  54.68   0.00134064    1.667    0.400
       187  -9.3925    102.5595     26.4856   4.5242256545e+01   5.4704905390e+01    0.1301297    0.1115619  44.24 6.540817e-05    1.009    0.009
       188 -10.4071    102.5632     22.4648   4.3867121538e+01   5.5131181468e+01    0.2579277    0.2145995 -17.13 0.0008924343    1.375    0.273
       189 -10.9966     68.8874     25.9241   5.4927354799e+01   6.1591063112e+01    0.3511091    0.2850255  13.11  0.001600524    1.124    0.110
       190 -11.1492     91.5829     27.0077   4.8300127658e+01   5.6985118875e+01    0.4139697    0.1804466  53.47 0.0009415466    2.019    0.505
       191  -9.9982     81.0474     26.7849   5.1293796177e+01   5.9156801320e+01    0.1797422    0.1634844  48.33 0.0004983508    1.210    0.173
       192  -9.5627    131.6155     26.4549   3.8977406621e+01   4.8188318339e+01    0.1983768    0.1408002  59.19 0.0004394372    1.212    0.175
       193  -9.2272     21.4798     37.5200   8.0001307373e+01   6.6819962615e+01    0.1234707   0.09653918 -12.14 3.898823e-05    1.007    0.007
       194  -9.6199     75.8273     26.1886   5.2711601954e+01   6.0247850960e+01    0.1787465      0.12825  22.22 0.0006837101    1.332    0.249
       195  -9.9380    216.7820     25.6017   2.7606669271e+01   2.9317208282e+01    0.1590436   0.09513494  88.90 0.0002855844    1.550    0.355
       196  -9.7055     51.3866     24.7190   6.1015931717e+01   6.4773182103e+01    0.1634147    0.1305856  21.27 0.0006301628    1.068    0.063
       197  -9.7528     34.2616     23.7931   6.8161380682e+01   6.7420814993e+01    0.1701765    0.1123623   6.93  0.000499255    1.376    0.273
       198 -10.1185     59.4169     22.8052   5.7075295411e+01   6.3657692218e+01     0.166768    0.1087554  -9.94 0.0006428789    1.652    0.394
       199  -9.7695    200.2119     21.8061   2.8396129698e+01   3.3221183351e+01    0.1491314    0.1284806  68.21 0.0003513767    1.296    0.228
       200  -9.5970    230.1591    247.2367   6.9613980438e+01  -9.9027732571e+00    0.1461211    0.1256782  -1.75 0.0004664487    1.281    0.220
       201 -11.2553     17.3881     20.6715   7.5334123978e+01   6.9860542189e+01     0.490101    0.2360275  25.85  0.002380114    1.915    0.478
       202  -9.4271    224.5136    247.5058   7.0711727447e+01  -9.2843882137e+00     0.123286     0.094579  -5.27 0.0008105121    1.000    0.000
       203 -10.2651    214.1803     19.6079   2.6638452406e+01   3.0546042222e+01    0.2365629    0.1162798 -59.22  0.001284259    1.885    0.470
       204 -10.3221    184.3416     19.5632   2.9564293379e+01   3.6917713790e+01    0.1655369    0.1460012  29.22 0.0003123952    1.575    0.365
       205  -9.5288    131.9882     20.3452   3.7106556340e+01   4.8742413445e+01     0.182076    0.1390374  59.21 0.0005375826    1.121    0.108
       206  -9.7741     37.5102     18.4355   6.4294088038e+01   6.7666107200e+01    0.2058093    0.1533998  25.20   0.00104883    1.196    0.164
       207 -10.0403    170.9531    246.7604   8.1380814963e+01  -2.1663999119e+00    0.2112342    0.1560404   2.72  0.001175602    1.311    0.237
       208 -10.5372     74.6962     17.9626   4.9867144597e+01   6.1361309299e+01    0.1826047    0.1601363  51.77 0.0005715782    1.258    0.205
       209  -8.9490     86.6910    244.7305   9.9823845243e+01   1.0438628585e+01    0.1212618    0.1005312  -5.67 0.0004229995    1.542    0.351
       210 -10.2373     52.3140    244.3593   1.0733538749e+02   1.5015580458e+01    0.1850857    0.1500037 -28.24  0.001120151    1.747    0.427
       211 -10.4354    202.9732     16.7191   2.7057837559e+01   3.3201896748e+01    0.1701227    0.1273586 -88.42 0.0004243017    1.102    0.092
       212 -10.5844    125.1109     17.0483   3.7361680964e+01   5.0635982770e+01    0.2061905     0.154499  60.19 0.0003031422    1.121    0.108
       213 -10.6070     82.9521     15.9853   4.6647739421e+01   5.9912276308e+01     0.234751    0.1641219  24.50 0.0003217348    1.417    0.294
       214 -10.3539     38.9993    242.2727   1.0999523702e+02   1.7037124503e+01    0.2681101    0.1225964  73.70 0.0008779182    2.713    0.631
       215 -10.3051    159.8562     15.8743   3.1625697996e+01   4.2803401037e+01    0.1813455    0.1472662  60.02 0.0003686478    1.205    0.170
       216  -9.9599    146.8200    244.1851   8.6242572021e+01   1.7926802842e+00    0.1894522    0.1475863  -1.40 0.0008688075    1.349    0.259
       217  -8.7478     26.6317     16.6723   6.8729896123e+01   6.9348468256e+01    0.1278342   0.07375102   1.33 0.0007034418    1.813    0.449
       218 -10.0061    245.7715     15.2126   2.3392243170e+01   2.4886664369e+01    0.1317398    0.1123042  89.87 0.0004019344    1.314    0.239
       219  -9.5317     61.2133    240.6441   1.0506484113e+02   1.4699586696e+01    0.1731976    0.1163171  23.14 0.0004974728    1.682    0.405
       220 -10.9760     30.1681    240.8500   1.1173660425e+02   1.8329749438e+01    0.2962403   0.08893532  26.86  0.001113321    3.890    0.743
       221 -10.2370      1.5193    249.5001   1.1790331712e+02   1.9413355376e+01      0.28426    0.1516828  56.38  0.001386327    1.506    0.336
       222  -9.5144    204.1833    235.3759   7.2632430801e+01  -4.8169344187e+00    0.1614405    0.1104244  32.53 0.0004309336    1.507    0.336
       223 -11.1137    238.0501     16.9727   2.4241603341e+01   2.6130659867e+01     0.217369    0.1508958 -64.58 0.0003212149    1.126    0.112
       224  -9.7160    116.1695    246.7496   9.3450799581e+01   5.8184280247e+00    0.1736705    0.1504153 -10.13 0.0007090722    1.302    0.232
       225  -9.2810    249.4969    233.4138   6.3828060792e+01  -1.0045712211e+01    0.1196586   0.08938636 -12.12 0.0001149595    1.016    0.015
       226  -9.8296     90.4342     12.5399   4.3360312281e+01   5.8684505367e+01    0.2347932   0.08066145  47.93  0.000596068    2.286    0.563
       227  -9.8858     32.2919    233.1000   1.1071597061e+02   1.9786303908e+01    0.1727052     0.141487  74.48 0.0004549731    1.041    0.039
       228 -10.1891    244.9372    229.9741   6.4035613580e+01  -9.0202075376e+00    0.3503743    0.1263441  26.64  0.001573929    3.066    0.674
       229  -9.8797    209.7986    229.5872   7.0524719163e+01  -4.6014102353e+00     0.165471    0.1135381  35.44 0.0004803956    1.607    0.378
       230 -11.0215    140.1201    227.9770   8.5297048202e+01   5.9673018730e+00    0.3266352    0.2130543 -67.21  0.001545438    2.114    0.527
       231 -11.7787      2.4811    225.6105   1.1647149575e+02   2.4406957494e+01    0.4459262    0.1858968  80.79  0.002093117    2.423    0.587
       232 -10.7606     12.5793    226.7710   1.1445218307e+02   2.3218775048e+01    0.1717497   0.09742575  85.13 0.0005120586    1.604    0.377
       233  -9.8973    223.4344    226.5284   6.7357600077e+01  -5.8783868923e+00    0.1273755    0.1022367 -11.33   0.00016088    1.021    0.021
       234  -9.6997     26.9789    223.9870   1.1116925833e+02   2.2402185797e+01    0.1525917    0.1261108  78.28 0.0003991231    1.032    0.031
       235  -9.1647    167.3120    221.3128   7.8019480138e+01   3.0600017598e+00    0.1440736    0.1007245  -7.63 0.0007030646    1.633    0.387
       236  -9.7681    130.9811    221.0000   8.6340548398e+01   8.8539380976e+00     0.245066   0.07593727  33.85  0.000811283    3.004    0.667
       237 -10.5570      8.0113    219.7630   1.1496906404e+02   2.5220499806e+01    0.1683562    0.1358826  81.35 0.0004278168    1.031    0.030
       238  -9.8921     17.9551    227.7613   1.1338613603e+02   2.2473528087e+01    0.1489354   0.09664867  33.75 0.0004298699    1.583    0.368
       239  -9.4464    205.5029    211.9640   6.8245810003e+01  -9.3850241002e-01    0.2019741    0.1199285 -38.09  0.001021293    1.560    0.359
       240  -9.6224     20.2680    209.4373   1.1153724975e+02   2.6460420976e+01    0.1730395    0.1020905  46.45 0.0007522559    1.583    0.368
       241  -9.7545     39.4816    206.9784   1.0681433087e+02   2.5038597600e+01    0.2003909    0.1213185 -75.27 0.0005502186    1.555    0.357
       242  -9.6055    123.9906    205.9894   8.5602978476e+01   1.3287784159e+01    0.2045944    0.1656964 -10.06  0.001037129    1.420    0.296
       243  -9.4295     46.4693    202.4940   1.0464790245e+02   2.5328759831e+01    0.1370157    0.1205789  77.99 0.0001707846    1.023    0.023
       244  -9.7618    194.0317    201.4822   6.8645398982e+01   2.7406100821e+00    0.2025609    0.1322795  30.54 0.0005339142    1.548    0.354
       245 -10.4673      4.4851    201.4850   1.1453523745e+02   2.9768707866e+01    0.1256105     0.102279  84.01 0.0002315965    1.002    0.002
       246  -9.1943     22.5035    200.5459   1.1028273378e+02   2.8373207202e+01    0.1307809     0.110596  81.55 -1.227269e-05    1.014    0.014
       247  -9.6851     19.0000    195.0458   1.1064739885e+02   3.0046088154e+01    0.2174068   0.06550495 -73.79 0.0008027771    2.945    0.660
       248  -9.6550      1.2532    191.1360   1.1455430414e+02   3.2502475456e+01    0.1850635   0.09037166 -87.86 0.0006998999    1.837    0.456
       249  -9.6645     13.6559    181.4441   1.1076814664e+02   3.3883525052e+01    0.2621971    0.1006599  88.93 0.0009443917    3.265    0.694
