#   1 NUMBER                 Running object number                                     
#   2 MAG_AUTO               Kron-like elliptical aperture magnitude                    [mag]
#   3 X_IMAGE                Object position along x                                    [pixel]
#   4 Y_IMAGE                Object position along y                                    [pixel]
#   5 X_WORLD                Barycenter position along world x axis                     [deg]
#   6 Y_WORLD                Barycenter position along world y axis                     [deg]
#   7 A_WORLD                Profile RMS along major axis (world units)                 [deg]
#   8 B_WORLD                Profile RMS along minor axis (world units)                 [deg]
#   9 THETA_WORLD            Position angle (CCW/world-x)                               [deg]
#  10 FWHM_WORLD             FWHM assuming a gaussian core                              [deg]
#  11 ELONGATION             A_IMAGE/B_IMAGE                                           
#  12 ELLIPTICITY            1 - B_IMAGE/A_IMAGE                                       
         1 -12.2382    119.6790     37.7929   2.6076821641e+01   4.9696540620e+01    0.9227828    0.3751802 -47.05  0.003163774    2.706    0.630
         2 -10.8950     61.4352     35.8165   4.1780832527e+01   6.3436147466e+01    0.5685531     0.366483  -3.36  0.002550388    2.313    0.568
         3 -11.8905      6.9487     33.6966   7.2081952821e+01   7.2290094540e+01     1.214667    0.4917622 -32.69  0.004958219    2.725    0.633
         4 -11.9022     36.4775     18.7918   4.4634181750e+01   7.0835283354e+01    0.7887205    0.4912451 -33.00  0.004233664    1.710    0.415
         5 -12.3119     48.6326     12.9207   3.5356759325e+01   6.9173531028e+01    0.6969527    0.3277455  58.68  0.003123915    2.193    0.544
         6 -11.9705     20.2040     21.9407   5.6574229634e+01   7.3012078579e+01    0.6804914    0.4489247 -21.95  0.002621551    1.573    0.364
         7 -11.2563      6.0670     10.5911   6.0799744529e+01   7.6731842618e+01    0.8140945    0.5728083 -57.23  0.004753996    1.983    0.496
         8 -10.6019     12.8278      8.7501   5.3856636224e+01   7.6151609954e+01    0.3230968    0.2657759 -32.30 0.0005435933    1.345    0.257
         9 -12.3205     15.9033     14.5003   5.5256755842e+01   7.4834706094e+01     1.099459    0.5025639 -22.25   0.00426412    3.596    0.722
        10 -12.3316     22.8466     10.6417   4.7791864290e+01   7.4344674859e+01    0.6494265    0.4761882 -10.64  0.003923068    1.385    0.278
        11 -12.1465    104.7166     13.6957   2.0154161217e+01   5.6028683028e+01     0.468642    0.3892497 -14.65  0.001728656    1.414    0.293
        12 -13.4149    105.4646     20.3004   2.2534205446e+01   5.5192149777e+01    0.3861611    0.3341274 -85.08 0.0006116036    1.142    0.124
        13 -12.5844    113.5365     25.6376   2.2984006115e+01   5.2650154357e+01    0.8653071    0.3587991  47.72  0.003518471    2.544    0.607
        14 -11.7839    164.2689     27.7013   1.6454538753e+01   4.0435905296e+01    0.3396478    0.2748422 -48.29 0.0003895828    1.165    0.142
        15 -10.8665    182.8364     25.1203   1.3977792062e+01   3.6666835346e+01     0.355489    0.3079962  83.79  0.001884001    1.193    0.162
        16 -11.0739    135.8537     22.0747   1.8242514603e+01   4.7646245795e+01    0.5510299    0.3446932  70.32  0.002957832    1.467    0.318
        17 -11.0967    127.4150     16.2127   1.7500167930e+01   5.0267523716e+01    0.5517756    0.3374215 -15.15   0.00201975    2.076    0.518
        18 -11.3225    134.4682     15.2703   1.6267204887e+01   4.8665435467e+01    0.6401462    0.2668179  60.86  0.002908323    2.151    0.535
        19 -12.1758    164.9084     18.0048   1.3765327207e+01   4.1330544105e+01     0.470092    0.2756386  46.77  0.002478963    2.174    0.540
        20 -11.0994     67.4968     18.9717   3.1519378410e+01   6.4360482531e+01    0.5468025     0.391311 -85.50  0.002515841    1.982    0.496
        21 -12.0887    227.7406     15.0814   8.6853447311e+00   2.8951456662e+01    0.4374211    0.2332645 -72.34  0.001426985    1.739    0.425
        22 -11.1548     85.8234     14.2688   2.4243463402e+01   6.0558413876e+01    0.4012097    0.2915293  10.38  0.001729923    1.717    0.418
        23 -10.0633    218.8938     12.7843   8.6798686294e+00   3.0791576513e+01    0.2280958    0.1699907 -40.35  0.001661242    1.260    0.206
        24 -11.1093    191.8616      9.9657   9.6411157843e+00   3.6343444793e+01    0.6715152    0.3020444 -17.77  0.003116921    3.285    0.696
        25 -10.0326    188.3928      2.2532   8.0417947275e+00   3.7777235779e+01    0.2945388    0.1424734 -65.56  0.001439335    1.848    0.459
        26 -11.6845    212.1170      9.6775   8.3870928957e+00   3.2370405945e+01    0.4389114     0.303166  -9.08  0.002640093    2.190    0.543
        27 -10.7605    218.4957      3.7582   6.8265063172e+00   3.1741959382e+01    0.2454197     0.177266  79.63 0.0007960729    1.472    0.321
        28 -11.4308    223.7311      2.6951   6.3768593973e+00   3.0883273522e+01    0.4437037    0.2041433 -84.42   0.00025384    2.124    0.529
        29  -9.5461     98.7113     11.5228   2.0398034170e+01   5.7693619644e+01    0.2489985    0.1652306   2.07  0.001291415    2.026    0.506
        30  -9.6626     65.8925     10.7058   2.7906334329e+01   6.5595739066e+01    0.2302114    0.1694226  78.78 0.0008469732    1.517    0.341
        31 -10.0059    168.7408      9.6396   1.1210614303e+01   4.1298159628e+01    0.3321746    0.1626935  59.70    0.0017271    2.126    0.530
        32  -9.4262    145.0659     10.1499   1.3488825889e+01   4.6639744717e+01    0.1830072    0.1530818  53.11 0.0006729105    1.345    0.257
        33 -10.2627      1.1309      7.6967   6.3463386060e+01   7.7757940574e+01    0.3519743   0.08827256 -47.75  0.001353012    3.747    0.733
        34 -10.8177      2.1460      2.1496   5.8534981172e+01   7.8535591942e+01    0.3792682     0.210137  12.53  0.002037255    1.861    0.463
        35 -11.5450    246.6850      7.3726   6.3341193866e+00   2.6467322964e+01    0.3269467    0.2418622   6.66  0.002261305    2.592    0.614
        36 -11.3880    242.5650      4.0405   5.8730808012e+00   2.7472138058e+01    0.3018298    0.1761916 -69.95  0.001383642    1.439    0.305
        37 -10.0324    245.8902      1.4089   5.2609150509e+00   2.7167366843e+01    0.1688693   0.08672549  84.16 0.0003958806    2.010    0.503
        38  -9.0641    163.6612      9.6719   1.1632685749e+01   4.2423985916e+01    0.1830766    0.1181117 -21.44  0.001049898    1.825    0.452
        39  -9.7921    164.1466      5.6866   1.0525725710e+01   4.2679881063e+01    0.3257944     0.190779  19.41  0.001534674    3.361    0.702
        40 -11.2031    232.2824      6.8365   6.8293701960e+00   2.8965739066e+01    0.2914509     0.150263 -60.53  0.001210998    1.531    0.347
        41 -11.7937    233.4174      2.4983   5.9364994257e+00   2.9181159693e+01    0.3955702    0.1687243 -62.02 3.539705e-05    1.914    0.478
        42 -10.0419    184.8273      6.5997   9.2945810787e+00   3.8121106145e+01    0.3483413    0.1577935 -51.52   0.00187603    1.846    0.458
        43  -9.1994    152.9644      7.5969   1.1986759592e+01   4.5039820978e+01    0.3328336    0.1260162  54.78 0.0008879252    2.832    0.647
        44  -9.3968     77.9204      7.5098   2.3072002538e+01   6.3068363604e+01    0.2734213    0.1992457 -60.40  0.000879203    1.636    0.389
        45 -10.7716     74.0223      3.1720   2.1948144644e+01   6.4352396726e+01    0.6442047    0.2379581  55.65  0.002812331    2.136    0.532
        46  -9.9440    121.9192      5.8661   1.4742955114e+01   5.2529807364e+01    0.2529776    0.1789804  -8.76  0.001083823    1.799    0.444
        47  -8.8395     89.3002      7.3411   2.0492918424e+01   6.0346148798e+01    0.1362884   0.08684037  38.71 0.0007036515    1.670    0.401
        48 -10.2475     63.0100      6.0617   2.6382661447e+01   6.6686675926e+01    0.3893564    0.2336883   1.46  0.001958855    2.179    0.541
        49 -10.1382    177.0875      5.9617   9.6530268525e+00   3.9822164816e+01    0.2276663    0.1421422 -87.83 0.0007841973    1.447    0.309
        50 -11.5384    133.6294      2.5762   1.2336629466e+01   4.9990222623e+01      0.38937    0.2598246  78.52  0.001925085    1.311    0.237
        51  -8.7898    128.6472      1.2614   1.2432923411e+01   5.1282155452e+01    0.1765323    0.1100684 -81.67 0.0005703667    1.523    0.343
        52 -10.2133     41.4690      3.9019   3.3043443448e+01   7.1620146335e+01    0.3228225    0.2029504  25.40  0.001418206    1.664    0.399
        53 -11.0971    206.5045      2.8085   7.1980228226e+00   3.4101383969e+01    0.4312806    0.2066515 -87.25  0.002490845    2.003    0.501
        54 -10.0583    141.6545      3.5195   1.1838167272e+01   4.8018258365e+01     0.266435    0.1854291  77.55  0.001606533    1.274    0.215
        55 -10.6106    113.1654      2.6211   1.4730241203e+01   5.4912437476e+01     0.380533     0.225933 -79.90  0.001706351    1.758    0.431
        56 -10.6163    105.4756      2.0940   1.5600370604e+01   5.6824631756e+01     0.374842    0.2053067 -84.72  0.001820039    1.992    0.498
        57  -9.0774    157.2686      3.4525   1.0460356501e+01   4.4422052070e+01    0.1710698   0.09916613 -83.83 0.0008929224    1.591    0.372
        58  -9.8433     29.5148      2.0790   3.7777726201e+01   7.4195554075e+01    0.1835826    0.1635608  -2.16  0.000441479    1.187    0.157
        59  -8.9235     52.4935      1.9705   2.7529604678e+01   6.9416593139e+01    0.1563199   0.09908243 -52.58 0.0003747656    2.176    0.540
        60  -9.9911    152.6473      1.4373   1.0268618514e+01   4.5644488357e+01    0.2273415    0.1051941  80.10 0.0007214221    1.944    0.486
        61  -9.5205     81.1393      1.2320   1.9452988807e+01   6.2798668374e+01    0.2490317   0.07915865  62.66 0.0006941524    2.417    0.586
        62  -9.9825     13.2596      2.2534   4.8780105097e+01   7.6999845652e+01    0.3029394    0.1879717  31.14   0.00129144    1.406    0.289
        63 -10.0566     22.7778    127.0170   8.5415258964e+01   4.7514629555e+01     0.217953    0.2064628  17.13 0.0003785822    1.120    0.107
        64  -9.3798     33.3812    126.2060   8.1233451662e+01   4.6748208317e+01     0.218573    0.1377302 -84.58 0.0009546495    1.756    0.431
        65  -9.4836      2.0610    125.7545   9.3188386767e+01   4.9291588610e+01    0.2524624    0.1756649  83.41  0.001294253    1.410    0.291
        66  -9.5577     81.6806    125.6877   6.3641071219e+01   4.0300571567e+01    0.1608753    0.1192016 -19.09 0.0004742138    1.648    0.393
        67  -8.4978     59.2955    125.0378   7.1303771244e+01   4.3918991006e+01    0.2636114   0.08054395 -43.65 0.0007027785    4.128    0.758
        68 -11.2790    104.3749    122.3135   5.5704420788e+01   3.7093660034e+01    0.3923994    0.3576099  54.85 0.0009833635    1.169    0.145
        69  -9.8452     19.0248    123.6965   8.6421244006e+01   4.8733269159e+01    0.2366801    0.1909651 -72.82 0.0007027907    1.164    0.141
        70  -9.9989     50.0445    122.7245   7.4270283796e+01   4.5776960817e+01    0.3658749    0.2286773 -14.11  0.001260862    2.216    0.549
        71  -9.6662     56.2669    122.0533   7.1805176092e+01   4.5128994760e+01    0.2112398    0.1993205 -69.68 0.0004645761    1.067    0.063
        72  -9.9094     44.5490    120.0299   7.5850711444e+01   4.7184116086e+01    0.3002719    0.2174372  67.10  0.000858775    1.651    0.394
        73  -9.7410     43.5195    116.4860   7.5567285425e+01   4.8260604593e+01    0.3910463    0.2592417  26.28   0.00180188    1.542    0.351
        74 -11.1869     15.8698    109.1696   8.5667949568e+01   5.2947215355e+01    0.5252326    0.2970843 -49.47  0.001452985    1.646    0.392
        75 -12.0173      9.5316     97.0068   8.6622944643e+01   5.6669946459e+01    0.5879125    0.4758885  -1.40 0.0004824633    1.322    0.243
        76 -11.6433      7.3713     88.5625   8.6292502152e+01   5.9050301942e+01     0.669599    0.4645203  12.36  0.002642968    1.541    0.351
        77 -12.2786     17.4222    100.6995   8.3643827155e+01   5.5121784728e+01    0.3634522    0.3127052   4.89 0.0004616177    1.231    0.188
        78 -11.9182     20.7929     92.8538   8.0658511037e+01   5.6938597518e+01    0.9746228    0.5675025  68.48  0.002227309    2.441    0.590
        79 -11.8816     25.6212    107.1697   8.1180173383e+01   5.2680035955e+01     1.668664    0.7633242  -8.47  0.005503944    3.655    0.726
        80 -12.1644      2.4897    112.0464   9.1652522904e+01   5.3002197498e+01    0.4553638    0.3233944 -71.03  0.001045526    1.263    0.208
        81 -11.1622      4.9039    105.2836   8.9841251090e+01   5.4709939840e+01    0.4910256    0.4175931  -0.67  0.002810132    1.276    0.216
        82 -11.5010     21.7376    114.4521   8.4014326686e+01   5.1042845624e+01    0.7983831    0.3311815   7.56  0.002299847    3.100    0.677
        83 -11.1871     28.4446    113.0699   8.1025447715e+01   5.0816102022e+01    0.4545677     0.320172  -0.55  0.001157512    1.614    0.381
        84  -9.0639     33.3577    119.3103   8.0108493075e+01   4.8630789734e+01     0.161544    0.1039485 -32.40 0.0007042643    1.735    0.424
        85  -9.5356     79.3311    114.8021   6.1861654064e+01   4.3418119423e+01    0.2864548    0.1956018 -43.72  0.001278835    1.468    0.319
        86  -8.9696     67.3357    114.6865   6.6092889443e+01   4.5418915133e+01     0.160115     0.119359  66.96 0.0004552639    1.689    0.408
        87  -9.0171     57.5904    113.8724   6.9546563433e+01   4.7094611647e+01    0.2117557    0.1478828 -75.54 0.0009348214    1.655    0.396
        88  -9.7260    105.0437    112.8073   5.3111066491e+01   3.9164150585e+01    0.2958398    0.2110715  31.25 0.0007359485    1.486    0.327
        89  -9.4308     85.2499    112.6578   5.9314918850e+01   4.2906973282e+01    0.3798928    0.2375361 -88.81  0.001278942    3.315    0.698
        90 -11.6757     80.0453    108.1778   5.9938521813e+01   4.4922443973e+01    0.4620608    0.3514945  28.40 0.0006838075    1.356    0.262
        91  -9.8319     48.9640    112.0935   7.2510438168e+01   4.8747132140e+01     0.303048    0.2118767  26.88  0.001395875    1.460    0.315
        92  -8.9993     60.8587    110.8564   6.7606253814e+01   4.7396880234e+01    0.2019251    0.1787355  71.57 0.0003288169    1.267    0.210
        93  -9.2996    120.3573    109.7202   4.7998605908e+01   3.6806920443e+01    0.2197894    0.1372531 -36.53 0.0006332076    1.670    0.401
        94 -10.1528    101.2738    109.8331   5.3462334688e+01   4.0576165592e+01    0.2943258    0.2062399   8.21  0.001229459    2.030    0.507
        95  -9.7468    182.1569    105.1310   3.3700565207e+01   2.5355361638e+01    0.3237993    0.2115137  25.89   0.00155534    2.238    0.553
        96  -9.4118    143.0471    105.8243   4.1433429094e+01   3.2968655868e+01    0.2385296    0.1729063  83.77  0.001073685    2.033    0.508
        97  -9.9303     89.0379    104.7762   5.5984367428e+01   4.4092078846e+01    0.3485874    0.1923489  42.36  0.000807732    1.829    0.453
        98 -10.0431     85.5548    103.5084   5.6804261329e+01   4.5042246130e+01    0.2720573    0.2275247 -45.58 0.0005640687    1.184    0.156
        99  -9.1070     45.5109    105.5501   7.2468621152e+01   5.0919565979e+01    0.2166523    0.1334026 -50.20 0.0006434026    1.543    0.352
       100 -11.7228     68.6156     95.7769   6.0754494141e+01   4.9921315240e+01    0.7169696    0.5185587   8.30  0.002723996    1.705    0.414
       101 -10.9782     76.2901     79.8469   5.3052639596e+01   5.2182796193e+01     1.079673    0.7800705 -83.71  0.004660594    2.157    0.536
       102 -11.0187     89.8138     87.8734   5.0858465539e+01   4.7764873113e+01    0.8880444    0.4721031 -31.83  0.003018772    2.447    0.591
       103  -9.9638     77.9278     96.5630   5.7529360959e+01   4.8085486188e+01    0.2919579    0.2343813  33.04 0.0005924047    1.253    0.202
       104 -11.2739     79.6297     92.5914   5.5772961320e+01   4.8694193130e+01    0.8391355    0.7069647  76.95  0.004163922    1.451    0.311
       105 -10.8678     52.1400     99.2840   6.8242983230e+01   5.1643451493e+01    0.6650262    0.2730065 -44.40  0.001328968    2.527    0.604
       106  -8.9675    120.4639    101.4665   4.5755760472e+01   3.8532459869e+01    0.1502358    0.1446366 -16.85 8.541095e-05    1.057    0.054
       107 -10.6230      7.5005    115.4884   8.9987846066e+01   5.1784514229e+01    0.5304199    0.3001951 -41.38  0.001600353    1.788    0.441
       108  -8.7950     33.6745     98.3356   7.5929285147e+01   5.4228706349e+01    0.1542831      0.14285 -39.04 0.0006495333    1.027    0.026
       109  -9.8974     30.4527     96.2999   7.6927807866e+01   5.5109493423e+01    0.2954283    0.2053655 -77.38 0.0007680834    1.569    0.362
       110  -8.9301    158.5531     99.6138   3.6604570821e+01   3.0965548982e+01    0.1386109    0.1300085 -54.12 -2.893706e-05    1.039    0.038
       111  -8.8750    210.3273     98.2877   2.7993098604e+01   2.1377911146e+01    0.1178104   0.09410229  -2.78 0.0003657775    1.612    0.380
       112 -10.8106     43.0479     93.5211   7.0663615978e+01   5.4355821913e+01    0.5340455     0.366017 -60.26  0.002525496    1.441    0.306
       113 -10.8076    120.3339     85.8259   4.1343614749e+01   4.1709837108e+01    0.6173576    0.4047866 -55.33  0.002790525    1.673    0.402
       114 -10.5400    125.9305     94.7955   4.2508176108e+01   3.8737821802e+01     0.272347    0.2689908 -60.52 0.0003401452    1.015    0.014
       115 -10.6619    121.7289     93.9707   4.3338655718e+01   3.9800575684e+01    0.4095948    0.2519971 -53.04  0.001531926    1.734    0.423
       116  -9.1669    116.2380     93.5639   4.4665269295e+01   4.1054308351e+01     0.211362    0.1435551  35.42 0.0004920365    1.613    0.380
       117 -10.3680     35.4413     92.6434   7.3844239162e+01   5.5515567266e+01    0.3382643    0.2990082 -49.61  0.001077073    1.074    0.069
       118 -11.8631     42.5104     84.9688   6.8656136676e+01   5.6579792442e+01     1.025093    0.4884907  18.03  0.003464605    2.558    0.609
       119 -11.4616     98.5387     91.0711   4.9035953322e+01   4.5294704596e+01    0.3833403     0.257832  51.71  0.001723739    1.567    0.362
       120 -10.1827     49.8279     91.3713   6.7158573252e+01   5.3971271075e+01    0.3574662    0.2676497  43.76  0.001509801    1.425    0.298
       121  -9.7303     66.5395     88.6266   5.9497723756e+01   5.1982469779e+01    0.3798137    0.2519864  -0.15  0.001234011    2.248    0.555
       122  -9.5106    111.6793     88.2201   4.4347601398e+01   4.3115492333e+01    0.2422067      0.19326 -65.74   0.00118377    1.424    0.298
       123 -10.4264    103.9997     86.8163   4.6112811853e+01   4.5044414493e+01    0.2815989    0.2115147 -42.60 0.0009544468    1.332    0.249
       124  -9.1984     51.8783     87.1228   6.5099606190e+01   5.4718710118e+01    0.2031057     0.164452 -30.17 0.0002639063    1.259    0.206
       125 -11.0128    143.1963     84.5297   3.5700342872e+01   3.6936273530e+01    0.2572819    0.2306203 -46.10 0.0003082187    1.069    0.065
       126  -9.5998    133.7514     84.9043   3.7854395505e+01   3.8937382675e+01    0.2673887    0.1873544  86.14 0.0007298389    2.027    0.507
       127 -11.1035    112.3721     82.9788   4.2583640332e+01   4.4006991823e+01    0.5533583    0.3338586  61.63  0.001829547    1.989    0.497
       128  -9.9128     66.6220     81.8988   5.7408703732e+01   5.3524322406e+01    0.3647152    0.2935651  19.95  0.001560106    1.304    0.233
       129  -9.9049    103.0448     79.5202   4.4135945944e+01   4.6720831539e+01    0.2811487    0.2122107 -33.80 0.0005677817    1.393    0.282
       130  -9.3205     46.9816     74.3923   6.3455796459e+01   5.8489441800e+01    0.6238089    0.3063665 -62.45  0.002379982    2.514    0.602
       131 -11.0720     53.3455     76.0437   6.1103713729e+01   5.7118374632e+01    0.6124589    0.4106211 -57.19  0.002861463    1.585    0.369
       132 -10.8891     58.0317     77.8366   5.9647199670e+01   5.5937610337e+01    0.3229778    0.2750553 -59.93 0.0008692436    1.266    0.210
       133 -10.9670     26.9509     86.2878   7.6312733766e+01   5.8076565057e+01    0.6058718    0.5303411  16.01  0.002335564    1.179    0.152
       134  -9.2736     88.8081     72.8969   4.6384623666e+01   5.1088649601e+01    0.2189184    0.2020149   4.61 0.0005681228    1.145    0.126
       135  -9.5100     93.0100     72.5165   4.4904272307e+01   5.0266379261e+01    0.3179401    0.2459097 -89.52 0.0009178115    1.764    0.433
       136 -10.6905     89.1766     77.7060   4.7857859443e+01   5.0041886279e+01    0.7625682    0.3208598  48.46  0.002752456    2.445    0.591
       137  -9.8983     94.2150     76.5788   4.5867501649e+01   4.9206758188e+01    0.4450223    0.2677176  46.38  0.001536397    1.642    0.391
       138 -11.3441     13.9588     74.6360   8.0196772499e+01   6.2211020247e+01    0.4406055    0.3960246  87.37  0.002303993    1.258    0.205
       139  -9.2763    181.9681     76.2897   2.6809901329e+01   3.0091098383e+01    0.1730335    0.1635328  85.18 0.0003970308    1.143    0.125
       140  -9.2297    112.7430     75.4008   4.0141380503e+01   4.5371011792e+01    0.2100464    0.1372781  42.21 0.0009509297    1.588    0.370
       141  -9.7892    103.5748     74.9053   4.2509083657e+01   4.7501627490e+01    0.2999597    0.2175547  58.17  0.001433382    1.446    0.308
       142 -10.0309     66.4007     74.6903   5.5153784865e+01   5.5169076936e+01    0.3132281    0.1716404  50.41  0.001257464    2.112    0.526
       143  -9.7732     25.0329     74.4230   7.4299535337e+01   6.1268372526e+01     0.320512    0.1634215 -46.75 0.0005634989    1.804    0.446
       144 -10.7345      2.1008     71.6316   8.6014166070e+01   6.3729530871e+01    0.4365398     0.217438 -64.30  0.001806972    1.749    0.428
       145 -12.5382      6.5538     61.5285   8.1256784462e+01   6.5990920064e+01    0.8594947    0.5260758 -27.01  0.003085668    1.608    0.378
       146 -10.2226    153.4473     72.7785   3.0466615600e+01   3.6687536730e+01      0.40343    0.1723043  49.27  0.001617273    2.515    0.602
       147 -10.4004     78.2981     68.0122   4.8314831987e+01   5.4247064641e+01    0.4988123    0.3625512  81.70   0.00219619    2.141    0.533
       148  -9.2168     80.9758     73.5170   4.9262954863e+01   5.2589903390e+01    0.2100921    0.1995193  21.48 0.0007473432    1.037    0.035
       149 -11.2389     35.5909     71.8852   6.8169418744e+01   6.0665303586e+01    0.6254939    0.2787106  30.07   0.00126929    2.212    0.548
       150  -9.9605     41.3014     72.9632   6.5692086989e+01   5.9646072784e+01    0.2672501    0.2122142   7.91 0.0008070039    1.306    0.234
       151 -11.0202     40.0959     69.1196   6.5050085471e+01   6.0709770202e+01    0.3795738    0.2701337  32.67  0.001049733    1.413    0.292
       152  -9.0670    134.7653     77.5752   3.5519037616e+01   4.0033871455e+01    0.1989082    0.1389394  68.82 0.0009433361    1.618    0.382
       153 -11.0971    122.9370     68.8712   3.5561330299e+01   4.4229151300e+01    0.4961385    0.2895571  51.61  0.001680368    1.698    0.411
       154  -9.7101     13.3735     67.5776   7.8818147139e+01   6.4019140328e+01    0.5468938    0.2650223  -0.27  0.002242725    2.511    0.602
       155  -9.8821    218.2017     66.6312   2.0225616047e+01   2.4567956808e+01    0.2840286    0.1166318  67.47  0.001355865    2.995    0.666
       156  -9.4911    192.5697     65.6700   2.2838402088e+01   2.9532117745e+01    0.1769729      0.10218 -45.67 0.0007674699    1.488    0.328
       157  -9.9924    170.5420     65.3710   2.5707111843e+01   3.4120866234e+01    0.3115551    0.2448186  69.82  0.001810516    1.333    0.250
       158 -10.4741     96.3854     65.1829   4.1369878453e+01   5.0908350541e+01    0.2499979    0.2424176 -78.55  0.001413263    1.070    0.065
       159 -10.9253     92.4598     62.7521   4.1713191504e+01   5.2220082540e+01    0.4815692    0.2941073  62.77  0.001157505    1.946    0.486
       160 -10.6801    201.1341     64.7126   2.1611236200e+01   2.7993291543e+01     0.292686    0.2007469  89.32   0.00170709    1.688    0.407
       161  -9.1273     51.9563     65.5788   5.8184577110e+01   5.9680857803e+01    0.2184251    0.1386148  32.88 0.0005456689    1.555    0.357
       162  -9.6853    105.2642     63.9792   3.8424300682e+01   4.9122052324e+01    0.2855369     0.206572  49.51   0.00103007    1.348    0.258
       163 -10.0752    107.4676     59.6511   3.6367705548e+01   4.9355884430e+01     0.515063    0.3061332 -62.33  0.002108957    2.379    0.580
       164 -10.3977    158.7316     62.8887   2.6853251270e+01   3.7063611945e+01    0.3940261    0.1990919  48.03  0.001337294    2.250    0.556
       165  -9.3811     57.7817     61.6650   5.4147890115e+01   5.9493715133e+01    0.3249556    0.2093621 -65.85   0.00121772    2.270    0.559
       166  -9.9644     63.5878     61.0486   5.1449189097e+01   5.8541658325e+01    0.5274405    0.3486297  12.93  0.002292017    2.084    0.520
       167  -9.4629     50.9700     56.5200   5.5260153141e+01   6.1744042594e+01     0.289739    0.2056022  27.39  0.001034832    1.402    0.287
       168 -10.7472     51.2662     61.2768   5.6935381340e+01   6.0713040439e+01    0.4044413    0.2870498  44.11  0.001125872    1.475    0.322
       169 -10.9458     40.3092     56.8733   6.0633154148e+01   6.3397200182e+01    0.3991599     0.237627  37.15 0.0009056671    1.679    0.404
       170 -11.3650     43.2180     61.4635   6.0864994989e+01   6.1969366625e+01    0.4406771    0.2530584 -44.64  0.002005403    1.710    0.415
       171 -10.6627     46.2986     59.3352   5.8567024554e+01   6.1941746743e+01    0.2905965    0.2563945 -28.55 0.0008531781    1.107    0.096
       172  -9.9831    234.4891     62.0349   1.7758100756e+01   2.2359597281e+01    0.1792508   0.09103722 -37.06 0.0006005299    1.576    0.365
       173  -9.8369    113.8670     61.0254   3.5210950580e+01   4.7645812680e+01    0.3052496    0.1869501 -42.07  0.001405545    1.650    0.394
       174 -10.5018    124.6773     56.5020   3.1256001572e+01   4.5846337887e+01    0.3012377    0.2586497 -24.21 0.0005672036    1.290    0.225
       175 -11.5007    118.6325     56.5924   3.2618967974e+01   4.7250129934e+01     1.216759    0.6609457 -69.14  0.004222871    3.557    0.719
       176 -10.8764    109.6173     39.8470   2.8895987500e+01   5.1843786830e+01    0.5234781    0.3599887  -1.69  0.001623092    2.126    0.530
       177 -10.4698    112.4170     50.7527   3.2089455243e+01   4.9614490122e+01    0.3744937    0.2521971  -4.81  0.001096735    2.296    0.564
       178 -10.1937    112.7207     42.5872   2.9180744061e+01   5.0725411539e+01    0.2683292    0.2289115  83.00  0.000671706    1.172    0.147
       179 -11.6917    117.4838     44.9040   2.8952393057e+01   4.9263520640e+01    0.6842422      0.42235 -39.33  0.003134304    1.647    0.393
       180  -9.3826    142.6651    249.6967   6.8478418299e+01   5.0990015144e+00    0.1251867   0.07798693  -5.99 0.0007037548    1.663    0.399
       181  -9.1075     82.6461     47.5345   3.9125759157e+01   5.7005775327e+01     1.952995    0.7804382 -22.98  0.004957342    6.601    0.849
       182 -12.3361     76.3922     53.3170   4.3534195613e+01   5.7399043218e+01    0.5504664    0.4391358 -17.96 0.0006748817    1.412    0.292
       183 -12.3404     72.7308     47.4039   4.2486686576e+01   5.9194414265e+01     0.403585    0.2866435 -48.99 0.0008452139    1.583    0.368
       184 -11.0030     31.7088     53.0526   6.3793083243e+01   6.5440543024e+01    0.6403827    0.3161601  18.03  0.002334385    2.407    0.584
       185  -9.8519     29.4431     59.7416   6.7469173158e+01   6.4257627051e+01    0.3359175    0.2500943 -58.39  0.001768265    1.418    0.295
       186 -11.3190     25.1622     57.2313   6.9014718550e+01   6.5335698229e+01    0.5644905    0.5134093  17.19  0.001908966    1.136    0.120
       187  -9.1827    135.5780     59.2643   2.9895382518e+01   4.2876185527e+01    0.1917524    0.1367524 -21.91 0.0009444822    1.675    0.403
       188  -9.4287     91.8001     57.5777   4.0057991249e+01   5.3280702508e+01    0.2767911    0.1446563  56.97  0.001036144    2.015    0.504
       189 -10.3781     87.9757     56.2976   4.0776619890e+01   5.4355356273e+01    0.4600333    0.2178465 -30.76  0.001755481    2.573    0.611
       190 -10.5303    157.7315     54.7251   2.4756430445e+01   3.8479250587e+01     0.452644    0.2982832 -67.07  0.001951205    1.670    0.401
       191  -9.7408    154.4815     51.0055   2.4206633115e+01   3.9735158988e+01    0.2886087    0.1369468 -22.35    0.0011085    2.994    0.666
       192  -9.4866     66.7915     54.3727   4.7567831369e+01   5.9197117171e+01    0.3404345    0.1929241 -56.24   0.00140169    2.375    0.579
       193  -9.8489    139.6947     54.1544   2.7575323280e+01   4.2688063580e+01    0.2629819    0.1857828  87.08 0.0007555202    1.597    0.374
       194  -9.3584     34.4206     45.2237   5.9110407067e+01   6.6672971241e+01     0.205224    0.1332531 -45.19 0.0007661312    1.553    0.356
       195 -11.1464     61.1246     47.8080   4.7197546105e+01   6.1514540610e+01    0.8343787    0.4552278 -30.00  0.003584746    2.162    0.538
       196  -9.7856     55.6583     50.4617   5.0673518748e+01   6.2081592339e+01    0.2234788    0.1309038  30.50 0.0004143725    1.793    0.442
       197 -10.1876     52.0022     48.2495   5.1411754608e+01   6.3168972685e+01    0.3402951    0.2762985  36.31 0.0008313853    1.184    0.156
       198 -10.4557     46.9752     48.7145   5.4008238407e+01   6.3972222796e+01    0.4590231    0.3106808   2.08  0.001570462    1.944    0.486
       199 -12.1447     43.1390     44.0454   5.3918225925e+01   6.5512178322e+01    0.6696582    0.3823401  37.13  0.001208251    1.677    0.404
       200  -8.8421     97.3119     53.6402   3.7005346212e+01   5.2689281671e+01    0.1497033    0.1118271 -75.24 0.0003938256    1.745    0.427
       201 -10.3415    186.9236     72.4264   2.5181515700e+01   2.9676807135e+01    0.3505701    0.2361665 -39.94  0.001482694    1.315    0.240
       202 -10.6285    145.4439     49.6729   2.5247488317e+01   4.1993865753e+01    0.4935684    0.2623786 -17.90  0.001520748    2.897    0.655
       203  -9.4299     11.0607     49.2435   7.4930224797e+01   6.8553674905e+01    0.4730356    0.1995555 -59.23  0.002032234    2.226    0.551
       204  -9.3382     13.4901     46.5008   7.2407162422e+01   6.8952957278e+01    0.2446487   0.09742235 -47.29 0.0008894081    2.203    0.546
       205  -9.8192    240.1753     50.5452   1.5003791381e+01   2.2843903942e+01    0.2025757    0.1251661 -39.39 0.0007407631    1.286    0.223
       206  -9.6522    189.1240     49.3482   1.9311309326e+01   3.2448115010e+01    0.1973931     0.154194 -34.87 0.0003316248    1.277    0.217
       207  -9.5881    173.8307     48.9067   2.0978733487e+01   3.5727216152e+01    0.3283143    0.1458517  79.16  0.001337776    2.995    0.666
       208 -10.5614     28.1209     47.3638   6.3622103535e+01   6.7120316315e+01    0.5993468    0.3071671 -17.43  0.002160699    3.429    0.708
       209 -11.0708     20.4172     46.4506   6.7946667567e+01   6.8252310808e+01     0.506474    0.3199982 -40.47  0.002611356    1.482    0.325
       210 -10.2322     25.9955     42.9521   6.3073591361e+01   6.8306550185e+01    0.3085744    0.2855989  33.96 0.0009540875    1.241    0.194
       211 -10.2173     22.9211     37.2436   6.2501094076e+01   6.9845261791e+01    0.5050035    0.1842858  39.68  0.001940339    3.020    0.669
       212  -9.5530      2.1859     48.9910   8.0707706131e+01   6.9249159185e+01    0.2221885     0.178329  -1.81 0.0006439826    1.223    0.182
       213 -10.4061    199.6043     45.0126   1.7213290934e+01   3.0888039018e+01    0.4513357    0.2186841  88.07  0.002130834    2.714    0.632
       214 -11.0016    137.9009     44.7364   2.5016600947e+01   4.4433214206e+01     0.637189    0.2348373  48.17  0.002342656    3.116    0.679
       215  -9.4253    162.2285     44.3778   2.1258681453e+01   3.8876205671e+01    0.1873712    0.1172545  84.43 0.0009522194    1.728    0.421
       216 -10.7722    155.9166     42.6762   2.1640419298e+01   4.0523856798e+01    0.3162709    0.2538784 -37.22  0.001043537    1.262    0.207
       217 -12.7332    152.8671     35.8661   2.0111324331e+01   4.2077543272e+01    0.2998217    0.2846177 -75.75 0.0004831998    1.106    0.095
       218  -9.7921     56.7255     41.8919   4.6514183144e+01   6.3407493297e+01    0.2971949    0.2154024  62.64  0.001303679    1.752    0.429
       219  -9.4184     17.6725     41.2139   6.7635612815e+01   6.9666502720e+01      0.23685    0.1523971 -38.81  0.001242898    1.451    0.311
       220  -9.7625    231.4484     38.7767   1.3265447794e+01   2.5717609398e+01    0.2701554    0.1094007 -35.99   0.00144954    1.971    0.493
       221 -10.4236     80.5222     39.2850   3.6459260681e+01   5.8753760205e+01    0.3905568     0.261527  79.23  0.001521516    2.103    0.524
       222 -11.2994     78.3156     34.4494   3.5116049187e+01   5.9945766605e+01    0.6038314     0.478591  10.56  0.003255525    1.483    0.326
       223  -9.8182    188.9048     38.3230   1.6656580830e+01   3.3874857700e+01    0.2282061    0.1649684 -32.68 0.0007243164    1.398    0.285
       224  -9.9272     91.6977     41.8944   3.4163613757e+01   5.5803077767e+01    0.3730438    0.2470028 -83.88 0.0009512972    2.364    0.577
       225  -9.1574    194.9444     37.6879   1.5933862166e+01   3.2715251460e+01    0.1595561    0.1336138 -77.63 0.0002840585    1.117    0.105
       226  -9.8503     60.0092     23.5229   3.6432525275e+01   6.5470614843e+01    0.2484576    0.1970969 -28.09 0.0006977289    1.370    0.270
       227  -9.6486    213.4915    248.5093   5.4872117789e+01  -1.9740083459e+00    0.1117625   0.07736874  -6.59 -0.0001140479    1.032    0.031
       228 -10.2415     68.4329     32.5478   3.7616192370e+01   6.2420762714e+01    0.5340924    0.3838985  80.77  0.002625001    1.964    0.491
       229 -11.4942     57.4145     30.6557   4.0987954131e+01   6.5042450316e+01    0.4771828    0.3723129 -24.87   0.00228458    1.369    0.269
       230 -11.5719     49.1601     30.6005   4.4602470792e+01   6.6707714442e+01    0.7660749    0.3042359  40.78  0.003080738    2.376    0.579
       231 -10.3441    175.0147    246.9659   6.1618813593e+01   2.0230644484e+00    0.2886255    0.1444413  16.35  0.001602681    1.802    0.445
       232 -10.5735     32.5957     31.0770   5.3552129899e+01   6.9582083520e+01    0.2325884     0.199566  17.19 0.0003232572    1.054    0.051
       233 -11.9257     26.0498     29.0083   5.6494791509e+01   7.0949942071e+01    0.5959484    0.4409126  10.06   0.00259332    1.315    0.239
       234 -12.1434    126.6127    241.7161   7.0911684423e+01   8.2266225457e+00    0.3823628    0.3511845   5.56  0.002685355    1.185    0.156
       235 -10.9831    167.1498    237.8553   6.1880826719e+01   4.2345839562e+00    0.2408188    0.1505543 -33.40  0.000827502    1.549    0.354
       236  -9.2232     15.5087    233.9545   9.6150533150e+01   2.1510715439e+01    0.1658664    0.1132581 -83.13  0.001020064    1.562    0.360
       237  -8.8606    205.4980    233.5455   5.4057318414e+01   7.8918569931e-01    0.1157406   0.08461706  -7.18 0.0001176363    1.010    0.010
       238 -11.4179     69.3377    239.7174   8.3835845457e+01   1.5104302017e+01    0.5790092    0.2996109  -3.83  0.002360445    3.404    0.706
       239  -9.2666    247.0110    231.2479   4.6993428961e+01  -2.7906609593e+00    0.1204782   0.07388462  14.41 0.0004596284    1.541    0.351
       240  -9.1599    189.9445    229.9534   5.6323340036e+01   2.9286683830e+00    0.1441466    0.1093439  -6.65 0.0004545935    1.013    0.013
       241 -11.0408    175.6982     33.9060   1.6882842390e+01   3.7199857594e+01    0.5704397    0.2701796 -46.76  0.001826133    1.860    0.462
       242  -8.6212    206.4681     37.4847   1.4881648555e+01   3.0457917404e+01    0.1200061    0.0952602 -57.61 0.0001233568    1.014    0.014
       243  -8.9805    181.2804    228.3434   5.7716641567e+01   4.1230165390e+00    0.1253519    0.0753765 -12.26 0.0005422787    1.632    0.387
       244  -9.2492    200.4980    226.4767   5.3866082343e+01   2.3076575007e+00    0.1188169   0.08834448  -7.97 6.555382e-05    1.019    0.019
       245 -11.3636    106.0293     33.0029   2.7191235927e+01   5.3597835790e+01    0.3933182    0.2603207  34.49  0.001294791    1.808    0.447
       246 -11.6413    146.8936    237.8455   6.6036544582e+01   6.5317702597e+00    0.4967602     0.298662  33.58  0.002845776    1.612    0.380
       247 -11.0765    160.0495     29.9187   1.7535649017e+01   4.1136858661e+01     0.384531    0.2350772 -34.61 0.0008983635    1.609    0.379
       248  -9.3226    143.8335    215.2036   6.3441183875e+01   1.0821113962e+01    0.1865299    0.1361336  -9.80  0.001067823    1.337    0.252
       249 -10.4185    240.9202     31.9487   1.1297823961e+01   2.4874223089e+01     0.199124     0.167941 -83.67  0.001389777    1.297    0.229
       250 -10.8562    189.0364     27.9924   1.4142902800e+01   3.5048476326e+01    0.3875804    0.3112535 -10.86  0.002497263    1.662    0.398
       251  -9.1563    164.5120    211.9235   5.8502091555e+01   8.7758791538e+00    0.1716338    0.1168636 -39.52 0.0004285123    1.469    0.319
       252  -9.4173    187.4974     22.9699   1.3057096044e+01   3.5919554204e+01    0.1677956    0.1344348 -48.32 0.0005095801    1.143    0.125
       253  -9.4795    139.3169     32.4615   2.0998032393e+01   4.5656252258e+01    0.2672408    0.1110946  61.09  0.001145809    2.207    0.547
       254  -9.8029    134.9875     31.4831   2.1344504426e+01   4.6801416726e+01    0.2725986    0.1268097  79.55  0.001112383    2.521    0.603
       255 -11.9039    126.1462     28.2545   2.1697127770e+01   4.9298228433e+01    0.4938237    0.3603714  85.35  0.001788135    1.345    0.256
       256  -9.0396    220.2715     39.3542   1.4195129973e+01   2.7641868095e+01    0.1442874   0.09585515 -83.91 0.0003985189    1.550    0.355
       257  -9.7603    196.8692     28.9277   1.3710697972e+01   3.3341493499e+01    0.2181843    0.1367896 -43.28  0.001325336    1.353    0.261
       258 -10.0390    231.0683     27.2928   1.0963389914e+01   2.7075386117e+01    0.2826781    0.1556652 -74.24  0.001762967    1.808    0.447
       259  -9.8485    150.2310     27.5974   1.8052619736e+01   4.3655599364e+01    0.2709563    0.1352165  58.58 0.0007189261    1.963    0.490
       260 -11.0079    144.2315     25.5619   1.8209419636e+01   4.5284643952e+01    0.4624958    0.2680249 -86.39  0.001613073    1.885    0.470
       261 -10.2945    148.1420     22.3447   1.6764742693e+01   4.4715690186e+01     0.369774    0.1638995  61.76  0.001721531    2.101    0.524
       262 -10.2240    201.2086     25.2634   1.2527848511e+01   3.2879283442e+01    0.2793197    0.2103585   4.45  0.001715742    2.143    0.533
       263  -9.9362     98.1539     26.2355   2.6358971575e+01   5.6313549508e+01    0.2727904    0.2092358  61.19 0.0007609213    1.181    0.153
       264 -10.3969    154.7135     23.4262   1.6318269222e+01   4.3077339270e+01    0.4141377    0.2974682 -45.56  0.002460538    1.316    0.240
       265  -9.3407    212.4947     24.0227   1.1455900027e+01   3.0822772778e+01    0.1701096   0.09572823 -35.93   0.00102379    1.564    0.361
       266  -9.8793    169.0086     23.6615   1.4883095630e+01   3.9823505003e+01    0.3127304    0.1455462  68.57  0.001443775    2.051    0.512
       267  -9.2957     61.3373    206.5586   8.2644504521e+01   2.3008811299e+01     0.178529    0.1251701  13.98 0.0009298667    1.466    0.318
       268  -9.8280     78.5469    203.9191   7.7784673498e+01   2.1560457475e+01    0.2665871    0.2000211  44.57  0.000994063    1.303    0.232
       269 -10.7140      5.2903    201.5222   9.7150137991e+01   2.9512004293e+01    0.7042836   0.08791754 -67.08  0.002130507    5.412    0.815
       270  -9.3677     90.8604     23.1253   2.6809886517e+01   5.8422605505e+01    0.2538753    0.1534244  71.31  0.001231074    1.670    0.401
       271  -9.3159    223.4376     22.1733   1.0374140951e+01   2.8988838207e+01     0.167754    0.1123644 -80.19  0.000600499    1.410    0.291
       272 -10.7547    178.7976     20.8165   1.3251675309e+01   3.7991268999e+01    0.3749337    0.2270648  42.09   0.00199333    2.397    0.583
       273  -9.6669     47.0695     20.5493   4.0316719951e+01   6.8557499194e+01    0.4003671    0.2759816  87.65  0.001773793    3.040    0.671
       274  -9.4542      5.0412     21.9344   6.8214027028e+01   7.4812329854e+01    0.1799479    0.1543982  23.65  0.001008852    1.295    0.228
       275 -11.2075    247.0798     19.0795   8.5036644695e+00   2.5229917893e+01    0.2336065    0.1638489 -19.36  0.001660175    1.881    0.468
       276  -9.2951    216.4243     20.2665   1.0397654550e+01   3.0482759780e+01     0.162336   0.07835824 -44.35 0.0009444789    1.593    0.372
       277  -9.0835     21.5541    200.9788   9.2822653522e+01   2.8329650067e+01    0.1789383    0.1233032 -82.81 -3.708097e-05    1.469    0.319
       278  -9.7401     74.5973     19.8255   2.9713998170e+01   6.2634768073e+01    0.2240302    0.1809321  29.43 0.0007685326    1.277    0.217
       279  -9.3790    233.6076    196.7214   4.3539145925e+01   3.0467293684e+00    0.2161815   0.08441501 -34.67  0.001119476    2.045    0.511
       280 -11.6405    239.2876     16.5289   8.3922582401e+00   2.6792855204e+01    0.3011991    0.1741754  76.09  0.002073955    1.903    0.474
       281 -11.8185      4.5162    184.1506   9.6480937432e+01   3.3763220771e+01    0.6329141    0.4427962  84.24  0.003201716    1.346    0.257
       282  -9.0647    198.7797     17.4432   1.0914122955e+01   3.4193995189e+01    0.1430483    0.1000403  69.02 0.0005719441    1.548    0.354
       283  -9.8686    147.8219     16.2526   1.5004743112e+01   4.5414791081e+01    0.3698376    0.1297742  56.17  0.001478973    2.815    0.645
       284  -9.5394    120.3314     16.0713   1.8471348886e+01   5.1996168601e+01    0.2262086    0.1277022 -12.44 0.0008050118    2.387    0.581
       285  -9.4012     28.1745    175.8163   8.8990715394e+01   3.3957010529e+01    0.1884609    0.1589097 -42.31 0.0006317155    1.304    0.233
       286  -9.9626     51.6212    173.0633   8.1588068360e+01   3.2238870938e+01    0.4973021    0.2327027  88.09  0.001661744    3.582    0.721
       287  -9.9657     39.2982    173.8314   8.5427317476e+01   3.3384193967e+01    0.2282411    0.1700048  74.59 0.0006589458    1.410    0.291
       288 -10.6510     14.2609    159.0094   9.1845571110e+01   3.9517871756e+01     0.388726    0.2577131 -75.13  0.001376913    1.423    0.297
       289 -11.7480      8.9880    166.8613   9.4104554359e+01   3.7842009088e+01    0.5049616    0.3239819  27.88  0.001780558    1.542    0.352
       290 -11.3309     11.4533    162.6954   9.3033837902e+01   3.8753465466e+01    0.4255185    0.2983395  65.99  0.001581457    1.392    0.281
       291 -10.4017     18.5945    165.0085   9.0977747442e+01   3.7594266491e+01    0.3409409    0.2596339 -22.79  0.001586327    1.552    0.356
       292  -9.8410    205.0299    163.1553   4.2122455956e+01   1.1677937400e+01    0.2173484    0.1520605 -30.37 0.0006000257    1.189    0.159
       293  -9.0683    120.1416     11.6411   1.6964915789e+01   5.2458729369e+01    0.1859789    0.1005296  61.44 0.0006675145    1.649    0.394
       294 -10.1783    186.8415     15.0199   1.1186002599e+01   3.6883738413e+01    0.1860304    0.1482053 -81.86 0.0003394984    1.126    0.112
       295 -10.8568     27.8394    161.6488   8.7725505504e+01   3.7682902945e+01    0.4341065    0.2772336 -60.54  0.002117172    1.524    0.344
       296  -9.3538     37.9666    160.7010   8.4358333723e+01   3.6949960226e+01    0.2053332    0.1922539  36.42 0.0008251744    1.071    0.066
       297 -10.6965      9.4359    155.5675   9.3126123755e+01   4.0782615261e+01    0.2987204    0.2417614  73.29  0.001315633    1.174    0.148
       298  -9.5938    104.4919    155.0017   6.2859250622e+01   2.9316355486e+01    0.2355278    0.2076182  25.53  0.001240806    1.118    0.106
       299 -12.4952     22.6846    149.2416   8.8127216576e+01   4.1458978988e+01    0.7751667    0.3661753 -38.05   0.00301422    2.609    0.617
       300 -10.7033     16.5064    147.8796   9.0094108613e+01   4.2327292285e+01    0.2812442    0.2616303 -84.63 0.0003814846    1.016    0.016
       301 -10.2833      4.7840    153.7933   9.4505964988e+01   4.1564462985e+01    0.1979321    0.1437108  57.95 0.0005503822    1.336    0.252
       302  -9.8987     61.4683    151.9181   7.5459883409e+01   3.6519841961e+01    0.2861863    0.2237553  12.47 0.0007734197    1.374    0.272
       303 -11.2590     47.4711    147.0970   7.9374742679e+01   3.9538015181e+01    0.7252155    0.4434453 -36.43  0.003144955    1.888    0.470
       304 -10.4442     30.3455    151.7693   8.5815580443e+01   4.0089183847e+01    0.3423466     0.179971 -29.77   0.00133794    2.580    0.612
       305 -10.6975    104.1709    147.1609   6.1366149069e+01   3.1235671144e+01    0.2822225    0.2473528 -20.57            0    1.175    0.149
       306 -10.3558      3.0806    147.9062   9.4639685209e+01   4.3240694404e+01    0.2807482    0.1802168 -78.07  0.001039836    1.427    0.299
       307 -11.3153      8.4796    148.0468   9.2835030166e+01   4.2859620227e+01     0.517439    0.1907544 -73.67  0.001995704    2.423    0.587
       308 -10.6890      5.6090    142.7705   9.3379344828e+01   4.4466815426e+01    0.3412333    0.2479353  62.30 0.0008435042    1.369    0.270
       309 -10.9705      2.1591    141.7078   9.4487812797e+01   4.4960069914e+01    0.4808246    0.2427199 -79.00    0.0020856    1.810    0.447
       310  -8.8814     74.2480    146.0139   7.0276027316e+01   3.6276107147e+01    0.1921793    0.1286846 -58.87 0.0004538196    1.493    0.330
       311 -10.8661     33.1372    144.2512   8.3924845265e+01   4.1852048912e+01    0.3253422    0.2934747  74.01 0.0007886054    1.106    0.096
       312  -9.3342    249.3396    143.6761   3.2019410937e+01   8.8233328605e+00     0.108679   0.07747559 -54.01 0.0007051056    1.724    0.420
       313  -8.7275    227.6692    140.2920   3.4232356142e+01   1.2168759924e+01    0.1123943   0.08653809 -57.81 0.0005399182    1.629    0.386
       314 -11.4025     12.4597    136.6291   9.0393221725e+01   4.5681015712e+01    0.7889825    0.5186639 -78.44  0.003914677    1.426    0.299
       315 -10.9812      9.8288    127.0850   9.0371053530e+01   4.8467383186e+01    0.6064662     0.304786 -51.99  0.002561706    1.873    0.466
       316 -11.2416     80.0782    138.4677   6.6919409803e+01   3.7323232965e+01    0.3385617    0.2897027  41.92 0.0009485884    1.185    0.156
       317  -9.8544     32.0648    137.6646   8.3419236326e+01   4.3749825371e+01    0.2891496    0.2579019  20.79  0.000709313    1.171    0.146
       318 -11.2918     23.3709    136.4999   8.6420194390e+01   4.4866196559e+01    0.7480016    0.3394785  32.38  0.001886572    2.133    0.531
       319 -10.9119     29.5100    132.7775   8.3673273390e+01   4.5331169235e+01    0.5481905    0.3389121  25.83  0.002430255    1.646    0.393
       320  -8.8667     69.6376    135.3005   6.9740012064e+01   3.9732670076e+01    0.1628611    0.1150808  61.81 0.0007035465    1.722    0.419
       321  -9.5679     47.4799    134.0371   7.7280728288e+01   4.3052630807e+01    0.4124506    0.1439837 -65.03  0.001374783    2.779    0.640
       322  -9.5828     39.0987    133.4646   8.0237844584e+01   4.4168094721e+01    0.2197164    0.1463763  23.39 0.0006637214    1.546    0.353
       323 -10.2540     40.2411    138.0782   8.0536882531e+01   4.2789804524e+01    0.3215035    0.2546575  36.86 0.0009571709    1.273    0.215
       324  -9.3080     62.8243    131.0062   7.1241617788e+01   4.1846148552e+01    0.2672038    0.1540467 -38.04   0.00106904    1.972    0.493
       325  -9.0381     93.4866    129.4876   6.0711300631e+01   3.7343612344e+01    0.1538983    0.1492326 -17.14 0.0008103665    1.015    0.015
       326  -9.0476     26.5498    127.4732   8.4036121116e+01   4.7058183489e+01    0.1450148    0.1372079 -71.46 6.947088e-05    1.005    0.005
