#   1 NUMBER                 Running object number                                     
#   2 MAG_AUTO               Kron-like elliptical aperture magnitude                    [mag]
#   3 X_IMAGE                Object position along x                                    [pixel]
#   4 Y_IMAGE                Object position along y                                    [pixel]
#   5 X_WORLD                Barycenter position along world x axis                     [deg]
#   6 Y_WORLD                Barycenter position along world y axis                     [deg]
#   7 A_WORLD                Profile RMS along major axis (world units)                 [deg]
#   8 B_WORLD                Profile RMS along minor axis (world units)                 [deg]
#   9 THETA_WORLD            Position angle (CCW/world-x)                               [deg]
#  10 FWHM_WORLD             FWHM assuming a gaussian core                              [deg]
#  11 ELONGATION             A_IMAGE/B_IMAGE                                           
#  12 ELLIPTICITY            1 - B_IMAGE/A_IMAGE                                       
         1 -13.8172    188.0342     44.7666   4.6749610823e+01   3.2629024412e+01     1.240789    0.9655131  31.74  0.004137055    1.638    0.390
         2 -13.5035    214.0115     14.1703   3.6070067271e+01   3.0219116538e+01    0.8830493    0.6424833 -47.76  0.004546907    1.311    0.237
         3 -12.6275    209.0739     15.9577   3.6952828880e+01   3.1161409097e+01    0.7406414    0.2484895 -39.37  0.002756224    2.634    0.620
         4 -10.3822     60.3094     20.9960   6.9729361929e+01   6.4707984650e+01    0.1783199    0.1457592  -5.75 0.0004822525    1.112    0.101
         5 -12.7789    246.7242    247.0029   8.0543062784e+01  -1.1410564129e+01    0.7736676    0.4513527   8.39  0.004761085    1.590    0.371
         6 -18.1170     36.8487    232.0588   1.2025491860e+02   2.1368141435e+01     7.693131     6.857153  49.31   0.04879669    1.326    0.246
         7 -10.5050     55.4185    199.6207   1.1365903298e+02   2.6020811466e+01    0.1977784    0.1823914 -89.97 0.0008199239    1.172    0.147
         8 -10.5039    192.5409    194.2437   8.1560723272e+01   4.4810030595e+00    0.7866554     0.406789 -63.58  0.002102402    7.338    0.864
         9 -11.2546     61.8368    237.2482   1.1574444914e+02   1.7287098534e+01    0.1866664    0.1401586  71.31 0.0004666959    1.151    0.131
        10 -19.1190     20.0347    100.8001   1.1065862971e+02   5.3454949102e+01     16.40652    0.9168969 -67.33   0.02796981   14.317    0.930
        11  -9.6665     82.6921    194.9015   1.0677825587e+02   2.3342793611e+01    0.3124269    0.1870679  47.34  0.001169297    1.535    0.349
        12 -12.1892     74.9546    189.5105   1.0793417525e+02   2.5701322776e+01    0.4720795     0.247765  62.37  0.001159048    2.242    0.554
        13 -11.7901     61.2281    190.3764   1.1131839279e+02   2.7379171417e+01    0.4056991    0.2937833 -46.43  0.001764538    1.687    0.407
        14 -12.6388    146.1055    183.8135   8.9846283526e+01   1.5019264273e+01    0.6162209    0.3905134  68.12  0.002498955    2.505    0.601
        15 -11.3884     89.4676    183.1903   1.0351924137e+02   2.5003837825e+01    0.6063154    0.2574034  52.41  0.002277056    2.668    0.625
        16  -9.7546     81.9975    185.0253   1.0562464912e+02   2.5714432342e+01    0.2166438    0.1750654  68.20 0.0005498826    1.181    0.153
        17 -10.1298    184.8147    181.9539   8.0803742861e+01   8.1369334356e+00    0.3809457    0.1998213 -53.44  0.001464181    2.447    0.591
        18  -9.8194    180.3226    175.7867   8.0535361241e+01   1.0168372320e+01    0.2499718    0.1771694 -45.61  0.001225686    1.481    0.325
        19 -10.3569    147.5186    173.9506   8.7639503451e+01   1.6855981194e+01    0.2174388    0.1487915 -49.03  0.000361592    1.530    0.346
        20 -11.0253    145.4853    170.5008   8.7447262555e+01   1.7995265861e+01    0.2460746    0.2373274  40.85  0.001122817    1.019    0.019
        21 -11.8977    137.5154    173.1415   8.9890574630e+01   1.8939959935e+01     0.341223    0.2605094 -50.98  0.001360028    1.368    0.269
        22  -9.8551    167.0131    224.2298   9.2111984174e+01   3.5843195262e+00    0.2061408    0.1878036 -28.37 0.0005319969    1.231    0.187
        23  -9.5161    185.6277    170.8152   7.8374708536e+01   1.0122216400e+01    0.2054587    0.1358864 -51.59 0.0005574148    1.714    0.417
        24 -10.1960    191.5804    168.1810   7.6566796481e+01   9.4878765873e+00    0.2966794    0.1921028  56.31  0.001328696    1.966    0.491
        25 -12.9400     75.3753    248.4315   1.1402759758e+02   1.3367109596e+01    0.2605322      0.18209 -65.07  0.001206659    1.653    0.395
        26  -9.2845    126.4996    156.5022   8.9352368900e+01   2.4820947423e+01    0.1512902    0.1485731  16.76 -0.0002517448    1.053    0.050
        27 -11.0498     91.9708    154.6207   9.8186673831e+01   3.1451759163e+01      0.28135    0.2660888 -43.59 0.0003369284    1.137    0.120
        28 -12.1512     97.2074    148.7759   9.5643880186e+01   3.2006648505e+01    0.6157452    0.4361928 -32.47  0.002488081    1.741    0.426
        29 -11.4721    134.1624    147.3235   8.5427002012e+01   2.5439319730e+01    0.8020483    0.2562795 -54.20  0.002292052    3.772    0.735
        30 -10.9309    133.0000    142.0133   8.4544227776e+01   2.6897123802e+01    0.6104414    0.2138666 -52.92   0.00187979    3.158    0.683
        31 -10.4703    112.8708    151.1871   9.1851926637e+01   2.8641344911e+01    0.4479164    0.2819366  71.64  0.001434517    2.458    0.593
        32 -10.0683    109.0203    147.1227   9.2061659882e+01   3.0322641365e+01    0.2255995    0.2150572  78.89 0.0003265968    1.043    0.041
        33  -9.7645    174.8051    148.8204   7.5984607381e+01   1.6710810153e+01     0.209593    0.1860619 -89.97 0.0006923369    1.367    0.269
        34 -10.2146    154.0502    140.2594   7.8848024740e+01   2.2910883824e+01     0.358654    0.2650967 -81.33   0.00153301    1.953    0.488
        35 -11.7515    108.8812    136.2121   8.9767949167e+01   3.2976899693e+01    0.5585514    0.3887152 -54.92  0.002563238    1.429    0.300
        36 -10.9526    105.6862    130.6477   8.9424985737e+01   3.4909241897e+01     0.401924    0.3278647 -60.77  0.001254309    1.235    0.190
        37 -11.9650     96.6591    135.3336   9.3055781511e+01   3.5390543465e+01    0.4003579    0.3437096 -43.67 0.0005219412    1.183    0.155
        38 -11.1238     37.4820    211.6537   1.1864529152e+02   2.5521194160e+01    0.2444418    0.1398964  88.81   0.00117174    1.648    0.393
        39 -10.6157    115.3248    127.6779   8.5998877646e+01   3.3782262222e+01     0.293908    0.2647998 -10.17 0.0006339875    1.236    0.191
        40 -11.5341     39.8508    207.1899   1.1778497063e+02   2.6217214810e+01    0.2472508    0.1774151  32.15 0.0009446347    1.567    0.362
        41 -10.3640    103.3160    123.0577   8.8347281537e+01   3.7169274661e+01     0.273143    0.2411002  -3.56  0.001069282    1.291    0.225
        42  -9.4920    234.5338    120.7237   5.8116642681e+01   9.8292518847e+00    0.1917795    0.1187378 -46.75 0.0008682953    1.534    0.348
        43  -9.4767    110.4896    117.3647   8.4862876283e+01   3.7152380647e+01     0.240628    0.1480052  39.84 0.0002246077    1.653    0.395
        44 -10.5687    166.4595    113.8142   6.9422264274e+01   2.5809157860e+01    0.4062063    0.2799774 -31.57 0.0009992943    1.557    0.358
        45 -11.4588    118.5281    110.6710   8.0830307198e+01   3.7080829241e+01     0.510996    0.3380443  69.54  0.002015149    2.261    0.558
        46  -9.9109    205.4627    110.1937   6.0594235787e+01   1.7716063747e+01    0.2523289    0.2107779  50.74 0.0006258601    1.267    0.211
        47 -10.2667     43.3257    205.6928   1.1690989101e+02   2.6142530338e+01    0.2595456    0.1674371  81.10  0.001498032    1.433    0.302
        48  -9.3104     51.0032     90.5165   9.7531033879e+01   5.2962479200e+01    0.1915488    0.1064257  52.22  0.000810204    2.566    0.610
        49  -9.7401     67.0311     74.9270   8.7341427957e+01   5.4286852513e+01    0.2102177    0.1889505 -23.62 0.0003127038    1.011    0.011
        50 -12.8680    172.4771     58.3659   5.3031542814e+01   3.4483776777e+01    0.5682594     0.511751  80.25 0.0008400202    1.070    0.065
        51 -11.7029     68.0704    247.1170   1.1533512451e+02   1.4588691917e+01    0.1687275    0.1435439  75.72 0.0005386416    1.156    0.135
        52 -12.4142    193.2585     38.6874   4.4414600795e+01   3.2174552077e+01    0.5053351    0.4560706  59.29  0.001212767    1.190    0.160
        53 -10.5055     65.8152    206.7450   1.1205586190e+02   2.3084410698e+01    0.2007692    0.1568589  80.22 0.0005977293    1.174    0.148
        54 -10.2674     67.5369    241.7597   1.1499407911e+02   1.5669006550e+01    0.1361278    0.1085481 -88.02 0.0004436924    1.273    0.214
        55 -11.9533     64.2302    202.6992   1.1198341196e+02   2.4189543031e+01    0.2259176    0.1820493  79.66 0.0006229007    1.116    0.104
