#   1 NUMBER                 Running object number                                     
#   2 MAG_AUTO               Kron-like elliptical aperture magnitude                    [mag]
#   3 X_IMAGE                Object position along x                                    [pixel]
#   4 Y_IMAGE                Object position along y                                    [pixel]
#   5 X_WORLD                Barycenter position along world x axis                     [deg]
#   6 Y_WORLD                Barycenter position along world y axis                     [deg]
#   7 A_WORLD                Profile RMS along major axis (world units)                 [deg]
#   8 B_WORLD                Profile RMS along minor axis (world units)                 [deg]
#   9 THETA_WORLD            Position angle (CCW/world-x)                               [deg]
#  10 FWHM_WORLD             FWHM assuming a gaussian core                              [deg]
#  11 ELONGATION             A_IMAGE/B_IMAGE                                           
#  12 ELLIPTICITY            1 - B_IMAGE/A_IMAGE                                       
         1 -15.0086     68.9235    144.5445   9.4070103430e+01   3.7370948613e+01     4.640816     2.583545  73.69  0.003130354    3.205    0.688
         2 -14.3629    205.5954     43.4578   3.5798494826e+01   2.9342981285e+01     1.652088     1.302911  31.00  0.006247936    1.761    0.432
         3 -14.3138    217.9030     32.3208   3.1821410628e+01   2.8059222605e+01     1.034186    0.8420779  36.98  0.005628509    1.699    0.412
         4 -13.0665    246.8452      9.1697   2.4564008410e+01   2.4760729615e+01    0.5970623    0.4671414  58.74   0.00421046    1.633    0.388
         5 -13.1518    243.7500      3.9796   2.3788842167e+01   2.5939644396e+01    0.7255714    0.4658303  56.01  0.004620276    1.966    0.491
         6 -11.2996     51.8749      4.1539   5.6675072402e+01   6.7412050252e+01    0.2630939    0.1480858  42.46 0.0008387493    1.606    0.377
         7 -11.0416     47.4758      2.4724   5.7628930504e+01   6.8286679912e+01    0.2427709    0.1853285  47.95  0.000862736    1.608    0.378
         8 -12.6759    238.6724    174.6325   5.9922928936e+01   5.1450356422e-01    0.9149927    0.2953064  33.50  0.003137396    4.270    0.766
         9 -11.4349    139.8391    249.3484   9.2796629030e+01   3.1125117905e+00    0.3220738    0.2575047 -65.91   0.00201532    1.568    0.362
        10 -13.1911     66.1769    169.1855   9.8819438825e+01   3.1553191957e+01     1.329337    0.6514754 -32.74  0.003440878    4.133    0.758
        11 -16.0465     38.9365    189.5607   1.0809977142e+02   2.9872488634e+01     4.464004     2.249346  60.05   0.01671049    2.097    0.523
        12 -13.5035     77.4284    157.8364   9.3988845099e+01   3.2828695814e+01     2.233285    0.8413959  56.30 0.0006483209    6.286    0.841
        13 -13.5307     65.3135    153.8730   9.6692102628e+01   3.5501168954e+01    0.5135394    0.4134618 -23.09  0.001172094    1.531    0.347
        14 -15.9018      9.7503    208.5903   1.1599769438e+02   2.8425654170e+01     1.596421     1.058278 -86.57  0.003744519    1.249    0.199
        15 -15.4123      6.0885    141.8160   1.1150847413e+02   4.4312103256e+01     5.083016     1.161999 -75.64  0.008121707    3.939    0.746
        16 -11.5466    230.9727    168.6202   6.0071384041e+01   2.8000894461e+00    0.4788836    0.1966468 -49.72   0.00179144    3.046    0.672
        17 -12.2925    240.8703    169.2330   5.8463370706e+01   1.0910955739e+00    0.3386037    0.2422355  29.52  0.001399833    1.527    0.345
        18 -10.7623    123.6147    201.2924   8.9418877777e+01   1.5124408413e+01    0.2917955    0.2169961  71.48 0.0008163151    1.652    0.395
        19 -10.7309     45.2240    166.1987   1.0391273933e+02   3.4847984775e+01    0.2507447    0.1937881  76.40 0.0005718221    1.270    0.213
        20  -9.7611    110.6709    167.3406   8.6754411670e+01   2.5171172110e+01    0.2680393    0.1809097 -69.32  0.001024843    1.675    0.403
        21  -8.8731    101.6116    163.2615   8.8386648445e+01   2.7702081706e+01    0.1568861    0.1107022  64.85 0.0006975387    1.693    0.409
        22 -12.2699     85.2301    151.8988   9.0760752455e+01   3.3152406842e+01    0.6317769    0.4519198 -23.14  0.001621184    1.868    0.465
        23 -11.4030    133.6914    144.5032   7.5996934486e+01   2.6360074642e+01     1.259226      0.32054 -54.44  0.002904792    5.651    0.823
        24 -10.1382    174.8601    149.1122   6.7099742451e+01   1.7025474539e+01    0.2330601    0.2122459 -78.75 0.0006682101    1.273    0.215
        25 -10.2183     99.5069    180.9344   9.2012590885e+01   2.3765929870e+01    0.2710381    0.2137762  37.69 0.0005739774    1.267    0.211
        26 -10.1041     34.7032    144.3255   1.0388699448e+02   4.1395671148e+01    0.2659485    0.1735954 -63.45 0.0006952776    1.313    0.239
        27 -10.8017     31.5241    143.4982   1.0467409409e+02   4.1901670480e+01    0.3561298    0.2711844 -20.34   0.00202128    1.669    0.401
        28 -10.8963    100.2303    138.2509   8.3753045466e+01   3.4096630654e+01    0.5726839    0.3659069 -21.07  0.002246787    2.415    0.586
        29 -12.4583     87.2014    137.5902   8.7386881342e+01   3.6421174187e+01     0.307045    0.2630177 -45.33 0.0003805055    1.142    0.124
        30 -10.6788    105.8507    130.8571   8.0486403280e+01   3.4905920922e+01    0.3715749    0.3587614 -25.96  0.001214538    1.046    0.044
        31 -10.3608    109.9749    129.4929   7.8989115263e+01   3.4478993013e+01    0.3238866    0.2548012 -15.27  0.001030696    1.554    0.357
        32 -17.5678     15.3603    241.2327   1.1682791902e+02   2.1080004504e+01     7.103125      2.48829  24.71   0.02939278    4.658    0.785
        33 -11.1942    135.7109    129.2343   7.1890684236e+01   2.9491557072e+01    0.5382085    0.1921709 -45.04  0.001723417    2.759    0.638
        34 -11.0829     86.7067    173.2576   9.4057675566e+01   2.7625144420e+01    0.4772958    0.3087155  18.97  0.002151512    1.996    0.499
        35  -9.7816    160.6007    127.7819   6.5359690063e+01   2.4577187950e+01    0.2309281    0.1443878 -53.96 0.0009550151    1.722    0.419
        36 -10.7695     97.1498    124.8949   8.1643669743e+01   3.7890606302e+01    0.3126436    0.2575969 -11.25 0.0008200394    1.422    0.297
        37  -9.8532    116.1998    123.8346   7.5865849819e+01   3.4642487821e+01    0.2215189    0.1840012 -17.16 0.0005777355    1.370    0.270
        38  -9.6411    163.1831    121.1493   6.3122586816e+01   2.5438520360e+01    0.2109728     0.183255 -77.09 0.0004073634    1.318    0.242
        39 -10.9676     22.3657    118.7607   1.0386364936e+02   4.8801430053e+01    0.3806134    0.1861466  48.72  0.001734658    2.582    0.613
        40  -9.9456    106.8582    118.2010   7.7155764832e+01   3.7740325700e+01      0.20931    0.2029614  86.25 0.0002790001    1.099    0.090
        41 -10.6409    231.3633    113.8830   4.8335518467e+01   1.2547586813e+01    0.2811089    0.2266436 -41.97 0.0008045399    1.090    0.083
        42  -9.1124     80.4785    115.4742   8.4541296800e+01   4.2913093897e+01    0.1473405    0.1400135 -64.38 2.307756e-05    1.079    0.073
        43 -10.2667    205.4898    110.2920   5.1829057381e+01   1.8437012078e+01    0.2904819    0.2338689  43.24 0.0008517606    1.362    0.266
        44  -9.0977    156.1450    111.3739   6.2282026594e+01   2.9041248005e+01    0.2093763    0.1462692  60.45 0.0003111823    1.637    0.389
        45  -9.9480     29.9816    107.7624   9.9545255221e+01   5.0862648380e+01     0.174366    0.1673853 -31.13  0.001135312    1.149    0.129
        46 -10.4728     25.9846    108.0000   1.0092691519e+02   5.1134630006e+01    0.2778838    0.1351965  14.84   0.00128384    2.555    0.609
        47  -9.8672    134.6786    106.1705   6.6253209312e+01   3.4839612362e+01    0.3178315    0.1375185 -50.98  0.001079389    2.554    0.608
        48  -9.7928    186.1381    172.5085   6.9688233585e+01   9.9883252203e+00    0.2473599    0.2093474 -61.48   0.00130128    1.407    0.289
        49  -9.7814     31.3454     95.3887   9.6653818934e+01   5.3691497975e+01    0.3007158    0.1091039  29.48   0.00124904    2.956    0.662
        50 -10.6503     52.9795     90.8229   8.7794204848e+01   5.2513336054e+01     0.259606    0.1843779 -50.70 0.0007329443    1.265    0.210
        51  -9.9478     18.0554     90.2663   1.0042015226e+02   5.5910556635e+01    0.1691997    0.1503821 -46.88 0.0003766587    1.089    0.082
        52 -10.1254    160.5150     83.9183   5.3941214822e+01   3.3454541877e+01    0.2261831    0.1467635 -39.52 0.0005248365    1.541    0.351
        53  -9.5404     71.8871     82.9665   7.8887161976e+01   5.1674185867e+01     0.208608    0.1743079  75.11 0.0006743709    1.677    0.404
        54  -9.2615     88.2414     64.0421   6.7322547460e+01   5.2673334363e+01    0.2186965    0.1654855 -69.44  0.001056114    2.023    0.506
        55 -13.2192    195.7678     50.0407   3.8707261664e+01   3.0676780766e+01    0.7150924      0.59228  40.96 0.0009254643    1.445    0.308
        56  -8.8529    224.2378    206.6699   6.8727398090e+01  -2.6457788253e+00    0.1134734    0.1006281 -51.35 0.0002413036    1.532    0.347
        57 -11.6446    203.6869    199.9341   7.1466856878e+01   1.7147513669e+00    0.3743611    0.1939469  33.64  0.001726345    1.912    0.477
        58  -9.3931     42.7879     40.5318   7.6247352001e+01   6.3823698690e+01    0.1581223    0.1129462  36.26 0.0006497965    1.623    0.384
        59 -10.1836    187.8638     31.1189   3.5059201403e+01   3.5016900774e+01    0.1770388    0.1516151  48.38 0.0007771988    1.323    0.244
        60  -9.7019    198.0870     23.5349   3.1960851441e+01   3.3558690070e+01    0.2080633    0.1794898  -9.15 0.0006642774    1.553    0.356
        61 -10.8685     13.5396     59.9407   9.5418182228e+01   6.2867239414e+01    0.2374303    0.1788837 -45.85 0.0004183173    1.090    0.083
        62  -9.5590    189.5056     15.0485   3.0883717777e+01   3.6471812491e+01    0.1739544    0.1212366 -36.17 0.0006425657    1.545    0.353
        63 -11.8452    193.2081    195.1868   7.2707399239e+01   4.3257804435e+00     1.279143    0.6884532 -65.72  0.003602437    6.491    0.846
        64 -10.0117    145.4210    184.1891   8.1261261930e+01   1.5065981082e+01    0.2035212    0.1438107 -63.89 0.0009426994    1.680    0.405
        65  -9.7038     65.3659    192.0650   1.0209062723e+02   2.6099566986e+01      0.19444    0.1551508 -81.39 0.0006442525    1.178    0.151
