#   1 NUMBER                 Running object number                                     
#   2 MAG_AUTO               Kron-like elliptical aperture magnitude                    [mag]
#   3 X_IMAGE                Object position along x                                    [pixel]
#   4 Y_IMAGE                Object position along y                                    [pixel]
#   5 X_WORLD                Barycenter position along world x axis                     [deg]
#   6 Y_WORLD                Barycenter position along world y axis                     [deg]
#   7 A_WORLD                Profile RMS along major axis (world units)                 [deg]
#   8 B_WORLD                Profile RMS along minor axis (world units)                 [deg]
#   9 THETA_WORLD            Position angle (CCW/world-x)                               [deg]
#  10 FWHM_WORLD             FWHM assuming a gaussian core                              [deg]
#  11 ELONGATION             A_IMAGE/B_IMAGE                                           
#  12 ELLIPTICITY            1 - B_IMAGE/A_IMAGE                                       
         1 -13.3349    189.8022     14.9010   5.4174483674e+01   3.5679498793e+01     1.201738    0.5162225 -53.97  0.004142099    2.989    0.665
         2 -14.1245    172.0857     47.7389   6.7987139671e+01   3.6200738735e+01     2.088666     1.299505  24.73  0.005775344    2.148    0.534
         3 -14.3043    185.9918     33.5152   6.0891840679e+01   3.4513322846e+01     1.167158    0.8241994  -3.16  0.004461033    1.615    0.381
         4 -14.0472    190.4176     27.2896   5.8188883440e+01   3.4112535785e+01     1.010347    0.7358462 -24.75  0.001763668    1.331    0.249
         5 -14.0434    208.5754      3.7785   4.8590209216e+01   3.1825404905e+01    0.9704196    0.8157143  35.63  0.004062827    1.308    0.235
         6 -11.2564     53.3943      4.1978   8.1040264773e+01   6.8658509474e+01    0.1855656    0.1009846 -37.78 0.0009566857    1.725    0.420
         7 -11.4757    112.4717    214.9472   1.1675541155e+02   1.7799477227e+01    0.2994029    0.1548314 -83.21  0.001490402    3.258    0.693
         8 -17.3149     63.4963    248.5206   1.2730937620e+02   1.9199672030e+01     6.641106     1.877568  35.05   0.02476331    6.761    0.852
         9 -13.8014    113.8780    197.2833   1.1455087445e+02   2.0451615861e+01    0.5676196     0.431934  85.71  0.003813707    1.365    0.267
        10 -11.6030    154.6832    196.1146   1.0693568166e+02   1.4066155180e+01    0.3664935    0.2203014  69.38  0.001820746    2.531    0.605
        11 -11.2269    116.9769    213.2465   1.1579475095e+02   1.7400586002e+01    0.1618296    0.1358096  43.73  0.000362464    1.241    0.194
        12 -11.0387    209.6597    198.9827   9.7809744630e+01   4.3682489855e+00    0.1913421    0.1572101  56.94 0.0005484315    1.510    0.338
        13 -10.7933     99.4407    191.8772   1.1660800030e+02   2.3547533042e+01    0.2188536    0.1449761  66.08 0.0005055486    1.394    0.283
        14 -11.4993     59.9760    189.2846   1.2372812790e+02   2.9337002402e+01    0.3417143     0.201295 -64.14  0.001573271    1.796    0.443
        15 -10.3002    166.8593    188.1323   1.0352672363e+02   1.3191587394e+01    0.1855999     0.162089  63.14  0.001229436    1.215    0.177
        16 -10.1842    153.4619    186.4664   1.0573661799e+02   1.5774556364e+01     0.124279    0.1071784  50.83 0.0001114504    1.027    0.026
        17 -11.9050    110.4430    183.0650   1.1344754923e+02   2.3460162963e+01    0.2339029    0.1930788  17.30  0.001477573    1.737    0.424
        18 -10.5370     52.8689    182.0933   1.2444867638e+02   3.1543794269e+01     0.243102    0.1608177  26.99  0.001513089    2.211    0.548
        19 -11.3518     99.4920    180.7690   1.1529065210e+02   2.5552152841e+01    0.2228544    0.1867051  63.02 0.0006114219    1.057    0.054
        20 -10.1334    209.0258    177.6808   9.4241456254e+01   7.1783034995e+00    0.3345474    0.1836436   2.32  0.001326604    3.652    0.726
        21 -11.6193    143.7822    178.7052   1.0637850338e+02   1.8724808355e+01    0.3139649    0.1366783  47.11  0.001442356    2.044    0.511
        22 -11.8506    120.6705    211.5626   1.1496651519e+02   1.7110138275e+01    0.2697358    0.1461945  69.73  0.001404696    2.493    0.599
        23 -11.4146    132.0243    171.9939   1.0763945684e+02   2.1926072289e+01    0.3822562    0.1276819  52.02  0.001401004    3.293    0.696
        24 -11.7476    195.7235    169.2766   9.5028522561e+01   1.0778922241e+01    0.3747013    0.3393545  85.74 0.0006858953    1.456    0.313
        25 -10.8528    192.6854    163.3286   9.4448842322e+01   1.2232502263e+01    0.2600264    0.1781102 -56.19  0.001341549    2.003    0.501
        26 -11.4504    141.5253    169.9928   1.0543708900e+02   2.0627745868e+01    0.3092881    0.1884939  58.52  0.001247283    1.720    0.419
        27  -9.5302     98.5651    213.4781   1.1901511398e+02   2.0024488717e+01    0.1108602   0.08658373  61.97 3.903911e-05    1.012    0.012
        28 -10.9395    146.1282    168.5158   1.0428306848e+02   2.0067778820e+01    0.1995018    0.1824457   0.59 0.0004770695    1.312    0.238
        29 -10.1365    110.7916    168.5552   1.1140582735e+02   2.6096843110e+01    0.1781443     0.105121  54.33 0.0007515072    1.582    0.368
        30 -11.2378     72.8183    167.0744   1.1901737587e+02   3.1986974364e+01    0.2941237    0.1535971  45.46 0.0009866327    1.777    0.437
        31 -19.5655     24.0403    148.0975   1.2739434980e+02   4.1454083437e+01     17.01373     3.255794 -75.90   0.05898898    4.813    0.792
        32 -10.3002    157.0241    202.9946   1.0748497792e+02   1.2652388140e+01    0.1811873    0.1325497  72.17 0.0005061541    1.696    0.410
        33 -10.9036    140.5698    157.1963   1.0345420941e+02   2.3115919710e+01    0.2469504    0.2026406  66.21 0.0004025656    1.226    0.184
        34 -12.8453     99.0565    154.3633   1.1178441907e+02   3.0762556233e+01    0.5752288    0.4022544 -43.11  0.003192823    1.809    0.447
        35 -11.1971    137.5852    170.7510   1.0634001820e+02   2.1185779236e+01    0.2077259    0.1665426  48.11 0.0009555498    1.133    0.118
        36 -10.8965    165.2265    153.0804   9.7691998488e+01   1.9194026269e+01    0.2589355    0.1760254  71.98  0.001225426    2.088    0.521
        37  -9.5919    126.4272    153.4921   1.0576110161e+02   2.6364653277e+01    0.1309543    0.1213559  72.53 0.0001040387    1.021    0.020
        38 -11.9384    133.8403    144.9714   1.0262872377e+02   2.6685082466e+01     1.006448    0.2536362 -54.35  0.002815495    5.386    0.814
        39 -10.3584    174.8812    149.1506   9.5004175012e+01   1.7970959599e+01     0.206497    0.1881614  72.07 0.0005745909    1.227    0.185
        40 -12.3987    109.2688    140.0242   1.0715645347e+02   3.2059752009e+01    0.5109336    0.3111467 -36.16  0.002358422    2.343    0.573
        41 -12.3828     97.9314    139.9741   1.0973650548e+02   3.3936948232e+01    0.2520327    0.2363628  87.61 0.0003794697    1.109    0.098
        42 -10.7130    142.1780    138.8468   9.9625808381e+01   2.6299867953e+01    0.1889182    0.1696736  -3.78 0.0005366079    1.336    0.252
        43 -11.4152    106.0846    130.7250   1.0617726276e+02   3.4567184093e+01    0.3776664    0.2783811 -70.96  0.001304784    1.358    0.264
        44 -11.4079    103.9759    126.5598   1.0587575729e+02   3.5821580243e+01    0.2744028      0.24374 -28.56 0.0007739789    1.403    0.287
        45 -12.2144    117.2137    129.9870   1.0342713876e+02   3.2774798085e+01    0.4671479    0.3171152  34.23  0.001656142    1.709    0.415
        46 -12.0451    136.5551    123.5914   9.7617193523e+01   3.0433053014e+01    0.5226662    0.3111694 -58.06   0.00233209    1.861    0.463
        47 -11.0156    120.3264    124.5506   1.0157863841e+02   3.3349887470e+01     0.239058    0.1668564 -33.81  0.000737266    1.769    0.435
        48 -10.4878    111.1476    119.1073   1.0261476193e+02   3.6183569717e+01    0.2226771    0.1971381  55.12 0.0003543306    1.156    0.135
        49 -11.6379    106.7368    207.0190   1.1693063267e+02   1.9902050474e+01    0.2243295    0.1905732  77.86 0.0008206423    1.140    0.123
        50 -11.6646     68.8581    116.3646   1.1275226592e+02   4.3448016684e+01    0.2311451     0.210845  -6.14  0.000848254    1.509    0.337
        51 -10.6912    168.2548    113.0241   8.8157566423e+01   2.5811626148e+01    0.3453112    0.2636886 -69.95  0.001092815    1.689    0.408
        52 -11.0017    160.4343    127.1516   9.3191733574e+01   2.4857627058e+01    0.3614009     0.255035 -66.59  0.001460447    1.847    0.459
        53 -12.2433    147.1428    148.0798   1.0040202134e+02   2.3585293441e+01     0.760176    0.4090284  70.78   0.00255836    4.175    0.760
        54 -10.2924    205.5716    110.2060   8.0203449642e+01   1.7947251849e+01    0.2632996    0.2043243  47.20 0.0006458391    1.318    0.241
        55 -12.5391     64.6829    106.6671   1.1210065445e+02   4.6216452154e+01    0.7110857    0.4809435 -20.52   0.00342204    2.668    0.625
        56 -12.4552    106.9859    210.4734   1.1724785272e+02   1.9305963199e+01    0.4715614    0.1964568  47.32  0.001934835    1.929    0.482
        57 -11.1328     93.7763    205.4325   1.1907325484e+02   2.2019603513e+01    0.2244247    0.2038735   9.85  0.001152062    1.713    0.416
        58 -11.5996     88.1485    203.2542   1.1986557086e+02   2.3170078302e+01    0.3806035    0.1761947  57.80  0.001707121    1.979    0.495
        59 -10.0324    163.2821    203.9708   1.0651881604e+02   1.1477770451e+01    0.1542319    0.1407171  43.44 0.0004021206    1.103    0.094
        60 -12.3938    170.4801     69.9067   7.5513027792e+01   3.3062825778e+01    0.5173523    0.3585547 -78.60  0.001083228    2.163    0.538
        61  -9.6777    107.9221     62.5369   8.8048418981e+01   4.8829963947e+01    0.2002481    0.1488284  47.07  0.000271108    1.466    0.318
        62  -9.6440    168.4794    248.4706   1.1118212278e+02   5.0532894158e+00    0.1057825   0.07743584  43.79 -2.215798e-05    1.036    0.035
        63 -13.5536    104.1642    199.9275   1.1663008117e+02   2.1459361722e+01    0.7112557    0.4578783  80.51  0.004105588    1.732    0.423
        64 -10.4970    198.7305    222.7431   1.0319386215e+02   3.3642599459e+00    0.1425484    0.1135804  49.09 0.0005460969    1.317    0.241
        65 -12.5913    193.4898    192.8673   9.9553967165e+01   7.8886371983e+00    0.7267371    0.4205217 -50.32  0.003326916    2.388    0.581
        66 -12.5922      7.0914    215.1357   1.3427373470e+02   3.0365462604e+01     0.382318    0.1981256  23.25  0.002241428    4.027    0.752
