#   1 NUMBER                 Running object number                                     
#   2 MAG_AUTO               Kron-like elliptical aperture magnitude                    [mag]
#   3 X_IMAGE                Object position along x                                    [pixel]
#   4 Y_IMAGE                Object position along y                                    [pixel]
#   5 X_WORLD                Barycenter position along world x axis                     [deg]
#   6 Y_WORLD                Barycenter position along world y axis                     [deg]
#   7 A_WORLD                Profile RMS along major axis (world units)                 [deg]
#   8 B_WORLD                Profile RMS along minor axis (world units)                 [deg]
#   9 THETA_WORLD            Position angle (CCW/world-x)                               [deg]
#  10 FWHM_WORLD             FWHM assuming a gaussian core                              [deg]
#  11 ELONGATION             A_IMAGE/B_IMAGE                                           
#  12 ELLIPTICITY            1 - B_IMAGE/A_IMAGE                                       
         1 -12.7337    244.2944    119.7510   5.2081672963e+01   1.0623467133e+01     3.787825    0.6312591 -39.97   0.01170803    4.598    0.783
         2 -12.5304    237.5217     42.5807   3.6879557624e+01   2.2853447354e+01     2.385503     1.254664  70.90   0.01353762    2.053    0.513
         3 -12.1063    226.4366     66.0148   4.2944920431e+01   2.1861698606e+01      1.19723    0.9140918 -65.40  0.005936468    1.250    0.200
         4 -11.6094    238.7772     60.3533   4.0454319349e+01   2.0309100351e+01    0.7271923    0.6466325  77.37  0.005183859    1.282    0.220
         5 -10.0038    250.1426     23.7398   3.2187954848e+01   2.2753584157e+01    0.5522869    0.1960316 -32.20  0.002267113    2.680    0.627
         6  -9.7992    119.5764     10.2130   4.2401680857e+01   5.3025089175e+01    0.5923012    0.3325475  48.51  0.003003882    1.669    0.401
         7  -7.8570    165.6560      5.9823   3.4923347807e+01   4.2351126584e+01    0.1633117    0.1436722 -61.55 0.0003676455    1.138    0.121
         8  -8.7917    249.4093      2.5632   2.8217502993e+01   2.5136565479e+01    0.2438746     0.151934 -53.85 0.0009967745    1.212    0.175
         9  -7.6999    209.0488      3.8614   3.0801662340e+01   3.2890298432e+01    0.1739905      0.11995 -62.99 0.0004569867    1.208    0.172
        10  -8.5434    183.2219    219.9773   8.1888958846e+01   3.3237425125e+00    0.2033325    0.1597083  18.17 0.0002244138    1.129    0.114
        11  -7.6612    210.2889    217.4073   7.6224850178e+01   1.1403111949e-01    0.1487415    0.1059868  28.90 0.0003179561    1.427    0.299
        12 -10.2545    150.0554    213.7834   8.7923580268e+01   9.1629815501e+00    0.2417342    0.2161269 -27.35 0.0005070562    1.187    0.158
        13  -8.3706    102.0121    209.1025   9.8454432946e+01   1.7192081057e+01    0.1913144    0.1783991  28.63 0.0003080978    1.036    0.035
        14  -8.7806    172.9435    199.4002   8.0531647600e+01   8.3454784706e+00    0.2261279    0.1808767 -28.55 0.0002507599    1.218    0.179
        15  -9.3553     34.2722    196.5397   1.1396451093e+02   2.8527672916e+01    0.2223622    0.2091857  88.37 0.0004355325    1.122    0.108
        16  -7.5389    158.3545    196.2425   8.3151658704e+01   1.1193680541e+01    0.1749314    0.1300255 -53.98 0.0003891873    1.599    0.375
        17  -7.4534    100.1543    186.1261   9.5595517311e+01   2.2528509517e+01    0.1873703    0.1594052  60.64 0.0002862655    1.250    0.200
        18  -7.1520     81.2651    186.3851   1.0061073798e+02   2.5230549839e+01    0.1439241    0.1042716 -31.37 0.0004610253    1.694    0.410
        19  -7.0360    105.4988    182.4708   9.3618369616e+01   2.2540531091e+01    0.1438044     0.136297  16.40 -2.415637e-05    1.042    0.040
        20  -8.7829     36.5737    181.0512   1.1197446670e+02   3.1984713103e+01    0.2151788    0.1846143  34.26 0.0001533503    1.203    0.169
        21  -8.2294    100.9933    175.9716   9.3737314388e+01   2.4749878407e+01    0.2015127    0.1936059   6.74  0.001142616    1.055    0.052
        22  -7.2224    132.4366    168.4677   8.4171074093e+01   2.1233761802e+01    0.1468534    0.1396744   3.96 9.900572e-05    1.006    0.006
        23 -11.2928     25.1725    162.8419   1.1335359265e+02   3.7602794866e+01     0.673622    0.5962753  39.21  0.002124659    1.186    0.157
        24 -10.8669     38.4924    156.3624   1.0873793315e+02   3.7968273994e+01    0.7906972    0.7154903  44.78  0.003834706    1.133    0.117
        25  -8.2818    237.9431    156.5223   6.0308462819e+01   5.8189805542e+00    0.1645699    0.1231036  36.96  0.001019425    1.563    0.360
        26  -9.5203    179.6508    146.6185   6.8698833655e+01   1.7216086011e+01    0.3032536    0.2306149 -34.64  0.000520791    1.234    0.190
        27  -7.6666     69.7758    145.5992   9.7520830181e+01   3.6928619661e+01    0.3725159     0.158731  49.76  0.001279534    2.939    0.660
        28  -8.1414     66.1931    144.1667   9.8388540720e+01   3.7791867080e+01    0.2147392    0.1897192 -68.78 0.0008235822    1.110    0.099
        29  -8.6167    123.0294    143.9057   8.1563449356e+01   2.8486063265e+01     0.218755    0.2112822 -15.03 0.0002985892    1.017    0.017
        30  -8.3016    184.9927    143.3571   6.6901794167e+01   1.6858503752e+01    0.1955617    0.1756078  20.89 0.0003655147    1.147    0.128
        31  -8.2742    233.1518    247.1609   7.6916455276e+01  -6.6280663794e+00    0.1365083    0.1112717  -8.33 0.0003794827    1.308    0.236
        32 -10.4912    245.9994     54.2708   3.8536234502e+01   1.9796615869e+01    0.6433463    0.2344764 -50.83   0.00239608    2.462    0.594
        33  -9.2217    232.1998     37.7844   3.6329376476e+01   2.4463287179e+01    0.2465233    0.2082791 -89.16 0.0003761668    1.203    0.169
        34  -7.9829      2.4305    243.5170   1.2372673990e+02   2.1478591480e+01    0.1099231    0.0859087  60.95 6.569087e-05    1.034    0.033
        35  -8.3675     71.8909    112.6532   9.0088882386e+01   4.4968366126e+01    0.2281243    0.1969632 -36.96 0.0003445347    1.144    0.126
        36 -11.9971    247.6438     83.0631   4.4221524556e+01   1.5559418038e+01     1.792033    0.9909966 -66.13  0.009012606    2.455    0.593
        37  -9.9217    186.0832    100.3181   5.6711719015e+01   2.4612819899e+01    0.5831717    0.3068257 -47.48  0.002401289    1.863    0.463
        38  -7.9970    151.6374    101.9059   6.4063717106e+01   3.1717258613e+01    0.2596363     0.204165  34.94 0.0007678737    1.364    0.267
        39  -7.7532    105.7385    101.8004   7.6176521273e+01   4.1496770730e+01    0.2524007    0.1961236  11.38 0.0006993909    1.547    0.354
        40 -10.3775     89.8073     94.3162   7.9154768223e+01   4.6258199906e+01    0.2629438     0.246578 -31.30 0.0002358507    1.047    0.045
        41  -8.4084    145.7268     91.6245   6.2644065139e+01   3.5012395605e+01    0.2809851    0.2575023 -79.25  0.001418044    1.173    0.147
        42  -9.8637    219.7750     76.8872   4.6133157831e+01   2.1578628024e+01    0.9020686    0.2889947 -54.32  0.002504616    6.072    0.835
        43  -9.6658    226.2900     89.3991   4.8067731310e+01   1.8439355994e+01    0.5825004    0.2732998 -59.12  0.002344189    3.113    0.679
        44  -8.4634    224.6841     85.3367   4.7385281131e+01   1.9361142219e+01    0.2904753    0.1586309 -59.31  0.001047121    2.170    0.539
        45  -9.8364    182.5016     86.8530   5.4009173252e+01   2.7705756670e+01    0.4776886    0.3621613  33.99  0.001894135    1.585    0.369
        46  -9.6515    162.5401     86.7164   5.7691397298e+01   3.2139669173e+01    0.3363049    0.2608061 -22.30  0.001220916    1.457    0.314
        47  -8.6905    190.5149     83.0204   5.1721827926e+01   2.6619039878e+01    0.2358641    0.2032161  62.15 0.0003467129    1.232    0.188
        48  -7.5460    183.5294    136.5226   6.5681542087e+01   1.8430983248e+01    0.1444131    0.1310666 -19.81 0.0001176125    1.036    0.034
        49 -10.6889    183.1149     73.6119   5.0551736098e+01   2.9744996200e+01     0.526018    0.3867738 -12.77  0.002656162    1.797    0.444
        50  -8.9741    201.5847     77.6509   4.8744061903e+01   2.5137894039e+01    0.2757003    0.2310258  48.15  0.001058828    1.354    0.262
        51  -9.3331    208.0793     74.8634   4.7186439839e+01   2.4224190915e+01    0.3346745    0.2637604  57.91  0.001448455    1.396    0.284
        52  -9.2710    245.2387     72.2481   4.2267057494e+01   1.7507601537e+01    0.2534993    0.1303881 -44.28 0.0008214591    1.564    0.361
        53  -8.2161    138.1060     72.7238   5.8983006600e+01   4.0207377999e+01     0.203475    0.1795989  53.38 0.0003347658    1.116    0.104
        54  -7.8958    173.3436     65.3019   4.9980563684e+01   3.3243730923e+01    0.1388826    0.1084223  25.25 0.0007038685    1.680    0.405
        55  -7.3209     86.3384    134.4714   9.0193132382e+01   3.7230513847e+01    0.1502118    0.1401043 -49.62 0.0007866253    1.057    0.054
        56  -9.9005    167.3526     57.5597   4.8879742547e+01   3.5794817049e+01     0.445349    0.2140639  71.71  0.001766835    2.562    0.610
        57  -8.6579    196.1512     53.3455   4.3606403106e+01   2.9881018935e+01    0.3272677    0.1648258 -42.27  0.001567123    1.791    0.442
        58  -8.0481    121.9805     50.0547   5.5620723653e+01   4.7674144074e+01    0.2136954    0.1659544 -72.28 0.0002897926    1.579    0.367
        59  -8.3299    160.6458     46.7781   4.6971485629e+01   3.8906865573e+01    0.1844898      0.16731  59.80 0.0005826713    1.126    0.112
        60  -8.7938    153.1102     44.7590   4.7646356147e+01   4.0977571503e+01    0.2291176    0.2004329 -30.76 0.0002133276    1.239    0.193
        61  -9.5516    142.8050     40.5336   4.8198421019e+01   4.4019818383e+01    0.3444895    0.2448408 -60.69   0.00177194    1.560    0.359
        62  -9.0223    121.7598     37.8459   5.1554242243e+01   4.9441857712e+01     0.238352    0.2185724  49.30 0.0002631609    1.049    0.047
        63  -8.8949    226.6867     33.7778   3.5944598031e+01   2.6027785702e+01    0.4022036    0.1294381 -43.44    0.0012041    2.427    0.588
        64  -9.2004    193.0587    234.9217   8.2317513370e+01  -2.9929804376e-01    0.2855288    0.2451876  62.94  0.001815001    2.099    0.524
        65  -7.1751    198.0000     32.9493   3.8444090745e+01   3.2113339306e+01    0.1983511   0.06710838 -31.83 0.0007962754    2.900    0.655
        66 -10.3685    213.1952    229.1483   7.7618462920e+01  -1.9664717211e+00    0.2066361    0.1707888  -1.21 0.0002207321    1.152    0.132
        67  -9.4435    244.5475     30.3365   3.3854024324e+01   2.3019043413e+01    0.2317959     0.184804 -79.29  0.001148261    1.180    0.153
        68  -9.2411    238.9821     29.8483   3.4159406130e+01   2.4114583012e+01    0.1735927    0.1351128 -60.45 0.0004520959    1.014    0.014
        69  -7.4201    128.6575    117.8644   7.3897459654e+01   3.3280180167e+01    0.2062534    0.1427636 -53.86 0.0003239152    1.528    0.345
        70  -9.3098    182.4819    224.6869   8.2796388640e+01   2.6655595165e+00    0.2445572    0.1979615  -5.63 0.0005248572    1.083    0.077
        71  -8.1480    230.0162     29.0686   3.4679030414e+01   2.5929105116e+01    0.2161465    0.1445692 -45.99  0.001096113    1.263    0.209
        72  -8.3436    231.5026     25.5140   3.3825158416e+01   2.6048902681e+01    0.2070372    0.1612864 -58.42  0.001394797    1.038    0.036
        73  -7.9011    229.2539     22.2393   3.3310435730e+01   2.6858617559e+01    0.3051206   0.08770526 -41.98  0.001385404    2.578    0.612
        74  -7.2863    115.7668     23.0126   4.7662850300e+01   5.2665708505e+01    0.1525874    0.1143398 -26.89            0    1.484    0.326
        75  -7.6083    223.7769     17.8164   3.2779534555e+01   2.8432975416e+01    0.1736013    0.1039893 -57.27 0.0009905394    1.402    0.287
        76  -9.2801    181.1486    229.0865   8.3757834310e+01   2.1462508229e+00    0.3559538    0.2065215  39.06            0    1.816    0.449
        77  -7.4173     72.4690    225.4757   1.0741048606e+02   1.7731422243e+01    0.1278037    0.1118755  44.38 2.864762e-05    1.019    0.019
        78  -7.2191    103.4483    222.5105   9.9851506211e+01   1.4232539172e+01    0.1318337    0.1165616  32.02 0.0001098397    1.009    0.009
