#   1 NUMBER                 Running object number                                     
#   2 MAG_AUTO               Kron-like elliptical aperture magnitude                    [mag]
#   3 X_IMAGE                Object position along x                                    [pixel]
#   4 Y_IMAGE                Object position along y                                    [pixel]
#   5 X_WORLD                Barycenter position along world x axis                     [deg]
#   6 Y_WORLD                Barycenter position along world y axis                     [deg]
#   7 A_WORLD                Profile RMS along major axis (world units)                 [deg]
#   8 B_WORLD                Profile RMS along minor axis (world units)                 [deg]
#   9 THETA_WORLD            Position angle (CCW/world-x)                               [deg]
#  10 FWHM_WORLD             FWHM assuming a gaussian core                              [deg]
#  11 ELONGATION             A_IMAGE/B_IMAGE                                           
#  12 ELLIPTICITY            1 - B_IMAGE/A_IMAGE                                       
         1 -12.4863     74.9236     51.2359   9.1848681931e+01   5.6383660918e+01     1.254767    0.8730264 -49.42  0.006908913    1.822    0.451
         2 -12.0280     69.2549     18.8849   8.2067602812e+01   6.1436473331e+01     0.953159    0.4793843  39.91  0.003592645    1.683    0.406
         3 -11.9783     60.4540     45.2797   9.4707174785e+01   5.9608358159e+01    0.9167791    0.6733621 -21.52  0.005649799    1.296    0.229
         4 -12.0985    124.7330     27.9024   7.1087490781e+01   4.9394403237e+01    0.6303934    0.6071413 -20.12  0.003907934    1.190    0.159
         5 -12.1080    131.6810     14.5425   6.5865596750e+01   4.9196845127e+01     1.312719    0.4694036  66.22  0.005237008    2.606    0.616
         6 -13.4751    118.4888     40.7091   7.6323644090e+01   4.9262568932e+01     1.094589    0.7889702  50.61  0.002889512    1.233    0.189
         7  -9.7784    147.4605     16.4579   6.3797852007e+01   4.5473799492e+01    0.5546586    0.4748797  82.57  0.003706085    1.096    0.087
         8 -11.0835    138.5243     32.3499   6.9690846702e+01   4.5811044398e+01    0.8214629    0.5649193 -61.94  0.004466505    1.785    0.440
         9 -10.8975    138.4462     21.6239   6.6689062601e+01   4.6994321103e+01    0.9361336    0.2312824  49.00  0.003265899    3.723    0.731
        10  -9.3222     87.2483      7.3442   7.2825999712e+01   5.9153847963e+01     0.552936    0.2629266  52.94  0.002989942    1.714    0.417
        11  -9.2146     90.9768     21.1278   7.6684888780e+01   5.7171504967e+01    0.9388028    0.4983357  -6.96  0.004524974    2.717    0.632
        12 -11.2549     85.7378     14.2658   7.5655378675e+01   5.8848747087e+01    0.4769911    0.3041327 -18.58  0.002890593    1.763    0.433
        13 -10.6102    186.4322     15.1983   5.8323318201e+01   3.6779220417e+01    0.2909865    0.2059724  70.48 0.0006114846    1.219    0.180
        14 -10.0760    191.6329     16.5580   5.8044312127e+01   3.5472822573e+01    0.2857038    0.2731364  30.96  0.002047247    1.446    0.308
        15 -11.6528    192.6169      7.2028   5.5918183164e+01   3.6232519886e+01    0.5309791    0.4115485  23.95  0.003019891    2.082    0.520
        16 -11.5616    178.7863     21.0656   6.0574243967e+01   3.7868881033e+01    0.6217865    0.3065754  47.25  0.002983517    2.400    0.583
        17 -12.3848    104.9146     13.0461   7.0642630412e+01   5.5106589814e+01    0.5354323    0.4203829 -36.83  0.003523954    1.528    0.346
        18 -12.6498    113.4880     24.9698   7.2565104018e+01   5.2149726445e+01    0.8241462    0.3431644  56.62  0.001827421    2.054    0.513
        19 -11.3990    198.9299     28.6211   5.9857854394e+01   3.2460200928e+01    0.5012713    0.3706319 -23.49  0.001546932    1.868    0.465
        20 -12.4216     18.9211     22.6491   1.0283062813e+02   6.8040268155e+01     1.122991     0.618792  38.22  0.006752919    2.344    0.573
        21 -11.5692     26.2723     27.5235   1.0150115408e+02   6.6606276305e+01    0.4403006    0.2609524 -33.21  0.001873345    1.550    0.355
        22 -11.9679     22.4655     11.2121   9.6510748769e+01   6.9074185159e+01    0.6067038     0.400109 -20.88  0.004340128    1.350    0.259
        23 -12.4726     16.4612     13.1811   1.0007372915e+02   6.9497279224e+01    0.4579398    0.3721208 -15.54 0.0009184385    1.311    0.237
        24 -10.6091     41.4815      4.4601   8.5768536929e+01   6.7282169484e+01    0.4516368    0.2482794  -1.23   0.00268364    2.015    0.504
        25 -12.1812     48.0742     12.9785   8.6892630286e+01   6.5482441038e+01    0.7298555     0.398905  35.13  0.003722076    1.551    0.355
        26 -12.4340    238.2800     15.8753   5.3552155825e+01   2.5630572276e+01    0.8156973    0.5841983  74.70  0.004436619    1.358    0.264
        27 -10.7775    242.5456      3.5238   5.1046488505e+01   2.6186460372e+01    0.5129114    0.1465295  70.09  0.002431093    2.959    0.662
        28 -11.0262    165.1121     17.6888   6.1550498613e+01   4.1338210989e+01    0.3914927    0.2490237  42.32   0.00132569    1.858    0.462
        29 -11.4620    245.9761      7.6795   5.1527190459e+01   2.5053649073e+01    0.3511755    0.2912952 -57.22  0.002473531    1.363    0.266
        30 -10.1044    225.7820     15.8285   5.4574101352e+01   2.8187737218e+01    0.2981901    0.1736556 -48.35  0.001101173    1.599    0.375
        31  -9.7125    141.4814     12.2921   6.3612024936e+01   4.7216290276e+01    0.1772272    0.1650792  23.98 0.0006419617    1.275    0.216
        32 -11.8619     35.9010     18.0248   9.3664380100e+01   6.6646496649e+01    0.5887942    0.3556068 -27.50  0.003121614    1.602    0.376
        33 -11.4656    211.6682      9.8892   5.4659992306e+01   3.1823183581e+01    0.3763237    0.3166795  14.26   0.00167707    2.032    0.508
        34 -10.6230      5.0200      9.9545   1.0417239838e+02   7.0984734576e+01    0.3260002    0.1838714 -17.30  0.001511149    1.487    0.328
        35  -9.3486      5.2893      5.3463   1.0203499144e+02   7.1517387440e+01    0.1820492    0.1057155 -22.60  0.001241351    1.413    0.292
        36 -11.4468      3.4957      1.7769   1.0133145537e+02   7.2092115420e+01    0.4147254    0.1489885  23.03  0.002284883    2.665    0.625
        37  -9.9694    168.7371     10.1708   5.9256660277e+01   4.1266754228e+01    0.2580218    0.1568747  58.88  0.001193547    1.466    0.318
        38  -9.8230    162.9023      7.0985   5.9246477341e+01   4.2870006240e+01    0.3748616    0.1607353 -30.65  0.001590115    2.697    0.629
        39 -10.5452     66.0137     10.1656   7.9742905054e+01   6.2837436330e+01    0.4818053    0.1372808  49.14  0.002079802    2.921    0.658
        40  -9.8843     63.0832      6.4886   7.9213800761e+01   6.3665595538e+01    0.3016457    0.1937755  23.07  0.001933563    1.400    0.286
        41  -9.8219    185.1424      7.4869   5.6753896317e+01   3.7855227262e+01    0.2698462    0.1555625 -56.57  0.001219174    1.758    0.431
        42 -10.1124    151.9286      7.4813   6.0795294706e+01   4.5304028650e+01    0.4118711    0.1677268  62.40  0.001396012    1.935    0.483
        43  -9.9825      1.2935      7.2479   1.0487627192e+02   7.1636954043e+01    0.1573856   0.07386261 -34.53 0.0002408903    1.832    0.454
        44 -11.2664     75.2767      4.2709   7.4819225487e+01   6.1673747507e+01     0.593649    0.3840387  56.88  0.003415369    1.515    0.340
        45 -10.0390     82.0593      1.3511   7.1981583575e+01   6.0621717543e+01    0.1894626   0.09117962  56.42 0.0003872518    1.783    0.439
        46 -10.3673    175.5965      5.1434   5.7272186816e+01   4.0205335717e+01     0.386045    0.2099209  82.07  0.002119881    1.657    0.397
        47  -9.1889    115.4827      6.0422   6.6289710960e+01   5.3463661961e+01     0.197658    0.1213522  -9.60 0.0007814285    2.118    0.528
        48  -9.6990    116.8017      2.4143   6.4944976695e+01   5.3464995374e+01    0.2441478    0.1652812  58.40  0.000979805    1.186    0.157
        49 -10.4042    110.8195      1.8466   6.5878420053e+01   5.4779293977e+01    0.4891296    0.1388546  62.58  0.002005035    2.906    0.656
        50 -10.7066    105.2202      1.5560   6.6876882484e+01   5.5973670170e+01    0.4923857    0.2635418  75.35  0.002139301    2.234    0.552
        51 -10.9942    218.8892      3.1222   5.2733727675e+01   3.1017095367e+01    0.2871701    0.2079476 -66.18 0.0009786153    1.192    0.161
        52 -11.4069    223.7671      1.7630   5.2096178393e+01   3.0148933402e+01    0.7090424     0.276602 -89.66  0.003273686    2.810    0.644
        53 -11.4569    205.4176      2.4072   5.3725073999e+01   3.3935686135e+01    0.4005908    0.1921243  85.58  0.001150532    1.889    0.471
        54 -10.1693    142.4403      3.4559   6.1089713960e+01   4.7771809817e+01    0.3449696    0.2012652  63.55  0.001601158    1.373    0.272
        55 -11.9471    133.5733      2.6394   6.2199513179e+01   4.9801301350e+01    0.3757157    0.1993709  60.35 0.0009069169    1.490    0.329
        56 -10.8600     33.0389     12.8204   9.2668750322e+01   6.7605455045e+01    0.2155151     0.169454  40.39 0.0006860956    1.681    0.405
        57  -9.4158    169.7187      3.1316   5.7476363465e+01   4.1702190561e+01     0.296104    0.1573937 -76.71  0.001507994    2.212    0.548
        58  -9.3276    157.6759      2.6652   5.8821079775e+01   4.4436279340e+01    0.1916045    0.1458271  61.26  0.001266684    1.182    0.154
        59  -9.3399    161.6970      1.1412   5.7951288774e+01   4.3668278931e+01    0.3752771   0.09735254  69.77  0.001359987    3.216    0.689
        60 -10.3016     12.9419      2.0413   9.6818374263e+01   7.1132576407e+01    0.2376981    0.1290455  18.17   0.00102036    1.578    0.366
        61  -9.7651    122.7162      1.3522   6.3595263045e+01   5.2272609581e+01    0.3542108   0.09559149  65.05  0.001387009    3.105    0.678
        62 -10.2509    214.8813    151.1974   8.4634397817e+01   8.0253478047e+00    0.3089862     0.178412 -46.60  0.001002422    1.586    0.370
        63 -11.5295     62.5794    149.9655   1.2144549716e+02   3.7276952574e+01    0.5325382    0.4881852  33.50  0.002425791    1.217    0.178
        64  -9.1209     85.2317    149.9851   1.1510275775e+02   3.3888050786e+01    0.2067776    0.1193402 -57.40 0.0006127754    1.630    0.387
        65  -9.7440    239.8234    146.8253   7.9423583996e+01   4.2838201660e+00    0.2030408     0.175555 -25.74 0.0006586804    1.192    0.161
        66 -10.8412    249.4221    142.6813   7.7084265443e+01   3.3873209549e+00    0.6243569    0.2336684 -44.69  0.002557333    2.250    0.555
        67  -9.4429    108.5897    146.0428   1.0783526260e+02   3.0784824477e+01    0.2252921    0.2076138  45.88 5.197326e-05    1.121    0.108
        68 -10.6799     33.0837    144.2545   1.2877916510e+02   4.2197164099e+01    0.2940602    0.2452748  87.69 0.0007820698    1.215    0.177
        69  -9.6243    104.6194    142.2392   1.0807492194e+02   3.2448912441e+01    0.2489852    0.2205227 -83.58 0.0004060162    1.198    0.165
        70 -10.0799    133.5573    140.3829   9.9965012398e+01   2.7224333474e+01    0.3541795    0.3080453  -0.27  0.001097329    1.376    0.273
        71 -12.0380     29.8801    132.9125   1.2786660920e+02   4.5285924492e+01     0.809304    0.4734997 -64.46  0.002945314    1.452    0.311
        72 -11.1661     24.0201    136.9951   1.3021782221e+02   4.4834146918e+01     0.365801    0.2411255 -48.11 0.0003343716    1.404    0.288
        73 -11.2555     20.9934    134.3438   1.3067741565e+02   4.5739186558e+01      0.29714    0.2532946 -50.69 0.0003992228    1.133    0.117
        74  -8.7702    186.5025    139.4945   8.7565023582e+01   1.6171851813e+01    0.1524638    0.1438072 -54.54 4.217209e-05    1.001    0.001
        75 -10.5201     80.5141    136.0486   1.1353691704e+02   3.8101066956e+01    0.5246053    0.3505725   3.49  0.002217189    2.323    0.569
        76 -10.8203     46.5519    135.0085   1.2332311761e+02   4.3017695229e+01    0.4836798    0.3730736 -69.28  0.002680835    1.207    0.172
        77 -10.8207     71.9136    133.9351   1.1560287526e+02   3.9936917232e+01    0.6164979    0.4483817  -7.80  0.002914672    1.887    0.470
        78  -8.6820    216.7341    135.0013   8.0820888173e+01   1.0884976501e+01    0.1879578    0.1155274 -44.06 0.0004685403    1.467    0.318
        79 -10.8747     92.7439    129.4853   1.0851496533e+02   3.7661842765e+01    0.4423704    0.3260882 -79.39  0.001564712    1.708    0.415
        80  -9.7940     62.4359    131.4946   1.1790836681e+02   4.1879891950e+01    0.4615591    0.1869774 -42.35  0.001506481    2.737    0.635
        81  -9.2652    103.8142    131.3773   1.0580586002e+02   3.5219979122e+01    0.2017282    0.1482639  26.50 0.0003206981    1.551    0.355
        82 -10.8347     10.6097    127.4179   1.3263607788e+02   4.8207949499e+01    0.5025405    0.1766855 -52.71   0.00155707    2.220    0.550
        83  -9.7354    242.3182    127.6692   7.5122849270e+01   7.4046600112e+00    0.1399758   0.09685066 -69.05   0.00035821    1.688    0.408
        84 -10.4152     18.4705    125.0613   1.2995281532e+02   4.8169282178e+01     0.372772    0.1695675 -57.76  0.001078531    1.719    0.418
        85  -9.6654      2.2835    125.7705   1.3480839374e+02   4.9154449506e+01    0.2950811    0.1718882 -84.64  0.001263177    1.747    0.428
        86 -10.4897     45.8606    120.3137   1.2067558393e+02   4.6649598878e+01    0.4014898    0.2913578  74.04  0.001421884    1.860    0.462
        87 -10.9096     55.8262    123.1492   1.1817145586e+02   4.4768978287e+01    0.5596114    0.3796317  18.19  0.001553291    1.759    0.432
        88  -9.0314     50.4645    122.4804   1.1968952099e+02   4.5593430905e+01    0.1905615     0.137096   5.16 5.843053e-05    1.740    0.425
        89  -8.8793     41.6578    126.2952   1.2315719176e+02   4.5686980642e+01    0.1349497    0.1014286  72.19 0.0004719139    1.661    0.398
        90  -9.7610     80.6081    125.1708   1.1107909030e+02   4.0719910860e+01    0.4243734    0.2129028  43.53  0.001727047    2.165    0.538
        91  -9.4426     84.5026    123.4351   1.0951281793e+02   4.0499757256e+01    0.2649415    0.1920094  20.11 0.0009360155    1.629    0.386
        92 -11.6136    104.8294    121.7847   1.0320015774e+02   3.7283991022e+01    0.5118032    0.4731832  71.48  0.001678908    1.169    0.144
        93  -9.0106     40.4590    122.2072   1.2273575738e+02   4.6796435252e+01    0.1754767    0.1213914 -73.11  0.000294984    1.491    0.329
        94 -10.6844     33.5186    119.7976   1.2442740245e+02   4.8080477020e+01    0.3487211    0.2137393 -38.56 0.0007848358    1.629    0.386
        95  -9.4809      4.4111    121.1124   1.3352313835e+02   5.0106396129e+01     0.247712    0.1648658  68.77  0.001095521    1.891    0.471
        96  -9.1279    221.1788    120.3928   7.6905418116e+01   1.2831757562e+01    0.1890474    0.1338861  70.76 0.0006565115    1.675    0.403
        97  -9.1787    148.4122    119.7841   9.1290551864e+01   2.8715195475e+01    0.2260338    0.1466229 -34.62 0.0008708756    1.705    0.414
        98  -9.2342     72.8523    119.8373   1.1218799145e+02   4.3188956182e+01    0.2212496    0.1856591 -23.94 0.0005978424    1.264    0.209
        99  -9.3222     81.7236    117.4508   1.0891492980e+02   4.2358642669e+01    0.2464787    0.1988899 -52.90 0.0002866228    1.183    0.155
       100  -9.8882    113.5765    115.9843   9.9290085377e+01   3.6908501819e+01    0.2803608    0.2281856  39.18 0.0004190118    1.260    0.206
       101  -9.5676      6.8590    114.8485   1.3182619539e+02   5.1398869203e+01    0.2500906    0.2105503 -88.79  0.001127151    1.281    0.219
       102 -11.2256      2.4224    112.0264   1.3274482396e+02   5.2321039746e+01    0.3698872    0.2083256 -62.21 0.0008568323    1.376    0.273
       103 -12.0017      3.8564    105.2815   1.3119877404e+02   5.3761834475e+01    0.3966961    0.3237612 -48.94 0.0007569627    1.075    0.070
       104  -9.8424     88.1273    114.7558   1.0631894596e+02   4.1911745035e+01    0.3494882    0.2227188  42.94  0.000385725    1.661    0.398
       105  -9.3436     82.0907    102.6898   1.0505928126e+02   4.5625586558e+01    0.2217014    0.1855803 -16.57 0.0004987931    1.259    0.206
       106  -9.9882     90.8593    104.1681   1.0276396832e+02   4.3800793215e+01     0.411052    0.3222986 -10.33  0.001447183    1.508    0.337
       107 -11.3098     79.8589    108.7903   1.0733457023e+02   4.4640750744e+01    0.7571402    0.4709323  44.31  0.003471469    1.758    0.431
       108 -10.7951     85.7377    104.6675   1.0445469825e+02   4.4580497400e+01    0.5866559    0.3680612 -18.40  0.002154554    2.366    0.577
       109 -10.3768     67.1220    112.1159   1.1214460677e+02   4.5830234064e+01    0.5275797    0.3133935 -61.90  0.002248596    1.801    0.445
       110 -10.0034     35.5355    113.3414   1.2251994061e+02   4.9395879513e+01    0.5082383    0.2991794  81.06  0.002061608    3.292    0.696
       111 -11.8499     49.3982    101.4861   1.1534210524e+02   5.0574330649e+01     1.488948    0.5534691 -34.53  0.004697986    4.281    0.766
       112 -12.4702     52.7923     74.3793   1.0691114556e+02   5.5772148086e+01    0.6903718    0.5596496 -70.64   0.00155745    1.730    0.422
       113 -10.4889     46.8613     74.5297   1.0909239759e+02   5.6492081701e+01    0.4173199    0.2032485 -49.60            0    1.947    0.486
       114 -11.0560     90.3436     88.9118   9.8709245378e+01   4.7077205939e+01     0.924525     0.525152 -17.62  0.003383739    3.161    0.684
       115 -11.7360     35.4599     92.5058   1.1793598028e+02   5.4079252129e+01     1.591685    0.9420997 -68.44  0.007020203    2.048    0.512
       116 -12.1504     41.2059     85.9556   1.1427261976e+02   5.4858023097e+01     1.781483    0.6767733  25.85  0.007441843    2.945    0.660
       117 -11.1821     77.9882     96.9916   1.0482302621e+02   4.7523258824e+01    0.4102793    0.2559509 -53.64  0.001932769    1.651    0.394
       118 -11.2833     81.7450     92.6185   1.0242997345e+02   4.7820189271e+01    0.6997674    0.4077327  46.96  0.002890876    1.938    0.484
       119 -11.0866     79.7291     82.9378   1.0030188871e+02   5.0098147396e+01    0.5930111    0.5423208 -83.11  0.002759379    1.393    0.282
       120 -12.2784     73.4700     77.8420   1.0082868299e+02   5.2101540077e+01     1.542006    0.9684157   9.07  0.007069842    2.179    0.541
       121 -12.3460     20.5478     95.4288   1.2377051653e+02   5.4790775483e+01     0.770835    0.6065604 -18.31  0.004923452    1.308    0.235
       122 -12.3257     17.5225     90.3791   1.2373574305e+02   5.6121235907e+01    0.7163563    0.3751664 -23.03  0.000883391    2.269    0.559
       123 -11.7924     19.1658    105.4110   1.2625767859e+02   5.2677155825e+01    0.8195602    0.3164912 -41.35  0.001802913    2.472    0.595
       124 -12.3710      9.8949     95.7033   1.2746914721e+02   5.5507569045e+01    0.8045049    0.4447227 -71.37  0.001579759    1.858    0.462
       125 -12.0564      7.2529     88.9077   1.2703010458e+02   5.7146944056e+01    0.4973586    0.4542063 -32.74  0.001437917    1.169    0.145
       126 -11.7816     22.1911    114.1429   1.2692589054e+02   5.0430778961e+01    0.9707992    0.3563623  11.26  0.003513442    4.611    0.783
       127 -12.3998     24.8348    108.3685   1.2498206593e+02   5.1538623584e+01     1.182196    0.5921618 -28.45  0.005346423    2.523    0.604
       128  -9.2047    126.9788    113.6518   9.5085895446e+01   3.4677272926e+01    0.2185607    0.1979978  38.68 0.0007613489    1.129    0.114
       129 -10.6215    107.5288    112.0812   9.9972817744e+01   3.8966474464e+01    0.4742889    0.3477105 -88.16  0.001495292    2.033    0.508
       130 -11.2030    102.0228    109.4098   1.0084997990e+02   4.0610874277e+01    0.6519164    0.5219042   4.67  0.003213693    1.514    0.339
       131 -11.2389    170.7937    110.2210   8.3899218947e+01   2.5717038033e+01    0.5523815    0.4217691  43.07   0.00199418    1.404    0.288
       132  -9.6900     48.8835    112.0816   1.1795993341e+02   4.8229850340e+01    0.2220753    0.2019586  30.14  0.001346517    1.234    0.190
       133 -10.1440    130.3885    109.4719   9.3115305667e+01   3.4854466680e+01     0.304642    0.2643138  20.66  0.001297789    1.291    0.225
       134 -10.1386    120.0303    109.2012   9.5767706312e+01   3.7091682162e+01    0.2734603    0.2192872 -43.31  0.000675833    1.235    0.190
       135 -10.5829    157.7659    106.1342   8.5689254785e+01   2.9489708406e+01    0.4238372    0.3141305 -17.72  0.001467095    1.823    0.451
       136 -10.9661    143.4704    106.1944   8.9009352439e+01   3.2685696521e+01    0.3858607    0.3296925  64.37  0.001035795    1.214    0.176
       137 -11.7853    145.7304    100.2386   8.6915789004e+01   3.3389998658e+01    0.5584648    0.4601486 -25.27  0.001801554    1.376    0.273
       138 -10.0614     57.5936    102.3184   1.1282773251e+02   4.9357756518e+01     0.331857    0.1568738 -53.13  0.001182044    1.938    0.484
       139 -10.1902     57.2479     97.5535   1.1174341249e+02   5.0449878796e+01    0.2944182    0.2252859 -51.12 0.0008856698    1.235    0.190
       140 -10.0937    121.1501    100.9556   9.3265794325e+01   3.8599769881e+01    0.2992987    0.2038615  16.20  0.001248331    2.146    0.534
       141  -9.3394     96.0423     99.9659   1.0007901208e+02   4.3767006563e+01    0.2175146    0.1709666  -3.10 0.0003412356    1.532    0.347
       142 -11.3386     67.6032     96.3697   1.0800713675e+02   4.9259615968e+01    0.5486866    0.3725295 -13.24  0.001580593    1.867    0.464
       143  -9.6097    210.0395     97.8109   7.3741635559e+01   1.9377220244e+01    0.2620469    0.1963025 -49.79  0.001387656    1.225    0.184
       144  -9.5244    140.7898     96.4092   8.7071523343e+01   3.5255156949e+01    0.3544848    0.2098645  38.00  0.001483908    1.887    0.470
       145 -10.6435    137.7827     93.7930   8.7091915187e+01   3.6436726246e+01    0.4018834    0.2888212  28.45 0.0008719463    1.686    0.407
       146  -9.7429    160.3129     93.5879   8.1923984578e+01   3.1367987164e+01    0.4047705    0.2311931  68.54  0.001596316    2.274    0.560
       147 -10.6635    152.3767     91.9004   8.3205937607e+01   3.3505391370e+01    0.5387557    0.3398225  50.90  0.002252196    1.563    0.360
       148 -10.2730    117.4134     93.0830   9.2104593009e+01   4.0973213323e+01    0.4527313    0.2909132  40.16  0.001447435    1.573    0.364
       149 -11.0972    120.1826     85.2555   8.9163487698e+01   4.1900723871e+01    0.4583315    0.2984523  48.43     0.001578    1.514    0.339
       150 -11.1666    124.9484     93.3541   9.0187789844e+01   3.9327622378e+01    0.6197668    0.3592693  48.11  0.001393097    1.715    0.417
       151 -10.3569    122.0125     89.1126   8.9772472393e+01   4.0779384306e+01    0.4794383    0.2592128  39.30  0.001990685    1.940    0.485
       152 -11.7779    102.1127     90.2368   9.5582096899e+01   4.4614757254e+01    0.4661449    0.3892291 -10.69 0.0005662298    1.315    0.240
       153  -8.7989    223.5102     92.0343   7.0427628237e+01   1.7551605868e+01    0.1957089    0.1231437 -44.97 0.0003386642    1.449    0.310
       154  -9.2220    211.9269     88.0193   7.1263204112e+01   2.0714962884e+01    0.2022187    0.1760254   6.62 0.0007092658    1.666    0.400
       155 -10.3560    183.7592     86.0324   7.5447215807e+01   2.7360321288e+01    0.5757785    0.2437789 -46.09  0.002235997    2.303    0.566
       156  -9.7971    105.1712     76.8303   9.0800247433e+01   4.6545982363e+01    0.6162225    0.4098917 -15.04  0.002805862    2.026    0.506
       157 -11.2474    113.3779     83.4295   9.0460115851e+01   4.3668241931e+01    0.7042198    0.3769077 -34.27  0.002682442    2.054    0.513
       158 -11.2042    109.4501     80.4702   9.0678424670e+01   4.5021740480e+01    0.4127718    0.3242839  18.27 0.0007320338    1.434    0.303
       159  -8.8836    135.2876     86.3546   8.5664502406e+01   3.8406657438e+01    0.1489051    0.1176311   4.89 0.0007024029    1.673    0.402
       160 -10.4550    165.7964     83.5481   7.8215913778e+01   3.1946303039e+01    0.4379417    0.3300265 -69.17  0.001782143    1.471    0.320
       161 -11.4238    143.1378     83.9505   8.3159322100e+01   3.7084189194e+01    0.3981311      0.32638 -54.15   0.00207919    1.267    0.210
       162 -10.8447    127.3176     82.9318   8.6671938003e+01   4.0795245147e+01     0.357424     0.344226  77.91  0.001309761    1.072    0.067
       163  -8.9546    239.6543     82.6686   6.6310176084e+01   1.5854740437e+01    0.1197012    0.1057946   6.96 0.0007049989    1.760    0.432
       164 -11.7531     14.0505     74.7103   1.2138617002e+02   5.9634318491e+01    0.5635991    0.3875151 -28.38  0.003336718    1.293    0.226
       165 -11.9996     14.2174     66.3395   1.1919146005e+02   6.1265176028e+01    0.6240565    0.2841341 -64.80 0.0004552838    2.912    0.657
       166 -11.8264      1.8993     71.3788   1.2520905338e+02   6.1082875390e+01    0.6894278    0.1434175 -58.57  0.002672178    3.464    0.711
       167 -10.6023     10.5155     62.5607   1.1965285904e+02   6.2251703640e+01    0.2621679    0.1826868 -48.28 0.0009006491    1.246    0.198
       168 -10.2401     98.2004     63.0024   8.8560365284e+01   5.0282013816e+01    0.4330699    0.2857534   7.90  0.002003517    2.152    0.535
       169 -10.0545    143.2093    249.5622   1.1805002663e+02   1.1164836056e+00    0.2689404    0.1118403  41.50  0.001146676    2.111    0.526
       170 -10.6912     93.5574     76.5751   9.4106747958e+01   4.8841579830e+01     0.518572    0.3167828  28.99  0.001679035    1.805    0.446
       171 -11.7551     85.5331     73.7030   9.5693219380e+01   5.0825519949e+01    0.6614242    0.5728291  44.37  0.003702479    1.240    0.194
       172 -10.7857     78.7493     67.3989   9.5889345064e+01   5.3120195794e+01    0.5317509    0.4489527  48.23  0.002554992    1.351    0.260
       173 -11.1640     91.4288     62.4905   9.0384647228e+01   5.1664841106e+01    0.4424419    0.3623675  42.87  0.001633783    1.215    0.177
       174 -10.7137     91.3027     57.9440   8.8967313851e+01   5.2410130785e+01    0.3169856    0.2443328  46.14  0.001032536    1.297    0.229
       175 -10.8527     87.6225     56.9709   8.9757453343e+01   5.3249711218e+01    0.5006933    0.2418816 -32.08  0.001687038    2.233    0.552
       176  -9.8303     33.1062     77.3174   1.1492156257e+02   5.7469306428e+01    0.2185754    0.1644655 -46.53 0.0005423523    1.204    0.169
       177 -12.0164      5.3180     62.7910   1.2179067696e+02   6.2552120970e+01    0.6151676    0.3039921 -36.98  0.003510619    1.648    0.393
       178  -9.2426    170.5124     77.5132   7.5766168765e+01   3.1903523285e+01    0.1443061    0.1335993  89.68 -1.30974e-05    1.003    0.003
       179  -9.7558    134.5297     77.4637   8.3371453984e+01   4.0180085746e+01    0.3414718    0.1788335  59.12  0.001391494    2.091    0.522
       180  -9.9152    126.9574     76.9670   8.5066950317e+01   4.1943316076e+01    0.2145068    0.2071323  46.72 0.0003153331    1.004    0.004
       181 -12.0242    186.4629     70.6767   7.1273347303e+01   2.9350150367e+01    0.8308923    0.6081148 -47.81  0.003309088    1.345    0.256
       182  -9.8676    184.3504     61.4352   6.9391326428e+01   3.1292703696e+01    0.2942161    0.2453621 -47.03  0.001262615    1.243    0.196
       183  -9.5680    151.5646     73.6033   7.8507599458e+01   3.6962367382e+01    0.3689549    0.1479248  42.84  0.001287136    2.943    0.660
       184  -9.8837     24.0678     74.0520   1.1743248456e+02   5.8965140670e+01    0.1844786    0.1486006 -35.17 0.0003930648    1.024    0.023
       185  -9.9279    128.5633     64.2561   8.1009596272e+01   4.3708073038e+01    0.3988351    0.2379817 -45.81  0.001869273    1.824    0.452
       186  -9.9407    123.1978     72.9464   8.4846272339e+01   4.3458311296e+01    0.2594216    0.2326564  76.65 0.0004004774    1.223    0.182
       187 -11.8221    122.6162     68.4051   8.3664919560e+01   4.4345204000e+01    0.8711724    0.3560423  48.36  0.003400412    2.298    0.565
       188 -12.0378     40.8121     70.0358   1.1000760417e+02   5.8061778052e+01    0.4948544    0.2674932 -46.84   0.00120528    1.682    0.405
       189 -11.2326     32.5680     71.8249   1.1361638083e+02   5.8603092467e+01    0.5049446    0.2574588  26.76  0.002336813    2.092    0.522
       190 -10.0110    161.9404     70.6818   7.5644154407e+01   3.5039571453e+01    0.3288228    0.2437046  79.96  0.001223766    1.465    0.318
       191 -10.6436    171.7948     67.0763   7.2891355187e+01   3.3325821927e+01    0.5484295     0.306067 -55.33  0.002440794    1.994    0.498
       192 -11.4376    219.8305     66.4990   6.5468491637e+01   2.2571929636e+01    0.6353711    0.3146096  60.68  0.002840075    2.028    0.507
       193  -9.4882    208.4053     68.0988   6.7350457088e+01   2.4808433851e+01    0.2244346     0.176041  60.00 0.0007519198    1.345    0.257
       194  -9.6743     21.7718     65.4959   1.1599709839e+02   6.0820131221e+01    0.2560381    0.2166115  63.87  0.001566128    1.842    0.457
       195  -8.9833     25.7356     65.3038   1.1439246347e+02   6.0503641466e+01    0.1645145    0.1302478 -20.62 0.0003591346    1.082    0.075
       196  -9.6992    192.5064     65.8015   6.9157014857e+01   2.8744381287e+01    0.2702874    0.1915031 -79.35 0.0008711972    1.501    0.334
       197 -10.0479    106.2900     63.4079   8.6419916370e+01   4.8599302695e+01    0.3122452    0.2640879 -44.87  0.001755635    1.294    0.227
       198 -10.1603    106.0281     58.1732   8.4867279351e+01   4.9470694964e+01    0.6056663    0.1990246 -47.38    0.0019249    4.453    0.775
       199 -10.6805     23.1108     37.1736   1.0645347835e+02   6.5545112622e+01    0.3860428    0.3390974  70.51  0.002621274    2.227    0.551
       200 -11.2301     34.4605     42.4819   1.0360164367e+02   6.3516402193e+01    0.5916159    0.4301776 -12.09  0.002982782    1.184    0.156
       201  -9.5251    175.5064    246.4898   1.1086654471e+02  -3.5636012858e+00    0.1308918     0.116308  24.03 2.811669e-05    1.034    0.032
       202 -11.0374     58.1111     61.8063   1.0112011171e+02   5.7325639957e+01    0.4249931    0.4025049 -66.42  0.001897723    1.441    0.306
       203 -10.7344     27.3976     47.2219   1.0812240491e+02   6.3526904711e+01    0.4710475     0.243166 -16.11  0.001307345    2.360    0.576
       204 -10.8928     21.0975     47.2474   1.1075200018e+02   6.4130350980e+01    0.5047643    0.2784398 -19.13  0.002837788    1.845    0.458
       205 -11.7486     25.2553     55.7569   1.1174339937e+02   6.2285219423e+01    0.9716572    0.6050751  13.52  0.005868553    1.641    0.391
       206 -10.7576     33.0905     58.2592   1.0939763600e+02   6.1059603791e+01    0.4467822    0.2505206  -0.39  0.001010645    2.232    0.552
       207 -12.5543     49.6607     60.4159   1.0374732416e+02   5.8722415831e+01    0.6160228    0.4699037  47.81  0.001358579    1.756    0.431
       208 -11.4685     39.9133     55.6884   1.0591229090e+02   6.0743296097e+01    0.4605395    0.4122433 -41.55  0.002939212    1.351    0.260
       209  -9.8667    199.0443    244.5073   1.0578002492e+02  -6.8929739564e+00    0.1983124    0.1151214  34.54  0.001033159    1.595    0.373
       210 -11.0170     60.6802     36.1768   9.1360337941e+01   6.0839484389e+01    0.3245327    0.2109811 -27.05  0.001116216    1.530    0.346
       211 -11.5388     46.4178     49.0749   1.0119586788e+02   6.1022280732e+01    0.5101589    0.3145259  22.13  0.001798555    1.587    0.370
       212 -11.5354     42.4076     45.1853   1.0139153282e+02   6.2143055163e+01    0.4869789    0.2825835  14.26  0.001027562    1.848    0.459
       213 -11.8482     55.9582     31.0006   9.1111908612e+01   6.2238534000e+01      0.47346    0.2347518  35.65 0.0003895303    1.832    0.454
       214 -11.3660     47.1363     30.5954   9.4217403575e+01   6.3583425514e+01    0.5274263    0.2288986  28.61   0.00204929    2.336    0.572
       215  -9.2716    198.2696     62.8201   6.7605182875e+01   2.7899845602e+01    0.2276625     0.149683 -61.80   0.00075775    1.517    0.341
       216 -10.8942    159.2530     61.7827   7.3824044709e+01   3.7074923717e+01     0.584909    0.4256561  15.32  0.002812291    2.129    0.530
       217 -11.0488    157.3755     54.8615   7.2345397237e+01   3.8542621081e+01    0.4845403    0.3153276 -41.97  0.002385434    1.617    0.381
       218 -11.2923    155.1188     49.6421   7.1371769895e+01   3.9805373707e+01    0.3765393    0.2811777 -14.77 0.0004702724    1.783    0.439
       219  -9.7222    130.6672    240.6782   1.1942817434e+02   4.8945485011e+00     0.260096    0.1608775  28.38  0.001193624    1.731    0.422
       220 -11.0366    127.8689    242.8348   1.2033415520e+02   4.9297169274e+00    0.4429265     0.227253 -66.91  0.001906482    2.669    0.625
       221 -10.4810    113.2486     60.8551   8.3785508601e+01   4.7557440672e+01    0.3897655    0.2770214 -32.14  0.001515685    1.500    0.333
       222 -11.6688    120.3000     57.2547   8.0922656015e+01   4.6595969291e+01    0.9667959    0.6081303  72.87  0.004353536    2.234    0.552
       223 -11.1073    113.3306     49.6377   8.0314506438e+01   4.9189200906e+01    0.5377703    0.2599286  40.39  0.001616495    2.083    0.520
       224 -11.0046    149.0024    237.5750   1.1502758557e+02   2.4346731919e+00     0.477197    0.2730733  34.87  0.002294407    1.633    0.388
       225  -9.6092    167.5185    237.5242   1.1108273965e+02  -6.5218745486e-01    0.1345335    0.1221064  25.86 0.0001633767    1.018    0.017
       226  -9.6549     15.1252    233.8822   1.4252277177e+02   2.2773309810e+01    0.2056582    0.1496379 -75.64  0.001265105    1.308    0.235
       227 -10.3740    242.6107    231.4654   9.5236206987e+01  -1.1034751917e+01     0.229717    0.1838926  47.19  0.001448098    1.761    0.432
       228 -10.5048    144.5085     25.2296   6.6644511614e+01   4.5244368674e+01    0.5264335    0.2974489  73.23  0.002662873    1.763    0.433
       229 -11.2541    140.1803     43.9971   7.2661912948e+01   4.4004068323e+01     0.695983    0.3767872  42.08  0.001426709    1.969    0.492
       230 -11.2956    147.5561     31.6624   6.7874782288e+01   4.3831862910e+01    0.2615957    0.2344682  72.03 0.0004532247    1.034    0.033
       231 -10.6479    136.4496     56.5067   7.6989624548e+01   4.3119522837e+01    0.8264616    0.6467754 -42.02  0.004559329    1.370    0.270
       232 -10.1777    157.5206     20.5930   6.3355486162e+01   4.2767759131e+01    0.4820601     0.184454  61.91  0.002163767    2.138    0.532
       233 -10.5133    145.9115     52.1494   7.3804120269e+01   4.1584327186e+01    0.4037829    0.2783369  52.49  0.001202852    1.341    0.254
       234 -11.4212    146.0665     46.6844   7.2264295674e+01   4.2300388837e+01    0.6188616    0.3691685 -23.60  0.002429232    2.148    0.534
       235  -9.8979    101.1833     56.1764   8.5564215931e+01   5.0754504983e+01    0.2667781    0.1947414 -83.24  0.001154092    2.406    0.584
       236  -9.4073      1.9603     56.2435   1.2143978056e+02   6.3981840716e+01    0.1544756    0.1164377 -21.50 0.0005892077    1.151    0.131
       237  -9.7355    188.2712     55.1355   6.7287249122e+01   3.1332577727e+01    0.3274694    0.1557022  60.23  0.001475724    1.961    0.490
       238  -9.9219     66.9916     54.7366   9.5680214672e+01   5.7151523438e+01    0.2263231    0.1818384 -38.36 0.0006411339    1.342    0.255
       239  -9.5912    249.2483     53.3723   5.9516888779e+01   1.8510724769e+01     0.240085    0.1622789  88.50  0.001474709    1.396    0.284
       240 -11.0153    240.3558     50.3735   5.9835618921e+01   2.0709963729e+01    0.3706792    0.3031472 -46.33  0.001820773    1.353    0.261
       241 -10.2559    244.5009     50.5186   5.9446337626e+01   1.9858650549e+01    0.2673876    0.1813096 -68.55  0.001642843    1.246    0.197
       242  -9.8204    212.0103     53.2824   6.3631028161e+01   2.6266848164e+01    0.3655087    0.1370753  60.99  0.001551159    2.526    0.604
       243  -9.9336    194.9226     46.5461   6.4353436008e+01   3.1036754800e+01    0.5065648    0.2239495  83.84  0.001787233    3.741    0.733
       244 -11.2105    201.8114     46.8064   6.3507038004e+01   2.9448975771e+01    0.6103134    0.3734948 -59.41  0.003239149    1.599    0.375
       245  -9.9503    176.6399     43.5254   6.6239183491e+01   3.5637008382e+01    0.3481876    0.2326712 -85.88  0.001819586    1.629    0.386
       246 -10.2908     13.5980     46.7239   1.1376059829e+02   6.4860900344e+01    0.5545212    0.2162623 -22.03  0.002190117    4.032    0.752
       247  -9.8827     18.1976     41.5160   1.1007942630e+02   6.5330605195e+01    0.2784202    0.1763671 -11.58  0.001765969    1.460    0.315
       248  -9.5227    147.3922     60.6251   7.5841890449e+01   4.0001662804e+01    0.3422723    0.1312048  60.34  0.001245819    2.706    0.630
       249  -9.4890     91.1048     47.9631   8.5762324715e+01   5.3922944482e+01    0.2501522    0.1700874 -37.34  0.001371082    1.590    0.371
       250  -9.8098      2.2674     48.6754   1.1920834380e+02   6.5326306010e+01    0.2113254    0.1666901 -14.88  0.001170065    1.153    0.133
       251  -9.9212      4.3577     43.9076   1.1688042697e+02   6.6015941590e+01    0.4185758    0.2159936 -32.20  0.002539715    1.573    0.364
       252 -11.0726      4.1568     35.8044   1.1437557043e+02   6.7365583215e+01    0.3801696    0.2255133   1.50 0.0004440657    1.624    0.384
       253  -8.5095      6.6920     30.6576   1.1144380256e+02   6.7982671785e+01    0.3585571    0.1699291  11.50  0.001991593    2.181    0.542
       254 -10.9481    174.1320     47.9762   6.7718673021e+01   3.5615327504e+01    0.5887998    0.3526567  69.22  0.002748083    1.575    0.365
       255  -9.9107    233.6319     44.9147   5.9460139366e+01   2.2853105788e+01    0.2177251    0.1864427  81.72  0.000639558    1.237    0.192
       256 -11.2753    154.0710     25.6005   6.5179569402e+01   4.3020989922e+01    0.6447567    0.3604291  51.52  0.003025563    1.665    0.400
       257 -10.1461    101.2646     43.9157   8.1605413043e+01   5.2470323864e+01    0.2864616    0.2293109 -58.49  0.001018126    1.632    0.387
       258 -10.9547     94.1874     41.4957   8.2736028559e+01   5.4198789360e+01    0.5876465    0.2642925  50.19  0.002602678    2.068    0.516
       259 -11.5390    156.1070     41.7315   6.9093808510e+01   4.0631982760e+01    0.3734272    0.3346552  73.06 0.0009669142    1.017    0.016
       260 -10.7751    153.2488     36.2443   6.8128384140e+01   4.1979789184e+01    0.2876829    0.2307607 -84.25 0.0005658288    1.294    0.227
       261 -10.8511    189.0891     41.6508   6.4016616134e+01   3.3025753611e+01    0.4176085    0.1968231 -31.88 0.0009715593    2.533    0.605
       262 -10.0781     68.6944     32.6946   8.7371078912e+01   5.9976468064e+01     0.592523    0.2260169  42.68  0.002700999    2.357    0.576
       263 -10.4513    197.2982    232.0025   1.0399463108e+02  -4.4955519405e+00     0.191321    0.1671005 -10.32  0.001175913    1.076    0.071
       264 -10.7399     81.3802     39.7022   8.5854931758e+01   5.6857883671e+01    0.5798498    0.3228906  45.53  0.002825443    1.667    0.400
       265  -9.3286     23.3371    231.5516   1.4078426835e+02   2.2379020327e+01    0.2010373    0.0995952  43.11  0.000558213    1.878    0.468
       266 -10.3056     81.5008     19.0403   7.8508275179e+01   5.9200896719e+01    0.3699797    0.1560982  45.59 0.0009009257    1.959    0.489
       267  -9.2713      9.9398    227.5058   1.4305158275e+02   2.4696306445e+01    0.1552667    0.1072024  44.10  0.000489478    1.508    0.337
       268 -10.7465     77.7224     34.4335   8.5127811053e+01   5.8187469161e+01    0.3932536    0.2185701  40.19  0.001113095    1.597    0.374
       269 -10.3191     81.6417     31.0547   8.2750751764e+01   5.7878160459e+01     0.364565    0.2888499 -57.79  0.002206093    1.862    0.463
       270 -10.0685    231.5380     39.1949   5.8551472020e+01   2.4069103449e+01    0.2712699    0.1752836 -58.17  0.001034224    1.334    0.250
       271  -9.1587    217.8266     38.8329   5.9906606190e+01   2.7015100914e+01    0.1824029    0.1237971 -75.43 0.0005248238    1.336    0.252
       272  -9.6883    234.0848    222.9552   9.5260463600e+01  -8.5059710690e+00    0.2095441    0.1378949  -4.77 0.0008796082    1.695    0.410
       273 -10.0354    165.3457    212.3185   1.0722568534e+02   4.6571716866e+00    0.3140166    0.2027671  67.03  0.001233141    2.490    0.598
       274  -9.6343    152.9239    207.9427   1.0920116978e+02   7.8174398590e+00    0.2319615    0.1788382  74.00  0.000915574    1.676    0.403
       275 -11.3767    176.2027     36.4199   6.4576012824e+01   3.6655824851e+01    0.6411812     0.397158 -79.94  0.002472983    1.876    0.467
       276  -8.5055     61.3145    207.3070   1.3036257546e+02   2.3201238269e+01    0.1286641    0.1042854 -37.46 0.0004166616    1.625    0.385
       277 -10.6003    176.5407     29.8142   6.2937703154e+01   3.7382916433e+01    0.3855722    0.2354767  53.20  0.001233953    1.632    0.387
       278 -11.5180    183.3186     25.0153   6.0922528093e+01   3.6397100685e+01    0.5994492    0.2787492  54.49  0.002908717    2.097    0.523
       279  -9.6729    133.4257     37.2289   7.2074037319e+01   4.6386109079e+01    0.3268615    0.2092057 -71.90  0.001554524    2.330    0.571
       280  -9.8426    206.8253     37.0410   6.0765296562e+01   2.9649402958e+01    0.2175862    0.1631128  82.76 0.0007277303    1.163    0.140
       281 -10.6868    240.7688     32.2662   5.6358329108e+01   2.3101343741e+01    0.4762235    0.3158492 -52.55  0.003044717    1.336    0.251
       282 -10.2105    162.6753     43.9208   6.8549880163e+01   3.8823168164e+01    0.3013195    0.1892269  67.03  0.001482206    1.463    0.316
       283 -10.5409      4.2874    205.0370   1.4251281295e+02   3.0264643889e+01    0.6723082   0.07991055 -64.36  0.002227916    4.672    0.786
       284 -12.3025    106.0042     20.1308   7.2694319983e+01   5.4220414078e+01     0.247643    0.2222524  -3.81  0.000349497    1.241    0.194
       285 -12.0343    105.5393     33.2204   7.7042139810e+01   5.2919126493e+01    0.5639299    0.3143454  21.05  0.001435745    2.672    0.626
       286 -10.3032    238.8786    203.8659   9.0851968902e+01  -5.9868604519e+00    0.2123192     0.158438 -13.46  0.001233934    1.308    0.236
       287  -9.6743    248.6653     33.5620   5.5907484774e+01   2.1365052877e+01    0.2329762    0.1214635 -47.97  0.001340765    1.655    0.396
       288 -10.7989    159.7803     29.9588   6.5417470634e+01   4.1219709343e+01    0.5127249    0.2274757 -41.48 0.0009206309    2.387    0.581
       289 -11.4530    164.0189     27.7399   6.4209527028e+01   4.0498873393e+01    0.3712095    0.2837201 -31.18 0.0003970387    1.548    0.354
       290 -10.4494     16.6866    202.9492   1.3976464550e+02   2.9555617845e+01    0.3753162    0.1492308 -78.00  0.001698238    2.230    0.552
       291  -9.0868    216.6121     32.2197   5.8679623348e+01   2.8138330256e+01    0.1477524    0.1165131 -34.57 0.0003207253    1.579    0.367
       292 -10.7634    189.3504     28.7197   6.1019991856e+01   3.4597228269e+01    0.4540434    0.2688006 -34.44  0.002198821    1.922    0.480
       293 -10.6422    245.6420    200.8489   8.9086903544e+01  -6.4605368802e+00    0.2094213    0.1654069   8.84 0.0006147837    1.305    0.234
       294 -10.5956      9.5228     21.9804   1.0689637560e+02   6.9013388602e+01    0.2646825     0.155609 -33.95 0.0009581525    1.456    0.313
       295 -11.1358     30.9607     28.8744   1.0002938937e+02   6.5891343735e+01     0.365129    0.3119235 -11.65  0.002478855    1.242    0.195
       296  -8.6346    207.3248    201.3182   9.6330673476e+01  -5.1184227385e-01    0.1442079      0.10308  -6.43 0.0007045062    1.674    0.403
       297  -8.5971      1.3288    200.2832   1.4275233559e+02   3.1617775399e+01    0.1120875   0.08144441 -53.76 0.0003816755    1.607    0.378
       298 -10.1932    234.4854    196.9366   9.0322776190e+01  -4.1062127691e+00    0.3576298      0.25573  -9.90  0.001608482    1.537    0.349
       299  -9.7087    211.1137     30.1776   5.8839358564e+01   2.9585644145e+01    0.2238989    0.1803345 -79.00  0.001043134    1.032    0.031
       300  -9.4821    221.3506     29.4136   5.7631289630e+01   2.7480989811e+01    0.2122381    0.1329583 -49.41 0.0005611081    1.490    0.329
       301  -9.9811    182.3048     32.2791   6.2744063292e+01   3.5767937860e+01    0.2102784     0.182198  61.39 0.0006138379    1.226    0.185
       302 -10.3646     98.4833     27.8131   7.7025566542e+01   5.4974589705e+01    0.4033555    0.2546631 -48.78  0.001245897    2.135    0.532
       303 -10.0860    230.2838     27.4429   5.6394058920e+01   2.5856050785e+01    0.2962528    0.1721417 -44.67  0.001250823    1.652    0.395
       304 -10.0022    250.5340     26.1325   5.4419263147e+01   2.1957937370e+01    0.2674778   0.09657709 -40.84  0.001119754    2.552    0.608
       305  -9.1577     11.4126     26.7574   1.0784124349e+02   6.8174897062e+01    0.1573014   0.07961681 -31.57 0.0009498835    1.649    0.394
       306 -10.5064    214.3498     24.3927   5.7316898516e+01   2.9594876603e+01    0.3178295    0.2442372 -70.11  0.001183237    1.119    0.106
       307  -9.6008    215.6923     20.6705   5.6435424866e+01   2.9749787170e+01    0.1780671    0.1591811  65.07 0.0007358497    1.402    0.287
       308  -9.2082    169.5704     23.7156   6.2418920944e+01   3.9676895264e+01     0.233782    0.1283669  58.67 0.0009238421    1.608    0.378
       309 -10.1782    242.3149     22.2662   5.4387645729e+01   2.4055892710e+01    0.2167415     0.153113 -86.13 0.0006767992    1.149    0.130
       310 -12.2990      5.2317    185.3181   1.4068172929e+02   3.4762851524e+01    0.8616012    0.4771453  87.99  0.004679569    1.629    0.386
       311 -10.4246     47.2517     18.8299   8.9568021081e+01   6.4982502626e+01    0.3012751    0.2101627   9.59  0.001208177    1.261    0.207
       312 -10.1687     16.6518    192.2623   1.3879457377e+02   3.2073258321e+01    0.2172948    0.2007161 -52.94 0.0002840993    1.364    0.267
       313  -9.3039    223.1839     22.1994   5.6032965189e+01   2.7980247411e+01    0.1713887    0.1121638 -77.74  0.000714107    1.314    0.239
       314  -9.8694    169.3853    191.5051   1.0240483464e+02   8.3084371448e+00      0.33098    0.2087411  23.59  0.001120153    1.964    0.491
       315  -9.5477    239.7876    184.6151   8.6991369729e+01  -2.7195023855e+00    0.1614669    0.1280871  48.86 0.0005602156    1.552    0.355
       316 -10.2116    212.0041    181.9949   9.1588350872e+01   2.4203303247e+00    0.2202201    0.1586183  -8.02  0.001068101    1.743    0.426
       317  -8.8771      1.4607     20.5625   1.1020742861e+02   6.9859661178e+01    0.1079425   0.07692198 -15.90 0.0002515148    1.015    0.015
       318  -9.1541    250.0000    180.0221   8.4358145125e+01  -3.4771557105e+00     0.226714   0.06455779 -42.08 0.0008100898    2.996    0.666
       319 -10.0876    211.2046     18.9536   5.6523138258e+01   3.0912738782e+01    0.2224073      0.15815  73.09 0.0003460924    1.271    0.213
       320  -9.8707    206.5786     18.5540   5.6898893459e+01   3.1960113394e+01    0.3809274     0.176545 -74.32    0.0017218    2.678    0.627
       321  -9.7301    100.9835    175.9950   1.1589155805e+02   2.4726978869e+01    0.2102623    0.1981521 -85.43            0    1.002    0.002
       322  -9.4556     28.2882    175.9950   1.3436273537e+02   3.4839369384e+01    0.1953431    0.1494512 -75.74 0.0008045706    1.095    0.086
       323  -8.8239    230.4838    175.4668   8.6824852904e+01   4.8503917557e-01    0.1381449     0.121508 -31.13 8.496534e-06    1.004    0.004
       324  -9.8496    220.1736     12.6284   5.4445067222e+01   2.9722396125e+01    0.2917491    0.1058331  65.47  0.001140633    2.402    0.584
       325  -9.0422     57.2828    174.9987   1.2698070889e+02   3.1680262051e+01    0.1968557    0.1659856 -74.61 0.0004237148    1.056    0.053
       326  -8.9450     86.4359     23.5603   7.8745729784e+01   5.7804123326e+01    0.1975309     0.182459  14.78 1.903734e-05    1.142    0.124
       327  -9.7456    247.2839    174.0421   8.3644521885e+01  -1.9874672439e+00    0.3571127    0.1813985  21.78  0.001351553    3.873    0.742
       328  -9.8670     51.6986    172.9442   1.2810815291e+02   3.2916349276e+01    0.2664258    0.1762341 -84.81  0.001321593    1.538    0.350
       329  -9.8643     39.2637    173.4010   1.3132486340e+02   3.4291484633e+01     0.246123    0.1739493 -89.48 0.0009168769    1.359    0.264
       330 -10.5204     36.0032    170.4104   1.3175213740e+02   3.5397997713e+01    0.3833176    0.1859621 -75.86  0.001698204    1.984    0.496
       331  -8.4867    170.6610    172.2831   9.8201683881e+01   1.2272127261e+01    0.1521796     0.121476  81.93  0.000370252    1.628    0.386
       332 -11.7646      9.8871    166.3655   1.3774777510e+02   3.8899218101e+01     0.628646    0.3770407 -68.08  0.002836545    1.342    0.255
       333 -10.8468     14.0145    158.2152   1.3579997293e+02   4.0529081518e+01    0.4944739    0.1839723 -71.32  0.002123685    2.232    0.552
       334  -9.1508    197.9828    167.7749   9.1426509856e+01   7.8845829765e+00    0.2012398    0.1918952 -30.76 0.0007025542    1.021    0.020
       335 -10.1048     18.8657    165.2386   1.3541122629e+02   3.8391544062e+01    0.2652824    0.2580675  89.54   0.00170661    1.227    0.185
       336 -10.0155    188.8733    164.1404   9.2524866673e+01   1.0426459021e+01    0.3236457    0.2067886 -38.18  0.001082735    1.546    0.353
       337 -10.2489    206.3953    162.6065   8.8664699915e+01   7.3395872705e+00    0.4897056    0.3515289  29.81  0.001645217    1.616    0.381
       338 -10.2460     28.2412    162.5199   1.3269682724e+02   3.8165692768e+01     0.466422    0.1484721 -66.36  0.001803596    2.557    0.609
       339  -9.4202     79.6469    160.3354   1.1863574313e+02   3.2171929410e+01    0.2462245    0.1735305  76.88  0.001124143    1.754    0.430
       340 -10.5877    105.0952    154.3244   1.1055981377e+02   2.9387887724e+01    0.5083131    0.3750988 -64.80  0.002383831    1.379    0.275
       341 -10.2535      8.8845    156.0135   1.3684440646e+02   4.1480024096e+01    0.2799685    0.1471433 -63.21  0.001478459    1.518    0.341
       342  -8.9189    223.6894    156.6620   8.4192617029e+01   5.2962442032e+00    0.1434175    0.1074844 -11.84 0.0007044731    1.687    0.407
       343 -10.8884     31.1555    153.9099   1.3075262063e+02   4.0004506623e+01    0.4601783    0.3128772 -72.37  0.002478374    1.273    0.214
       344 -10.2487     30.6462    149.3199   1.3022392014e+02   4.1190685889e+01     0.229596     0.152446  48.02 0.0006116618    1.687    0.407
       345 -12.1123     22.6634    149.3289   1.3239348289e+02   4.1945016279e+01    0.6714451    0.3404125 -33.79  0.002104598    2.792    0.642
       346 -10.8669     15.4418    147.9076   1.3414085568e+02   4.2916183326e+01    0.3690776    0.2667339  53.20  0.001201417    1.557    0.358
       347 -11.6731     12.5663    139.1471   1.3375030005e+02   4.5263561126e+01    0.8609096    0.4624688 -75.62  0.004402121    1.664    0.399
       348 -10.2021     72.4080    152.5831   1.1918084784e+02   3.5223141637e+01    0.5155408    0.3037807  52.30  0.002261249    1.951    0.487
       349 -11.7423      3.8370    147.3849   1.3713740424e+02   4.3931026875e+01    0.7042489    0.4099242 -70.13   0.00338731    1.350    0.260
       350 -11.4241      4.0153    141.9508   1.3643801925e+02   4.5216446468e+01    0.3920469    0.3390626   0.63  0.001833716    1.489    0.329
       351 -11.6953      3.9330    136.7633   1.3580939010e+02   4.6456493022e+01    0.2675705     0.188511 -59.13 0.0002283555    1.175    0.149
       352  -9.7534     48.0363    151.8251   1.2582558897e+02   3.8668384515e+01    0.2970009    0.2202643 -31.05 0.0008398146    1.620    0.383
       353 -11.0128     47.1049    146.2577   1.2515536979e+02   4.0169519673e+01    0.6642073    0.3118751 -55.09  0.002842402    1.829    0.453
