#   1 NUMBER                 Running object number                                     
#   2 MAG_AUTO               Kron-like elliptical aperture magnitude                    [mag]
#   3 X_IMAGE                Object position along x                                    [pixel]
#   4 Y_IMAGE                Object position along y                                    [pixel]
#   5 X_WORLD                Barycenter position along world x axis                     [deg]
#   6 Y_WORLD                Barycenter position along world y axis                     [deg]
#   7 A_WORLD                Profile RMS along major axis (world units)                 [deg]
#   8 B_WORLD                Profile RMS along minor axis (world units)                 [deg]
#   9 THETA_WORLD            Position angle (CCW/world-x)                               [deg]
#  10 FWHM_WORLD             FWHM assuming a gaussian core                              [deg]
#  11 ELONGATION             A_IMAGE/B_IMAGE                                           
#  12 ELLIPTICITY            1 - B_IMAGE/A_IMAGE                                       
         1 -13.4305    247.7080    115.9553   7.9083427963e+01   7.0102262546e+00     1.881093     0.947375 -28.49  0.007623293    2.426    0.588
         2 -13.0821    194.0181     31.5167   6.7165462680e+01   3.2967938966e+01      1.05502    0.9014767  47.69  0.006244547    1.319    0.242
         3 -13.9501    207.1060     14.9887   6.1577600942e+01   3.1719111973e+01     1.395632    0.9883803  39.17  0.007761112    1.904    0.475
         4 -12.8670      2.7474      4.0043   1.1351954879e+02   7.2200062320e+01    0.9019796    0.4775569  14.43  0.006250688    1.793    0.442
         5 -10.1553    222.8167    245.1603   1.0963532624e+02  -1.0091483316e+01     0.179906    0.1256634  13.58  0.000939661    1.331    0.249
         6 -10.8140    184.9656    250.4247   1.1782426892e+02  -4.6535542622e+00    0.4151883    0.1398461  42.14  0.001473455    2.469    0.595
         7 -10.7141    169.7870    248.5105   1.2054561761e+02  -1.7577751844e+00    0.3493178    0.2348393   9.44 0.0008492008    2.118    0.528
         8 -11.6206    149.9219    248.4332   1.2450190862e+02   1.6997197718e+00    0.4199495    0.3619885 -79.26  0.002689766    1.414    0.293
         9 -10.8569    143.0867    248.8905   1.2592787725e+02   2.8039310739e+00     0.216273    0.1990828  67.20 0.0005125133    1.169    0.144
        10 -12.3406    133.8131    248.8792   1.2777144124e+02   4.3980076475e+00     1.262903    0.2919398  40.12  0.004185853    3.716    0.731
        11 -12.7152    125.6545    240.6283   1.2834734110e+02   7.2791775017e+00    0.9474897    0.4900014  35.02  0.004479398    1.948    0.487
        12 -10.2483    102.9281    247.3280   1.3366275639e+02   9.8155497242e+00    0.2400515    0.1774552  70.91 0.0008427465    1.255    0.203
        13 -11.2265     98.4503    246.5889   1.3445061807e+02   1.0668183694e+01    0.5963652    0.3314539  67.60  0.003037791    1.961    0.490
        14 -11.1767    115.0090    250.3384   1.3165169202e+02   7.2982200145e+00    0.7982553    0.2690636  40.32  0.002623833    2.541    0.606
        15 -11.7084    109.5648    247.3233   1.3236806765e+02   8.7407810434e+00    0.5334683     0.412213 -71.75  0.002431685    1.451    0.311
        16  -9.4570     83.9568    242.0142   1.3677164217e+02   1.3790476042e+01    0.2019138    0.1617083 -38.66     0.001205    1.965    0.491
        17  -9.0853     82.3235    238.3553   1.3671511594e+02   1.4752093078e+01    0.3431058    0.0943013  41.91  0.001263969    2.991    0.666
        18 -10.5671     81.5770    246.6581   1.3768552321e+02   1.3257392605e+01    0.5091582    0.2918974  78.43  0.002736972    1.914    0.477
        19  -9.7346     89.1835    250.6663   1.3664403943e+02   1.1351845417e+01    0.3111314    0.1125942  37.56 0.0005708963    2.764    0.638
        20 -11.0198     88.0161    247.4594   1.3654431501e+02   1.2130996194e+01    0.4493911    0.2811517  43.40  0.001864944    1.433    0.302
        21  -8.8458     74.9670    250.5043   1.3927867690e+02   1.3504966968e+01    0.2331224    0.1031667  40.50  0.001167802    2.051    0.512
        22 -10.8543     56.1603    196.0388   1.3756162121e+02   2.7491470076e+01     1.800794    0.6564789 -67.92  0.007622175    2.537    0.606
        23 -12.1955     63.1141    221.4033   1.3879026582e+02   2.1002566980e+01     1.057945     0.464146 -77.21  0.003757257    2.458    0.593
        24 -14.3548     11.4161    153.4422   1.4308228230e+02   4.1987905787e+01     2.827646      1.16352 -84.61   0.01292651    2.456    0.593
        25 -13.9257      2.9733    185.9458   1.4772654427e+02   3.5412137839e+01      3.03433     0.352317 -72.55  0.009749528    5.348    0.813
        26 -14.1495     10.1971    209.4874   1.4799313964e+02   2.9740648364e+01     2.151754     1.022855 -70.41   0.01260294    1.805    0.446
        27 -12.3302     14.0705    239.0018   1.4914897475e+02   2.3406047546e+01    0.3854693    0.2355111  53.88 0.0008890017    1.387    0.279
        28 -13.1451     37.9906    228.6294   1.4425690252e+02   2.2757952050e+01    0.7568453    0.3729474  50.67  0.001708016    1.714    0.416
        29 -14.3788     44.6633    218.8094   1.4218548696e+02   2.3976268926e+01      1.32345     1.034829  33.22   0.00571688    1.645    0.392
        30 -11.3818    103.5394    238.4383   1.3253451021e+02   1.1400373507e+01    0.4579347    0.2722849  26.84  0.002189342    2.381    0.580
        31 -10.9743     96.8507    239.9746   1.3403937852e+02   1.2181126009e+01     0.335838    0.2500128 -44.35  0.001561377    1.896    0.473
        32 -10.0463     84.6928    234.0638   1.3580101407e+02   1.5243349904e+01    0.2482158    0.1731287  84.58 0.0006040469    1.405    0.288
        33 -10.2769     84.6327    229.5121   1.3532010634e+02   1.6171071474e+01    0.2740294    0.2388277  88.93 0.0008480391    1.172    0.147
        34 -11.0847     79.4034    226.1384   1.3600697640e+02   1.7658032382e+01    0.4336263    0.2836509 -75.17  0.001413624    1.531    0.347
        35 -10.5459     77.2294    220.8456   1.3587076171e+02   1.9088712027e+01    0.2827805    0.1981246  66.00 0.0005110946    1.250    0.200
        36 -10.8540    116.5293    238.7998   1.2996305451e+02   9.1748879386e+00    0.4317472    0.2845257 -33.53   0.00198073    2.546    0.607
        37 -11.7991    128.6951    234.7001   1.2694231549e+02   7.8601483926e+00    0.6411982    0.2989795  55.92  0.002723345    2.325    0.570
        38 -11.5022    135.3871    241.1708   1.2644429490e+02   5.4972619824e+00    0.5647849    0.3880777  -1.76  0.002563148    3.038    0.671
        39 -11.1705    135.5569    236.3299   1.2574997781e+02   6.3525093388e+00    0.4372412    0.3211383  15.32  0.001705374    1.910    0.476
        40 -11.5981    134.0040    232.5256   1.2554230723e+02   7.3369837329e+00    0.5588065    0.3219265 -37.81  0.001937933    2.531    0.605
        41 -11.6510     90.7137    239.6792   1.3521505337e+02   1.3205160448e+01    0.8096659    0.4070244  86.61    0.0034271    3.152    0.683
        42 -11.4058    248.8812    240.7505   1.0403861471e+02  -1.3419827382e+01     0.277983    0.1979634 -32.56  0.001778535    1.551    0.355
        43 -11.4650    244.6883    240.9785   1.0484133264e+02  -1.2842749884e+01    0.2366035    0.1686436 -23.49  0.001146219    1.391    0.281
        44 -11.0238    164.1827    241.3780   1.2061554637e+02   3.9155308433e-01    0.3786367    0.2434346  69.41    0.0017901    2.424    0.587
        45 -10.5209    173.2456    240.3226   1.1861650979e+02  -1.0325282741e+00    0.2638883    0.1839577  70.82  0.001329531    2.176    0.541
        46 -11.0520    122.4309    233.1570   1.2802995089e+02   9.2428689694e+00    0.3966161    0.3270147 -63.79  0.001748084    1.378    0.274
        47  -9.5845     61.5238    238.6498   1.4071497234e+02   1.7698582810e+01    0.2434876    0.1924974  30.82  0.001570411    1.712    0.416
        48  -9.7343     55.4205    235.9534   1.4162125307e+02   1.9062544656e+01    0.2627752    0.1502548  59.33 0.0007347282    1.451    0.311
        49 -10.2585    164.5114    234.5126   1.1950337343e+02   1.5069606409e+00       0.4052    0.1759104  54.29   0.00152549    2.995    0.666
        50 -11.2430     98.6851    232.0451   1.3276456689e+02   1.3443371312e+01      0.41674    0.2784168 -80.26 0.0005207662    1.630    0.386
        51  -9.1413    110.3409    233.6805   1.3058480310e+02   1.1200468554e+01    0.2344081    0.1188849 -78.26 0.0009693944    3.044    0.671
        52 -10.5919    112.7526    230.1193   1.2963746858e+02   1.1493635791e+01    0.3318354    0.1795558  45.61 0.0009317899    1.574    0.365
        53 -11.6468    105.7571    228.8828   1.3093006523e+02   1.2915267019e+01    0.5354156    0.2773038  45.51  0.002036344    1.651    0.394
        54  -9.1431     78.0869    233.3431   1.3702957051e+02   1.6385347499e+01    0.1872719    0.1568782 -72.01 0.0006084327    1.339    0.253
        55 -10.9526    156.7988    231.5290   1.2064255959e+02   3.4274271779e+00    0.2342745     0.227457 -62.79 0.0002853792    1.202    0.168
        56  -9.6599     62.9667    233.0600   1.3993722049e+02   1.8617197868e+01      0.17758    0.1481684  68.41 0.0003498528    1.127    0.113
        57  -8.8794     92.4592    232.5081   1.3407799718e+02   1.4346501906e+01     0.130891    0.1072125  64.89 5.679133e-05    1.011    0.010
        58 -10.6874    141.9585    229.8882   1.2350109323e+02   6.4128521295e+00    0.3800637    0.2262235 -39.09  0.001394432    2.227    0.551
        59  -9.1291     57.3718    230.8655   1.4080714610e+02   1.9827284534e+01    0.1822235    0.1211272  84.20 0.0007967754    1.336    0.252
        60  -9.1505    180.0321    228.7237   1.1536978879e+02  -2.9761736949e-01    0.2613159     0.183137 -83.79   0.00119551    2.740    0.635
        61  -9.8404    246.3104    228.3379   1.0230854046e+02  -1.1375746583e+01    0.1311294   0.08311684   2.51 0.0007044596    1.686    0.407
        62  -9.8223    197.3877    226.4248   1.1142896458e+02  -3.0237600968e+00    0.3133324    0.2405197  72.93   0.00120811    2.061    0.515
        63 -10.2308    165.6730    226.5180   1.1799659048e+02   2.7087501496e+00    0.3150968    0.2350787  86.97  0.001602028    2.008    0.502
        64 -10.2146    132.4939    224.4840   1.2471160290e+02   9.1523681755e+00    0.2758307    0.2016171 -41.01   0.00147793    1.714    0.416
        65 -10.5300    129.1886    221.0797   1.2492158560e+02   1.0419718304e+01    0.3233128    0.2285873  76.02  0.001300872    1.681    0.405
        66 -10.6916     92.0225    225.7536   1.3338739963e+02   1.5785961910e+01    0.4739431    0.1695463  51.81  0.001876445    2.665    0.625
        67  -9.9572    146.9914    225.4685   1.2177605603e+02   6.3324693758e+00    0.1957146     0.159666  41.81 0.0003260598    1.084    0.077
        68  -9.3123    141.2250    212.9671   1.2106131576e+02   9.8424254312e+00    0.3446094    0.1721575  50.73  0.001457905    1.934    0.483
        69 -11.0241    137.4792    214.8299   1.2217722359e+02   1.0163170763e+01     0.475003    0.2946794 -89.89  0.001393701    2.793    0.642
        70  -9.7942    145.2914    221.6841   1.2155505806e+02   7.3676893551e+00    0.2399422    0.1771508  80.53 0.0004730036    1.740    0.425
        71 -10.6801    117.2647    224.2941   1.2792065763e+02   1.1881171043e+01    0.2514912    0.2164921  50.97  0.000304101    1.086    0.079
        72 -11.1675     99.3860    223.4056   1.3157316285e+02   1.5081337364e+01    0.4173338     0.254052  53.70 0.0001470609    1.444    0.307
        73 -10.3831    110.9824    221.0107   1.2881146251e+02   1.3631504441e+01    0.3351894    0.1787947 -59.15  0.001411825    2.041    0.510
        74 -11.4335     72.8605    210.0412   1.3556487301e+02   2.2054894177e+01    0.4188659    0.2762558  29.55   0.00167005    1.908    0.476
        75  -9.8815     67.9772    214.9144   1.3712962929e+02   2.1701520194e+01    0.2726554    0.1959171  75.00  0.001583774    1.230    0.187
        76 -10.5505    245.7199    220.1578   1.0092372076e+02  -1.0126662379e+01    0.2904458    0.1034415 -34.67  0.001218796    2.820    0.645
        77  -9.6702    104.8649    218.6940   1.2980875484e+02   1.5149486131e+01     0.197381    0.1797645 -74.23 0.0002063839    1.219    0.179
        78 -10.2565     99.7268    217.4406   1.3074324609e+02   1.6268909564e+01    0.2439911    0.1936012 -37.41 0.0008956839    1.762    0.432
        79  -8.4949     89.3344    218.6703   1.3310198008e+02   1.7688923201e+01    0.1441473   0.08754043  69.09  0.000627463    1.725    0.420
        80  -8.4868    133.6797    217.7192   1.2345060159e+02   1.0279732544e+01    0.1322151    0.1090096  11.09   0.00028412    1.584    0.369
        81  -8.6223    119.2901    217.3137   1.2651220950e+02   1.2948169416e+01    0.1266233    0.1105758  -2.84 0.0002059087    1.589    0.371
        82 -10.6497    159.8961    223.8292   1.1878080084e+02   4.2635779117e+00     0.375146    0.2147122  23.50  0.001591217    2.372    0.578
        83 -11.3753    121.8636    244.8230   1.2963937827e+02   7.1541521038e+00    0.6550633    0.3573979  64.92  0.002919652    2.246    0.555
        84  -9.8263     88.1315    212.7930   1.3263580329e+02   1.9134714650e+01    0.2530334    0.1798769 -77.25 0.0006348614    1.404    0.288
        85 -10.7894     70.6063    218.8120   1.3700721655e+02   2.0491103804e+01    0.4532763    0.2742216 -68.86   0.00207117    1.628    0.386
        86  -9.7603    101.9790    211.6011   1.2948180616e+02   1.7136448085e+01    0.3164619    0.1466767  55.51  0.001311377    2.248    0.555
        87 -10.6590    107.2870    209.3859   1.2800867368e+02   1.6711746920e+01    0.4171216    0.2958427 -28.91  0.001436327    2.295    0.564
        88 -10.8506    112.5790    208.3411   1.2668612597e+02   1.6018174282e+01    0.2937902    0.2526176  36.75 0.0003484182    1.254    0.203
        89 -11.0941    141.9142    221.7012   1.2228189474e+02   7.9851377447e+00    0.3031207    0.2648841  33.30 0.0003105408    1.166    0.142
        90 -11.8693     93.2887    202.9330   1.3021875062e+02   2.0468488519e+01    0.5894193    0.4834164 -87.16  0.003423604    1.164    0.141
        91 -11.2791    247.1789    205.7037   9.7933013951e+01  -8.2059514918e+00    0.4456746    0.2708766  10.74  0.002216592    1.984    0.496
        92  -8.9034     32.9041    207.0110   1.4346947181e+02   2.7893898355e+01    0.1628258    0.1264077 -58.37 0.0004467363    1.559    0.359
        93  -9.3882    125.8163    205.3424   1.2327050396e+02   1.4283305353e+01    0.2405324    0.1914323 -80.27 0.0008530049    1.376    0.273
        94  -9.6770    167.0023    203.2047   1.1371443801e+02   6.8498916026e+00    0.1989314    0.1718879  41.71  0.001087543    1.055    0.052
        95 -10.1802    102.6819    202.7075   1.2808107822e+02   1.8955392538e+01    0.4481962    0.2419327  57.20  0.001838922    1.913    0.477
        96  -8.7712    100.3341    198.3033   1.2797322843e+02   2.0333479097e+01    0.1875325    0.1686235  53.05 0.0007197597    1.131    0.116
        97  -9.6300    102.7544    195.9421   1.2706836994e+02   2.0452608429e+01    0.1951963    0.1696482 -75.74 0.0005420195    1.152    0.132
        98  -9.6424     97.6807    196.2820   1.2828417117e+02   2.1234275598e+01    0.3610176    0.1771692  38.71 0.0009785288    2.007    0.502
        99  -9.6463     64.0324    202.1354   1.3654686417e+02   2.5059865567e+01     0.255091    0.1753931  32.78 0.0007460145    1.714    0.417
       100 -10.4496     32.6633    201.8655   1.4307080156e+02   2.9039796190e+01    0.1966673    0.1617795  71.99 0.0003277135    1.125    0.111
       101  -9.8594    115.1181    200.2576   1.2489578480e+02   1.7325162646e+01    0.2074385    0.1917905 -57.79 0.0002599601    1.218    0.179
       102  -9.1933    196.5252    200.4888   1.0686326090e+02   1.6326677421e+00    0.1437936    0.1297683  19.45 2.229081e-06    1.018    0.017
       103  -8.6057    183.1416    200.3833   1.0968202732e+02   4.2406766152e+00    0.1919108    0.1280688  49.35 0.0002748779    1.501    0.334
       104  -8.8674    132.8728    202.8562   1.2127895214e+02   1.3501676901e+01    0.1972276    0.1613277  79.47 0.0004454568    1.320    0.242
       105  -9.4005     43.4874    199.3027   1.4060821045e+02   2.8350245877e+01    0.2386272    0.1461573 -57.86  0.001103566    1.742    0.426
       106  -9.3477    120.0425    199.2144   1.2360669854e+02   1.6664472629e+01     0.205425    0.1898058  32.85 0.0003286681    1.208    0.172
       107  -9.7261     86.1114    197.0489   1.3102869900e+02   2.2939193143e+01    0.4203357    0.1780978 -64.30  0.001738905    2.391    0.582
       108  -9.2166    133.9869    197.7472   1.2017097846e+02   1.4383921250e+01    0.2059042    0.1777398  53.68 0.0004010168    1.057    0.054
       109 -10.3901    113.1630    193.8209   1.2433068885e+02   1.9105217809e+01    0.5013403    0.2406211 -63.04  0.001527741    2.331    0.571
       110  -9.7509     40.6667    188.1143   1.4007280762e+02   3.1200300217e+01    0.2530922    0.1754899 -83.85 0.0008747476    1.227    0.185
       111 -10.8089    249.5292    194.1694   9.5261017844e+01  -6.7910676953e+00    0.3359067    0.2626618   4.08  0.001996067    1.218    0.179
       112  -9.3838     32.1797    195.4592   1.4259248021e+02   3.0505296293e+01     0.271719    0.0745187  43.43  0.001138856    3.140    0.681
       113  -9.5555    159.9623    194.1253   1.1360991725e+02   1.0070370713e+01    0.2212851    0.2059615  38.24 0.0003739521    1.030    0.029
       114  -8.8493    133.5244    194.4283   1.1970843853e+02   1.5190916068e+01     0.146894     0.135124  51.47 4.710299e-05    1.043    0.042
       115  -9.9769    120.7339    191.6630   1.2221167035e+02   1.8209698732e+01    0.5035292    0.2979626 -47.15  0.002017173    1.887    0.470
       116  -9.1799    117.9957    190.0033   1.2257600010e+02   1.9087047289e+01    0.2133244    0.1967057  73.15            0    1.023    0.023
       117  -9.6582     20.4989    192.1131   1.4469257611e+02   3.2465426483e+01    0.3358559    0.1555012  85.42  0.001657959    2.186    0.543
       118  -9.5497     72.8780    193.0154   1.3348839456e+02   2.5867356056e+01    0.1965467    0.1731231  82.29 0.0003503475    1.055    0.052
       119  -9.9779    191.5072    191.4573   1.0615979085e+02   4.2976365591e+00    0.2509483    0.2341327  21.77 0.0006610464    1.009    0.009
       120  -9.1877     84.5524    192.4505   1.3075089084e+02   2.4232372249e+01    0.1393483    0.1204667  77.44 6.588724e-05    1.013    0.012
       121 -14.5015     29.9911    245.2813   1.4685427791e+02   2.0420551363e+01     2.168362     1.132393  48.44   0.01361096    1.615    0.381
       122  -9.2612    135.2583    190.0631   1.1853982808e+02   1.5812072043e+01    0.1986994     0.186322  81.84 0.0003470096    1.068    0.064
       123  -9.8248     32.1463    189.9503   1.4208318180e+02   3.1738848682e+01    0.3305924    0.1529588  39.80  0.001710943    2.165    0.538
       124 -11.1361    249.7422    187.5894   9.3915580043e+01  -5.7733898371e+00    0.3888401      0.25075 -25.97  0.002065064    1.474    0.322
       125 -10.4064     76.6952    188.1195   1.3196573033e+02   2.6432705553e+01    0.4185657    0.2490451 -89.39  0.001499052    1.962    0.490
       126 -11.9288     37.9481    194.1294   1.4126237530e+02   3.0155226100e+01    0.3102636    0.2000595 -70.11 0.0007567438    1.390    0.281
       127  -9.3313    143.2876    184.6957   1.1567856525e+02   1.5412612283e+01     0.231482    0.1928803  43.62 0.0006221926    1.136    0.120
       128  -9.4266    140.1344    183.1516   1.1613078072e+02   1.6380884082e+01      0.22499     0.209929  64.03  0.000303122    1.026    0.025
       129  -9.8250     29.8752    183.6338   1.4195727344e+02   3.3405724318e+01    0.2844365    0.2189313  75.20  0.001136648    1.133    0.117
       130 -10.0564     24.3485    184.1378   1.4318854746e+02   3.3857408279e+01     0.243101    0.1559188  45.81  0.000346178    1.595    0.373
       131  -9.4887     37.4946    184.0303   1.4033880218e+02   3.2491476683e+01    0.2415911    0.1427087  52.64  0.001345622    1.639    0.390
       132 -10.6409    236.3351    145.9597   8.7581147492e+01   3.8958249231e+00    0.2771042    0.2216709  43.65 0.0008032438    1.333    0.250
       133 -12.4966    248.1272    171.9327   9.1018440130e+01  -2.9014337145e+00    0.8499832    0.5064253 -36.42  0.004252647    1.549    0.355
       134 -13.5033    245.1049    158.4044   8.8717167619e+01  -1.8792365188e-02     2.148003    0.8997348 -48.75  0.008136027    2.788    0.641
       135 -11.0900    201.0074    246.2222   1.1401658090e+02  -6.7185302006e+00    0.3503087    0.1943444  53.81 0.0008971466    2.423    0.587
       136  -9.5306    126.2687    180.1795   1.1888752172e+02   1.9762058221e+01    0.2653925    0.1989484 -71.37  0.001063715    1.463    0.317
       137 -12.7777    248.2320    101.7302   7.5883249655e+01   9.3838133397e+00    0.9444013     0.523648 -39.16   0.00442717    1.659    0.397
       138  -9.1556     47.8091    179.6747   1.3754391612e+02   3.2299140403e+01    0.1719958    0.1054321  48.03 0.0005574592    1.614    0.380
       139  -9.4853     20.0811    179.1185   1.4363557981e+02   3.5402614716e+01    0.1740898     0.137042 -67.08 0.0004650222    1.275    0.215
       140 -12.4052     62.4378    245.6586   1.4115306053e+02   1.6204195481e+01     1.359852     0.572564  33.82  0.004811032    2.950    0.661
       141  -8.9523     92.5290    178.4330   1.2677272317e+02   2.6215822373e+01    0.1428963    0.1297013  79.80 -7.611806e-05    1.014    0.014
       142  -9.9762     64.2479    175.0144   1.3309914506e+02   3.1285826257e+01    0.3288697    0.2159212 -79.45  0.001167675    1.460    0.315
       143 -10.6317     66.5002    172.4649   1.3219902144e+02   3.1581791152e+01    0.5824514    0.3138571  89.79   0.00243636    2.480    0.597
       144  -8.6188    182.3235    176.7009   1.0515440327e+02   9.0814427284e+00    0.1500598    0.1210164  80.29 0.0007025524    1.628    0.386
       145  -9.2724    121.9246    175.5432   1.1908933393e+02   2.1658561367e+01    0.2141254    0.1927248 -74.55 0.0003009232    1.117    0.104
       146 -11.4033     78.5075    175.2458   1.2968802982e+02   2.9184154080e+01    0.3320937    0.2878423  44.56  0.001237828    1.233    0.189
       147 -10.9335     11.7375    173.7908   1.4494482814e+02   3.7353355989e+01    0.3694181    0.1530245 -57.57  0.001601517    2.266    0.559
       148  -9.4312     85.0786    173.8999   1.2787297506e+02   2.8490790419e+01     0.217257    0.1760976  72.54 0.0003225114    1.196    0.164
       149  -9.8346    115.4955    177.9432   1.2109387740e+02   2.2309065936e+01    0.3820704    0.2300827 -57.45  0.001707619    1.697    0.411
       150  -9.4835    107.2962    172.9433   1.2222014754e+02   2.4972926997e+01    0.2070616    0.1840218 -84.83 0.0008648335    1.090    0.083
       151  -9.3756     95.3546    172.6282   1.2512738612e+02   2.7120725393e+01     0.216006    0.1548629  75.62  0.000593122    1.556    0.357
       152 -10.1528     28.9982    170.9355   1.4085299410e+02   3.6400176778e+01     0.369605    0.2897508 -87.45  0.001818023    1.036    0.035
       153  -8.4406     55.9885    172.2153   1.3469829027e+02   3.3036526938e+01    0.1468408    0.1050799  41.14 0.0008119941    1.485    0.326
       154  -8.7969     52.6197    170.8717   1.3532750437e+02   3.3776792139e+01    0.1798431    0.1453138 -82.20 0.0002182671    1.066    0.062
       155  -8.7076    166.7414    170.6571   1.0740423449e+02   1.3628124566e+01    0.1522094    0.1216225  -8.11 0.0001678476    1.589    0.371
       156 -11.0057     44.5101    167.9982   1.3689750639e+02   3.5420874544e+01    0.5174025    0.3646466 -55.32  0.002991572    1.439    0.305
       157 -12.1815     86.7186    166.8981   1.2632595435e+02   2.9904971774e+01     0.650447    0.5309268  47.63  0.003559341    1.235    0.191
       158 -11.0204     89.3852    159.3800   1.2434513511e+02   3.1286314495e+01     0.470054     0.280037 -66.23  0.001262095    1.694    0.410
       159  -9.4032    126.5500    167.6895   1.1645262059e+02   2.2587601199e+01    0.2617226    0.1781411  63.20  0.001149068    1.675    0.403
       160  -9.6673     68.8600    166.9188   1.3080703801e+02   3.2577591134e+01    0.2100036    0.1782881 -89.14 0.0006063492    1.065    0.061
       161  -8.6225     58.4748    167.4740   1.3345159670e+02   3.3843706831e+01    0.1362037    0.1161792 -89.41 9.973025e-05    1.028    0.027
       162  -8.8193     53.9755    165.0128   1.3421391178e+02   3.4999555980e+01    0.1672916    0.1308701 -75.54 0.0004044226    1.118    0.105
       163  -9.9414     33.0859    164.4863   1.3918602547e+02   3.7483391627e+01    0.3341542    0.1451156 -68.86  0.001560844    1.920    0.479
       164 -10.1086     39.6597    162.1089   1.3732551065e+02   3.7349546752e+01    0.3565347    0.1990824  21.04  0.001222276    2.503    0.600
       165  -9.7902     73.5354    159.5462   1.2846776521e+02   3.3685384085e+01    0.2644998    0.1573889 -49.99 0.0008021032    1.714    0.417
       166  -9.5649     72.3852    156.6788   1.2829332486e+02   3.4544304926e+01    0.3603194      0.20967  29.81  0.001667475    2.018    0.504
       167  -9.5322     79.0051    158.8529   1.2694163675e+02   3.3043157985e+01    0.2124431    0.1926371 -84.91 0.0007462585    1.001    0.001
       168  -9.3315     81.7713    156.0163   1.2573253181e+02   3.3307217653e+01      0.20277    0.1762774  65.52 0.0005152324    1.143    0.125
       169  -9.2818    112.3327    157.8915   1.1811809962e+02   2.7626803608e+01    0.2039187     0.182414 -65.26 0.0003469149    1.103    0.093
       170  -8.8725     52.2434    158.3850   1.3371580819e+02   3.6793800046e+01    0.1769743    0.1161881  48.43 0.0009406433    1.586    0.369
       171  -9.0766     47.9695    157.9848   1.3473322824e+02   3.7395727410e+01    0.1601776    0.1357479 -80.65 0.0003310098    1.005    0.005
       172  -9.5088     31.0621    150.5490   1.3797997410e+02   4.0950893890e+01    0.1728007    0.1264655  30.33  0.001043105    1.639    0.390
       173 -11.0888     38.9254    146.3854   1.3541628315e+02   4.1149235734e+01    0.3159745    0.1728962  48.73  0.001488357    2.012    0.503
       174 -11.4639     31.8294    155.9996   1.3847265806e+02   3.9596375404e+01    0.5295103    0.2288207 -53.00  0.002476701    2.213    0.548
       175 -12.6698     24.0893    154.7790   1.4020898857e+02   4.0612741255e+01    0.8739496     0.434177  41.08  0.004631958    2.154    0.536
       176 -10.6163     23.6193    149.7503   1.3973211661e+02   4.1824370469e+01    0.2205598    0.1798311 -77.39 0.0007690153    1.019    0.018
       177  -9.2234    228.4409    155.1384   9.1030457169e+01   3.7792920700e+00    0.2189532     0.135119 -38.72 0.0004999834    1.542    0.352
       178  -9.8765    113.8658    150.7232   1.1626160841e+02   2.9048463931e+01    0.3612818    0.2574781 -57.54 0.0006685767    1.400    0.285
       179 -10.8137     98.9485    151.2857   1.2031722986e+02   3.1630987495e+01    0.3883795    0.3165971 -59.40  0.001459095    1.188    0.158
       180  -9.6477    102.0012    146.4917   1.1853893836e+02   3.2248497730e+01    0.4580786    0.2352166 -34.57  0.001277299    3.030    0.670
       181 -10.7876     56.1476    150.0155   1.3146013718e+02   3.8324523495e+01    0.3584478    0.3040683  89.85  0.001447216    1.111    0.100
       182  -8.9666     52.7195    146.3117   1.3178378419e+02   3.9631425865e+01    0.1888769    0.1711985  59.12 0.0001916137    1.183    0.155
       183  -9.5471     86.9624    150.7885   1.2341327574e+02   3.3757046063e+01    0.2625132    0.1806618 -77.53 0.0008107797    1.597    0.374
       184 -10.6956    133.4803    142.4255   1.0932671575e+02   2.7077974380e+01    0.8780451    0.2754203 -52.51  0.002538783    3.519    0.716
       185 -12.6092     68.0501    144.4341   1.2735131988e+02   3.8117103205e+01    0.7144128    0.5244892  80.54   0.00253146    1.545    0.353
       186  -8.8120     88.4456    146.4703   1.2219270691e+02   3.4563538765e+01     0.145543    0.1361333 -71.38 0.0003246814    1.027    0.026
       187 -11.5856     32.4394    140.4927   1.3628201299e+02   4.3185313876e+01    0.4014547    0.2206442 -87.61  0.001135611    2.049    0.512
       188 -11.3813     73.3503    139.6203   1.2501852487e+02   3.8535115951e+01    0.4591099    0.3281873  38.65  0.001453106    1.496    0.332
       189 -11.1216     60.4776    137.0193   1.2811819731e+02   4.0908425368e+01    0.3422973    0.2614368 -83.82            0    1.346    0.257
       190 -11.8757     41.1636    204.9460   1.4162901068e+02   2.7383482760e+01     1.252195    0.2956375  48.19  0.004465597    3.695    0.729
       191  -9.9824    110.2225    136.3178   1.1412406100e+02   3.3171504688e+01    0.3376377    0.2611145  -1.71  0.001205524    1.811    0.448
       192 -11.4096     45.0978    131.2729   1.3142357568e+02   4.4086885895e+01    0.4172871    0.2892024  89.16  0.001778235    1.615    0.381
       193 -11.5238     63.9921    194.8691   1.3570745079e+02   2.6704400754e+01    0.3708184    0.2636995 -48.50  0.001740277    1.727    0.421
       194 -12.7725     11.9260    127.3235   1.3994939984e+02   4.7922107498e+01    0.4304235    0.3620319 -54.13  0.002126678    1.190    0.159
       195 -11.7741     69.5318    187.4282   1.3352577363e+02   2.7638136804e+01    0.3127342    0.2687353 -49.70 0.0007583625    1.398    0.284
       196 -12.1883     11.8495    119.2723   1.3889660335e+02   4.9756576558e+01     0.464653    0.2079301 -83.01  0.002121964    2.548    0.608
       197 -12.3219     15.0469    114.6547   1.3733057524e+02   5.0583980425e+01    0.4018658    0.2427376 -68.70 0.0003883529    1.348    0.258
       198 -10.8216     33.1614    131.6078   1.3479233013e+02   4.5206125452e+01    0.2877084    0.1945057  -9.78  0.001555502    2.171    0.539
       199 -11.8014     31.5502    127.1129   1.3454857088e+02   4.6406172753e+01    0.4147302    0.2674759  58.22  0.001796541    1.861    0.463
       200 -11.0208    249.2822    150.9587   8.6413896061e+01   5.1237987818e-01    0.5401191    0.3305829 -41.70  0.002551997    1.508    0.337
       201 -11.4320     66.9855    128.3786   1.2464917017e+02   4.2124017880e+01    0.4630215    0.2770766 -70.30  0.002146812    1.779    0.438
       202  -9.6691    116.5368    128.9607   1.1069540269e+02   3.3680415131e+01    0.3229878    0.2047415   0.82  0.001051999    3.601    0.722
       203 -10.0549     80.4153    132.5591   1.2164290450e+02   3.9187137670e+01    0.3212616    0.2198935  63.58 0.0008746295    1.800    0.445
       204 -10.5454    209.8600    125.8282   8.7898208337e+01   1.3346245200e+01    0.3253333    0.2588371 -40.17 0.0005183503    1.226    0.184
       205  -9.0441    234.2848    125.3451   8.3353816478e+01   8.0985058733e+00     0.144007    0.1129988  -3.58  0.000348946    1.645    0.392
       206 -12.9703     20.9335    121.3745   1.3665586664e+02   4.8623773037e+01    0.5280009    0.3792388  -8.88  0.003226915    1.855    0.461
       207 -10.3026     38.0273    121.4924   1.3178164749e+02   4.7110483475e+01    0.2039133    0.1492492 -62.81 0.0004258083    1.154    0.134
       208 -12.0908     31.7140    120.4165   1.3342977440e+02   4.7948694917e+01    0.5007005    0.2778201  52.48  0.002521613    2.289    0.563
       209 -10.4892     54.9074    120.8326   1.2670094613e+02   4.5445879724e+01    0.2905526    0.2011554  25.40   0.00114791    1.677    0.404
       210 -11.8309    247.9227    142.5094   8.4832556449e+01   2.2579690554e+00    0.6647209     0.579749  -4.63  0.003863142    1.221    0.181
       211 -11.0348    168.2581    113.4149   9.3589830295e+01   2.5629952448e+01    0.3956315    0.3295003 -89.51 0.0009035752    1.400    0.286
       212  -9.6423    203.7363    111.4214   8.5613903525e+01   1.7554156091e+01    0.2165019    0.1430224  42.37 0.0009476971    1.637    0.389
       213 -10.6409     31.6225    110.9270   1.3182610432e+02   5.0139099423e+01    0.2096184    0.1845617  38.43 0.0005650092    1.343    0.256
       214 -10.3969     58.2884    109.9904   1.2344186948e+02   4.7559559863e+01    0.2805478     0.154577  56.39  0.001187335    2.730    0.634
       215  -9.8893     62.4944    106.9795   1.2146058821e+02   4.7718702266e+01     0.214648    0.1247299 -56.62 0.0007985431    1.574    0.365
       216 -11.1892     13.1374    103.8813   1.3622404954e+02   5.3123671253e+01    0.1823104    0.1484353 -85.56 0.0008738388    1.279    0.218
       217 -10.3933     17.6656     99.4181   1.3407810605e+02   5.3809865885e+01    0.1935585    0.1129008  27.55 0.0006910486    2.050    0.512
       218 -12.1297    248.3480    134.0882   8.2940953548e+01   3.6699591874e+00     1.008989    0.5086161 -32.31  0.004329583    2.021    0.505
       219  -9.5346     42.7423     92.0244   1.2443278572e+02   5.3322588550e+01    0.1806198    0.1443141 -46.56 0.0002600785    1.062    0.058
       220  -8.4445     52.2911    182.3260   1.3683557869e+02   3.1132475437e+01    0.1241391   0.09471072 -46.17 0.0003371297    1.617    0.381
       221  -9.4136     23.9929     88.0276   1.2984643590e+02   5.5836405245e+01    0.1509704     0.120766 -49.64 0.0004369065    1.010    0.010
       222 -10.4254    250.1661     86.5762   7.2307273255e+01   1.1540985578e+01    0.2295334       0.1529 -38.04 0.0004551401    1.445    0.308
       223  -9.3591     77.9894     85.0856   1.1086436719e+02   5.0296029185e+01    0.2005835    0.1846338 -24.82 0.0002757153    1.021    0.021
       224  -9.0670     63.9631     76.4858   1.1312902361e+02   5.4080757236e+01    0.1760273    0.1292117  27.28 -5.18601e-06    1.432    0.302
       225 -13.9654      5.8637    245.2595   1.5082432474e+02   2.3068506462e+01     1.240289    0.6705204  83.63  0.008428228    1.422    0.297
       226 -10.5592    193.8376    245.2570   1.1527064920e+02  -5.3734487501e+00    0.2126693    0.1945889  19.38  0.000300183    1.141    0.123
       227 -10.7720    189.9445     15.7505   6.3782893484e+01   3.5807002005e+01    0.2120955    0.1911616 -63.84  0.000748965    1.193    0.162
