#   1 NUMBER                 Running object number                                     
#   2 MAG_AUTO               Kron-like elliptical aperture magnitude                    [mag]
#   3 X_IMAGE                Object position along x                                    [pixel]
#   4 Y_IMAGE                Object position along y                                    [pixel]
#   5 X_WORLD                Barycenter position along world x axis                     [deg]
#   6 Y_WORLD                Barycenter position along world y axis                     [deg]
#   7 A_WORLD                Profile RMS along major axis (world units)                 [deg]
#   8 B_WORLD                Profile RMS along minor axis (world units)                 [deg]
#   9 THETA_WORLD            Position angle (CCW/world-x)                               [deg]
#  10 FWHM_WORLD             FWHM assuming a gaussian core                              [deg]
#  11 ELONGATION             A_IMAGE/B_IMAGE                                           
#  12 ELLIPTICITY            1 - B_IMAGE/A_IMAGE                                       
         1 -12.0710     27.3057     53.8405   9.1443993111e+01   6.3691609659e+01    0.9470873    0.6109664 -10.07 0.0008040484    1.626    0.385
         2  -3.5412     23.1141      1.9190   7.1244993348e+01   7.2377029969e+01    0.3288203    0.1700533  40.73  0.001543259    2.138    0.532
         3 -11.5797     14.4780     38.3487   9.2378051428e+01   6.7772254750e+01    0.6043707    0.3744444 -47.72  0.002336984    1.456    0.313
         4 -11.1177      6.3205     35.9463   9.5782333065e+01   6.8812823988e+01    0.8330865    0.4324072 -46.59  0.004835272    1.548    0.354
         5 -11.5008     18.9235     28.2981   8.6192403201e+01   6.9134920420e+01    0.4449212    0.2605379 -47.17 0.0007027425    1.738    0.425
         6 -10.0681     15.7502     18.3095   8.3561126924e+01   7.1026299029e+01      0.52458    0.3440479  -2.98  0.003122969    1.359    0.264
         7  -9.2943      6.5074      8.7131   8.4371485906e+01   7.3303651861e+01    0.3022206    0.2213922  -5.61  0.001426643    1.076    0.071
         8 -11.3760      7.8127     15.3750   8.6758823402e+01   7.2199053171e+01    0.5760781    0.3135238  15.13  0.001864393    1.763    0.433
         9  -9.6871     26.0190     10.9775   7.4470424996e+01   7.0907886041e+01    0.1644392    0.1215698  -1.65  0.001123104    1.079    0.074
        10 -10.4094     24.8452      7.0311   7.3059478600e+01   7.1551519182e+01    0.2570648    0.1601638 -32.74 0.0007832723    1.644    0.392
        11 -11.3470     20.6897      6.4095   7.4961986099e+01   7.2139936729e+01    0.3213058    0.2327741  -2.29  0.001943668    1.084    0.077
        12 -12.0474     14.1511     11.0631   8.1012398853e+01   7.2244295406e+01    0.2568268    0.1823071   1.63 0.0002869471    1.158    0.136
        13 -11.2388     15.1414      4.5024   7.7067352811e+01   7.3018167708e+01    0.4198059    0.2230411 -22.65  0.001502027    1.717    0.417
        14  -9.7065     31.5691     12.6646   7.2499240173e+01   6.9972692456e+01     0.350374    0.2256716  30.74  0.002213551    1.459    0.314
        15 -10.7871     41.0750     21.6246   7.2263302340e+01   6.7476149650e+01    0.4265816    0.3375072  72.92 0.0003654808    2.848    0.649
        16 -10.1397     27.2215     21.2513   7.8793297531e+01   6.9345542832e+01     0.414162    0.2314381 -20.38  0.002314172    1.768    0.434
        17 -11.2082     42.5793     15.4207   6.8670732910e+01   6.8058047813e+01    0.2964384    0.2098015  30.91  0.001892769    1.293    0.227
        18 -10.0549     43.3395      9.6072   6.5502833900e+01   6.8622353537e+01     0.610273    0.2910576  21.19  0.002880066    2.563    0.610
        19 -10.4937     30.9881     27.9795   7.9902743322e+01   6.7880973555e+01    0.7668458    0.3553333 -26.85  0.003692115    2.302    0.566
        20 -12.5012    107.6479     29.2298   5.2707107624e+01   5.3940764179e+01    0.5892112    0.3893538  42.48  0.003129023    1.398    0.285
        21 -12.3080    105.1414     20.9232   5.0298985510e+01   5.5430860078e+01    0.2920329    0.2623114 -60.62 0.0004378719    1.326    0.246
        22 -11.1169    166.1368     19.1305   3.8859692043e+01   4.1269749727e+01    0.5378323    0.3602194 -42.69   0.00303081    1.542    0.352
        23 -10.2097    185.0037     13.5179   3.5184924292e+01   3.7437942438e+01    0.3563012    0.2940207 -52.27  0.001917302    1.225    0.184
        24 -10.8040    182.1930     18.4073   3.6709056934e+01   3.7567659309e+01    0.3786012    0.2900444  34.35 0.0005847424    1.750    0.429
        25 -10.8844    173.6582     23.1096   3.8948336800e+01   3.9050174169e+01    0.4562453    0.3128847 -80.38  0.000697719    1.471    0.320
        26  -9.7790     69.5763     11.4715   5.6432414132e+01   6.3825931849e+01    0.2657632    0.1748516  37.77 4.500132e-05    1.289    0.224
        27 -10.1629     69.1777      7.0610   5.4599346940e+01   6.4322145525e+01    0.2118102    0.1608486  37.93  0.000298054    1.099    0.090
        28  -9.5655     72.3160     15.3883   5.7250661521e+01   6.2897944884e+01     0.267788    0.2080858   1.38  0.000640423    1.280    0.219
        29 -11.1441     73.9967      4.3720   5.1929111597e+01   6.3609663970e+01     1.234468    0.3937254 -15.50  0.004511088    4.651    0.785
        30  -9.4291     69.8125      2.1624   5.2204382990e+01   6.4623011604e+01    0.2079966    0.1502852  42.97 0.0006885747    1.149    0.129
        31 -11.7779     62.2331     16.9611   6.1427054204e+01   6.4613877378e+01    0.7731193    0.3555865  37.53 0.0004039868    1.965    0.491
        32  -9.4413     55.0427     18.9966   6.5091855036e+01   6.5629891102e+01    0.3194856    0.1528281  34.60  0.001137846    1.934    0.483
        33  -9.8605    132.0115     21.5132   4.4871829810e+01   4.9158408688e+01    0.3654477    0.2886493  -0.43  0.002121755    1.555    0.357
        34 -12.0219    117.0097     22.2664   4.8096282801e+01   5.2590470153e+01    0.2556125    0.2238116  16.47 0.0003598523    1.234    0.190
        35  -9.9299    117.0155     15.6224   4.5799869113e+01   5.3263364658e+01    0.3028926    0.2532044  21.46  0.001120308    1.300    0.230
        36 -12.0031    244.1823     13.4078   3.0156056973e+01   2.4718162808e+01     1.105346    0.4099531 -35.45  0.005502136    2.547    0.607
        37 -10.1855    248.0078      4.7669   2.8278078811e+01   2.4933377557e+01     0.223356    0.1387544  85.00  0.000649201    1.456    0.313
        38 -10.6115    250.0165      1.4415   2.7547274216e+01   2.4904753473e+01    0.2123462    0.1642644 -89.14 0.0003419863    1.231    0.187
        39 -11.0693    218.1489     18.6242   3.3204006749e+01   2.9473885515e+01    0.4299398    0.2583741 -79.41  0.001531295    1.561    0.359
        40 -10.2927    211.3110     15.2316   3.3057596246e+01   3.1336699018e+01    0.5331743    0.1557792 -49.58  0.001936644    3.087    0.676
        41 -10.6238    212.6623     10.1656   3.1837188955e+01   3.1595691281e+01    0.3583777    0.1837353 -89.58  0.001533648    1.885    0.470
        42 -10.5041    145.8064     12.4477   3.9795251589e+01   4.6786810524e+01    0.4667746    0.2416193  67.62  0.001229768    1.673    0.402
        43 -10.8087    175.5536     13.0820   3.6111355454e+01   3.9679900295e+01    0.5370545    0.3128507  71.03  0.001820142    1.504    0.335
        44 -11.6216    231.3732     15.6373   3.1512664456e+01   2.7038764924e+01     0.595385    0.2518407 -57.69  0.002493806    2.138    0.532
        45  -9.3562    225.6652     15.9691   3.2022410145e+01   2.8184852192e+01    0.2403053    0.1511702 -45.31  0.001471715    1.439    0.305
        46 -11.1105    133.1548     12.6510   4.1846155084e+01   4.9769379458e+01    0.2788601     0.223514  23.45 0.0002357206    1.459    0.315
        47 -10.3771    128.3644      8.8293   4.1428369758e+01   5.1243889484e+01    0.4812426    0.4035079  73.34  0.003069091    1.086    0.079
        48 -11.1012     97.6199     12.8523   4.9085413699e+01   5.7898107147e+01    0.4881021    0.2495019  52.52 0.0009099895    1.634    0.388
        49  -8.9787     97.5209      6.9668   4.6856561610e+01   5.8442321338e+01    0.2425202     0.159094  25.47 0.0007686882    1.634    0.388
        50  -8.7018     88.8990     13.4417   5.1536568266e+01   5.9722259306e+01     0.204555     0.149742  25.76 0.0006570002    1.334    0.250
        51  -9.0624     51.4037     12.9595   6.3744903470e+01   6.6942840432e+01     0.240532    0.1327219 -36.69 0.0008347391    2.095    0.523
        52 -10.2021     79.0020     11.6853   5.3594944655e+01   6.1942587848e+01    0.2216886    0.1691742  -8.69 0.0002470625    1.386    0.278
        53 -10.3902    201.0182      8.1363   3.2372709349e+01   3.4364626232e+01    0.3550474    0.2493532 -87.69  0.002213557    1.217    0.178
        54 -10.8450    191.7931      8.4193   3.3277015917e+01   3.6408270584e+01    0.4726358    0.3397081 -46.64  0.001198976    1.377    0.274
        55 -10.7139    195.9736      3.5024   3.1754713329e+01   3.5954818980e+01    0.4521623    0.2541171  72.82  0.001481878    1.557    0.358
        56 -10.1660    224.2973      9.6904   3.0827500805e+01   2.9169627390e+01    0.2996489    0.1576321 -46.35   0.00111689    1.649    0.394
        57  -9.3978     55.9448     10.4156   6.0761533163e+01   6.6440581100e+01    0.2077873    0.1513751  -2.48 0.0005707493    1.322    0.244
        58  -9.7578    165.9170      9.1173   3.6193100936e+01   4.2335090713e+01    0.3171963    0.1718333 -36.62  0.001435983    1.930    0.482
        59  -8.9917      1.2803      9.1332   8.7810208932e+01   7.3671928425e+01    0.2262358   0.08720831 -48.32   0.00116404    2.613    0.617
        60  -9.0590    119.9377      8.6392   4.2848957388e+01   5.3226414069e+01    0.2044585    0.1687173   5.04 0.0009879392    1.418    0.295
        61  -9.1336     90.4756      9.0149   4.9358670982e+01   5.9794384883e+01    0.2742374    0.1604342  31.10 0.0009291716    1.744    0.427
        62  -9.1766     87.8943      6.1324   4.8858427351e+01   6.0593316209e+01      0.22386    0.1511549  53.82 0.0009577328    1.273    0.214
        63 -11.1836    236.8327      3.1022   2.8649199428e+01   2.7308849504e+01    0.5275151    0.2329013  87.26  0.002817875    2.162    0.538
        64 -10.3326    232.6662      6.0048   2.9489108216e+01   2.7840543826e+01    0.2521865    0.2057649  82.22 0.0008248147    1.272    0.214
        65 -10.0062    106.8695      6.1249   4.4507999521e+01   5.6429942402e+01    0.3493802    0.2610443 -56.14  0.001018729    1.670    0.401
        66 -10.0150     61.8218      6.5334   5.6806811793e+01   6.5764771442e+01    0.3357987     0.209925  57.14  0.001762968    1.773    0.436
        67 -10.6713    208.7032      3.7021   3.0752537188e+01   3.3126428451e+01     0.402754     0.274183 -69.04  0.001396259    1.248    0.199
        68  -8.9401    173.3129      5.5414   3.4426062925e+01   4.0941115363e+01    0.2368038    0.1574404 -81.80  0.001368351    1.421    0.296
        69 -10.0331    153.2715      5.4872   3.6753732812e+01   4.5654790507e+01    0.2419253     0.174055  42.07 0.0006020313    1.555    0.357
        70 -10.2264     39.5762      4.7694   6.4719818380e+01   6.9730926485e+01    0.3430892    0.2342895  41.39   0.00128126    1.493    0.330
        71 -10.6858     31.0903      3.5112   6.8029728992e+01   7.1122070159e+01    0.2669583    0.1749943 -37.15  0.001049004    1.911    0.477
        72 -11.0117    160.2370      2.7443   3.5146069364e+01   4.4254239328e+01    0.4695484    0.2682149  68.58  0.002519906    1.476    0.322
        73 -10.4068    217.7612      2.5381   2.9824103468e+01   3.1299755773e+01    0.3290461    0.2044223  89.25  0.001559802    1.383    0.277
        74 -11.2968    179.7363      2.1430   3.2918675609e+01   3.9770079028e+01    0.2878489    0.1789607  78.75 0.0004184015    1.375    0.273
        75  -9.8017    127.4343      1.8725   3.9336431387e+01   5.2040308042e+01    0.3775611    0.1425007  48.37  0.001040963    2.425    0.588
        76 -10.8897     89.7048      1.9003   4.6708729953e+01   6.0547632315e+01    0.4618959    0.1857834  63.93  0.002061838    2.389    0.581
        77  -8.9408    135.6859      1.5985   3.8001361141e+01   5.0130028240e+01    0.2348102    0.1172298  55.72 0.0008238557    1.700    0.412
        78 -10.1057    115.8085      1.9415   4.1313989516e+01   5.4727460905e+01    0.1962247     0.153372  61.91 0.0003273501    1.080    0.074
        79  -9.3022     50.0702      2.1783   5.9024440715e+01   6.8269325546e+01    0.2080111    0.1521903  17.30 0.0008743811    1.158    0.137
        80  -8.3148      2.7202      2.6858   8.3660563636e+01   7.4481115926e+01    0.1129358   0.06338751 -14.84  0.000656538    1.570    0.363
        81 -10.2900    236.4938      7.4866   2.9523927407e+01   2.6906480804e+01    0.2319899    0.1590409 -70.25 0.0008598733    1.152    0.132
        82  -8.4947    109.1814      1.3213   4.2320932841e+01   5.6286775199e+01    0.1803425    0.1035905  75.61 0.0005018412    1.800    0.444
        83  -9.2422     55.9151      1.4077   5.6458156045e+01   6.7307765653e+01     0.162651   0.09597914  43.59 6.855482e-05    1.426    0.299
        84  -8.2661    185.9892      1.0000   3.2053930237e+01   3.8445736284e+01    0.1929218   0.05947787  73.63  0.000385109    2.804    0.643
        85 -10.2575      3.5869    117.0705   1.1413533366e+02   5.0877466697e+01    0.3820927     0.242793 -64.42  0.002186558    1.250    0.200
        86  -9.5573    201.5009    249.5600   8.4478186311e+01  -6.2073614800e+00    0.2162902    0.1677047  12.23 0.0006135505    1.049    0.047
        87  -9.6337     62.6884    115.6873   9.4260953319e+01   4.5593532303e+01    0.4646991    0.2337735 -74.72 0.0009919199    3.075    0.675
        88 -10.3556     62.8421    110.8418   9.3105858526e+01   4.6773437432e+01    0.2444233    0.2202413 -54.33 0.0002382954    1.041    0.039
        89  -9.7778     47.9024    115.4907   9.9179011511e+01   4.7509122983e+01    0.4317997    0.2114321  45.22  0.001139793    2.434    0.589
        90  -9.8303     48.5577    111.9611   9.8224580171e+01   4.8315645292e+01    0.3359459    0.2324808 -58.18 0.0008481945    1.288    0.223
        91 -10.3526     32.5436    112.6297   1.0384372585e+02   4.9829881184e+01    0.3541989    0.2396503  83.73  0.001761239    1.842    0.457
        92  -7.9800    155.3001    113.2893   6.6857423729e+01   2.8545828577e+01    0.1526903    0.1243904   1.63  0.000211067    1.561    0.359
        93  -9.5971     76.1273    114.4053   8.9534703801e+01   4.3940167398e+01    0.2673519    0.1999616 -59.08 0.0003312072    1.302    0.232
        94  -8.9321    121.0539    111.4439   7.5111961883e+01   3.6365064492e+01    0.2439008    0.2033993 -47.51 0.0003248045    1.176    0.149
        95  -8.9530    233.6676    111.3364   5.1770901205e+01   1.2429065796e+01    0.1415758   0.09661636 -65.78  0.000705211    1.738    0.425
        96 -11.0247      5.5077    108.8589   1.1241200782e+02   5.2785079475e+01    0.5172356    0.3792821 -11.53  0.002506962    1.643    0.391
        97 -11.0285     43.7398     89.4198   9.4765150277e+01   5.4309233891e+01     1.096902    0.6406027  60.96  0.003452337    3.083    0.676
        98  -9.8071      6.9563     89.4971   1.0883050861e+02   5.7359145023e+01    0.2929684    0.2509775  49.83  0.001198313    1.438    0.305
        99 -10.1262     18.2554     98.9260   1.0635343148e+02   5.4385063359e+01    0.5092384    0.2669403  18.18   0.00252986    2.231    0.552
       100 -10.1558     23.0486     94.6968   1.0377666611e+02   5.5039789059e+01    0.6101349    0.2400544 -49.35  0.002656694    2.062    0.515
       101 -10.9818      8.2895     97.2996   1.0967663343e+02   5.5427752603e+01    0.8004013    0.4909142  -8.43  0.004362432    2.001    0.500
       102  -9.9116      2.0762     92.3474   1.1112808423e+02   5.6942699490e+01     0.227408    0.1803419  89.52  0.000391537    1.357    0.263
       103 -10.8673      2.5062     82.7408   1.0932575124e+02   5.9167817395e+01    0.8573198    0.1957548 -66.57  0.003113946    3.351    0.702
       104 -10.7233     51.5177     82.9454   9.0079492769e+01   5.4854745462e+01    0.3713646     0.319392  45.47 0.0006506198    1.376    0.273
       105 -10.9123     45.5808     80.9525   9.1824240552e+01   5.6028326369e+01    0.7740625    0.4194918  31.09  0.003399748    1.980    0.495
       106 -13.2400     52.9245     74.3983   8.7048042622e+01   5.6538718968e+01    0.7056479    0.3669149 -56.65  0.001333158    2.067    0.516
       107 -11.4071     31.5891     93.4820   1.0032065767e+02   5.4597102601e+01    0.4874805    0.4345008 -51.57   0.00201693    1.057    0.054
       108 -11.3130     30.3880     85.3737   9.8923895031e+01   5.6611071921e+01     0.761313    0.4399467 -23.76  0.002991795    2.008    0.502
       109  -9.0804    103.2937    108.1982   7.9388825380e+01   4.0669808451e+01     0.328405    0.2221204 -17.26  0.001335246    2.116    0.527
       110  -9.3730    116.8562    107.8477   7.5324885471e+01   3.8045321200e+01    0.2386689    0.2152609 -12.64 0.0005330107    1.191    0.161
       111  -8.5417     80.9038    109.0000   8.6640856751e+01   4.4487773512e+01    0.2374024   0.08680728  35.15 0.0007939665    2.884    0.653
       112  -9.5427     57.9746    108.0223   9.4113725100e+01   4.8122081465e+01    0.2107788    0.1938363 -45.57 0.0003058112    1.015    0.014
       113 -10.4553     62.2766    104.9928   9.1908416493e+01   4.8280017091e+01    0.3512534     0.272073   7.06 0.0009192809    1.492    0.330
       114  -9.6080     35.9849    108.1352   1.0179427974e+02   5.0617861206e+01    0.3384902    0.2164407 -22.74  0.001649926    1.902    0.474
       115 -10.2209     34.8327    103.3471   1.0123421960e+02   5.1908722251e+01    0.4286053    0.2355319  37.54  0.001491777    2.063    0.515
       116  -9.9952     50.2664    100.5622   9.5076671947e+01   5.0908249327e+01    0.4220963    0.3164514 -46.63  0.001780286    1.191    0.160
       117 -10.2675     42.4153     99.5154   9.7669556724e+01   5.2061836458e+01    0.6408746    0.1981064  34.02  0.002330018    3.336    0.700
       118  -8.9404     45.7903    105.9263   9.7889349278e+01   5.0126369315e+01    0.4808453    0.2715516 -12.76  0.001935746    2.828    0.646
       119  -8.9526     91.6900    105.8708   8.2353601488e+01   4.3372639225e+01    0.3439628    0.2252336  78.64  0.001263007    2.936    0.659
       120  -9.9011     71.4878    104.4095   8.8606577628e+01   4.7080560851e+01    0.3601384    0.2991535  14.87  0.001895014    1.313    0.239
       121  -9.1080    108.3320    104.7898   7.6960264061e+01   4.0462640789e+01    0.2257347    0.1376476 -39.29 0.0009371772    1.670    0.401
       122 -10.1118     84.2798    103.8034   8.4186514177e+01   4.5155806588e+01    0.5910405    0.2392949 -43.23 0.0005902662    2.479    0.597
       123  -9.6455    132.0181    104.0067   7.0137786021e+01   3.5670791501e+01    0.2261637    0.2228498 -40.35 -0.005334738    1.003    0.003
       124 -11.6414    101.6602    102.7105   7.8392510576e+01   4.2241953469e+01    0.4551933    0.3534758  10.51  0.001292167    1.568    0.362
       125  -9.3863    101.2672     98.6597   7.7382110075e+01   4.3228919184e+01     0.271194    0.2331889 -40.77 0.0005968646    1.131    0.116
       126  -9.0003     39.4911    102.5324   9.9392677497e+01   5.1640526065e+01    0.2404692    0.1220586 -59.28 0.0008181154    1.718    0.418
       127  -9.1613    127.0246    101.6746   7.0819191380e+01   3.7257357083e+01    0.4066682    0.2362558  24.58  0.001153632    2.655    0.623
       128 -10.9251    110.6948     99.7259   7.4857159053e+01   4.1116616469e+01    0.6126851    0.3614731  60.15   0.00198412    2.330    0.571
       129  -8.5478     80.6111    101.5297   8.4788307464e+01   4.6306731437e+01      0.22239    0.1819674  87.69 6.565924e-05    1.587    0.370
       130  -9.1251     79.0422     99.0000   8.4630461052e+01   4.7155482768e+01    0.2735725    0.2253474  40.86 0.0009098957    1.294    0.227
       131 -10.2748     57.2828    100.3129   9.2511625035e+01   5.0081599621e+01    0.3479353    0.2379739 -26.70  0.001351628    1.639    0.390
       132 -11.3829    117.6828     97.9897   7.2356961376e+01   4.0046064747e+01    0.2928245    0.2732748  42.67 0.0003453198    1.088    0.081
       133  -9.5352    171.0787     97.0053   5.9162469164e+01   2.8281223629e+01    0.2215012    0.2105821 -42.97 -0.001320134    1.056    0.053
       134  -9.0051    150.0075     97.0382   6.3769961288e+01   3.3095003493e+01    0.2264855    0.2215149 -72.85  0.001220081    1.012    0.012
       135  -9.8392    137.6480     96.8915   6.6721814997e+01   3.5922459906e+01    0.2711492    0.2134806  33.82  0.000678621    1.373    0.272
       136 -10.1783    125.6415     97.0279   6.9887777138e+01   3.8546933225e+01    0.3015056    0.2348097  33.27  0.001433545    1.367    0.269
       137  -8.5533    155.2403     95.8026   6.2235203007e+01   3.2144127754e+01    0.2038719    0.1809908  13.84 0.0004950706    1.305    0.234
       138  -9.5575     86.7968     96.0453   8.1236397259e+01   4.6504564799e+01    0.2533301    0.2195469  27.90 0.0006036661    1.191    0.160
       139  -8.3442    166.4980     94.4566   5.9436076272e+01   2.9819780241e+01    0.1494296    0.1457859 -58.03 7.480293e-05    1.032    0.031
       140  -9.7239    134.9799     91.1901   6.5782411858e+01   3.7680879224e+01      0.24374    0.2147784 -43.32 0.0002613038    1.128    0.114
       141  -9.2769     80.7203     95.2536   8.3032961921e+01   4.7735024748e+01    0.3762774    0.2607242  70.23  0.001602368    2.302    0.566
       142  -9.4958     52.6508     90.3780   9.1664873761e+01   5.3019563604e+01    0.2432088    0.1595039 -62.12 0.0008125004    1.587    0.370
       143 -10.6070     86.6728     88.3803   7.9062279435e+01   4.8224097559e+01    0.3723456    0.3451584 -22.64 0.0005958241    1.029    0.028
       144  -9.2112     86.9614     83.6521   7.7545247652e+01   4.9183354264e+01    0.2326829    0.2011255 -50.33 0.0004091438    1.199    0.166
       145  -9.4172     73.4688     79.6300   8.0957992458e+01   5.2371993922e+01    0.3507825    0.2493782 -27.04  0.001228504    1.468    0.319
       146 -10.1541     71.1739     88.8462   8.4511338327e+01   5.0735766391e+01    0.3892896    0.2269243 -52.02 0.0004340613    1.672    0.402
       147 -11.2944     79.6040     83.5082   7.9992055897e+01   5.0516875294e+01    0.7374159    0.3244987  35.73  0.002860462    2.375    0.579
       148 -11.0482     45.2510     68.7414   8.8393364789e+01   5.8708794012e+01    0.4042596    0.2285502 -38.63 0.0002252903    1.617    0.382
       149  -9.7872     15.6089     87.9436   1.0523831452e+02   5.7189095283e+01    0.3415883    0.2862144   6.21  0.001290797    1.363    0.266
       150  -9.8854    132.9351     82.8921   6.3888594576e+01   3.9772369002e+01    0.4109732     0.285121 -59.12  0.001311263    1.691    0.409
       151 -11.2212    123.7968     86.1750   6.7238709067e+01   4.1177425901e+01    0.4602788    0.3960404 -57.20  0.002361277    1.232    0.188
       152  -9.4574     65.6170     85.9117   8.5659920206e+01   5.2241300953e+01    0.3370334    0.2433197  13.17  0.001501802    1.568    0.362
       153  -9.8864    155.1176     85.1073   5.9322004847e+01   3.4228417739e+01    0.3052792    0.2244545 -33.93 0.0006716957    1.416    0.294
       154 -10.8087    152.0355     80.8475   5.8801290901e+01   3.5736288853e+01    0.5878272    0.2860062  59.80  0.002233353    2.291    0.564
       155  -8.9332    104.5114     85.3869   7.2506165482e+01   4.5432604856e+01    0.2438935    0.1763842  19.61  0.001110828    1.668    0.401
       156  -9.2620    140.9380     82.3151   6.1760085934e+01   3.8047531697e+01    0.2091413    0.1968191  52.60 0.0003284019    1.059    0.056
       157 -10.1353     19.7305     79.7600   1.0185570557e+02   5.8788962978e+01    0.4168895    0.3085859 -47.99  0.001250937    1.110    0.099
       158 -10.0566    136.9612     78.7672   6.1676397381e+01   3.9627872265e+01    0.2816218    0.2213722 -48.14 0.0009752833    1.297    0.229
       159 -10.3231    128.2807     85.4730   6.5843051184e+01   4.0320780023e+01    0.4093696    0.3217214   1.67 0.0008100298    1.642    0.391
       160 -11.4073    178.4627     75.0148   5.1977317620e+01   3.0559371199e+01    0.6665526    0.3346115  55.24  0.001832188    1.999    0.500
       161 -10.2268     94.5910     70.2411   7.0801393939e+01   5.0414933051e+01    0.4101567    0.2998863 -29.29  0.002037334    1.408    0.290
       162  -8.9086     12.5953     78.0435   1.0436864150e+02   5.9676235064e+01    0.1863402    0.1296555 -52.86 0.0004382861    1.161    0.139
       163  -9.4391    110.7279     77.1326   6.8125467871e+01   4.5782326400e+01    0.2833453    0.2157665  36.48 0.0006319993    1.325    0.245
       164  -9.0907     68.5553     75.6320   8.1492100453e+01   5.4002173502e+01    0.3863297      0.13359 -48.59  0.001371671    2.805    0.644
       165 -10.2929     27.8552     76.4584   9.7742217836e+01   5.8868089052e+01    0.3423268    0.2762808 -18.07  0.001116227    1.216    0.178
       166 -10.8504     89.5833     73.7553   7.3566321464e+01   5.0710183086e+01    0.6286289     0.342591 -36.93  0.002017132    1.866    0.464
       167  -9.7444    141.5757     75.3018   5.9560153597e+01   3.9188820298e+01    0.2532195     0.189242 -26.02 0.0007898953    1.500    0.333
       168 -11.2427    142.0323     59.8425   5.4841097501e+01   4.1697814259e+01    0.3385951    0.2640097  45.57 0.0003279329    1.281    0.220
       169 -10.9347    145.2177     71.1046   5.7498455859e+01   3.9074218796e+01    0.4805752    0.3609233 -40.34  0.001927328    1.349    0.259
       170  -8.9011     97.4743     87.4507   7.5297244566e+01   4.6401009994e+01    0.3029364    0.1453041 -45.63 0.0009492275    2.053    0.513
       171  -9.8106     63.7615     74.2633   8.2842958997e+01   5.5028326010e+01     0.385948    0.2338598 -43.87  0.001857962    1.544    0.352
       172  -8.8151     63.5473     69.5171   8.1407289102e+01   5.6033565770e+01    0.3611253    0.1709912  26.98  0.001476761    2.430    0.588
       173 -10.5007    169.9715     73.3372   5.3076885286e+01   3.2835778467e+01    0.3376875    0.2634907 -34.14 0.0007405461    1.338    0.253
       174  -8.6841    166.4939     73.4738   5.3773228013e+01   3.3633203651e+01    0.1438127    0.1407032  86.58 0.0004162116    1.059    0.056
       175 -10.6365    143.1070     66.9159   5.6727959196e+01   4.0286704537e+01    0.4152509    0.3481629  12.87  0.001692575    1.447    0.309
       176  -9.1423     17.8106     72.4949   1.0093015079e+02   6.0565441823e+01     0.264864    0.1497048 -37.74 0.0009797972    1.562    0.360
       177 -10.8088     44.9060     47.4171   8.1279356855e+01   6.2887891007e+01    0.5628433    0.4498576  10.38  0.003478297    1.179    0.152
       178 -10.0878     15.4814     64.4761   9.9907486954e+01   6.2482231460e+01    0.8877137    0.2802421  12.84  0.003355922    4.152    0.759
       179  -9.7727     15.8842     59.9386   9.8503951114e+01   6.3414785455e+01     0.255582    0.1980138 -73.21 0.0005129782    1.576    0.365
       180  -9.8314     37.2594     47.3607   8.4654946766e+01   6.3856594035e+01    0.3363415     0.202122  -9.16   0.00113363    1.965    0.491
       181  -9.5462     31.9413     47.8280   8.7258043684e+01   6.4372558454e+01    0.1921333    0.1578232 -28.11 0.0005692375    1.075    0.070
       182 -12.2466      3.0491     66.5383   1.0585425493e+02   6.2787506808e+01    0.5157441    0.4264073  42.78  0.003463865    1.576    0.365
       183  -8.5495    192.4771    248.4687   8.6055160193e+01  -4.8137433783e+00    0.1244472    0.1006513  10.90 0.0001344664    1.008    0.008
       184 -11.0362     24.3332     46.5281   9.0379923856e+01   6.5387581522e+01     1.014935    0.4907867   3.65  0.004581027    2.803    0.643
       185 -10.3973      9.2713     62.7561   1.0222339644e+02   6.3260769757e+01    0.3012048    0.2243572 -14.89 0.0009174054    1.332    0.249
       186 -10.9656      4.6743     59.2591   1.0342304226e+02   6.4270081283e+01    0.8237537    0.3481428 -24.08  0.002674195    2.671    0.626
       187 -11.5554     32.3657     63.2714   9.2152325509e+01   6.1284285606e+01    0.8710353    0.3128464 -48.04  0.002911862    2.298    0.565
       188 -11.0958     28.0684     63.4059   9.4066030881e+01   6.1674578144e+01    0.5309604    0.3077564 -43.50  0.000301179    1.449    0.310
       189 -10.7364      6.1533     52.0112   1.0083071872e+02   6.5694200104e+01    0.3270742    0.2422449 -16.26   0.00125926    1.275    0.216
       190 -10.2992     10.7057     50.9926   9.8360075667e+01   6.5614502824e+01    0.3385263    0.1841834 -54.53 0.0005978082    1.588    0.370
       191  -9.2605    111.3287     71.5434   6.6186677952e+01   4.6705519668e+01    0.3230236    0.2259934  -2.40  0.001412434    2.049    0.512
       192  -9.7088    101.7826     70.3986   6.8620659507e+01   4.8931724193e+01    0.2825855    0.2569105  30.94  0.001410538    1.073    0.068
       193 -11.3835     79.8050     69.9484   7.5628480020e+01   5.3254369873e+01    0.2623335    0.2383851  13.88 0.0003358517    1.066    0.062
       194  -9.8020     83.1889     64.2816   7.2556991027e+01   5.3714310064e+01    0.4318522    0.2628641 -36.33  0.001257952    1.637    0.389
       195  -9.1978     36.5696     70.0082   9.2365956647e+01   5.9430334113e+01    0.3278534    0.2001217 -50.82  0.001423711    1.466    0.318
       196  -7.9699    226.3342     70.2592   4.3708279090e+01   2.0710918158e+01    0.1180613    0.1038027  25.79 0.0002927385    1.573    0.364
       197  -8.2638    215.4883     70.4901   4.5151818620e+01   2.2962581484e+01    0.1371674    0.1183274 -63.16 0.0003803367    1.011    0.011
       198  -9.6329    119.5626     67.6954   6.2694940416e+01   4.5587944507e+01    0.3950812    0.2874234  15.00   0.00183329    1.798    0.444
       199  -8.8635     86.9624     68.0303   7.2551652242e+01   5.2308201043e+01    0.1700479    0.1586556   3.09 0.0003360678    1.009    0.009
       200 -10.9481    134.6858     64.7335   5.7989070417e+01   4.2630954924e+01    0.5309765    0.4033565 -79.69  0.002563642    1.697    0.411
       201 -10.2103    132.1057     58.7449   5.6735553126e+01   4.4211734745e+01    0.5373471     0.369224  39.31   0.00188171    1.526    0.345
       202  -9.7116    136.5632     55.2291   5.4626723812e+01   4.3713486451e+01    0.4014668    0.1878328 -34.02  0.001628601    2.261    0.558
       203  -9.8180    173.5286     68.9674   5.1249255382e+01   3.2727067797e+01    0.3061244    0.2095515  54.59  0.001033182    1.468    0.319
       204  -8.6173    106.1030     66.4202   6.6032485887e+01   4.8752236894e+01    0.2271838     0.137655  44.81  0.001021928    1.608    0.378
       205  -9.1623     75.1286     65.8669   7.5914885881e+01   5.4861946361e+01    0.2602327    0.1877611 -39.24 0.0006990073    1.352    0.260
       206  -8.9393     77.1771     61.8898   7.3821740251e+01   5.5247114040e+01    0.2219949    0.1782081 -11.82 0.0004479337    1.267    0.211
       207  -8.8179    202.6739     63.6658   4.5287097321e+01   2.6842763924e+01    0.2931356    0.1800894 -21.62  0.001330209    2.265    0.559
       208 -10.0870     97.2687     63.8957   6.7847715253e+01   5.1040562112e+01    0.2463495    0.2278608  21.07 0.0002118298    1.030    0.030
       209  -9.5162    193.6681     61.1249   4.5952384037e+01   2.9276589262e+01    0.3434771    0.2279408 -32.40 0.0009373566    1.612    0.379
       210  -8.5371    110.4494     62.5666   6.3518627422e+01   4.8490251753e+01    0.1428042    0.1371768  30.81 0.0001910062    1.022    0.021
       211  -9.5952     54.1244     61.1135   8.2299759681e+01   5.9080633620e+01    0.2623996     0.182529 -39.18 0.0004797462    1.332    0.249
       212 -10.1795    171.1664     59.0640   4.8988080671e+01   3.4862479577e+01    0.2961885     0.256383 -44.37  0.001054902    1.171    0.146
       213 -10.6397    167.4954     57.4458   4.9181373671e+01   3.5985051303e+01    0.4771048    0.2872587 -34.43  0.001484357    1.735    0.424
       214  -9.4456    160.3978     61.1047   5.1493443910e+01   3.7115059765e+01    0.2495248    0.1691102  66.48  0.001001236    1.485    0.327
       215  -9.6783    151.2513     60.8842   5.3219074143e+01   3.9336733361e+01    0.2832004    0.2066166  51.01  0.000853118    1.346    0.257
       216  -8.7781    114.9239     60.9976   6.1772555043e+01   4.7770705956e+01    0.2225364    0.1786656 -80.56  0.001111811    1.647    0.393
       217 -10.0153     71.3668     59.9854   7.5252290255e+01   5.6607660035e+01     0.381675    0.2228713  36.95  0.001395391    1.708    0.414
       218 -10.0395     40.3938     58.9584   8.7306794005e+01   6.1279925372e+01    0.2336234    0.2087541  -3.76 0.0004253371    1.116    0.104
       219  -9.2174    198.9487     58.0492   4.4440246823e+01   2.8537572735e+01    0.2024674    0.1767938 -67.89 0.0003103927    1.024    0.023
       220  -9.4383     65.0384     56.7074   7.6462234151e+01   5.8255417442e+01    0.2357369    0.1790708 -29.07 0.0003667164    1.248    0.199
       221  -8.7290     68.2070     54.9697   7.4636131109e+01   5.8045050454e+01    0.1816671    0.1627881 -47.39 0.0005496162    1.311    0.237
       222  -9.7860     53.2282     53.5571   8.0014835674e+01   6.0632365078e+01    0.3268138    0.2503102  -2.75  0.001878939    1.286    0.222
       223  -7.9768    214.3097     56.7184   4.2123381495e+01   2.5318095500e+01    0.1367157   0.08932427 -68.79  0.000200726    1.565    0.361
       224 -10.3515    118.0397     52.7809   5.8241728193e+01   4.8388595824e+01    0.4336393     0.205746 -37.24  0.001274311    2.185    0.542
       225 -10.2146    122.9508     50.9640   5.6421295912e+01   4.7540765992e+01     0.714384     0.609948   7.32  0.003954224    1.320    0.242
       226 -10.4673    131.4929     34.8533   4.9263297541e+01   4.7747891553e+01    0.4958767    0.3636366 -25.63 0.0007220352    1.525    0.344
       227  -9.2385    134.4092     28.2351   4.6570643041e+01   4.7848401503e+01    0.2953773    0.1865494 -23.27  0.001501545    1.842    0.457
       228  -9.8390    127.2359     39.7108   5.1742938388e+01   4.8128279196e+01    0.4482121    0.2784023   1.17  0.001924327    2.623    0.619
       229 -10.0952    127.7429     48.0035   5.4326580989e+01   4.6863460347e+01    0.2427775       0.2042 -33.32 0.0003055769    1.263    0.208
       230 -10.3891    125.9855     45.2324   5.3828998941e+01   4.7668490738e+01    0.5394804    0.2038487  58.71  0.001749369    2.614    0.617
       231  -9.9232     98.7660     55.0059   6.4340971249e+01   5.2247846627e+01    0.2616389    0.2269252 -19.47 0.0003251168    1.172    0.147
       232 -10.6877     88.9609     49.0108   6.5238655860e+01   5.5211827093e+01    0.4422153    0.3603038  -5.87  0.002482814    1.273    0.215
       233  -8.6705     60.1569     55.7831   7.8026489399e+01   5.9194460934e+01    0.1996257    0.1472609  -2.53  0.001075773    1.433    0.302
       234  -9.6801     44.7201     54.7314   8.4007020542e+01   6.1567875777e+01    0.3628127    0.2578994  34.21  0.002059911    1.539    0.350
       235 -10.0022    151.5954     54.7577   5.1356840614e+01   4.0201870606e+01    0.2570439    0.2437474  63.91 0.0002711073    1.047    0.045
       236 -10.9670    154.1272     48.2507   4.8974098233e+01   4.0545645783e+01     0.455557    0.3641024 -71.90 0.0007492516    1.342    0.255
       237  -9.5997     80.0629     54.5176   7.0200377071e+01   5.6027215446e+01    0.2758198    0.2185134 -68.49   0.00114076    1.862    0.463
       238  -8.3290    241.2846     54.6572   3.8679918816e+01   2.0002326090e+01    0.1340404    0.0772417 -61.94 0.0003115833    1.640    0.390
       239  -9.3769    191.4508     53.6532   4.4401918268e+01   3.0906138262e+01    0.2980877    0.2099389  63.76  0.001529399    1.403    0.287
       240  -9.7591    145.9825     52.5597   5.1819665701e+01   4.1875024144e+01    0.3064188    0.2490771 -82.72  0.001111663    1.362    0.266
       241  -8.8717    106.5586     52.8024   6.1317234579e+01   5.0938441120e+01    0.2527323    0.1821183  48.63 0.0002230297    1.326    0.246
       242 -10.3782    174.6075     50.6569   4.6149946401e+01   3.5294458361e+01    0.2934094    0.2662397  -4.03 0.0006894502    1.367    0.268
       243  -9.9464    165.7201     51.9862   4.7977801777e+01   3.7223601815e+01    0.2590052    0.2055554 -54.21  0.001041616    1.260    0.206
       244  -9.9068    163.8239     47.0012   4.6909726945e+01   3.8390776919e+01    0.3671639    0.2612233  -8.37  0.001798042    2.005    0.501
       245  -9.5561     72.2148     51.1480   7.1752674139e+01   5.8016747953e+01    0.3331943    0.2555468 -16.19  0.001638229    1.305    0.234
       246  -8.2444     61.9411     52.0000   7.5949252049e+01   5.9592331542e+01    0.2101077   0.07328353  38.00 0.0007908498    2.863    0.651
       247 -10.4129     93.3467     54.9852   6.5995037593e+01   5.3366541746e+01    0.4697593    0.3198282  47.61  0.001373053    1.457    0.314
       248  -8.6131    137.5718     49.7461   5.2705314104e+01   4.4294023112e+01    0.1977051    0.1293213 -46.74 0.0009472735    1.638    0.390
       249  -8.4686     96.5942     48.7573   6.2784219773e+01   5.3691039835e+01    0.1698594    0.1320414 -41.17 0.0004656226    1.395    0.283
       250  -9.5140    202.2624     46.8563   4.1296189809e+01   2.9403701323e+01    0.2586431    0.1961731  48.33   0.00109958    1.574    0.365
       251 -10.1878    114.7098     46.3395   5.6924637585e+01   5.0102453201e+01    0.3091297    0.2577897  16.46   0.00127234    1.302    0.232
       252  -9.3156    112.9451     41.1293   5.5583856747e+01   5.1232633336e+01    0.2066358    0.1928179 -11.48 0.0003143477    1.132    0.117
       253 -10.9560     80.1029     43.1971   6.5981973414e+01   5.7838595931e+01    0.5273908     0.395161 -17.96  0.002933819    1.371    0.271
       254  -9.1387     76.3044     44.6757   6.7854274602e+01   5.8326639886e+01    0.2528958    0.1842062  44.98 0.0004371327    1.399    0.285
       255  -8.9774     68.3033     48.4378   7.2183461048e+01   5.9148985935e+01    0.2275231    0.1288489  42.84  0.000606846    1.802    0.445
       256 -12.5990     61.9598     44.2741   7.3014477159e+01   6.0894911351e+01    0.4146925    0.2844254  33.56 0.0004847916    1.409    0.290
       257  -9.3978    234.8173     47.0050   3.7719329553e+01   2.2375310574e+01    0.1915686    0.1547328 -78.03 0.0003041455    1.110    0.099
       258  -8.6455     98.0313     44.0000   6.0645318781e+01   5.4099408958e+01    0.3534333    0.1511324  50.16  0.001446333    2.197    0.545
       259 -10.5451     93.9356     45.0530   6.2244764950e+01   5.4803341416e+01    0.2529612     0.242173   1.65  0.000308019    1.089    0.082
       260  -8.9866     90.6137     40.8220   6.1692392178e+01   5.6103193665e+01    0.2557399    0.1831995 -43.74  0.001045813    1.598    0.374
       261 -10.2234    244.2662     44.2488   3.6255893703e+01   2.0858530733e+01    0.2693119    0.2512429  55.15  0.001703628    1.462    0.316
       262  -9.6669    131.7991     44.0607   5.2153800940e+01   4.6467055026e+01    0.3604363    0.2252819  60.88  0.001627414    1.529    0.346
       263  -8.2446    232.3130     44.2786   3.7388544948e+01   2.3261455203e+01    0.1083293    0.0977751  37.58 0.0003653977    1.566    0.361
       264  -9.1520    187.5173     44.1279   4.2546209174e+01   3.3166437978e+01    0.2962472    0.1646436  73.00 0.0007728269    1.812    0.448
       265  -9.3829    141.7820     43.4913   4.9907057669e+01   4.4171245999e+01    0.3629228    0.2362883  31.81  0.001707266    1.936    0.483
       266  -9.0221    120.5233     37.8771   5.2645542215e+01   4.9932592080e+01    0.6739197    0.3953947   1.18  0.002723905    3.013    0.668
       267 -10.3375    104.7938     42.4529   5.8184267465e+01   5.2862960361e+01    0.6712512    0.2880063  45.48  0.002762557    2.165    0.538
       268 -11.6558    103.7353     38.6181   5.7099647754e+01   5.3622077625e+01    0.3928389    0.2730765  50.44 0.0003155143    1.331    0.248
       269  -9.9623    114.5394     35.4830   5.3236560569e+01   5.1614955674e+01    0.4474708    0.2264415  47.64  0.001577143    1.798    0.444
       270  -9.8693    117.2321     32.8679   5.1700785725e+01   5.1324922140e+01    0.2466021     0.201402  55.78 0.0003581207    1.122    0.109
       271  -9.0257     71.2187     43.2738   6.9130805373e+01   5.9469245935e+01    0.3226735    0.1682025 -21.55  0.001385649    2.445    0.591
       272  -9.6900    163.6806    246.0485   9.1461102641e+01  -2.9686525197e-01    0.1791551    0.1577715   5.05  0.001176715    1.098    0.090
       273  -8.6020    219.5264    245.4930   8.0439210841e+01  -7.9973512787e+00    0.1221269   0.09400778   2.06 0.0001392598    1.033    0.032
       274  -8.4955      1.3794    244.2023   1.2418361334e+02   2.1490498283e+01    0.1518776   0.07969116  81.01  0.000373073    1.587    0.370
       275 -10.4160    116.0486    248.5328   1.0171249182e+02   6.3601765758e+00    0.2642837    0.2579693  19.53   0.00107558    1.166    0.142
       276  -9.1512    128.4895    240.8386   9.8114350986e+01   5.9200065015e+00    0.2619018    0.1272007  51.05   0.00115758    2.302    0.566
       277  -9.6640     70.3874    115.9842   9.1784037801e+01   4.4423204448e+01    0.2532681    0.2004364  67.82 0.0004530716    1.543    0.352
       278  -9.1287    221.4397    237.4791   7.8774540344e+01  -7.1019990963e+00    0.1230419   0.09665541  -0.59 0.0001295054    1.017    0.017
       279  -8.6051    168.2867    237.3248   8.9207701981e+01   4.7832490586e-01    0.1299145   0.09257224  -3.00  0.000358456    1.605    0.377
       280  -8.9971    139.9528    236.9751   9.5134088483e+01   4.8793236086e+00    0.1974456    0.1727834  32.94  0.000440744    1.019    0.018
       281  -8.8229    222.0144    233.4996   7.8002787282e+01  -6.5962818444e+00    0.1774557    0.1066218  27.73 0.0006965138    1.544    0.352
       282  -9.0266     32.0311    232.4895   1.1767905568e+02   2.0743208469e+01    0.1824795    0.1365247  84.10 0.0005090379    1.163    0.140
       283  -9.8386    187.4260    230.5593   8.4210729098e+01  -1.2587487291e+00    0.3407888    0.1515186  25.46  0.001452557    2.461    0.594
       284 -10.4776     92.9496     51.0296   6.4711966614e+01   5.4088028720e+01    0.2392018    0.2195054  43.68 0.0003157512    1.131    0.116
       285 -10.1431     35.8063     41.0959   8.2965723147e+01   6.5145497982e+01    0.4109691    0.2330682   6.06  0.001550383    2.133    0.531
       286 -10.9174     40.9026     38.7814   7.9718282165e+01   6.4901519193e+01    0.3783482    0.2180492  -5.14 0.0009089301    2.268    0.559
       287  -9.7554    178.9704     44.3420   4.3809157451e+01   3.5145203143e+01    0.3588698    0.1897265  89.79  0.000835322    2.700    0.630
       288  -9.9977    227.5145     41.4948   3.7266746661e+01   2.4633551814e+01    0.2388671    0.1806617 -56.47  0.001252182    1.123    0.110
       289 -10.1671    228.1610     37.6993   3.6389154390e+01   2.5001268176e+01    0.2958554    0.1770109 -54.87 0.0004976845    1.441    0.306
       290  -8.6573    191.4915     41.9722   4.1474872811e+01   3.2534980500e+01    0.1964989     0.121016 -42.38   0.00100888    1.562    0.360
       291  -9.6024    222.2098     40.5682   3.7599507589e+01   2.5878202875e+01    0.2781913    0.2067811  59.07  0.001683986    1.526    0.345
       292 -10.1928    157.9846     39.6606   4.5812691742e+01   4.0788601447e+01    0.3244872    0.2733667  67.25 0.0009168597    1.101    0.092
       293  -8.6348     48.9679     41.0403   7.7064762588e+01   6.3421181871e+01    0.2024008    0.1359339  -7.83 0.0006593376    1.585    0.369
       294  -8.3686    197.4365     40.5205   4.0366310197e+01   3.1362096253e+01    0.1303299    0.1164493 -79.33 0.0003339644    1.053    0.050
       295 -10.8495    178.2392     36.7515   4.1921700551e+01   3.6323514669e+01    0.4564108    0.3482402 -77.35  0.001413789    1.285    0.222
       296  -8.9081    179.4636     32.0062   4.0518930615e+01   3.6630622918e+01    0.1841509    0.1645139 -72.84 0.0005279638    1.065    0.061
       297  -9.0577    165.6391     38.8582   4.4346051547e+01   3.9054230483e+01    0.2513012    0.1260574 -40.36  0.001139001    1.994    0.498
       298  -8.7131     21.9674     39.2402   8.8920898512e+01   6.6955356694e+01    0.1739119    0.1396958 -19.71  0.001159006    1.016    0.016
       299  -9.2997    238.2448     37.5317   3.5423622106e+01   2.2952440513e+01    0.2103002    0.1770669  46.75  0.001339239    1.659    0.397
       300 -10.0675    136.8384     37.5377   4.9038965809e+01   4.6139066942e+01    0.3142301    0.2538426  40.27 0.0004084893    1.272    0.214
       301 -10.1316    141.9790     32.8878   4.6612111391e+01   4.5491147957e+01    0.4094824     0.299719   9.94  0.001247997    1.866    0.464
       302  -9.6658    146.0450     29.0348   4.4718802594e+01   4.4975078445e+01     0.282077    0.2078228  83.68 0.0004374218    1.386    0.279
       303  -8.8409    208.0917     37.1617   3.8330241182e+01   2.9402442343e+01    0.1765764    0.1663944  72.36 0.0004820941    1.256    0.204
       304  -9.5796    209.1065     32.3282   3.7109073061e+01   2.9796317781e+01    0.3074854     0.201626 -39.03  0.001749706    1.512    0.339
       305  -9.4627    186.3165     36.7641   4.0840590554e+01   3.4423280192e+01    0.2838314    0.1767955 -64.58  0.001439578    1.680    0.405
       306  -9.8457     72.7996     36.5580   6.5918449766e+01   6.0184352900e+01    0.3759187    0.3452572  74.18  0.001341406    1.486    0.327
       307 -10.5144     87.6181     33.0105   5.9634772643e+01   5.7780713557e+01    0.4247827    0.3790945  16.67  0.001836259    1.045    0.043
       308 -10.8579     79.0074     32.8565   6.2312597919e+01   5.9519346043e+01    0.5126675    0.3601792  31.02  0.001577453    1.325    0.245
       309  -8.7146     74.7256     23.2621   5.9809477251e+01   6.1554416663e+01    0.1776003    0.1459655   0.74 0.0004105069    1.183    0.155
       310  -9.9655     71.6778     30.1565   6.3715359180e+01   6.1271402348e+01    0.3547889    0.2485164  34.69   0.00137631    1.288    0.223
       311  -9.8799     75.1294     27.1440   6.1287767823e+01   6.1005456599e+01    0.3596431    0.2935355 -74.65  0.001668114    1.979    0.495
       312  -9.8091    248.6621     35.5762   3.4142529559e+01   2.1145927072e+01    0.2754449    0.1523477  71.93  0.001595763    1.861    0.463
       313 -10.4223    248.2484     30.7546   3.3228072237e+01   2.1841423460e+01    0.3613473    0.2515576 -25.90   0.00200466    1.890    0.471
       314  -8.3571     97.4849     35.4858   5.7678968397e+01   5.5391452825e+01    0.2248825    0.1767505  59.64  0.001099376    1.335    0.251
       315  -8.9197     94.4702     35.4407   5.8523391725e+01   5.6038265017e+01    0.1809141    0.1623023 -72.22 0.0004784469    1.423    0.297
       316  -9.6943     51.9728     28.9522   7.0771531737e+01   6.4822926133e+01    0.1832899    0.1517899   6.93 0.0003232244    1.012    0.012
       317 -11.0198     56.4159     34.7770   7.1408975430e+01   6.3272054623e+01     0.491238     0.239021 -44.06  0.001448315    2.380    0.580
       318 -10.6975     49.4206     33.4707   7.3778996648e+01   6.4552193556e+01    0.4672424    0.2107908  28.37   0.00129593    2.357    0.576
       319  -9.5577    223.7282     34.1177   3.6042944262e+01   2.6398703969e+01    0.2509839    0.2172805 -22.83  0.001237764    1.521    0.342
       320  -8.5566     66.2811     34.9044   6.7620705910e+01   6.1594532076e+01    0.1700915    0.1468536  -6.56 0.0002590348    1.092    0.084
       321  -8.9836     61.4956     34.5173   6.9284710643e+01   6.2474555063e+01    0.2498403    0.1210625 -36.25 0.0008454038    2.090    0.522
       322  -9.1280    162.6774    225.9525   8.8603942857e+01   3.3470505269e+00    0.3607706    0.2522102 -89.40  0.001617011    3.007    0.667
       323  -8.7627     42.7938     31.0546   7.5666057064e+01   6.5875995891e+01    0.4004756    0.2577496 -51.09  0.001808677    2.179    0.541
       324  -9.0417    223.9561    225.0100   7.6192787584e+01  -5.5862776829e+00    0.1898224    0.1527984  -0.54 0.0005587467    1.023    0.022
       325  -9.6376     35.8049     18.5128   7.3272340286e+01   6.8635240521e+01    0.6042925    0.2277611  32.29  0.002798708    2.565    0.610
       326  -8.4727    131.9987    225.4791   9.5218888595e+01   8.3148525618e+00    0.2053045    0.1212847  36.69 1.799256e-05    1.517    0.341
       327  -8.9718    196.4921    222.0310   8.0952416234e+01  -1.1915930335e+00    0.1914614    0.1212253 -36.60  0.001027811    1.579    0.367
       328  -9.3386     88.9217    220.8052   1.0429353762e+02   1.5917781978e+01    0.2175224    0.1922783 -70.31  0.000796387    1.205    0.170
       329  -9.5030     34.8903     31.4502   7.9498052130e+01   6.6859272110e+01    0.2673753    0.1781316  39.39   0.00156159    1.805    0.446
       330  -8.0796    117.6554    212.3124   9.6536031041e+01   1.3323863611e+01     0.146571    0.1020044  64.45 0.0006052639    1.708    0.414
       331 -10.1111     36.9417     26.8265   7.6528666543e+01   6.7305670924e+01     0.368841     0.243977 -33.59  0.002233126    1.450    0.310
       332  -7.9293    146.6507     34.3015   4.6197815918e+01   4.4197140485e+01    0.1420276    0.0996025 -75.36 0.0007038841    1.693    0.409
       333  -9.4344    101.0086     26.3522   5.3330754904e+01   5.5749289907e+01    0.2929312     0.174813  52.54 0.0008962813    1.490    0.329
       334  -8.7529    242.3724    209.6761   7.0171312498e+01  -5.7159680115e+00    0.1585876    0.1440572 -48.99 0.0005961144    1.617    0.381
       335  -8.6795    230.9190    209.4665   7.2157203874e+01  -4.1322573618e+00    0.1735557    0.1148189  26.46 0.0003876339    1.503    0.335
       336  -9.4076    159.8170     31.6256   4.3227920738e+01   4.1359098951e+01    0.4649388    0.1375753  54.75  0.001692916    2.968    0.663
       337  -9.3092    161.0540     27.2495   4.1807756365e+01   4.1579925951e+01    0.3212391    0.2086404  17.93  0.001506351    2.536    0.606
       338  -9.4802    154.0754     31.8737   4.4213571140e+01   4.2708854007e+01    0.3021184    0.1914801  56.29 0.0008042657    1.460    0.315
       339 -10.3163    234.1852     30.1658   3.4260818140e+01   2.4720998284e+01    0.3578808    0.1999607  56.23  0.001194309    2.130    0.530
       340  -9.2959     94.1226     30.1071   5.6606759492e+01   5.6791031710e+01     0.347419    0.1553444  46.77 0.0009864032    1.977    0.494
       341  -9.1606    189.6270     28.8305   3.8445228936e+01   3.4643205024e+01    0.2097081    0.1609352  66.03 0.0004835057    1.272    0.214
       342  -8.8599    125.1520     29.4754   4.8816518915e+01   4.9890999910e+01    0.2097882    0.1214499  59.35  0.000620509    1.554    0.356
       343 -10.1582    222.8400     26.4617   3.4476264692e+01   2.7544320195e+01     0.314979    0.2650435  18.69  0.001529253    1.896    0.473
       344 -10.0279    206.1288     16.9334   3.3902570990e+01   3.2285756911e+01    0.2714231    0.1758549 -80.66  0.001582689    1.414    0.293
       345  -9.1153    208.3097     22.6891   3.4996723665e+01   3.1144391434e+01    0.1986095     0.150087  76.51  0.001076833    1.245    0.197
       346  -9.5143    208.2947     26.6587   3.5898488758e+01   3.0675355971e+01    0.3434982    0.1602369  77.25  0.001637799    2.129    0.530
       347  -9.9449    204.9346     24.3268   3.5702160364e+01   3.1700836128e+01    0.3721329    0.2343498 -27.65 0.0004895087    1.888    0.470
       348  -9.0605    182.4658     26.9483   3.8836905810e+01   3.6534870708e+01    0.1928612     0.125119 -35.13  0.001043258    1.628    0.386
       349 -10.0330    241.3526     25.2855   3.2686230108e+01   2.3877258731e+01    0.2389433    0.1839782 -53.27   0.00139663    1.164    0.141
       350  -8.5995    123.9142    206.0838   9.4120759999e+01   1.3643412341e+01     0.177666    0.1601589  -3.79            0    1.235    0.190
       351  -8.2085     95.3272    205.3294   1.0079406562e+02   1.8393980755e+01    0.1383933    0.1096127 -19.81 0.0004299673    1.706    0.414
       352  -9.3974     35.0667    201.0738   1.1454667159e+02   2.7407615251e+01    0.2175365    0.1260129  64.91  0.001048339    1.666    0.400
       353  -8.3906    120.1777    199.4245   9.3942590446e+01   1.5730061047e+01    0.1978464     0.125543  47.97 0.0003559995    1.566    0.361
       354  -9.9685    176.8448     21.4170   3.8107890951e+01   3.8488094087e+01     0.230788    0.1859771 -65.12 0.0004799917    1.181    0.153
       355  -9.0369      7.5498    194.8839   1.2026407701e+02   3.1559970598e+01    0.3179777    0.1038254  46.13  0.001423284    2.673    0.626
       356  -8.8622    241.8407    193.6564   6.7302850109e+01  -3.1372556334e+00    0.1524538    0.1152516  38.72 0.0003679024    1.598    0.374
       357 -10.3941     62.4002     22.5387   6.3838163878e+01   6.3926600011e+01    0.5441825    0.2895937  35.34   0.00171663    1.719    0.418
       358  -8.5238     55.3900    181.2714   1.0749754948e+02   2.9807967312e+01    0.1876772    0.1223576 -82.92 0.0005149203    1.520    0.342
       359 -10.6282    101.0021    176.0024   9.4818642093e+01   2.4429654534e+01    0.2086847    0.2006947  79.35  0.001160778    1.001    0.001
       360  -9.8894     18.4215    174.2558   1.1609187947e+02   3.5535526438e+01    0.2593352     0.182181 -43.68 0.0007566937    1.719    0.418
       361 -10.5066      7.3175    166.3887   1.1816865315e+02   3.8393851384e+01    0.2780219    0.2429556   8.56 0.0005233525    1.506    0.336
       362 -10.2646     14.9904    165.4919   1.1614528473e+02   3.7996786943e+01     0.296647    0.1954671 -37.25  0.001380591    1.950    0.487
       363 -10.2481     11.8504    163.8266   1.1679535375e+02   3.8667393696e+01    0.2608308    0.2099756 -84.50 0.0003958278    1.019    0.019
       364 -10.0789    232.8458     23.6853   3.3039454897e+01   2.5792004136e+01    0.3870816    0.1916189 -88.14  0.001978367    2.156    0.536
       365 -10.5277    153.6564     22.9553   4.1694689586e+01   4.3836070922e+01    0.2366105    0.2087867  66.99 0.0003055048    1.068    0.063
       366 -12.0639     37.3194    159.0779   1.0949292425e+02   3.7506459867e+01     1.055131    0.4042734  39.65  0.004340961    2.592    0.614
       367 -11.7638     30.4571    154.3741   1.1080403262e+02   3.9399444671e+01    0.5855017    0.3439035  54.31  0.002247761    1.832    0.454
       368 -11.1512      2.1179     25.1946   9.4190940081e+01   7.1013536275e+01    0.2206504     0.146834 -35.92 0.0003953634    1.175    0.149
       369  -8.9917    124.9245     23.4708   4.6868485989e+01   5.0619741807e+01    0.1951831    0.1175141  59.92 0.0003284956    1.466    0.318
       370  -8.8177     80.1201     22.3471   5.7696587138e+01   6.0599230327e+01    0.2158416    0.1957561 -51.53  0.001384233    1.420    0.296
       371  -9.8907     84.7807     20.8800   5.5686561154e+01   5.9817552343e+01     0.329506    0.2510018 -67.95 0.0008090835    2.039    0.510
       372 -10.1661     23.7475    162.6233   1.1357560770e+02   3.7943687361e+01     0.414898      0.19165  45.54  0.001917757    2.214    0.548
       373  -9.9650     10.9181    158.4865   1.1653970508e+02   4.0065503427e+01    0.2213895    0.1534682  78.64   0.00126217    1.339    0.253
       374 -10.6877      1.9382    155.6509   1.1862633868e+02   4.1423108115e+01    0.5765328    0.1457152 -73.75  0.002158061    3.039    0.671
       375  -8.4592    188.5975     22.2429   3.6939826826e+01   3.5654553555e+01    0.1610113    0.1254857 -20.70 0.0009527868    1.629    0.386
       376  -8.6478     10.2842     22.3823   8.8420464809e+01   7.0881759436e+01    0.1375841   0.09656177  24.75 0.0004200104    1.596    0.373
       377  -9.3283    249.1930    153.8211   5.8317770184e+01   2.3881401601e+00    0.1838018    0.1361971 -17.99  0.000543764    1.348    0.258
       378  -9.7577      8.3878    147.9452   1.1619024082e+02   4.2881947551e+01    0.4629387    0.2073545  -8.13  0.001691634    4.923    0.797
       379  -9.7119      3.8092    145.9929   1.1725232283e+02   4.3684781923e+01    0.2192484     0.180599  49.00 0.0006839138    1.347    0.258
       380  -7.8978     95.5055     21.4745   5.2926708380e+01   5.7490590658e+01    0.1303506    0.1149251  40.36 0.0008099748    1.026    0.025
       381  -9.8744    199.8296     18.6173   3.4890545628e+01   3.3503086161e+01    0.2891298    0.2401909 -46.24  0.001894241    1.263    0.208
       382  -8.8231    193.3130     19.9562   3.5871989956e+01   3.4830273244e+01    0.1647831    0.1452165 -76.84 0.0002777913    1.079    0.074
       383  -9.2594    151.7567     18.0318   4.0553936834e+01   4.4814028533e+01    0.2128548    0.1663943 -87.03 0.0003598201    1.253    0.202
       384 -11.5564     19.7314    151.4693   1.1343982662e+02   4.1109767079e+01     1.542234          nan -61.74  0.003697496    6.852    0.854
       385  -9.5860    148.2696     17.2400   4.0843775013e+01   4.5728031933e+01     0.305105    0.1611188  84.38   0.00107867    2.201    0.546
       386  -9.5382    144.4799     16.5323   4.1215114052e+01   4.6703811159e+01    0.4257013     0.226964 -11.84  0.001773314    2.749    0.636
       387 -11.7041     13.1884    150.5623   1.1514292527e+02   4.1868478836e+01    0.9278948    0.4221585 -41.86  0.004057526    2.726    0.633
       388  -8.7957    111.9113     15.1778   4.6701691459e+01   5.4478131639e+01     0.187567    0.1656586  83.97 0.0006415354    1.226    0.185
       389  -9.7985     13.4086    145.2439   1.1451191518e+02   4.3187936753e+01    0.3300698     0.178184 -81.26 0.0008945167    1.648    0.393
       390 -10.1486     15.6950    142.6864   1.1357454768e+02   4.3656636479e+01    0.5174471     0.259402 -31.70  0.001890858    2.886    0.654
       391  -8.7445     45.9701    151.3604   1.0599955042e+02   3.8538736379e+01    0.1825222    0.1729989  88.32 0.0004259587    1.085    0.079
       392  -9.7208     35.2306    149.5431   1.0883052738e+02   4.0161766191e+01    0.2701551    0.1835128 -35.18 0.0008984487    1.779    0.438
       393  -8.5933     80.0115    145.0275   9.4952201419e+01   3.5608998229e+01    0.1794512    0.1652745 -66.06  0.000366471    1.024    0.024
       394 -10.3005      1.9022    139.4283   1.1714128358e+02   4.5437173966e+01    0.4882944    0.2115386 -79.43  0.002072282    1.970    0.492
       395  -9.4100      1.4587    133.5199   1.1666788525e+02   4.6929846115e+01    0.3164009    0.1996363  54.40  0.001778746    1.750    0.429
       396  -8.6249     84.9600     14.4599   5.3029235070e+01   6.0449763132e+01    0.1627304    0.1103701  83.61 0.0005345074    2.373    0.579
       397 -10.0169      2.5811    130.2231   1.1598801524e+02   4.7680676571e+01    0.2656716    0.1901878 -50.08  0.001040666    1.352    0.260
       398  -9.2637    139.3876     20.6156   4.3287213343e+01   4.7499843259e+01    0.2781174    0.2033785  18.62  0.001519089    1.771    0.435
       399 -10.5537     41.1409    138.8851   1.0553510617e+02   4.2287821797e+01    0.3200389    0.2302901  41.91  0.001447971    1.506    0.336
       400  -8.9740    230.5851    137.1748   5.7818512336e+01   8.4025287719e+00     0.194544    0.1168483 -31.05 0.0005652914    1.604    0.376
       401 -10.4267     34.5217    136.4577   1.0717457924e+02   4.3591245044e+01    0.4340925    0.2506756 -41.78  0.002055193    1.872    0.466
       402  -9.9462     15.2315    136.2021   1.1293855789e+02   4.5329296875e+01    0.2959552    0.1750413 -64.38 0.0008153709    1.390    0.281
       403  -8.4685    235.9875    136.7295   5.6859631498e+01   7.5317439868e+00    0.1536454    0.1215445  44.72 0.0005883708    1.481    0.325
       404  -9.0025     48.5603    134.5211   1.0253891299e+02   4.2584739022e+01    0.3641931    0.1784397  58.25 0.0009549256    3.012    0.668
       405 -10.6130     44.2502    130.3359   1.0316370082e+02   4.4148256700e+01    0.3916359    0.3434008  24.16  0.001353744    1.294    0.227
       406 -10.4431     24.6128     29.5741   8.3774800388e+01   6.8349009083e+01    0.4146061    0.2538369 -37.15  0.001519804    1.455    0.313
       407  -8.8559    248.6516    134.1506   5.4401072162e+01   5.8282506798e+00    0.1916999    0.1048846 -32.70 0.0005080032    1.668    0.401
       408 -10.0949     28.7642    132.1510   1.0829882130e+02   4.5237116425e+01    0.2138457    0.1964024 -67.70 0.0003315614    1.077    0.072
       409 -10.4665      9.0876    131.7768   1.1423197737e+02   4.6880289511e+01    0.4574444    0.1817028 -53.39  0.002049796    2.157    0.536
       410  -8.7832     12.7885    126.7936   1.1249336965e+02   4.7875409378e+01    0.1952623    0.1431637 -72.76 0.0005977792    1.136    0.120
       411 -10.3203     61.6208    130.7671   9.7760569326e+01   4.1920304997e+01    0.2874551    0.2669153 -39.43 0.0004090278    1.107    0.097
       412  -9.8728     20.9102    131.1044   1.1056818492e+02   4.6175842593e+01    0.2603005    0.1846945 -59.66 0.0005577563    1.212    0.175
       413  -9.0886     17.9248    128.4721   1.1112876786e+02   4.7076483410e+01    0.4242365    0.1463534 -51.38  0.001711985    2.510    0.602
       414 -10.9778     88.5400    127.7497   8.8745819348e+01   3.8613576625e+01    0.2759083     0.262528 -68.80 0.0002683304    1.045    0.043
       415  -9.5676     34.0955    127.0517   1.0583324817e+02   4.6039198762e+01    0.3525105    0.1729573 -75.82   0.00148896    2.115    0.527
       416 -10.0541     55.6369    125.4160   9.8615188919e+01   4.4063736296e+01    0.2597525    0.2178659 -67.74 0.0006837018    1.119    0.107
       417 -11.0117      7.3865    123.2586   1.1371690272e+02   4.9117710959e+01    0.4582589    0.2808618 -26.54  0.002440467    2.012    0.503
       418  -9.0665    241.1927    123.7754   5.3332286424e+01   8.8930634066e+00    0.2208168     0.132046 -68.11 0.0009463291    2.763    0.638
       419  -8.7485    130.9973    122.9921   7.5408282155e+01   3.1655134966e+01    0.2238292    0.2205255 -38.03  0.001176005    1.012    0.012
       420  -9.2794     39.2652    123.5542   1.0357457119e+02   4.6413398674e+01    0.1806373    0.1364833  -2.17 0.0009517109    1.639    0.390
       421  -9.8468     34.2916    121.3944   1.0482101768e+02   4.7458317877e+01    0.3610753    0.1940317 -22.99 0.0007321614    2.807    0.644
       422  -9.5162     27.9784    115.9103   1.0597052969e+02   4.9420943970e+01    0.2384006    0.1689798 -55.32 0.0003198935    1.207    0.172
       423  -9.8540     20.4956    112.9447   1.0799004407e+02   5.0776033365e+01    0.2397461    0.2007375 -53.00 0.0008064086    1.079    0.073
       424 -11.1561     20.8384    108.2969   1.0709774837e+02   5.1901808228e+01    0.6113577    0.3430498 -23.73   0.00290709    2.257    0.557
       425  -9.0718     20.4578    104.0192   1.0648438393e+02   5.2982567983e+01    0.2831144    0.1311908 -47.50  0.001306412    1.869    0.465
       426 -11.4346     21.2952    119.5120   1.0876353590e+02   4.9071770166e+01    0.5997186    0.4061333  61.38  0.003199416    1.754    0.430
       427 -10.5876     13.7904    111.9844   1.1009295108e+02   5.1499553889e+01    0.6196791    0.2486854 -63.06  0.002034988    1.924    0.480
       428  -9.3206     61.9467    120.4799   9.5551877007e+01   4.4492499508e+01    0.2500305    0.1938172 -76.20 0.0003758103    1.373    0.272
       429  -9.4341    221.1575    119.8358   5.5567805161e+01   1.3300802160e+01    0.2275363    0.2158671  12.47 0.0008977529    1.202    0.168
       430 -10.1631     44.0460    119.4012   1.0124079663e+02   4.6957894735e+01    0.3800802    0.2181608  34.44  0.001335651    1.899    0.473
       431  -9.0814     93.7717    118.9352   8.5053055169e+01   3.9881856339e+01    0.2581569     0.217104  11.67  0.001088613    1.350    0.259
