#   1 NUMBER                 Running object number                                     
#   2 MAG_AUTO               Kron-like elliptical aperture magnitude                    [mag]
#   3 X_IMAGE                Object position along x                                    [pixel]
#   4 Y_IMAGE                Object position along y                                    [pixel]
#   5 X_WORLD                Barycenter position along world x axis                     [deg]
#   6 Y_WORLD                Barycenter position along world y axis                     [deg]
#   7 A_WORLD                Profile RMS along major axis (world units)                 [deg]
#   8 B_WORLD                Profile RMS along minor axis (world units)                 [deg]
#   9 THETA_WORLD            Position angle (CCW/world-x)                               [deg]
#  10 FWHM_WORLD             FWHM assuming a gaussian core                              [deg]
#  11 ELONGATION             A_IMAGE/B_IMAGE                                           
#  12 ELLIPTICITY            1 - B_IMAGE/A_IMAGE                                       
         1 -10.5067    233.9639     47.7312   1.6089143873e+01   2.0952455442e+01     0.486463    0.4033424 -30.94  0.002857378    1.323    0.244
         2  -9.9187    142.8871     17.9295   2.0913754064e+01   4.7314427208e+01    0.4775046    0.3408682  44.90  0.002552953    1.326    0.246
         3  -9.5114    119.4836     18.9765   2.6061931551e+01   5.2887721584e+01    0.4243358    0.2439039 -16.53  0.002027299    2.011    0.503
         4  -9.3477    237.9771     16.5412   8.5958603085e+00   2.4041555161e+01    0.3816175    0.2472931  17.54  0.001755352    3.341    0.701
         5  -9.6688    171.7697     12.9746   1.4817678162e+01   4.0524820864e+01    0.3396611    0.2714316  50.39  0.001644274    1.262    0.208
         6 -10.8075    165.8189      5.3494   1.3400946911e+01   4.2761748514e+01    0.5879136    0.5414374  28.35  0.003643574    1.256    0.204
         7  -9.4962    235.6811      1.9854   5.6169818873e+00   2.6170637362e+01    0.3592315    0.1806123  85.24  0.001854484    1.848    0.459
         8  -8.7095      5.2151      9.0090   6.5885968072e+01   7.2688531674e+01    0.1885565    0.1353561  -5.20  0.001400765    1.235    0.190
         9  -8.2447     79.5172      4.9763   3.0921200385e+01   6.2934294643e+01     0.179723    0.1166471 -12.92 0.0008784658    1.582    0.368
        10  -9.1408    232.3176    199.7465   5.0450417383e+01  -3.5535066556e+00    0.2916613    0.1789043  41.14  0.001552025    1.655    0.396
        11  -9.6322    248.8102    197.5409   4.7079296568e+01  -5.8720430424e+00    0.3460135    0.2301797  38.89  0.001999755    1.580    0.367
        12  -9.2243    218.9805    197.0166   5.2425498148e+01  -8.8081149006e-01    0.2284794    0.1522977   4.19  0.001153567    1.746    0.427
        13 -10.1972    199.5356    191.9471   5.5268828686e+01   3.4415626812e+00    0.3668117    0.3178765 -56.05  0.002103299    1.450    0.310
        14  -8.7099    170.7709    194.2378   6.1697096107e+01   8.4365413707e+00    0.2366497     0.107083  32.24 0.0008899439    2.470    0.595
        15  -9.3982    229.5903    189.8831   4.9045592066e+01  -1.5898822736e+00    0.2897026    0.1933799   7.74  0.001493496    1.680    0.405
        16  -9.0302    151.8379    198.3252   6.6527440474e+01   1.1218070574e+01    0.1928046    0.1805622  77.38 0.0007555569    1.161    0.138
        17  -7.6638    245.3333    182.3217   4.4709234810e+01  -3.0767183531e+00    0.1384796   0.09141091   2.57 0.0005539366    1.702    0.413
        18  -9.4414    124.4993    168.0011   6.7420750681e+01   2.2769664542e+01    0.3985822    0.2651419 -82.37  0.001709491    2.103    0.524
        19  -8.8830    125.4975    164.9997   6.6608666231e+01   2.3258292151e+01    0.3256389    0.2404936 -82.93  0.001527057    1.672    0.402
        20  -8.5092    217.2478    162.9952   4.5843714668e+01   5.1373009277e+00    0.1894917    0.1164819 -36.42 0.0008624272    1.582    0.368
        21  -8.9832    198.2840    160.5515   4.9077804834e+01   9.3607954485e+00    0.3582846    0.2005753 -49.17  0.001507162    2.015    0.504
        22  -8.8033    220.4882    153.4772   4.3156391774e+01   6.1848561231e+00    0.1443682    0.1316504  -7.43 0.0008100755    1.017    0.016
        23  -9.1822     80.8522    144.9165   7.4402012253e+01   3.5762556385e+01    0.3472921    0.2332909 -77.78  0.001662111    1.605    0.377
        24 -10.2179     56.6698    128.8337   7.8301490157e+01   4.3018551605e+01    0.5297586    0.3115675 -53.65  0.002614117    1.548    0.354
        25  -9.0963    222.9066    129.3842   3.7245670903e+01   9.9991388626e+00    0.2880086    0.2034133  74.05  0.001314551    2.048    0.512
        26 -10.1756    228.5760    124.5057   3.5117914120e+01   9.6812527329e+00    0.3498696    0.1837269 -29.46  0.001454005    1.992    0.498
        27 -11.1979    116.5868    121.3991   5.9473062404e+01   3.5106698255e+01    0.8126447    0.7222748 -39.87  0.004196126    1.140    0.123
        28  -8.4026    186.6651    118.6959   4.1663192990e+01   2.0064325677e+01    0.1595228     0.123278  10.75 0.0003009799    1.665    0.399
        29 -12.6959    243.8369    104.6890   2.8085929689e+01   9.9119864338e+00     1.623092    0.8040641 -31.97  0.006918825    1.963    0.490
        30 -10.9317    240.9493     88.8085   2.4827741977e+01   1.3131673744e+01    0.4597169     0.317414 -42.27   0.00159853    1.295    0.228
        31  -9.4586      1.4631    110.9865   9.1718792545e+01   5.2105146547e+01    0.4955189   0.07510649 -70.44  0.001648085    4.243    0.764
        32 -10.8509    228.8129    111.0493   3.1919405100e+01   1.1990493764e+01    0.5277337    0.4014474 -31.84  0.002738404    1.252    0.201
        33  -9.3349    181.2297    100.9363   3.8193929665e+01   2.4818074822e+01    0.4298931     0.298857 -18.39   0.00183203    1.828    0.453
        34 -10.2563    160.5361    100.2407   4.2557388049e+01   2.9945694832e+01    0.6555044    0.4748904 -30.90  0.002940569    1.477    0.323
        35  -8.3050     47.7608     99.9923   7.5455287058e+01   5.0967611276e+01    0.1875897    0.1000388 -59.37 0.0008860938    1.627    0.385
        36  -9.2729     13.6019     97.4822   8.6165758022e+01   5.4497996638e+01    0.4073966    0.1886746 -43.89  0.002063174    2.051    0.512
        37  -8.4211    107.4387     94.5092   5.4982022637e+01   4.2995959784e+01    0.1518894    0.1445399 -22.50 0.0001240139    1.035    0.034
        38 -10.7222    211.0669     87.4595   2.9079714560e+01   2.0106648332e+01    0.9766906    0.4051626 -38.12  0.003656751    2.267    0.559
        39  -9.1715    129.0466     84.0020   4.5740505256e+01   4.0588610162e+01    0.3248954    0.2235128 -38.50   0.00146303    1.464    0.317
        40  -9.6981     84.4677     82.4765   5.8668018358e+01   4.9820699081e+01    0.5510861    0.3661372  14.65  0.002508983    1.965    0.491
        41 -10.1914    213.7143     70.1836   2.4264629552e+01   2.2346159152e+01    0.6065364    0.3880235 -46.27  0.002882192    1.487    0.327
        42 -10.3038      6.5921     68.2113   8.3361316620e+01   6.1429378333e+01    0.3981248    0.1187189 -56.65  0.001837198    2.230    0.552
        43 -10.3824    184.0683     63.7726   2.7423154797e+01   3.0704071942e+01    0.7972497     0.505905 -20.83  0.003444884    1.968    0.492
        44 -10.7615    139.4436     64.4540   3.6971380858e+01   4.1769283068e+01    0.7164798    0.6042255  86.17  0.003498873    1.398    0.285
        45 -10.4324    250.1830     61.6760   1.7436941951e+01   1.5353992816e+01     0.709415    0.1911293 -32.92  0.002345791    3.760    0.734
        46  -9.5908     86.6848     64.2612   5.2151447123e+01   5.3111921426e+01    0.4564997    0.3752943  -3.22  0.002494314    1.256    0.204
        47  -9.4266    236.0748     60.7993   1.8905527023e+01   1.8583608463e+01    0.2570798    0.1899268  44.70  0.001370925    1.646    0.392
        48  -9.0161     20.6763     55.8605   7.4785087211e+01   6.3149121007e+01    0.4292406    0.1023883 -46.09  0.001698131    2.997    0.666
        49  -9.2122    242.9402     55.4923   1.6860400288e+01   1.7829003371e+01    0.1958034    0.1288228  70.73 0.0009050429    1.584    0.369
        50  -9.5095     95.6363     53.7098   4.5543124791e+01   5.3321542561e+01    0.4268488    0.2990945   1.41  0.002045825    1.770    0.435
        51  -8.5448    185.9809    249.0244   6.7549751045e+01  -3.1359447423e+00     0.198202    0.1315898  12.61  0.001135263    1.716    0.417
        52  -8.1329     13.5074     49.4791   7.6068066971e+01   6.4926326101e+01    0.1215497      0.09053 -39.42 0.0008097934    1.049    0.047
        53 -10.4669     81.6651     43.5109   4.6389311328e+01   5.7652403410e+01    0.6722311    0.4086046 -23.17  0.003283749    1.740    0.425
        54  -9.5018     48.6162     43.6566   5.9040021927e+01   6.2726929348e+01    0.3062802    0.2456088 -19.89  0.001935724    1.055    0.052
        55 -10.1037    140.1087     38.1259   2.8200065950e+01   4.5616215531e+01    0.5009471    0.4098396 -75.77  0.002357578    1.459    0.315
        56  -9.5703    172.4879     36.6411   2.1615070857e+01   3.7609182390e+01    0.3935441     0.300126 -42.82  0.001928237    1.363    0.267
        57  -9.3775     40.8454     33.2670   5.8365349392e+01   6.5462361202e+01    0.4172998    0.1795898 -43.13  0.002023711    2.111    0.526
        58 -10.8134    199.3961     45.0885   1.9848660810e+01   2.9633429318e+01    0.7834977     0.491264 -36.52  0.003782947    1.603    0.376
        59  -9.4626    179.9900     28.0207   1.7963201635e+01   3.6767587226e+01    0.3578544    0.2787708 -45.59  0.001696862    1.326    0.246
        60  -9.1794    181.7613     24.9864   1.6855567952e+01   3.6675778679e+01    0.3110905    0.2500327 -75.71  0.001732474    1.239    0.193
        61  -9.6436    109.0073     25.0104   3.0887584560e+01   5.4621555780e+01    0.3163362    0.1971998  32.92  0.001561088    1.608    0.378
        62  -8.5430     65.6843     24.3495   4.4340336856e+01   6.3260809281e+01    0.1724854    0.1581206 -74.19  0.001036054    1.735    0.424
        63  -9.8404    220.9264    220.5526   5.6369403422e+01  -4.7324144132e+00    0.4560707     0.201584  27.57  0.002001967    2.428    0.588
        64  -9.8169    190.9517    218.3257   6.1771075505e+01   6.0723827104e-01     0.426393    0.3481721  40.02  0.002590731    1.184    0.155
        65  -9.8917    213.9957    218.2067   5.7264763836e+01  -3.2690997301e+00    0.4760868     0.155928  42.87  0.001866135    2.916    0.657
        66  -9.5227    203.0224     18.1318   1.2371433233e+01   3.2127210950e+01    0.3090722    0.2633244  64.19  0.001353156    1.203    0.169
        67  -9.3721     29.8541    217.3480   9.4590419567e+01   2.5882528847e+01      0.20025    0.1490473  -6.64  0.001167284    2.924    0.658
        68 -10.0507    208.7471    213.2235   5.7390522549e+01  -1.6462680854e+00    0.4497546     0.194911  36.71   0.00200471    2.080    0.519
        69 -10.8547    198.6454    207.2489   5.8301749971e+01   1.0429264273e+00    0.5485507    0.2997178  35.55  0.002656224    1.657    0.397
        70  -8.3365    224.8184    203.6246   5.2572846874e+01  -2.8924462488e+00    0.1849667    0.1147906  46.10 0.0007436245    1.787    0.440
