#   1 NUMBER                 Running object number                                     
#   2 MAG_AUTO               Kron-like elliptical aperture magnitude                    [mag]
#   3 X_IMAGE                Object position along x                                    [pixel]
#   4 Y_IMAGE                Object position along y                                    [pixel]
#   5 X_WORLD                Barycenter position along world x axis                     [deg]
#   6 Y_WORLD                Barycenter position along world y axis                     [deg]
#   7 A_WORLD                Profile RMS along major axis (world units)                 [deg]
#   8 B_WORLD                Profile RMS along minor axis (world units)                 [deg]
#   9 THETA_WORLD            Position angle (CCW/world-x)                               [deg]
#  10 FWHM_WORLD             FWHM assuming a gaussian core                              [deg]
#  11 ELONGATION             A_IMAGE/B_IMAGE                                           
#  12 ELLIPTICITY            1 - B_IMAGE/A_IMAGE                                       
         1 -14.2008    216.7032     27.9180   4.1318229655e+01   2.7566425134e+01     1.634162     1.101799  28.73  0.008102232    2.260    0.558
         2 -13.6021    235.1447      9.8363   3.5396981586e+01   2.5405664187e+01    0.7602911    0.6227652 -64.66  0.002627312    1.044    0.042
         3 -10.2822      1.9985      2.9615   9.2867199833e+01   7.4124639942e+01    0.2047208      0.11332 -38.98  0.001334392    1.446    0.308
         4 -15.1536     38.3336    200.2724   1.2002939750e+02   2.8094169281e+01     2.312634     1.299634  62.46  0.009761199    1.612    0.380
         5 -15.3892     92.5131    247.4829   1.1356161076e+02   1.1782154897e+01     8.101853     2.351925  36.25   0.03263661    3.241    0.691
         6 -10.8915    193.1140    194.3714   8.5355671912e+01   4.4894688706e+00    0.6136177    0.3083755 -52.95  0.002483323    2.930    0.659
         7 -11.8198     57.2178    182.0873   1.1410855683e+02   2.9882052115e+01    0.3924488      0.26723 -38.90  0.002081551    2.069    0.517
         8 -11.6663     62.9995    176.1495   1.1204066415e+02   3.0505156369e+01    0.2750477    0.2440803 -56.35 0.0005403887    1.276    0.216
         9 -11.2989    101.2346    171.3721   1.0202500869e+02   2.5924044663e+01    0.7187349    0.1618091  45.69  0.001977243    4.694    0.787
        10 -12.9957     58.1568    132.6449   1.0688960671e+02   4.1601688529e+01      3.54699     1.010623 -71.77  0.006517894   11.504    0.913
        11 -13.0917     67.8094    144.1021   1.0613936046e+02   3.7532982806e+01    0.8428015    0.5794948  80.55  0.002381759    1.705    0.413
        12 -11.2156     73.4548    165.9927   1.0810110047e+02   3.1465586031e+01    0.2614678    0.2280716 -62.47   0.00042715    1.167    0.143
        13 -13.2908     60.1290    162.4839   1.1095394713e+02   3.4093704162e+01    0.5119194    0.2990327 -45.52  0.001532421    2.015    0.504
        14 -12.1509    173.7270    220.8283   9.3961862217e+01   3.4363051742e+00    0.5918985    0.2605581  25.62  0.002231353    3.160    0.684
        15 -10.1637    134.2159    146.9315   8.8981545378e+01   2.5490284697e+01    0.5214559    0.1285816 -52.29  0.001307879    4.859    0.794
        16  -9.5046     99.1780    140.9847   9.6934894909e+01   3.3453030014e+01     0.313031    0.2117122 -21.67  0.001316071    2.240    0.554
        17 -11.9361     83.8854    143.1010   1.0154530566e+02   3.5441109331e+01    0.2961974    0.2533832 -57.25  0.000432936    1.126    0.112
        18 -11.1488     30.2202    142.9440   1.1613270271e+02   4.2108818356e+01    0.3088194    0.1923651 -35.85  0.001520622    2.122    0.529
        19 -10.3256     95.8680    144.6596   9.8574428834e+01   3.3131097528e+01    0.3268123    0.2842458 -32.33 0.0007676347    1.288    0.224
        20 -12.8601     19.2460    219.8076   1.2512746764e+02   2.6091163180e+01    0.5964378    0.4079619  58.69   0.00155474    1.196    0.164
        21  -9.1707     81.5251    137.5178   1.0113771276e+02   3.7165720681e+01    0.1456405    0.1340177 -81.07 -2.552119e-05    1.040    0.039
        22 -10.6241     72.4680    134.1027   1.0305163811e+02   3.9337765788e+01    0.2400416    0.1924617  70.83  0.001276754    1.361    0.266
        23 -10.6637    107.0652    131.8084   9.2785171241e+01   3.4247349926e+01     0.426426    0.3685754  62.54  0.001508064    1.234    0.190
        24 -10.6314     94.9922    128.6654   9.5481151710e+01   3.7139827249e+01    0.3009342    0.2528189 -17.39 0.0004233473    1.416    0.294
        25  -9.7991    160.4834    127.0989   7.7825813855e+01   2.4282510727e+01    0.2631972     0.228006  77.49  0.001245235    1.366    0.268
        26  -9.9278    114.8230    126.0265   8.9291341157e+01   3.4149743907e+01     0.262124    0.1769082 -24.47  0.001084177    1.983    0.496
        27  -9.6253    105.7532    120.2843   9.0452891586e+01   3.7220919936e+01    0.2092931     0.200821 -80.72  0.000474197    1.071    0.067
        28 -14.8886      8.9436    207.7848   1.2634828033e+02   2.9505573334e+01     2.921989        1.139 -56.93   0.01263293    3.165    0.684
        29  -9.4515    168.2627    113.1655   7.2431132741e+01   2.5409415951e+01    0.2883921    0.2114158  83.12  0.001165158    1.999    0.500
        30 -10.1368     35.8023    112.0365   1.1000031318e+02   4.9086498892e+01    0.2404463    0.1332261  52.12 0.0005968048    2.250    0.556
        31  -9.6185    204.7848    110.7729   6.4296553082e+01   1.7487217663e+01    0.3657485     0.188594  36.84   0.00139361    2.404    0.584
        32 -13.0266     80.0048    158.4976   1.0527194236e+02   3.2304432232e+01     1.503183     0.772621  61.42  0.001664746    2.652    0.623
        33 -12.9463     27.9250    210.8301   1.2291868883e+02   2.7007325636e+01    0.4310298    0.3321218 -50.05 0.0009342351    1.803    0.445
        34 -10.5113     13.1942     60.1729   1.0740111691e+02   6.2772803242e+01    0.1908521    0.1322341 -42.12 0.0005172531    1.161    0.139
        35 -12.8885    205.9851     36.1336   4.4635719548e+01   2.9113760081e+01    0.5584883    0.3923995  49.20  0.001966044    1.565    0.361
        36 -13.7844      5.7276    185.3614   1.2564243535e+02   3.4507133552e+01     1.903691    0.8261784 -81.20  0.002217729    1.887    0.470
        37 -10.1408      2.0000     19.9782   1.0036294980e+02   7.1322284877e+01    0.1850111   0.05120594 -53.98 0.0008058452    2.966    0.663
        38 -16.0440      8.9967    239.8200   1.2794450817e+02   2.3297735329e+01     11.89852     2.547309 -77.73   0.05189483    4.159    0.760
        39  -9.7489    189.6013     15.2341   4.1067284804e+01   3.5598821721e+01    0.1696129    0.1324866  -9.12 0.0009426086    1.605    0.377
