#   1 NUMBER                 Running object number                                     
#   2 MAG_AUTO               Kron-like elliptical aperture magnitude                    [mag]
#   3 X_IMAGE                Object position along x                                    [pixel]
#   4 Y_IMAGE                Object position along y                                    [pixel]
#   5 X_WORLD                Barycenter position along world x axis                     [deg]
#   6 Y_WORLD                Barycenter position along world y axis                     [deg]
#   7 A_WORLD                Profile RMS along major axis (world units)                 [deg]
#   8 B_WORLD                Profile RMS along minor axis (world units)                 [deg]
#   9 THETA_WORLD            Position angle (CCW/world-x)                               [deg]
#  10 FWHM_WORLD             FWHM assuming a gaussian core                              [deg]
#  11 ELONGATION             A_IMAGE/B_IMAGE                                           
#  12 ELLIPTICITY            1 - B_IMAGE/A_IMAGE                                       
         1 -13.6563    224.6208     26.4299   3.8015296032e+01   2.6168053227e+01      1.13049     0.776356  33.07  0.002687978    2.222    0.550
         2 -12.6686    217.6509     31.1720   3.9838254334e+01   2.7184217747e+01    0.8279193    0.3626049 -38.45  0.003785539    2.106    0.525
         3 -12.4619      2.3734      9.2231   9.4819127966e+01   7.3150044811e+01     1.445721     0.138592 -51.30  0.004059746    8.232    0.879
         4 -11.7819      8.1840      4.1849   8.8871086415e+01   7.3509268296e+01    0.3557309    0.1938528 -42.57  0.002221105    1.733    0.423
         5 -13.2013    245.9110      6.4482   3.1950259630e+01   2.3801001472e+01    0.6977714    0.4729226 -62.88  0.002556187    1.219    0.179
         6  -9.5868    192.6485    193.3154   8.2198592720e+01   4.8170525362e+00     0.133352    0.1130514  71.69 0.0007046682    1.733    0.423
         7 -14.9237    109.9948    228.7157   1.0577603620e+02   1.2335467375e+01     14.34274          nan  39.81    0.0315354    8.463    0.882
         8 -11.2649     51.8278    182.6787   1.1353370547e+02   3.0369215400e+01    0.3315647    0.2424143 -43.38  0.001291932    1.708    0.415
         9 -11.3035     58.5646    176.1872   1.1114319998e+02   3.1059469142e+01    0.2744572    0.2503838 -34.52 0.0006423107    1.355    0.262
        10 -15.0137     96.8062    246.9689   1.1050015128e+02   1.0952629888e+01     10.73363     0.556506  37.12   0.02272166   10.509    0.905
        11 -10.6231     69.8941    165.9220   1.0688990909e+02   3.2021622938e+01    0.2423925    0.2393432  34.73 0.0003598413    1.163    0.140
        12 -12.8079     55.9624    162.5923   1.1006877477e+02   3.4629989369e+01    0.5110354    0.3094291 -43.30  0.001491881    1.971    0.493
        13 -12.2416     77.5247    158.4339   1.0371499622e+02   3.2758994439e+01    0.7715917    0.5231801  58.23  0.003793035    1.582    0.368
        14 -12.3123     34.5978    158.7395   1.1514436563e+02   3.7922607973e+01     0.606754     0.292857  69.39  0.002599051    2.661    0.624
        15 -12.7311     67.9804    143.9910   1.0396659099e+02   3.7645892438e+01    0.7468997    0.4905704  63.08  0.003045726    1.795    0.443
        16 -11.5969     44.0031    144.4573   1.1082873997e+02   4.0429899719e+01    0.4124423    0.2164697  84.04  0.001711006    2.613    0.617
        17 -10.0266     93.5647    144.8099   9.6843743510e+01   3.3595337528e+01    0.2857392    0.2405214  60.42 0.0007707982    1.243    0.196
        18 -11.7084     81.2387    143.0986   1.0001587538e+02   3.5965812437e+01    0.3125031    0.2751105 -52.80 0.0006047228    1.120    0.107
        19  -9.0880     96.9438    141.2237   9.5169764428e+01   3.3902032071e+01    0.2418425    0.1766387  -4.61  0.001068425    1.971    0.493
        20 -11.2604     34.9479    139.8554   1.1274390487e+02   4.2474674449e+01    0.2257458    0.1824334  42.42  0.001097599    1.350    0.259
        21 -12.9902     57.9362    132.9992   1.0500858864e+02   4.1666492685e+01     1.053241    0.4593221 -78.00  0.003523558    3.585    0.721
        22 -10.3505     93.2018    129.0161   9.3665516768e+01   3.7502933822e+01    0.2877828    0.2447434 -23.78 0.0005919922    1.307    0.235
        23  -9.2542    104.7176    120.3027   8.8231766651e+01   3.7554479330e+01    0.2023159    0.1739048 -14.54 0.0004790112    1.297    0.229
        24 -11.2577     32.9000    116.0112   1.0985166569e+02   4.8504965210e+01    0.3693953    0.1642563 -79.89  0.001449848    2.802    0.643
        25 -15.4837      8.3581    207.8208   1.2498826305e+02   2.9328223565e+01     3.882924     1.286662 -63.12   0.01788624    2.929    0.659
        26 -10.4360    106.4999    131.9258   9.0439232099e+01   3.4459879048e+01    0.3605067     0.326042 -42.00  0.001037702    1.105    0.095
        27 -10.5736     52.3977     89.8823   9.7889070466e+01   5.2771761247e+01    0.2533458    0.2028248   7.07 0.0008097418    1.373    0.272
        28 -10.3375     59.0423     78.4812   9.2400665319e+01   5.4517576429e+01    0.3378612    0.1410615 -38.07   0.00129097    2.542    0.607
        29 -12.1461     43.4377    216.3173   1.1853207424e+02   2.3956007544e+01    0.4598155    0.2421682  80.63  0.002191314    1.976    0.494
        30 -11.0307     13.0270     60.4942   1.0618420978e+02   6.2799703037e+01    0.2547744    0.1251193 -46.90 0.0008219943    1.564    0.361
        31  -9.4945    250.0000    248.9551   8.1082701092e+01  -1.1823548421e+01    0.1672911   0.05718633 -33.28 0.0008035447    2.950    0.661
        32 -13.0314     20.3941    211.1164   1.2281553982e+02   2.7510596858e+01    0.5248559    0.4742771  26.89  0.001249904    1.498    0.332
        33 -14.7004     29.3615    202.8981   1.2041857473e+02   2.8345447092e+01     1.540859     1.366011 -45.07  0.007871466    1.536    0.349
        34 -15.9011      5.9829    242.4480   1.2709513961e+02   2.2752928356e+01     14.23853    0.8574818 -77.01   0.03847852   10.801    0.907
