#   1 NUMBER                 Running object number                                     
#   2 MAG_AUTO               Kron-like elliptical aperture magnitude                    [mag]
#   3 X_IMAGE                Object position along x                                    [pixel]
#   4 Y_IMAGE                Object position along y                                    [pixel]
#   5 X_WORLD                Barycenter position along world x axis                     [deg]
#   6 Y_WORLD                Barycenter position along world y axis                     [deg]
#   7 A_WORLD                Profile RMS along major axis (world units)                 [deg]
#   8 B_WORLD                Profile RMS along minor axis (world units)                 [deg]
#   9 THETA_WORLD            Position angle (CCW/world-x)                               [deg]
#  10 FWHM_WORLD             FWHM assuming a gaussian core                              [deg]
#  11 ELONGATION             A_IMAGE/B_IMAGE                                           
#  12 ELLIPTICITY            1 - B_IMAGE/A_IMAGE                                       
         1 -11.7257     42.4873     21.3082   7.9411235104e+01   6.7282880263e+01    0.4931706    0.3224753  35.85  0.001791203    1.673    0.402
         2 -10.1074     46.5411     16.9588   7.5541486772e+01   6.7332629961e+01    0.2620666    0.1462201 -19.74 0.0009971991    1.756    0.431
         3 -12.2419    216.6859     13.7432   3.7381428919e+01   2.9766326236e+01    0.4006748     0.380208 -74.55 0.0008004906    1.172    0.147
         4 -12.0731    191.0903      9.3977   3.8828741446e+01   3.6274443538e+01    0.3136459     0.212404  80.69  0.001270195    1.348    0.258
         5 -11.6968     43.7363      8.4560   7.2569494629e+01   6.8830229863e+01    0.2625914     0.193387  27.86 0.0006496524    1.294    0.227
         6 -10.4543    109.5081      8.5186   5.1269127665e+01   5.6156427653e+01     0.131742    0.1156631  42.66 0.0008102272    1.024    0.023
         7 -11.7155     57.4199      6.4263   6.5834766972e+01   6.6890130110e+01    0.3881009      0.35303  44.18  0.002036556    1.456    0.313
         8 -11.8706    186.0022      4.1580   3.7983709033e+01   3.8013004860e+01    0.3048977    0.2045622 -67.12  0.001686366    1.496    0.332
         9 -11.0456    166.1488      1.4909   3.9476082108e+01   4.3101334301e+01    0.2964832    0.1083644  67.83 0.0004386536    2.297    0.565
        10 -10.9187     95.7635    224.7102   1.0970981565e+02   1.5283113934e+01    0.3169788    0.1798523  59.09  0.001635201    1.788    0.441
        11 -10.7030    149.4852    223.5277   9.8383537249e+01   7.0307448806e+00    0.2130784    0.1296235 -65.11  0.001035448    2.370    0.578
        12  -9.9138      2.5139    240.4626   1.2839846131e+02   2.3445754700e+01     0.106812   0.07315525  69.92 0.0003417718    1.022    0.021
        13 -11.4316    226.8350    221.5571   8.2838601661e+01  -5.0146065727e+00    0.2238029    0.1651829 -47.20  0.001333142    1.916    0.478
        14 -10.3655    211.5611    218.3050   8.5115140305e+01  -2.2279980006e+00    0.2217725    0.1200047 -41.83   0.00112519    2.084    0.520
        15 -11.3723    239.8257    215.4332   7.9415679465e+01  -6.0618006698e+00    0.3787997    0.1299793 -37.68  0.001642182    2.923    0.658
        16 -10.1515    233.3130    219.6723   8.1333410658e+01  -5.7022352752e+00    0.1037806    0.1017298  62.91 0.0005435718    1.668    0.401
        17  -9.9307    236.5831    210.2253   7.9047736960e+01  -4.8644835139e+00    0.1719071    0.1040593 -20.65 0.0009428451    1.584    0.369
        18 -10.8435    115.9178    209.3775   1.0349185049e+02   1.5215629657e+01     0.305735    0.1810266 -70.26   0.00147071    2.096    0.523
        19 -10.8015     49.3904    202.0226   1.1710187558e+02   2.6242768548e+01    0.3423305     0.142575  57.09  0.001542884    2.448    0.592
        20 -10.4214    149.4838    198.9722   9.4493645318e+01   1.1594237932e+01    0.1898518    0.1255239 -79.83  0.000810357    2.624    0.619
        21 -10.1099      2.4886    199.5110   1.2645959072e+02   3.1544781817e+01    0.1889892   0.07276448  45.11  0.001023927    2.221    0.550
        22 -10.2776    112.7617    198.1734   1.0258608286e+02   1.8044278884e+01    0.2417548    0.1369129  70.55 0.0009577659    2.838    0.648
        23  -9.7385    172.0107    196.4612   8.9173257362e+01   8.0636437686e+00    0.2208437    0.1279083  37.77  0.001033965    1.604    0.376
        24  -9.8062    133.3844    196.1604   9.7608608707e+01   1.4979163695e+01    0.1911625     0.133706 -68.81 0.0009453885    1.740    0.425
        25 -12.2839    159.8210    191.8049   9.0962923929e+01   1.1143018007e+01    0.7233691    0.5195849  83.02  0.002846747    2.360    0.576
        26 -10.0591     94.6608    186.9782   1.0512923877e+02   2.3383190356e+01    0.2240997    0.1107634 -85.94 0.0007048853    4.348    0.770
        27 -10.2629     34.4983    187.0121   1.1895602004e+02   3.1247391876e+01    0.1868238   0.08507678  79.39 0.0008105267    2.607    0.616
        28 -10.5953    183.3169    183.3002   8.4280649262e+01   8.4566484910e+00     0.391597    0.1913727 -43.02  0.001658138    2.112    0.527
        29  -9.8780    215.3351    194.0062   7.9931514250e+01   9.4025478780e-01    0.2041912    0.1062694 -56.71 0.0007051987    4.380    0.772
        30 -10.3898    224.0190    183.4327   7.6213152921e+01   1.2004795642e+00    0.2028698    0.1511767 -28.77  0.001139308    1.259    0.206
        31  -9.6338     12.6462    176.3300   1.2287727176e+02   3.5749876430e+01    0.1311618   0.06945395  66.42  0.000704611    1.778    0.438
        32  -9.9000    105.8042    175.2040   1.0062311953e+02   2.4265493296e+01    0.2515753    0.1457761  72.87 0.0009521093    2.832    0.647
        33 -10.7647     34.0226    173.0110   1.1774468328e+02   3.4510005510e+01    0.2152687    0.1260357  70.04  0.001138071    1.710    0.415
        34 -11.5269     45.0317    170.3576   1.1484847384e+02   3.3950901588e+01    0.5653105    0.2707776 -86.32  0.002480828    2.352    0.575
        35 -11.4422     55.3336    167.8469   1.1203034511e+02   3.3341158896e+01    0.5192587    0.2724188  87.84  0.002244176    2.395    0.582
        36 -10.9142    121.4443    169.3031   9.5749327109e+01   2.2905685424e+01    0.3573911    0.2406878 -89.41  0.001523406    2.212    0.548
        37 -10.2602     79.6547    163.9766   1.0535257016e+02   3.1011455421e+01    0.2351409    0.1125165 -86.03 0.0007049912    4.415    0.774
        38 -10.6724     52.1502    160.2795   1.1185389752e+02   3.5542035681e+01    0.2614263    0.1526337  79.51   0.00122062    2.015    0.504
        39 -11.3275     22.3001    159.3576   1.1919036028e+02   3.8841432647e+01    0.3194214    0.2116084  88.29  0.001346748    1.320    0.242
        40 -11.5710    106.1609    157.7711   9.7447662888e+01   2.8274607908e+01    0.5925933    0.3855853  79.83  0.002461376    2.291    0.564
        41 -10.9985    167.5157    156.8307   8.2238932875e+01   1.6749230570e+01    0.3824831    0.2780941 -67.39  0.001726186    1.846    0.458
        42  -9.9644     81.3401    154.6719   1.0339873686e+02   3.3013576088e+01    0.1523589    0.1043385  72.56 0.0003712776    1.736    0.424
        43 -11.3507    118.5294    157.4840   9.4219260350e+01   2.6150267982e+01    0.4020671    0.3245175 -50.64  0.001111235    1.242    0.195
        44  -9.5235     40.5839    153.2114   1.1391772235e+02   3.8547575848e+01     0.179322    0.1053134 -61.11 0.0004363356    1.513    0.339
        45 -10.3724    189.8740    150.7371   7.6001441884e+01   1.3441224265e+01       0.2884    0.2002758 -65.98   0.00124308    2.131    0.531
        46 -10.5519    218.5643    156.2507   7.1544011289e+01   6.8017180494e+00    0.2830466    0.1275051 -41.95    0.0011468    2.150    0.535
        47 -11.1659    107.6725    145.9728   9.4731698805e+01   3.0822544703e+01    0.6568679    0.3460623  66.46  0.002033244    3.990    0.749
        48 -10.4052     55.8105    146.0026   1.0886957178e+02   3.8592961444e+01     0.238435    0.1447529  79.93  0.001086517    2.051    0.512
        49 -10.4432    148.6830    145.1142   8.4038524953e+01   2.3104424680e+01    0.2531117    0.1994311 -67.82  0.001062462    1.498    0.332
        50 -10.1268    181.9831    141.9629   7.5660166408e+01   1.6813616730e+01    0.2426701    0.1947831 -82.81  0.001135759    1.740    0.425
        51 -10.3807     22.7946    138.1900   1.1678406984e+02   4.3873370589e+01    0.2254082    0.1053353  66.38 0.0009531216    2.847    0.649
        52 -11.9162     99.9697    128.9226   9.3190359413e+01   3.6283807402e+01     0.910948     0.536665  76.62  0.002956994    3.791    0.736
        53 -10.2677    132.0047    131.2966   8.5003966380e+01   2.9630705781e+01    0.3325088     0.204101 -73.25  0.001182446    2.758    0.637
        54 -10.7652     83.0369    131.5099   9.8603445766e+01   3.8440013788e+01     0.387772    0.2392985 -84.94   0.00156596    2.382    0.580
        55 -10.2158    118.2873    126.1480   8.7427001475e+01   3.3555967300e+01    0.3509018    0.1749446  59.94  0.001097214    3.482    0.713
        56 -10.3669     58.9889    124.6941   1.0434997738e+02   4.3477663084e+01    0.2977134    0.1687728  89.30  0.001169662    2.752    0.637
        57 -11.2102     43.1342    121.8832   1.0862396608e+02   4.5979295555e+01    0.7808469    0.3541819 -85.69  0.002632802    3.913    0.744
        58 -11.3280     27.3614    121.0823   1.1322835690e+02   4.7656512292e+01    0.6291034    0.2793579  85.40  0.002177737    4.105    0.756
        59 -11.3155     15.1813    121.0622   1.1680615576e+02   4.8602170680e+01    0.3614043    0.2613019 -31.09 0.0006144266    1.659    0.397
        60 -10.1529      1.9006    123.0627   1.2080931295e+02   4.8970942048e+01     0.181344    0.1371167 -71.64 0.0003188974    1.054    0.051
        61 -11.5046    193.1557    118.5960   6.7664523192e+01   1.9024606573e+01     0.553147    0.4230174 -73.72  0.001735352    1.753    0.429
        62 -10.1934     70.6743    119.8447   9.9843542751e+01   4.3129233312e+01    0.3148321     0.180289 -86.06  0.001159581    3.011    0.668
        63 -11.1531    140.8085    117.4174   7.9255672272e+01   3.0906202187e+01    0.4809538    0.2995403 -44.07  0.002030148    1.575    0.365
        64 -10.6192    108.4010    112.6257   8.6836411569e+01   3.8615205153e+01    0.6104321    0.2824414 -63.05  0.001878291    3.527    0.716
        65 -10.8271     78.6763    112.6946   9.5790622628e+01   4.3701920830e+01    0.4568379    0.2757867  86.61  0.001602125    3.467    0.712
        66 -12.5320    160.3100    111.4587   7.2916167017e+01   2.7852682337e+01    0.8182059    0.5176822 -68.54  0.003042394    2.529    0.605
        67 -11.0599    174.1364    110.8373   6.9638440904e+01   2.4828163751e+01     0.393092    0.2843445 -54.19  0.001026553    1.491    0.329
        68 -10.4550     91.8763    111.2492   9.1386909313e+01   4.1918749905e+01    0.3774203    0.1967099 -60.01  0.001478302    2.100    0.524
        69 -11.4772     14.6550    109.2646   1.1536979852e+02   5.1475459722e+01    0.6227551    0.3391197 -85.43  0.003157777    1.882    0.469
        70 -12.6895    141.3436    105.3157   7.5877094881e+01   3.3412650231e+01     0.529346    0.3989681  64.72  0.002395789    1.578    0.366
        71 -12.0327     44.5793    100.7854   1.0416401774e+02   5.0972160504e+01    0.6757035    0.3950461 -86.26  0.002928711    2.511    0.602
        72 -11.3809    120.4929    108.9658   8.2438543398e+01   3.7068795003e+01     0.374659    0.2658027 -80.92  0.001445479    2.161    0.537
        73 -11.9721    127.8115    100.9426   7.8216327414e+01   3.7307546998e+01    0.5984119     0.282673 -53.71  0.002080795    2.525    0.604
        74 -11.8080    115.8492    102.3275   8.1935495690e+01   3.9497796835e+01    0.4257183    0.2105151  39.81  0.001623599    2.115    0.527
        75 -11.7620    107.8886     99.0752   8.3340971268e+01   4.1802717382e+01    0.7429997    0.4962268 -78.02  0.002889726    2.556    0.609
        76 -10.7964     94.6440     97.1193   8.6816777922e+01   4.4717605235e+01    0.3441024    0.1860026 -58.82  0.001348462    2.160    0.537
        77 -11.2015     62.7600     95.1886   9.6719036830e+01   5.0143796240e+01    0.5149437    0.2109831 -69.08  0.001408708    5.326    0.812
        78 -12.4304    170.0237     90.8965   6.5121988639e+01   2.9671904166e+01     0.405422    0.3453737 -47.76 0.0005268548    1.166    0.142
        79 -10.6377     20.7852     99.8348   1.1193392074e+02   5.3304237519e+01    0.6043274    0.2703685  82.86  0.001830277    5.923    0.831
        80 -10.8450     34.2091     87.9125   1.0498003139e+02   5.5032272887e+01    0.5403939    0.1720064 -63.59  0.001996309    2.931    0.659
        81 -10.6860     86.5888     87.0548   8.6516173198e+01   4.8374873971e+01    0.4281982    0.2829745 -87.03  0.001583315    3.282    0.695
        82 -11.0425     45.4635     82.0698   9.9499045308e+01   5.5261760623e+01    0.2781761    0.2229536 -63.59 0.0009479916    1.255    0.203
        83 -10.8573    104.7360     83.3042   7.9648484454e+01   4.5829264667e+01    0.3796884    0.2846917 -80.64  0.001687112    2.044    0.511
        84  -9.9561    140.6022     82.7891   6.9554735501e+01   3.8167722692e+01    0.2327211    0.1419513 -48.55 0.0009612116    1.737    0.424
        85 -10.8336     24.2062     80.1379   1.0692342404e+02   5.7660382134e+01    0.3633381    0.1952168 -79.40  0.001668624    2.422    0.587
        86  -9.6128    152.2245     78.6052   6.5507524515e+01   3.6216746475e+01    0.2285769     0.137314  39.87 0.0005928994    1.799    0.444
        87  -9.6606      1.4779     78.4634   1.1499003145e+02   5.9411457206e+01    0.1231366   0.09269209 -57.35 9.328107e-05    1.027    0.026
        88 -11.1297     62.4787     70.5172   8.9901536265e+01   5.5693491026e+01    0.3008347    0.1248306 -49.11  0.001217893    2.192    0.544
        89 -11.2280     82.3463     73.2073   8.3681240944e+01   5.2049160195e+01    0.4572124    0.2786838 -70.53  0.001677156    3.372    0.703
        90  -9.9081    116.0024     73.0024   7.3057520320e+01   4.5562127538e+01    0.3017116    0.1927472 -81.96 0.0009583192    4.127    0.758
        91 -10.8990     51.9103     70.9969   9.4023189295e+01   5.6973785498e+01    0.2607655    0.1878554 -55.23  0.000702974    1.362    0.266
        92 -10.2977    197.3377     67.4161   5.3530431413e+01   2.7189305293e+01    0.3241114    0.1679189  53.87 0.0009111195    1.958    0.489
        93 -11.7683    238.9027     65.0269   4.7107387073e+01   1.8094108487e+01    0.3842653    0.2334035 -68.65  0.001838937    1.986    0.497
        94 -11.2188      8.6062     56.2718   1.0759453825e+02   6.3944193260e+01     0.472874    0.3585743 -89.73   0.00300077    1.742    0.426
        95 -11.4601     42.3449     62.9324   9.5340312912e+01   5.9787839966e+01    0.3566863    0.2559812   4.57  0.001163573    1.536    0.349
        96 -11.7983     21.1382     51.4666   1.0081594150e+02   6.4122813657e+01    0.6029416    0.3075041 -53.86  0.003220304    1.633    0.387
        97 -10.9423     29.4132     52.2210   9.7418365565e+01   6.3278155615e+01    0.3300777    0.2236124  -0.27  0.001824293    1.604    0.376
        98 -13.2358     29.8258     59.7679   9.9535086817e+01   6.1685655948e+01     1.080254    0.6006768  24.29  0.002747013    2.025    0.506
        99 -11.2371    231.0920     59.2316   4.6692612381e+01   2.0643110980e+01    0.2568767    0.2385993 -53.23  0.000683946    1.086    0.079
       100 -11.6564     18.9396     59.7076   1.0408733831e+02   6.2564196398e+01    0.3726215    0.2344103 -26.43  0.001174129    1.556    0.357
       101 -10.0060    119.3285     56.6635   6.6660565724e+01   4.7749113216e+01    0.1485928    0.1182556 -74.96  0.000384107    1.728    0.421
       102 -10.1556     54.3513     54.5463   8.7746847485e+01   6.0029360232e+01     0.252753    0.1176092 -58.40 0.0009481898    3.319    0.699
       103 -10.1959    161.9572     53.4491   5.5800444090e+01   3.8048461574e+01    0.2248549    0.1416101  60.05 0.0004442461    1.557    0.358
       104 -10.2189     39.4476     52.9481   9.3343410324e+01   6.2137819641e+01    0.1935792    0.1101656 -47.62 0.0003610093    1.532    0.347
       105 -10.7297    148.9776     51.9698   5.7969001585e+01   4.1477597459e+01    0.1806867    0.1700436  53.43 0.0005408247    1.029    0.028
       106 -10.3116     92.1962     50.8252   7.2603554220e+01   5.4443644916e+01     0.313747   0.09822952 -43.09  0.001026572    3.460    0.711
       107 -10.4333    154.3335     47.5612   5.5470867805e+01   4.0807037314e+01    0.2634413    0.2255028  -4.85 0.0007030967    1.316    0.240
       108 -10.6475     10.3025     44.0032   1.0350375527e+02   6.6376506334e+01    0.2448698    0.1643445  13.68 0.0009120865    1.691    0.409
       109 -11.0940      5.7885     42.4070   1.0515009013e+02   6.6955122472e+01    0.3231314    0.2231805 -82.73  0.001932393    2.087    0.521
       110 -11.6117     74.3327     43.0157   7.5743021911e+01   5.9031521318e+01     0.412752    0.2032829  43.73  0.001760083    2.131    0.531
       111 -12.0668     41.0964     37.7891   8.7106055435e+01   6.4793763410e+01     0.589886    0.3414247  17.21  0.002599961    1.877    0.467
       112 -11.4629    120.5008     34.5297   5.8504319474e+01   5.0764364384e+01    0.2881036    0.2398213  41.66 0.0005740645    1.113    0.101
       113 -10.0077    109.3940     31.7373   6.0288045775e+01   5.3656362287e+01    0.2473637     0.168531  64.48 0.0007370939    1.676    0.403
       114 -10.1511     73.1293     32.3194   7.1825227112e+01   6.0899449395e+01    0.2559983    0.1750505  69.60  0.001155262    2.955    0.662
       115 -10.5814    103.8279     30.4250   6.1288172816e+01   5.5052600646e+01    0.4222472    0.1586041  57.10  0.001532817    2.880    0.653
       116 -11.1874    218.5135    247.0112   8.8568689725e+01  -7.1981232206e+00    0.2775654    0.1451807 -40.30  0.001551325    2.304    0.566
       117  -9.7291     69.7465    245.6083   1.1684323054e+02   1.4950982391e+01    0.1655457   0.08337508  48.37 0.0009349465    1.582    0.368
       118 -10.9485    239.5081     20.5291   3.6933829910e+01   2.3900798630e+01    0.2590105    0.1875634 -78.32 0.0006707999    1.253    0.202
       119 -11.2278    203.6565     21.3357   4.0552460602e+01   3.1973823162e+01    0.2205501    0.1348837 -65.45 0.0009540469    1.697    0.411
       120 -12.2065     21.7502    238.7630   1.2505476431e+02   2.1866359944e+01    0.4921851     0.207146  68.41  0.002708362    2.160    0.537
       121 -10.2729    223.0125     16.2933   3.7405867435e+01   2.8038769876e+01    0.2622249    0.1653124  78.90  0.001136529    1.500    0.333
       122  -9.9928     89.5710     18.2879   6.0432223691e+01   5.9533270548e+01    0.2701728    0.1655188  67.47  0.001280554    2.270    0.559
       123 -10.2162     65.9906     11.3484   6.5029473679e+01   6.4859873123e+01    0.2472039    0.0939276  41.58   0.00109344    2.350    0.574
       124 -10.1214    109.1025    232.5538   1.0788180135e+02   1.1803437214e+01    0.1935294    0.1063173  40.22  0.001015285    1.556    0.357
       125 -10.5265     14.5333    231.4823   1.2593587560e+02   2.3982515531e+01    0.2220685     0.118159  61.26  0.001124461    1.469    0.319
       126 -10.5587     12.6198    227.7623   1.2608270613e+02   2.4889500269e+01    0.2902675    0.1200167 -87.71  0.001009231    2.181    0.541
       127 -10.8920     72.7035    228.5413   1.1478056272e+02   1.7781477462e+01    0.2676316    0.1665179  60.10 0.0008799232    1.429    0.300
       128 -10.1204    104.4802    225.4428   1.0799379307e+02   1.3839956328e+01    0.2368361    0.1251618 -62.38  0.001196915    2.123    0.529
