#   1 NUMBER                 Running object number                                     
#   2 MAG_AUTO               Kron-like elliptical aperture magnitude                    [mag]
#   3 X_IMAGE                Object position along x                                    [pixel]
#   4 Y_IMAGE                Object position along y                                    [pixel]
#   5 X_WORLD                Barycenter position along world x axis                     [deg]
#   6 Y_WORLD                Barycenter position along world y axis                     [deg]
#   7 A_WORLD                Profile RMS along major axis (world units)                 [deg]
#   8 B_WORLD                Profile RMS along minor axis (world units)                 [deg]
#   9 THETA_WORLD            Position angle (CCW/world-x)                               [deg]
#  10 FWHM_WORLD             FWHM assuming a gaussian core                              [deg]
#  11 ELONGATION             A_IMAGE/B_IMAGE                                           
#  12 ELLIPTICITY            1 - B_IMAGE/A_IMAGE                                       
         1 -12.1157    193.4157     37.0260   5.2167945311e+01   3.1538206288e+01     1.018667    0.9636328  -9.73  0.003426257    1.021    0.020
         2 -12.3067    202.1678     26.8763   4.7761638249e+01   3.0420298478e+01    0.8847013    0.7198099  11.26  0.001444491    1.307    0.235
         3 -11.6621     43.0931      6.3912   7.8860121491e+01   7.1113058760e+01    0.5267147    0.4106003  -1.37  0.003163155    1.419    0.295
         4 -10.9471    225.1641      2.6394   3.8053878765e+01   2.6856741819e+01    0.7841935     0.360455  78.20  0.003287743    2.380    0.580
         5  -9.5690     62.5394    236.4070   1.1525765248e+02   2.3073681120e+01    0.1952965    0.1216898  72.26  0.001374776    1.456    0.313
         6 -14.6846     62.0910    247.4979   1.1589422320e+02   2.1649287524e+01     6.094865     2.015469  30.76    0.0139712    5.792    0.827
         7  -9.2659    192.1939    193.3376   8.9054870716e+01   1.0619687480e+01    0.2573001    0.1346773 -54.36    0.0012199    4.113    0.757
         8  -8.2826     33.1798    196.2675   1.1819656878e+02   3.2310480821e+01    0.1493792   0.08079548  61.26 0.0006660993    1.377    0.274
         9  -8.5593     96.9578    191.8189   1.0594181248e+02   2.5399905488e+01    0.1587539    0.1341999  36.13 0.0005740554    1.337    0.252
        10  -9.5470     69.1280    183.8666   1.1056707241e+02   3.0376549200e+01    0.1804916    0.1182352  63.70 0.0008849923    1.269    0.212
        11  -8.1654     99.4160    180.7586   1.0431149551e+02   2.6854295375e+01     0.130309    0.1080213 -59.29 0.0005378941    1.472    0.321
        12 -10.8135     74.5605    176.3308   1.0881591644e+02   3.1002245539e+01    0.4124945    0.3114267 -29.47  0.002184911    2.404    0.584
        13 -10.5865     78.4942    171.4822   1.0754002775e+02   3.1349834886e+01    0.2660186    0.2582624 -18.55  0.001188159    1.486    0.327
        14  -8.6739     56.9398    175.3918   1.1229764296e+02   3.3344001616e+01    0.2292645   0.06593597  44.23  0.001094729    2.569    0.611
        15  -9.6852    103.6802    172.7941   1.0254436688e+02   2.7575811109e+01    0.2803816    0.1789367  54.45  0.001720629    1.350    0.259
        16 -10.5118     45.5717    172.5211   1.1438916300e+02   3.5158236050e+01    0.3286231    0.1471819  41.55  0.001932368    1.861    0.463
        17  -9.6449     97.2640    170.4450   1.0356924617e+02   2.8922449913e+01    0.3768223    0.1883639  66.79  0.001783194    2.704    0.630
        18  -8.8551     51.0744    225.5543   1.1655765330e+02   2.5862363123e+01    0.2528311    0.1120999  75.44  0.001287411    2.404    0.584
        19  -7.9969    192.5916    164.8105   8.4390908752e+01   1.3968012447e+01    0.1497545     0.116274 -42.95 0.0009410813    1.611    0.379
        20  -8.8534     47.5157    229.0295   1.1730955234e+02   2.5742422517e+01    0.2098941   0.08903307  57.03 0.0006959072    1.719    0.418
        21 -10.5720     92.4772    155.1997   1.0269837363e+02   3.2381375726e+01    0.4683729    0.3586211 -16.92  0.002601867    2.332    0.571
        22  -9.2945     65.5122    155.3496   1.0865411170e+02   3.6047691340e+01    0.1992068   0.09788918  39.04 0.0009611903    1.893    0.472
        23 -10.0790     49.7556    233.9657   1.1717980921e+02   2.4805330098e+01      0.23771    0.1238948  56.93 0.0004902895    1.346    0.257
        24  -9.1259    133.5892    144.0040   9.2078708161e+01   2.7711593270e+01    0.3071294    0.1254904 -55.91  0.001239153    3.131    0.681
        25  -9.8847    105.5179    139.8675   9.7568995462e+01   3.3276370594e+01    0.4418284    0.2985857 -25.08  0.002145167    2.680    0.627
        26 -10.5540     92.9569    140.2607   1.0051913686e+02   3.5182066744e+01    0.2261108    0.2198379  83.88 0.0003659719    1.207    0.171
        27  -8.4030     77.2210    132.7434   1.0316877009e+02   3.9017295516e+01    0.1894309   0.08484789 -53.58 0.0008725069    2.397    0.583
        28  -9.9284    113.5293    130.6710   9.4160868208e+01   3.3708253764e+01    0.2681734    0.2403473 -38.44   0.00118185    1.314    0.239
        29  -9.1144    106.0371    130.4890   9.5881144417e+01   3.5020019372e+01    0.3128569    0.2143558 -61.60  0.001720705    1.521    0.343
        30  -8.3524    135.6170    128.7769   8.8800278336e+01   3.0062176827e+01    0.1855613     0.127243 -59.65 0.0009530743    1.676    0.403
        31  -9.2012    100.6337    126.7175   9.6511777839e+01   3.6671110056e+01    0.2350002    0.2120064   7.13 0.0007290061    1.452    0.311
        32  -9.3921     67.7873    124.7675   1.0438660710e+02   4.1991446521e+01    0.1804938    0.1294882  75.43 0.0008224924    1.335    0.251
        33  -8.8071    119.5275    123.9788   9.1506114860e+01   3.3943298514e+01    0.1808245    0.1165958 -26.91  0.000809059    2.466    0.594
        34  -9.4411     53.6361    231.2502   1.1642434168e+02   2.4769413305e+01    0.1911484    0.1339172  78.37 0.0007942828    1.346    0.257
        35  -8.1454    109.1268    119.3269   9.3078658544e+01   3.6719663281e+01    0.1820187    0.1603695  62.23 0.0004023738    1.065    0.061
        36  -8.4439    168.0435    112.9635   7.8480736663e+01   2.6297096656e+01    0.2236115    0.1758414 -78.71  0.001128563    1.785    0.440
        37  -8.4582     58.3791    227.2667   1.1544258448e+02   2.4813960377e+01    0.1445345   0.09082317  73.91 0.0004943648    1.435    0.303
        38 -10.3454     58.6917    109.4653   1.0454121980e+02   4.6516781398e+01    0.5526106    0.1332685 -54.27   0.00190806    4.015    0.751
        39  -9.2170    119.6044    111.2153   8.8849618407e+01   3.6435895519e+01    0.1960497    0.1296122 -39.95 0.0009559084    1.695    0.410
        40  -8.2805    205.4869    110.1468   7.0860462073e+01   1.8775828917e+01    0.2242657    0.1580445  52.44 0.0005751799    1.479    0.324
        41  -9.7768    178.0119    222.5064   9.5252489951e+01   9.5916349751e+00    0.1713322     0.156878   3.65  0.000772087    1.341    0.254
        42  -9.7448     32.1459     96.2009   1.1035402757e+02   5.2469334198e+01    0.2221536    0.1530004  88.59 0.0006910476    1.266    0.210
        43  -9.4871     41.2214     92.1260   1.0697622457e+02   5.2492413532e+01    0.1877898    0.1522491 -62.85  0.000708771    1.219    0.180
        44  -9.2055     51.4298    215.8015   1.1598798427e+02   2.7271258289e+01     0.199151    0.1722329 -85.83  0.001280133    1.464    0.317
        45  -8.5461    156.8019     59.0919   6.5761885444e+01   3.7882774516e+01    0.2303375    0.2008719 -58.54 0.0004253721    1.240    0.193
        46  -8.1282    158.9323     52.7266   6.3214430014e+01   3.8350278966e+01    0.2098941    0.1967586  62.21  0.000431227    1.111    0.100
        47 -11.4482    182.5411     45.6379   5.6609846578e+01   3.3275732870e+01    0.7219321    0.5112224  19.51  0.002013577    1.661    0.398
        48 -18.3305      4.6497    145.6641   1.2152275258e+02   4.4165943330e+01     15.47008     2.002125 -82.35    0.0480567    7.149    0.860
        49  -9.4423     72.8624    204.6864   1.1150806443e+02   2.6501301558e+01    0.2987138    0.2015957  84.77  0.002224423    1.498    0.332
        50  -8.5716     61.4107    220.4284   1.1455060451e+02   2.5464950799e+01    0.1930813    0.1393837 -50.55  0.001493077    2.240    0.553
        51  -9.8757     46.9925    218.6715   1.1689238517e+02   2.7318469822e+01    0.4609622    0.2913185  11.78  0.002575172    4.280    0.766
        52  -8.6890     96.4755    201.0406   1.0691451213e+02   2.4028954270e+01    0.1802164    0.1282938  36.34 0.0003228135    1.403    0.287
