#   1 NUMBER                 Running object number                                     
#   2 MAG_AUTO               Kron-like elliptical aperture magnitude                    [mag]
#   3 X_IMAGE                Object position along x                                    [pixel]
#   4 Y_IMAGE                Object position along y                                    [pixel]
#   5 X_WORLD                Barycenter position along world x axis                     [deg]
#   6 Y_WORLD                Barycenter position along world y axis                     [deg]
#   7 A_WORLD                Profile RMS along major axis (world units)                 [deg]
#   8 B_WORLD                Profile RMS along minor axis (world units)                 [deg]
#   9 THETA_WORLD            Position angle (CCW/world-x)                               [deg]
#  10 FWHM_WORLD             FWHM assuming a gaussian core                              [deg]
#  11 ELONGATION             A_IMAGE/B_IMAGE                                           
#  12 ELLIPTICITY            1 - B_IMAGE/A_IMAGE                                       
         1 -14.6837     24.7671     48.2974   1.0471579692e+02   6.4715738679e+01     3.059235     1.715286 -29.49   0.01601006    1.987    0.497
         2 -15.4324      9.2076     25.8062   1.0472548717e+02   7.0613606229e+01     2.786764     0.995116 -51.57   0.01374214    1.974    0.494
         3 -13.3856     30.6591     10.8933   8.6226966774e+01   7.1356902388e+01     1.624295    0.5003934 -38.30   0.00679296    2.748    0.636
         4 -15.2046     96.5219     71.4275   8.5446611188e+01   4.9608125446e+01     2.231099     1.749022  24.05  0.006553628    1.479    0.324
         5 -14.5506     37.2192     85.2109   1.0917629997e+02   5.5083303338e+01     2.173023     1.042209 -56.91    0.0104933    1.674    0.403
         6 -15.5793     61.1524     71.1752   9.7202123308e+01   5.5545225460e+01     2.845208     1.542303  45.95   0.01227884    2.227    0.551
         7 -15.1307     70.5899     56.2001   8.8892005828e+01   5.7391399797e+01     3.006731     2.109542  88.00   0.01308435    2.759    0.638
         8 -12.1016     73.2340      1.5297   6.2746958948e+01   6.5595479683e+01    0.2765743    0.1573776  52.68 0.0005789063    1.772    0.436
         9 -12.5874    115.3925     11.7790   5.6528073761e+01   5.5106262083e+01     1.184746     0.587603 -46.67  0.004801859    2.530    0.605
        10 -12.7992    123.8296     10.2786   5.4120647104e+01   5.3173157515e+01    0.7147485    0.3471764  39.53 0.0003700136    2.156    0.536
        11 -13.0054     83.4940     22.6797   7.0217328831e+01   6.0957532635e+01     0.612463    0.4943815  54.73 0.0005124811    1.424    0.298
        12 -14.5844     86.8843      7.1167   6.1525642105e+01   6.2168876230e+01     1.929402     1.086389  49.59  0.009531137    1.684    0.406
        13 -12.4537     75.7951     13.3757   6.8197671997e+01   6.3738850543e+01    0.3427702    0.3068722   4.92  0.000853239    1.056    0.053
        14 -12.9615    104.4949      4.8683   5.5879435415e+01   5.8405170616e+01    0.7090322    0.6528024 -41.59  0.003558243    1.232    0.189
        15 -12.9051    186.0709     11.6610   4.5250449425e+01   3.6772957411e+01    0.6275448    0.4834211  59.38  0.002156241    1.294    0.227
        16 -12.3602    192.9180      6.3492   4.2888000376e+01   3.5518965588e+01    0.5397323    0.3868421 -31.10  0.001918688    1.377    0.274
        17 -11.5526    188.4165      5.5589   4.3103485664e+01   3.6762785153e+01     0.281357    0.2462029 -14.70 0.0007906397    1.244    0.196
        18 -11.8151     64.5088     17.9551   7.4652704226e+01   6.5229226336e+01     0.443641    0.3065179  22.95  0.001491257    1.503    0.335
        19 -11.0568    150.3347      8.6131   4.8876326918e+01   4.6503823349e+01    0.3450665    0.2500646  60.01 0.0009223818    1.299    0.230
        20 -12.3220    138.2813      4.4047   4.9153642531e+01   5.0036798437e+01    0.7870774    0.3642388  55.67  0.002587524    1.923    0.480
        21 -10.5833     49.2284      4.5443   7.3569630201e+01   6.9638534803e+01    0.2583615    0.1773039 -28.24  0.001307715    1.341    0.254
        22 -11.7850    175.1566     14.3567   4.7431470151e+01   3.9366960630e+01    0.3466317    0.2910694   3.37  0.001871722    1.343    0.255
        23 -12.4047    199.2228    128.4267   7.6735448938e+01   1.5671650575e+01    0.8276455    0.3499544 -40.10  0.003156526    2.307    0.567
        24 -13.3175    204.5690    124.9014   7.4884328389e+01   1.5136896259e+01    0.8579639    0.6956599 -43.33  0.004523853    1.279    0.218
        25 -11.4854     33.6497    135.8866   1.1816155471e+02   4.3276831895e+01    0.2544244    0.1677792  44.71  0.001205496    1.585    0.369
        26 -11.1925    224.2580    134.0212   7.3548061977e+01   9.5905759969e+00    0.3817926    0.2714269  54.32  0.001968786    1.649    0.394
        27 -11.8451     82.4319    133.8424   1.0509497134e+02   3.7611504725e+01    0.2866806    0.2354476 -69.48  0.001620372    1.122    0.109
        28 -10.3621     21.5238    133.8775   1.2104365260e+02   4.4879629185e+01     0.207874     0.142171  69.23 0.0009451063    1.352    0.260
        29 -11.5425     58.7321    144.4375   1.1286991303e+02   3.8433179483e+01    0.6441235    0.3549382  56.18  0.003208404    1.866    0.464
        30 -10.5626     64.3298    129.8673   1.0922539423e+02   4.1145518282e+01    0.2654653    0.2191307 -57.42  0.001487197    1.227    0.185
        31 -11.1045    122.2265    127.3013   9.3486627545e+01   3.2169459637e+01    0.3832307    0.3462481  62.26  0.001688809    1.113    0.102
        32 -13.3678    219.9000    121.6602   7.1373370468e+01   1.2436874883e+01    0.6792007    0.5953428  47.82  0.003836213    1.260    0.206
        33 -10.2879    120.3800    103.7605   8.8183256378e+01   3.7781611232e+01    0.2208286    0.1399128 -38.76 0.0009465803    1.626    0.385
        34 -10.3997    187.6672    198.3278   9.3197286980e+01   6.4783866376e+00    0.1203244   0.09899329  70.78 0.0007051668    1.717    0.417
        35  -9.5837    178.3360    184.6704   9.2607310002e+01   1.0224587149e+01    0.1286164     0.104025  75.71 0.0007052053    1.729    0.422
        36 -10.5380     34.5065    177.2935   1.2194024430e+02   3.3909032800e+01    0.2056485    0.1825826 -29.68  0.001450723    1.761    0.432
        37 -12.1455    203.3575    172.2545   8.5517202150e+01   7.6287850908e+00    0.4064931    0.2928777 -15.12  0.002232967    1.475    0.322
        38 -10.5072      2.4850    171.5026   1.2817412824e+02   3.8132063469e+01    0.1135619   0.08065926  78.60 8.833066e-05    1.020    0.020
        39 -10.7475    185.8028    167.1458   8.7852673977e+01   1.1730292697e+01    0.2025966    0.1917052  62.26 0.0007787622    1.235    0.190
        40 -13.7180     42.6174     42.3627   9.4866995411e+01   6.4154787835e+01     1.042186    0.6079845   6.96  0.004122035    2.549    0.608
        41 -12.1689    141.3676     96.2860   8.0751121500e+01   3.4844407061e+01    0.6599398    0.4851883 -50.46  0.002961144    1.368    0.269
        42 -10.8984    135.5669     98.3625   8.2776504138e+01   3.5709426832e+01    0.5655032    0.3557412  28.22  0.001888051    2.127    0.530
        43 -11.4326    114.4131     97.1768   8.8003575231e+01   4.0456779778e+01    0.3360537    0.2797555 -57.86 0.0006064615    1.184    0.156
        44 -10.8316     74.1115     98.0948   1.0005604179e+02   4.7391493399e+01    0.2203829    0.1872393 -37.68 0.0005872963    1.254    0.203
        45 -10.4693    188.3690     94.3343   6.9997100380e+01   2.4150835830e+01    0.4071838    0.2627882 -54.74   0.00172661    1.821    0.451
        46 -12.2024    214.9675    163.0378   8.1538471215e+01   6.8978285704e+00    0.3882419    0.2681145  -0.52  0.002019488    1.634    0.388
        47 -10.9703    117.6232     90.6724   8.5272144248e+01   4.1223522868e+01    0.2364631    0.1869279  -4.88 0.0008627195    1.656    0.396
        48 -13.6543     42.3133     47.8502   9.6995988415e+01   6.3052759990e+01    0.7300832    0.6127037  11.42  0.002237124    1.354    0.262
        49 -13.2378      6.0068     82.6525   1.1941693805e+02   5.8111387799e+01     1.043936    0.3661949 -56.20  0.004961986    2.166    0.538
        50 -10.0660    249.7749     86.4276   5.8175062465e+01   1.1584602880e+01     0.239011    0.1426827  65.40  0.001139188    2.118    0.528
        51 -12.5146      8.2779     65.2908   1.1570276162e+02   6.2035108658e+01    0.4596896    0.2774865 -57.94  0.001993229    1.271    0.213
        52 -12.1760    128.3274     81.5306   7.9640873782e+01   4.0825851405e+01    0.4321071    0.3659517 -38.70  0.002162196    1.136    0.119
        53 -13.0713    121.2917     81.0195   8.1352326008e+01   4.2489087754e+01    0.7177115    0.4655328  48.98  0.002183697    1.623    0.384
        54 -12.7219    114.2621     77.6042   8.2213436804e+01   4.4712250484e+01     0.509371    0.4262749  63.06  0.002564659    1.345    0.256
        55 -12.7080    125.4239     72.6099   7.7543109466e+01   4.3272510158e+01    0.5772813    0.3618912  72.92  0.002201308    2.522    0.604
        56 -12.6620    118.0114     68.2987   7.8101303800e+01   4.5783133662e+01    0.4757901    0.3447162  42.19  0.001909086    1.451    0.311
        57 -12.1374    118.7130     63.9931   7.6427357685e+01   4.6460410692e+01    0.3861512    0.2899447 -35.82  0.001004617    1.276    0.216
        58  -9.4903    148.6483     80.7239   7.4373166029e+01   3.6253467293e+01    0.1606248    0.1230685  16.97 0.0004185219    1.642    0.391
        59 -12.4294    144.1198     75.2484   7.3716134372e+01   3.8385997149e+01    0.5456496    0.3642945 -30.73  0.001205804    1.523    0.343
        60 -13.1273      2.8188     70.5547   1.1869047232e+02   6.1111799852e+01     1.154336     0.280953 -72.00  0.004397701    3.203    0.688
        61 -12.9405    119.6371     73.0596   7.9247335371e+01   4.4478050841e+01     0.560114    0.4332067  10.99  0.001340069    1.650    0.394
        62 -11.1587    152.6835     72.7321   7.0939605865e+01   3.6771431171e+01    0.4807115    0.2650063  45.69  0.001907425    1.893    0.472
        63  -9.4119    182.6044     72.1340   6.4670820851e+01   2.9402796051e+01    0.2034249     0.146589 -18.77 0.0003873327    1.507    0.337
        64 -11.1085    128.0086     67.7487   7.5243421691e+01   4.3622020709e+01    0.2158209     0.210621  27.92 0.0004400426    1.057    0.054
        65 -10.8406    146.7531     65.7259   7.0000137312e+01   3.9499239739e+01    0.3806311    0.2715558   0.06   0.00160915    1.904    0.475
        66 -10.7024    214.3813     61.1228   5.6321570993e+01   2.3251517673e+01    0.3951772    0.2461518 -18.05  0.001744541    1.772    0.436
        67 -10.6352    169.3718     63.0511   6.4363669178e+01   3.4264841277e+01    0.4165684    0.2102694  56.20  0.001610508    2.013    0.503
        68 -12.3254    124.5908     57.4892   7.2556908056e+01   4.6316088044e+01    0.4124255    0.3315781  42.70 0.0006598557    1.281    0.219
        69 -12.3112     59.8299     57.3520   9.3289571967e+01   5.8777557858e+01    0.3286324    0.2874703  42.80  0.001026089    1.342    0.255
        70  -9.8170    228.1577     57.3427   5.3450698251e+01   2.0509250392e+01    0.1953838    0.1354595  82.54 0.0009453557    1.730    0.422
        71 -11.3550    174.7198     56.4557   6.1261634000e+01   3.3953625552e+01    0.2670685      0.25115 -44.35 0.0004333264    1.035    0.034
        72 -10.4976    137.9689     55.1776   6.8423488658e+01   4.3503487723e+01    0.3478503    0.1867192  40.06  0.001342475    2.104    0.525
        73 -11.5957    133.0981     53.6622   6.9045371664e+01   4.4952704301e+01     0.391025    0.2849015  50.37 0.0007712183    1.396    0.284
        74 -10.9200    151.7552     54.1475   6.4991049281e+01   4.0220162481e+01    0.4049264    0.1853394  42.21  0.001422424    2.515    0.602
        75  -9.8367    121.9607     52.6880   7.1496126449e+01   4.7778386567e+01     0.202116    0.1945831  27.44 0.0002982808    1.058    0.055
        76 -11.7748     92.8535     52.9759   8.0071047287e+01   5.4035275901e+01    0.3026992    0.2297936  19.56 0.0004726669    1.527    0.345
        77 -11.7973     96.9833     51.0031   7.8010644875e+01   5.3574068489e+01    0.3649689    0.2523913  62.95  0.001637584    1.886    0.470
        78 -11.1763    145.3492     50.5657   6.5123312611e+01   4.2421995739e+01    0.3184264     0.305807 -34.75  0.000686324    1.030    0.029
        79 -10.5813    137.2807     48.2477   6.6101330708e+01   4.4816664191e+01    0.3117411    0.2458333 -64.82 0.0009617114    1.507    0.337
        80 -10.7123    119.3231     49.0720   7.0839693593e+01   4.9014288361e+01    0.2191094    0.1888586 -30.84 0.0005652776    1.119    0.106
        81  -9.4588    127.0011     48.7632   6.8752214504e+01   4.7248415258e+01    0.1949622    0.1282528  53.83 0.0005310202    1.560    0.359
        82 -11.2005    100.7404     49.4246   7.6245146935e+01   5.3081713800e+01    0.2726042    0.2508406  -2.29 0.0006862037    1.067    0.063
        83 -10.4694    176.4276     45.3579   5.7401744229e+01   3.5174760340e+01    0.4328283    0.2841261  -1.68  0.001808948    2.051    0.512
        84 -10.6573    181.7913     43.5712   5.5956332639e+01   3.4028279876e+01    0.3301711    0.2477164  41.67 0.0003744874    1.445    0.308
        85 -11.2493    157.0868     43.8016   6.0349196242e+01   4.0448311477e+01    0.3112208    0.2548865  38.36 0.0006826182    1.278    0.218
        86 -10.3932    140.6197     44.1798   6.3870184264e+01   4.4616319050e+01    0.2541217    0.2324385  31.57 0.0005766865    1.108    0.098
        87  -9.6340    137.7031     43.3123   6.4198792511e+01   4.5482871883e+01    0.2357476    0.2012374  58.23 0.0005266424    1.199    0.166
        88 -10.9226    122.3044     43.6228   6.7988131774e+01   4.9207914752e+01    0.2916294    0.2426348  32.94 0.0008571766    1.233    0.189
        89 -12.1297    216.5235     38.9924   4.9822282798e+01   2.5789348537e+01    0.5974813    0.2918836  54.45  0.002529497    2.155    0.536
        90 -10.1826    196.9356     41.1172   5.2949684315e+01   3.0442451919e+01    0.2319155    0.1881788 -60.01 0.0005915043    1.244    0.196
        91  -9.5653     90.4596     40.9588   7.6066500865e+01   5.6686796232e+01    0.1958828    0.1170501 -55.77 0.0008057197    2.333    0.571
        92 -10.6750    204.7137     37.0882   5.0719513481e+01   2.8989030847e+01    0.2778301    0.2147929  63.18  0.001148781    1.337    0.252
        93 -10.2942    160.0268     36.2194   5.7174212598e+01   4.0751014452e+01    0.2160734    0.1930978  34.19 0.0002917294    1.163    0.140
        94 -12.3030     82.6679     33.6427   7.5517730246e+01   5.9451391099e+01    0.4870405    0.3470065  13.82  0.001045773    1.629    0.386
        95 -12.7802     79.5599     30.8328   7.5329612676e+01   6.0503742562e+01    0.5564035    0.4924695   1.67  0.001764703    1.061    0.058
        96  -9.4752    240.5125     34.4465   4.6045302732e+01   2.0653838038e+01    0.1369677    0.1198706 -47.64 0.0001610972    1.008    0.008
        97 -10.9177    176.7102     33.3138   5.3440358139e+01   3.6741453274e+01    0.2611146    0.2562394  57.24 0.0005330087    1.048    0.046
        98  -9.7988     97.1803     33.8141   7.0942217589e+01   5.6456272769e+01    0.2023671    0.1617251   9.14 0.0007296147    1.317    0.241
        99 -10.1913    152.0044     32.2291   5.7222958589e+01   4.3384813447e+01     0.207852    0.1230552  62.51 0.0008880276    1.683    0.406
       100 -10.8950    240.1582    158.2518   7.6216978508e+01   3.0547073794e+00     0.301878    0.1602457 -36.57  0.001488005    1.872    0.466
       101 -12.6877    199.8024    154.0205   8.2439214952e+01   1.1209829437e+01    0.5306855    0.4561573   9.12  0.003053521    1.116    0.104
       102 -11.0726    190.8337    153.9112   8.4142504861e+01   1.2995411171e+01    0.4449815    0.3452535 -86.03  0.002173165    2.097    0.523
       103 -12.2688    233.7672    153.9309   7.6360443953e+01   4.8001564392e+00     0.405781    0.2820639   4.32  0.001949399    1.523    0.343
       104 -11.3571     25.3160    155.4196   1.2213972596e+02   3.9607387957e+01     0.269172    0.1200439  27.41  0.001343752    2.796    0.642
       105 -11.6061     18.9052    153.9207   1.2348179346e+02   4.0535551439e+01     0.252563    0.1834669  30.29  0.001672093    1.718    0.418
       106 -12.5520    249.4913    148.3424   7.2618998110e+01   2.7895747344e+00     1.730906    0.2104746 -35.19  0.004479001    6.477    0.846
       107 -11.4169    241.7360     22.7610   4.2948727845e+01   2.1763909039e+01    0.3493841    0.2577584 -71.45 0.0008956774    1.346    0.257
       108 -11.4750    149.6470     21.2513   5.3645607940e+01   4.5355866172e+01    0.4884301    0.2855988  54.96    0.0015492    1.624    0.384
       109 -10.2374    139.2904     20.9934   5.5421865926e+01   4.8080888552e+01    0.2534373    0.2023461  61.24 0.0006548689    1.230    0.187
       110 -10.5518    208.7345     18.8973   4.4974596383e+01   3.0162034560e+01    0.3336156    0.2156881 -44.66  0.001461969    1.432    0.302
       111 -10.1390    187.2755     18.9143   4.7379896061e+01   3.5685366623e+01    0.3089038    0.2089902 -40.40  0.001205894    1.420    0.296
       112 -11.9535     51.6817    141.6167   1.1426963508e+02   3.9958223047e+01    0.6249586    0.2538511 -72.94  0.002671127    2.353    0.575
       113 -12.9777     47.2277    142.4245   1.1549863224e+02   4.0289781779e+01    0.5192803    0.4918118  -8.82  0.003284587    1.452    0.311
       114 -10.4178     90.1904    145.6559   1.0517549556e+02   3.3665074377e+01    0.1986413    0.1649307 -82.36   0.00112622    1.137    0.121
       115 -10.1346    138.8158    152.2071   9.4794349796e+01   2.3616893786e+01    0.1968011    0.1742153  -3.92  0.001076306    1.345    0.256
       116 -12.0106    213.9702    142.5014   7.7286161999e+01   1.0289701213e+01    0.7103105    0.3533138  50.98  0.003044739    2.223    0.550
       117 -12.3645     76.2988    139.3421   1.0763317382e+02   3.7236877759e+01    0.6948193    0.2678188 -62.46  0.002767355    2.434    0.589
       118 -11.7832    194.5834    137.0974   7.9670473578e+01   1.5141304995e+01    0.4965668    0.4175753  -8.34   0.00267806    1.209    0.173
