#   1 NUMBER                 Running object number                                     
#   2 MAG_AUTO               Kron-like elliptical aperture magnitude                    [mag]
#   3 X_IMAGE                Object position along x                                    [pixel]
#   4 Y_IMAGE                Object position along y                                    [pixel]
#   5 X_WORLD                Barycenter position along world x axis                     [deg]
#   6 Y_WORLD                Barycenter position along world y axis                     [deg]
#   7 A_WORLD                Profile RMS along major axis (world units)                 [deg]
#   8 B_WORLD                Profile RMS along minor axis (world units)                 [deg]
#   9 THETA_WORLD            Position angle (CCW/world-x)                               [deg]
#  10 FWHM_WORLD             FWHM assuming a gaussian core                              [deg]
#  11 ELONGATION             A_IMAGE/B_IMAGE                                           
#  12 ELLIPTICITY            1 - B_IMAGE/A_IMAGE                                       
         1 -14.6022    134.2560    146.8354   1.1670513815e+02   2.6373538372e+01     1.744694    0.4922903 -56.85  0.004387769    5.831    0.828
         2 -14.9332    161.4633     42.0144   8.1419683297e+01   4.0138233923e+01     1.372312     1.081725 -15.10  0.003868916    1.414    0.293
         3 -14.6544    174.9229      8.9175   6.8496565017e+01   4.0533396486e+01     1.141815    0.9751976  51.59  0.003907253    1.164    0.141
         4 -11.2003     53.3280      8.3269   9.8039004378e+01   6.7910231996e+01    0.1282381   0.08133807   4.14 0.0005686248    1.702    0.413
         5 -11.5841    189.9425     14.5368   6.8276913992e+01   3.5982982609e+01    0.2173525     0.194364 -37.74  0.000854803    1.184    0.155
         6 -11.5372     21.9234    242.3152   1.5005237643e+02   2.4044178021e+01    0.1958885    0.1060625 -89.40  0.001420828    1.575    0.365
         7 -20.0909     76.5433    176.5137   1.3477328152e+02   2.9872394689e+01      16.3998     6.202396 -67.21   0.07066069    2.660    0.624
         8 -11.9769    203.0849    172.3582   1.0725200725e+02   7.4942866636e+00    0.2535085    0.2075019 -44.67 0.0009330303    1.389    0.280
         9 -11.9679    166.9977    173.5733   1.1469223032e+02   1.4494626461e+01    0.2544389    0.2008885 -68.82   0.00120762    1.558    0.358
        10 -11.8672    185.6002    168.9672   1.1000512241e+02   1.1569421283e+01    0.2645202    0.1804332  24.79  0.001275901    1.679    0.404
        11  -9.7556     25.3240    211.2598   1.4789556621e+02   2.9192683499e+01   0.08694203   0.07898003 -79.30 0.0002078892    1.554    0.357
        12 -11.9584    230.1775    166.4847   1.0107964286e+02   3.1339078123e+00    0.3176602    0.1771463 -50.55  0.001397186    2.582    0.613
        13 -14.0337    177.2833    172.0118   1.1228110329e+02   1.2715314935e+01    0.8967746    0.4415137 -49.75  0.003798035    2.387    0.581
        14 -11.6789    201.0082    164.9892   1.0616632025e+02   9.1177838879e+00    0.2719516    0.2115491 -57.99  0.000825557    1.632    0.387
        15 -12.3178    154.4353    196.0264   1.2113203202e+02   1.2891212086e+01    0.4068829    0.2677183 -85.51  0.001899489    2.556    0.609
        16 -11.0098    222.7967    162.3008   1.0153211800e+02   5.1923216933e+00    0.3131537     0.171132 -48.94 0.0009950404    2.389    0.581
        17 -11.5105     26.1545    173.6966   1.4519966661e+02   3.6574696267e+01    0.2011882    0.1544303 -84.14 0.0002818552    1.165    0.141
        18 -13.0515    158.1034    202.7881   1.2145889825e+02   1.1061666769e+01    0.5715873    0.3985445  72.49  0.003033502    1.868    0.465
        19 -13.5725    164.2181    157.6364   1.1217376464e+02   1.8048647527e+01    0.4386685    0.3740892  49.33 0.0009640108    1.098    0.089
        20 -14.7994    143.3410    144.2425   1.1405474759e+02   2.5076020149e+01     1.151755    0.5750853 -57.36  0.004489125    2.376    0.579
        21 -10.6823     18.0444    156.3880   1.4552998758e+02   4.1019659092e+01    0.3508645    0.1652211  89.96  0.001897903    1.889    0.471
        22 -12.5723    134.7157    109.7077   1.0808993572e+02   3.4244433840e+01     1.029823     0.186808 -46.45  0.002410255    5.582    0.821
        23 -10.5788     22.9801    156.1045   1.4442055351e+02   4.0633635639e+01    0.1736231    0.1346611  86.66 0.0004334711    1.021    0.020
        24  -9.8018      6.6445    155.7040   1.4794121442e+02   4.2120621494e+01    0.1040195   0.07371587 -55.04 0.0007033512    1.695    0.410
        25 -11.8804    144.7126    178.9521   1.2033606190e+02   1.7835262018e+01    0.4157513    0.2440832 -44.12  0.001352545    1.969    0.492
        26 -12.3869    163.8887    202.9622   1.2035311291e+02   9.9780404876e+00    0.3160576    0.2733426  81.27 0.0004462575    1.353    0.261
        27 -12.8745    161.2742    197.9928   1.2008122995e+02   1.1289194161e+01    0.3742037    0.3297019 -82.79  0.001606808    1.337    0.252
        28 -13.1741     11.4621    206.0207   1.5002830116e+02   3.1569364457e+01    0.3751874     0.239932  35.44  0.002156768    1.892    0.472
        29 -12.7883    174.1563    148.8469   1.0820596970e+02   1.7627416654e+01    0.3868976    0.3378578 -48.51  0.001366794    1.217    0.178
        30 -11.3267    138.9791    250.0038   1.3111824792e+02   6.9817306477e+00    0.2456629    0.2082812  24.94  0.001804725    1.451    0.311
        31 -10.0328     22.2489    205.3692   1.4809491305e+02   3.0625835960e+01   0.09612624   0.07125422 -67.20 0.0005232805    1.626    0.385
        32 -11.8262    168.7464    202.4135   1.1932032963e+02   9.1785712330e+00    0.2411474    0.1802867  70.21 0.0006217874    1.656    0.396
        33 -11.7809    174.6926    141.0500   1.0637165906e+02   1.8999614848e+01    0.2059704    0.1980203 -36.07 0.0004677914    1.083    0.077
        34  -9.9999    160.2958    246.8214   1.2705044213e+02   4.0253209493e+00     0.134219     0.104963 -32.90 0.0006878387    1.753    0.429
        35 -10.9132      8.5617    137.9242   1.4612921782e+02   4.5809051217e+01    0.1837147    0.1528594 -35.86  0.001083398    1.683    0.406
        36 -10.5850     13.7267    238.6625   1.5116154234e+02   2.5508710379e+01    0.1077448   0.06524192  84.30 0.0008226251    1.294    0.227
        37 -12.9420    160.3941    127.9971   1.0649092450e+02   2.4750361781e+01    0.4560433    0.3463727 -49.05  0.001961577    1.359    0.264
        38 -11.5583    138.0565    198.7030   1.2483741864e+02   1.5389666339e+01    0.5571655    0.3150717  68.87  0.002264005    2.571    0.611
        39 -12.6459    155.8193    190.4381   1.1995133409e+02   1.3617778411e+01    0.3072201    0.2467859  71.19  0.001340873    1.371    0.271
        40  -9.6546     14.2926    159.3174   1.4657282051e+02   4.0719631949e+01    0.1056836   0.07436842 -58.97 0.0002023827    1.602    0.376
        41 -12.9384    154.3390    185.6893   1.1946430539e+02   1.4750634495e+01    0.3266287    0.2727067  61.19  0.001120184    1.166    0.142
        42 -13.8493    207.7608    178.5143   1.0757275996e+02   5.6075256067e+00    0.6676017    0.5121626   1.98  0.003708017    1.449    0.310
        43 -10.9876      7.9382    239.2731   1.5207323779e+02   2.5983269344e+01    0.1127111   0.06724989 -86.27 0.0008011192    1.467    0.318
        44 -10.6027     25.7429    229.8569   1.4884274379e+02   2.5772314908e+01    0.1807635   0.07236741 -84.95  0.001047909    2.294    0.564
        45 -10.8760    138.6835    246.3151   1.3076880585e+02   7.5558226044e+00    0.2479068    0.1604585  76.62  0.001477842    2.066    0.516
        46 -10.7036    205.3994    110.1370   9.2723505724e+01   1.7675755492e+01    0.2610818    0.2029685  40.13 0.0006315728    1.321    0.243
        47 -10.5856     22.5449    221.0110   1.4891212148e+02   2.7688592486e+01    0.1332302   0.08199485 -79.59 0.0005550249    1.511    0.338
        48 -10.8807     23.4765    215.5090   1.4845721936e+02   2.8596440966e+01    0.1341945   0.08233542 -73.62 0.0002204088    1.626    0.385
        49 -10.7961     26.8449    180.3895   1.4557217194e+02   3.5114606552e+01     0.276403     0.187601 -36.99  0.001637691    2.724    0.633
        50 -13.8752    195.6614    171.0774   1.0843164605e+02   9.1815688273e+00    0.8464506    0.4507838 -50.48  0.002778483    2.376    0.579
        51 -13.5954    138.9102    171.9261   1.2037204941e+02   2.0306401856e+01    0.6148608    0.4516492 -83.49  0.002031358    1.690    0.408
        52 -14.1709    135.8556    127.6391   1.1217354741e+02   3.0155264527e+01     2.132886    0.3706855 -50.63  0.004473999    7.422    0.865
        53 -14.7101    144.6368    169.4967   1.1869499320e+02   1.9683150142e+01    0.9191762    0.6355556  73.23  0.004184576    1.820    0.451
        54 -10.4848     20.1318    212.3645   1.4886077315e+02   2.9524825600e+01   0.09294794   0.05546448 -75.21 0.0002179726    1.600    0.375
        55 -13.1106    123.7261    166.5614   1.2280364608e+02   2.4241015852e+01    0.5936463    0.3012686  64.54  0.001797831    2.928    0.658
        56 -14.4299    150.5343     56.6690   8.8516220527e+01   4.0713979955e+01     1.255617     1.065072  34.24   0.00103114    1.225    0.184
        57 -11.9467    133.8400    246.2891   1.3161256794e+02   8.3245405269e+00    0.1634021    0.1466125  64.90 0.0004134048    1.215    0.177
        58 -13.0771    165.3828     33.6508   7.7948091692e+01   4.0244997517e+01    0.4484017    0.3781093  -6.13 0.0009086044    1.336    0.252
        59 -11.0002     13.5554     59.9638   1.3386279133e+02   6.2694361069e+01    0.1792917    0.1549092  61.60 0.0004418367    1.453    0.312
        60 -12.2886    125.0752    243.7374   1.3287834895e+02   1.0077984486e+01    0.2092742    0.1544942 -66.33 0.0008459394    1.670    0.401
        61 -12.0056    168.0340    243.9738   1.2534702902e+02   3.1540535453e+00    0.1799634    0.1390222  40.92 0.0003428294    1.029    0.028
