#   1 NUMBER                 Running object number                                     
#   2 MAG_AUTO               Kron-like elliptical aperture magnitude                    [mag]
#   3 X_IMAGE                Object position along x                                    [pixel]
#   4 Y_IMAGE                Object position along y                                    [pixel]
#   5 X_WORLD                Barycenter position along world x axis                     [deg]
#   6 Y_WORLD                Barycenter position along world y axis                     [deg]
#   7 A_WORLD                Profile RMS along major axis (world units)                 [deg]
#   8 B_WORLD                Profile RMS along minor axis (world units)                 [deg]
#   9 THETA_WORLD            Position angle (CCW/world-x)                               [deg]
#  10 FWHM_WORLD             FWHM assuming a gaussian core                              [deg]
#  11 ELONGATION             A_IMAGE/B_IMAGE                                           
#  12 ELLIPTICITY            1 - B_IMAGE/A_IMAGE                                       
         1 -12.5537      4.1071     49.1694   1.0026088468e+02   6.8279274904e+01      1.21436    0.3019948 -80.62  0.003829948    4.161    0.760
         2 -10.8622      2.0297     20.4952   9.5449591698e+01   7.5424181009e+01    0.4645135    0.2289696 -79.65 0.0008580203    2.128    0.530
         3  -9.9451    102.2963     22.5751   4.0456974730e+01   5.7253801730e+01    0.2208083     0.202903 -14.29  0.001205935    1.155    0.134
         4  -9.8727      8.9750      9.4638   8.4282121041e+01   7.7535197766e+01    0.2595767    0.1476018  50.55   0.00116978    2.586    0.613
         5 -10.9363     17.1127     20.5637   8.2445626204e+01   7.4412180647e+01    0.5760052    0.3947717  11.05  0.002110861    1.542    0.351
         6 -11.3291     13.7691     15.0521   8.2638960822e+01   7.5927869529e+01    0.4670317    0.2996469 -77.57 0.0007854491    2.057    0.514
         7 -10.2872     37.7287     17.9670   6.5457325720e+01   7.2301538531e+01    0.3618556    0.2939698  77.85  0.001939178    1.857    0.462
         8 -11.2536     34.6375     12.1976   6.3900098477e+01   7.3859086711e+01    0.3611045    0.2949768  38.88  0.001362838    1.290    0.225
         9 -11.8365     29.5134      8.0525   6.4819121759e+01   7.5405892403e+01    0.4870795    0.3476894   3.04  0.001904357    1.590    0.371
        10 -10.2641     61.0875     16.5619   5.1526773407e+01   6.8072179106e+01    0.4182658    0.2417014 -47.14  0.001870687    2.018    0.504
        11 -10.7128     82.5802     16.4310   4.3113504573e+01   6.3074076970e+01    0.4293385     0.248433  24.93  0.001198398    2.400    0.583
        12 -10.0121     85.9040     11.2968   3.9332338612e+01   6.2872827457e+01    0.2966118    0.2121558  18.64  0.001303736    1.638    0.390
        13 -10.6981     75.0544     17.7251   4.6429443635e+01   6.4724332958e+01    0.6274483    0.3788962 -58.42  0.002624314    2.395    0.582
        14 -11.4277    235.1987     14.6396   2.1167880434e+01   2.5300707714e+01    0.2559042    0.2114278  63.85 0.0009159078    1.454    0.312
        15 -11.4238    208.0917     12.9723   2.2444113653e+01   3.1221779975e+01    0.2588965    0.2358994 -27.11  0.000663284    1.178    0.151
        16 -10.8235    203.0762     12.3108   2.2618299190e+01   3.2424265426e+01    0.3007607    0.1791165 -79.08 0.0006503721    1.749    0.428
        17 -12.3056    194.3163     11.7033   2.3097598566e+01   3.4523428770e+01    0.4225796    0.3725875 -28.56  0.001541935    1.173    0.148
        18 -11.1099    191.3219      9.7151   2.2758172719e+01   3.5426569682e+01    0.2554305    0.1792155 -41.36  0.000186723    1.262    0.208
        19 -11.9877    126.0422     10.9257   3.0431945803e+01   5.2244550142e+01    0.3443049    0.2576279 -60.37 0.0002952367    1.386    0.279
        20  -9.8505    248.8377     12.1005   1.9863601816e+01   2.2894649982e+01    0.1799059    0.1179812 -48.40 0.0003201026    1.221    0.181
        21 -10.0340     91.4159     11.9259   3.8123582888e+01   6.1386516101e+01    0.4267631    0.1411576  48.75  0.001455461    2.839    0.648
        22 -10.6695    171.3226     10.2856   2.4621262345e+01   4.0308377765e+01    0.3084852    0.1028409 -42.70  0.001159779    2.620    0.618
        23  -9.8811    135.1555     11.0954   2.9113377540e+01   4.9760656467e+01    0.2061884     0.183864  49.37 0.0002653953    1.171    0.146
        24  -9.9451     50.8851     10.9056   5.2998119994e+01   7.1074442938e+01    0.2011316    0.1911653  29.33 0.0005331248    1.092    0.085
        25 -10.3805    182.5847      9.7553   2.3463885402e+01   3.7542442941e+01    0.2464765    0.1491636  63.15  0.001071138    1.695    0.410
        26 -10.6360    148.6056      9.1156   2.6616529326e+01   4.6341946447e+01    0.2649164    0.1813256   2.80  0.001274434    1.855    0.461
        27 -10.6849     97.7850      7.9407   3.4506948442e+01   6.0149622232e+01    0.3959677    0.2433165  -2.59  0.001164343    2.039    0.510
        28 -10.1973     45.6455      9.8391   5.5191907487e+01   7.2281634235e+01    0.2379244    0.1909499  47.86 0.0006272145    1.297    0.229
        29 -11.6795    116.8572      8.5420   3.0959912587e+01   5.4970629070e+01    0.3015911    0.2699608 -79.05 0.0004795866    1.108    0.098
        30  -9.9156     56.2159      8.5029   4.8712569063e+01   7.0291173462e+01    0.2692732    0.1793312  -4.60 0.0006761765    1.837    0.456
        31  -9.7335     22.2703      9.1728   7.1563284167e+01   7.6223482352e+01    0.2682232     0.146481  15.70  0.001238691    2.244    0.554
        32 -10.0725     16.0253      8.7024   7.6922969712e+01   7.7048977880e+01    0.2293578    0.1677062 -31.18 0.0008599004    1.255    0.203
        33 -11.8660     19.3401      2.4282   6.9326700599e+01   7.7865606115e+01     0.498152    0.2742849  20.58   0.00155638    2.023    0.506
        34  -9.8725     11.5064      1.3933   7.6509022734e+01   7.8974786689e+01    0.1861522    0.1452917  45.18  0.001120326    1.625    0.385
        35 -10.7878      3.7962      7.7183   8.8772014197e+01   7.8265363009e+01    0.3664057    0.2051847 -51.89  0.001988173    1.499    0.333
        36 -11.0957    163.0493      2.2103   2.2749153120e+01   4.3168319652e+01    0.6113201    0.2261448 -67.69  0.001501922    3.647    0.726
        37 -10.6266    165.3789      7.8043   2.4382243021e+01   4.2064530994e+01    0.2669362    0.1898057  15.34 0.0006876775    1.839    0.456
        38  -9.5205     88.8668      6.1965   3.5771517778e+01   6.2666493124e+01      0.19847    0.1555257  31.48 0.0005639051    1.324    0.245
        39 -11.5916    198.5708      5.1851   2.0967618627e+01   3.4135824728e+01    0.3018652    0.1746323  77.86  0.001533368    1.748    0.428
        40 -11.2035    194.1829      4.8114   2.1153750162e+01   3.5200689325e+01    0.2269008    0.2006363  37.12 0.0006669524    1.377    0.274
        41 -10.3681    104.7860      4.0964   3.1137967244e+01   5.8651887930e+01    0.2363777    0.1900716  66.16 0.0005047964    1.149    0.129
        42  -9.2817     38.8261      3.9286   5.5078871133e+01   7.4477028025e+01    0.1607643    0.1529994  64.02 0.0002386932    1.297    0.229
        43 -11.2977    149.6963      2.7184   2.4195372637e+01   4.6631287517e+01    0.4242512    0.1815933  81.12   0.00150799    2.328    0.570
        44 -10.0476     59.4548      3.1330   4.3625009889e+01   7.0242753526e+01    0.2747247    0.1847313  78.64  0.001307588    1.997    0.499
        45 -10.9884    123.1195      1.7452   2.7031779456e+01   5.3886489441e+01    0.2351712     0.188515  73.38 0.0007533288    1.153    0.133
        46 -10.1413    168.9098      1.4590   2.2009676141e+01   4.1725414341e+01    0.2062798    0.1258298  82.12  0.001023382    1.574    0.365
        47  -9.1444     80.5738      1.3960   3.5289783198e+01   6.5274980382e+01    0.1382254    0.1284175  59.02 0.0001065194    1.036    0.034
        48  -9.4799     28.4090      1.3071   6.0487961829e+01   7.6714717385e+01    0.2184746    0.1127541  39.64 0.0007883132    1.921    0.479
        49  -9.6629     52.5094    141.2973   9.2600315341e+01   4.0334148123e+01    0.1974087    0.1247194  85.27  0.000362054    1.752    0.429
        50 -10.3489    110.0313    250.5714   8.9682157892e+01   1.2146795794e+01    0.1726195   0.08031788  30.97 0.0005709242    1.556    0.357
        51 -10.4855     28.4841    250.4994   1.0585950127e+02   2.0766461360e+01    0.2181528   0.07518691  29.52 0.0009344502    2.117    0.528
        52 -11.8016     18.4378    248.4836   1.0775837120e+02   2.1981538388e+01    0.2468242    0.2252989 -26.35  0.002123181    1.654    0.395
        53 -12.2856      4.2083    233.3804   1.1023926327e+02   2.5676605911e+01    0.3815435    0.2233334  40.68  0.001683599    1.210    0.174
        54 -13.0795     10.4278    243.5589   1.0920495584e+02   2.3461494915e+01    0.7068766    0.3426877 -73.19  0.004609798    2.532    0.605
        55  -9.6120     95.8822    133.8474   7.8097242525e+01   3.5837145131e+01    0.2025485    0.1685431  68.31 0.0006986443    1.301    0.232
        56  -9.1010     50.2698    131.7022   9.2099698640e+01   4.2968888272e+01    0.1433246   0.09606425  62.93 0.0001953868    1.522    0.343
        57 -10.5523     40.5025    128.8022   9.5001873931e+01   4.4795102122e+01    0.3744673    0.1880581 -42.87  0.001554882    2.557    0.609
        58 -10.5831     28.2851    127.9636   9.9056589233e+01   4.6203363567e+01     0.223587    0.1817482  39.78 0.0005438566    1.197    0.165
        59  -9.5636    226.4765    124.5518   4.7627530483e+01   1.3616863207e+01    0.1240993     0.104714 -16.15 0.0001308177    1.046    0.044
        60 -11.6263      9.8944    120.9814   1.0483106659e+02   4.9387266543e+01    0.4142935    0.2970731  72.53 0.0003270953    1.250    0.200
        61 -10.8186     25.2549    121.8778   9.9518803004e+01   4.8015984144e+01    0.3724416    0.1926847  37.62  0.001766489    1.793    0.442
        62 -10.2773     86.1692    118.8305   7.8091755938e+01   4.0992567332e+01     0.203941    0.1784707 -18.65 0.0004914564    1.333    0.250
        63 -10.3817     69.1330    116.5202   8.3288415352e+01   4.4259716309e+01    0.2716311    0.2073909 -77.56 0.0006029102    1.378    0.274
        64  -9.4954     39.9996    117.0000   9.3685821113e+01   4.7860674506e+01    0.2249227   0.07844738  24.47 0.0007620837    2.937    0.660
        65 -10.0472      1.8513    114.0621   1.0727378995e+02   5.1603332871e+01    0.1954883    0.1471557  66.87            0    1.181    0.153
        66 -10.9014     25.1022    111.8566   9.8546429593e+01   5.0611596521e+01    0.2179249    0.1648873  62.16 0.0005156363    1.261    0.207
        67 -11.1798     15.2249    111.5931   1.0221350952e+02   5.1434725670e+01    0.2305977    0.1884332  50.52  0.001366513    1.179    0.152
        68 -10.7021     44.0544    109.8414   9.1151266437e+01   4.9265734592e+01    0.3398229    0.2186472  61.94  0.001608655    1.664    0.399
        69  -9.4737     68.9343    108.3183   8.1733494036e+01   4.6341187599e+01    0.2139215    0.1376663  18.61 0.0009277075    1.887    0.470
        70 -10.3526     39.1089    105.1716   9.2316119289e+01   5.1025115857e+01    0.2105277    0.1835629 -43.24 0.0005044602    1.245    0.197
        71 -11.0990     13.1747    103.8712   1.0232462972e+02   5.3573528121e+01    0.2684044    0.1767257 -82.98 0.0002982729    1.375    0.273
        72 -10.4774      1.3867    104.3409   1.0692444412e+02   5.4105284853e+01    0.2368378    0.1061586 -76.96  0.001079386    1.950    0.487
        73  -9.7986     66.6152    104.3399   8.1736726889e+01   4.7692588841e+01    0.2436325    0.1840245   2.23  0.001150448    1.719    0.418
        74  -9.1981    186.7124    102.6417   4.9014948071e+01   2.4118445453e+01    0.1437195    0.1043574   3.09 0.0007024092    1.682    0.405
        75 -10.0288    247.1816    101.5812   4.0005602501e+01   1.3199687773e+01    0.1508274    0.1059774  31.34 0.0006858908    1.639    0.390
        76 -10.0903     61.4630     99.5063   8.2626362300e+01   4.9679334098e+01    0.1458823    0.1414331 -85.64 2.008224e-05    1.022    0.022
        77 -11.3900    196.8661     97.4134   4.6007694118e+01   2.2878917391e+01    0.2331725    0.1982559 -31.35 0.0003439975    1.088    0.081
        78 -12.3075     19.9803     92.9484   9.8386314731e+01   5.5966821935e+01    0.5484048    0.3626463 -24.96  0.002750374    1.859    0.462
        79 -11.5772      7.1327     90.6180   1.0362526778e+02   5.7381009191e+01    0.2418167    0.1990108 -89.67  0.001369078    1.080    0.074
        80  -9.6040     37.3335     95.6944   9.1497570229e+01   5.3693546399e+01    0.1518923   0.09878054  60.84 0.0003076987    1.665    0.399
        81  -9.6264      7.2810     95.6080   1.0398518404e+02   5.6071264192e+01    0.1464813   0.08288135  62.22 6.638233e-05    1.748    0.428
        82 -11.7704    125.1722     93.0556   5.9963451517e+01   3.9158832492e+01    0.2544071    0.2491299  15.16 0.0002316965    1.029    0.028
        83  -9.8647     30.9751     93.2831   9.3763255502e+01   5.4958411652e+01       0.3724    0.1574277  56.99  0.001338689    3.048    0.672
        84 -10.4325    106.0579     92.3499   6.5280447952e+01   4.3405218380e+01     0.317874    0.2083295 -66.46 0.0009929548    1.971    0.493
        85 -11.4410     58.0967     91.3027   8.2117018279e+01   5.2254676596e+01    0.3597548    0.2583973 -35.95 0.0009377538    1.596    0.373
        86 -10.0252     83.5713     90.1821   7.2144464935e+01   4.8334285120e+01    0.2501099     0.202706  37.70 0.0001116314    1.236    0.191
        87 -11.1274     11.1278     93.3173   1.0217825945e+02   5.6455506008e+01    0.2846971    0.2116344 -73.18 0.0005052178    1.217    0.178
        88  -9.9563    160.1373     89.1958   5.0587416791e+01   3.2058365103e+01    0.1987072    0.1744463 -76.46 0.0004169567    1.320    0.242
        89  -9.5313    141.2758     88.6830   5.4629490485e+01   3.6419086414e+01    0.1498199    0.1193509 -74.19 0.0001789683    1.569    0.363
        90 -10.9086     30.3714     84.7811   9.2613767124e+01   5.7252328575e+01     0.226091    0.2149985 -45.65 0.0003166244    1.104    0.094
        91  -9.9928     17.6628     84.8913   9.8365055957e+01   5.8254724176e+01    0.2123399    0.1812278 -26.87 0.0005579815    1.308    0.235
        92  -9.6532     34.6975     84.1006   9.0546645076e+01   5.7007813192e+01    0.1970157    0.1734368 -68.12 0.0006004864    1.068    0.064
        93 -10.5348      7.7433     83.8284   1.0272393240e+02   5.9126379855e+01    0.3196494    0.1767855 -38.61  0.001339535    2.005    0.501
        94 -10.8003     65.9708     80.4155   7.6153944053e+01   5.3775806289e+01    0.4598123    0.2932741 -20.45  0.001707095    2.481    0.597
        95  -9.6522    250.4884     80.5352   3.5090844551e+01   1.5201359115e+01    0.1207734   0.09707186 -27.56 0.0001348009    1.002    0.002
        96 -10.3400     86.9974     77.4529   6.7192205619e+01   5.0646338814e+01    0.5322526     0.378327 -54.60  0.002460425    1.442    0.307
        97  -9.1216     43.0221     80.7504   8.6107619877e+01   5.6957093465e+01    0.1641346    0.1233071  29.04 0.0001928482    1.387    0.279
        98  -9.1792    124.6322     79.2651   5.6026362674e+01   4.2057372745e+01    0.1564118    0.1220387  87.27 0.0006987692    1.654    0.395
        99  -9.0021     80.3007     79.6624   7.0327816910e+01   5.1432175394e+01    0.1566334    0.1206187  81.78  0.000364398    1.663    0.399
       100 -10.1990     48.0827     78.9192   8.3408349904e+01   5.6793918269e+01    0.2135991    0.2009784 -45.38 0.0003773988    1.075    0.070
       101  -9.6666    158.1239     77.1961   4.7592885154e+01   3.4584632481e+01    0.2004171    0.1706674 -66.06  0.000387647    1.295    0.228
       102 -10.8655     53.3472     75.8638   8.0275302569e+01   5.6847997427e+01    0.4349789    0.2852156  20.33  0.001468476    1.750    0.429
       103  -9.9915     22.5560     76.7441   9.4856348974e+01   6.0038469598e+01    0.1880147    0.1248371 -89.58 0.0004799438    1.533    0.348
       104 -11.4520     13.1476     76.4912   9.9352172923e+01   6.0754744073e+01    0.4372607    0.2358491   2.29  0.002011555    2.255    0.556
       105 -11.6170      5.1172     75.3797   1.0309368591e+02   6.1460441715e+01    0.4020518    0.1778206 -69.78  0.001807978    1.912    0.477
       106  -9.9494    177.0740     76.1859   4.3774912208e+01   3.0377087817e+01    0.2232984    0.1950923  19.73 0.0009595084    1.260    0.207
       107 -10.0276     69.7097     74.5573   7.2917776727e+01   5.4564297799e+01    0.3347225    0.1897703  41.13  0.001411701    1.769    0.435
       108 -11.0739    151.2123     72.1792   4.7518414597e+01   3.7072439516e+01    0.2537573    0.2367036 -62.09 0.0002180442    1.094    0.086
       109  -9.4784    105.8612     71.7076   5.9004827449e+01   4.7875337778e+01     0.219648    0.1370571  55.72 0.0006184351    1.705    0.414
       110  -9.9240     93.3301     71.5818   6.3062870958e+01   5.0647930483e+01    0.3146105    0.1455716  50.46  0.001133304    2.295    0.564
       111  -9.6290    178.6351     81.2737   4.4902040446e+01   2.9230113588e+01    0.1437684    0.1097497 -72.20 0.0007003547    1.666    0.400
       112 -12.6176      8.7638     61.3521   9.9455195343e+01   6.4945200962e+01     1.471133    0.3743428 -66.14  0.005326338    2.908    0.656
       113 -14.2416     20.1459     57.8298   9.2437853178e+01   6.5140785260e+01    0.6031318    0.4199576 -49.44  0.001111868    1.334    0.250
       114 -11.4463     12.3345     48.8814   9.5096128256e+01   6.7952514847e+01     1.200965    0.3072928  36.09  0.004113524    3.973    0.748
       115 -10.8134    191.4855    249.4919   7.4482242616e+01   2.8122233613e+00    0.1874242   0.07687014  29.89 0.0001296802    1.829    0.453
       116  -9.1674     70.0311     69.9671   7.1345161038e+01   5.5596126148e+01    0.1733036    0.1655001 -54.89            0    1.036    0.035
       117  -9.9140     51.8548     67.1646   7.8480740230e+01   5.9229252384e+01     0.267508    0.2082117  37.87  0.001367131    1.318    0.241
       118  -9.4699     47.8176     69.1684   8.0965172722e+01   5.9298725657e+01    0.2255689    0.1640353 -27.93 0.0002524097    1.605    0.377
       119  -9.6022     45.0000     68.6167   8.2155757381e+01   5.9811156108e+01    0.3059722    0.1474359 -70.66  0.001163615    2.428    0.588
       120  -9.9750     58.7512     66.6008   7.5134719710e+01   5.8312336796e+01    0.4166248    0.1794363 -49.91   0.00128724    2.224    0.550
       121  -9.8169    211.8055     67.3707   3.6343220846e+01   2.4089532056e+01     0.166068    0.1619501  14.16 0.0006316871    1.138    0.121
       122  -9.9110     40.0442     65.3024   8.3680043366e+01   6.1267331711e+01    0.1952039    0.1815415  36.11 0.0003829126    1.128    0.113
       123  -9.8303     38.9697     61.5059   8.3162946758e+01   6.2350833269e+01    0.1906854    0.1855685  26.70 0.0003695226    1.082    0.076
       124 -10.0215    138.1462     63.3699   4.7581946517e+01   4.1756809244e+01    0.2921657    0.2132773  -0.83 0.0009983623    1.888    0.470
       125  -9.6442     63.0000     62.4387   7.1854005830e+01   5.8594344086e+01    0.3351181   0.08332584 -52.76 0.0009367887    3.951    0.747
       126 -10.7274     57.5501     59.4245   7.3302127634e+01   6.0214276858e+01    0.4257741    0.2821137  -0.60 0.0008948872    2.353    0.575
       127  -9.6404     90.9534     59.9208   5.9791160611e+01   5.3627400326e+01    0.2395724    0.1883546 -77.53  0.001110471    1.614    0.380
       128 -10.2870    146.2456     59.0291   4.4408002428e+01   4.0472672754e+01    0.2627319    0.2151176  57.87  0.001072257    1.227    0.185
       129  -9.9076     49.0397     59.2568   7.7354483702e+01   6.1567756444e+01    0.2283827    0.1911011  67.14  0.001198864    1.374    0.272
       130 -12.4519    119.4444     47.3600   4.6416984728e+01   4.9142823662e+01    0.3156998    0.2985478  33.58 0.0002625188    1.098    0.090
       131 -13.5512    114.5376     53.0564   4.9851778585e+01   4.9400331272e+01    0.4092657    0.3863414 -42.28 0.0008096735    1.073    0.068
       132 -13.0839    106.1698     50.3191   5.1191387977e+01   5.1939040341e+01    0.4620511    0.3492326  65.72 0.0005615917    1.411    0.291
       133  -9.3536    130.7096     57.3026   4.7258963198e+01   4.4640033290e+01    0.1544244    0.1177176 -70.83 0.0002723228    1.568    0.362
       134 -10.9306     71.5323     56.7064   6.6079164160e+01   5.8334011403e+01    0.3891746    0.2457674  53.14   0.00169817    1.770    0.435
       135 -12.4072     67.0306     52.6106   6.6444901060e+01   6.0087562588e+01    0.5042178     0.282279  37.47  0.001285007    1.833    0.455
       136 -10.1657     32.9123     55.7799   8.4746882520e+01   6.4476320814e+01    0.2146699    0.1691346 -35.44   0.00115306    1.284    0.221
       137 -10.4165     37.5807     52.7627   8.1230526858e+01   6.4679580026e+01    0.4910534    0.2651614 -31.80  0.002014963    2.359    0.576
       138 -12.2881     86.6173     53.8544   5.9035020019e+01   5.5813053902e+01    0.4723827    0.3112403  39.09 0.0004103908    1.565    0.361
       139 -10.0018     88.7372     49.0981   5.6365712055e+01   5.6274232590e+01    0.2504908    0.2047753 -51.07 0.0003030575    1.277    0.217
       140  -9.4319    226.0000     53.9843   3.1426314881e+01   2.2888961419e+01    0.2184144   0.06312821 -28.35 0.0008052574    2.962    0.662
       141  -9.6253     34.6728     73.3736   8.8336327878e+01   5.9806947846e+01    0.2810723    0.1247025  29.92  0.001147136    2.255    0.556
       142 -10.4637     44.9560     52.4031   7.7113877803e+01   6.3793428851e+01    0.2603371    0.1877877 -43.67 0.0007159315    1.346    0.257
       143  -9.3449    181.9814     52.0200   3.6120076009e+01   3.2771899937e+01    0.1718795    0.1525915 -39.49 0.0003495777    1.054    0.051
       144 -10.4559    148.9747     52.2076   4.1621376697e+01   4.0859936699e+01    0.2296957      0.19448 -72.70 0.0005861846    1.255    0.203
       145  -9.7186    232.5562     50.6603   2.9994333324e+01   2.1987784306e+01    0.2467273    0.1111166 -23.86   0.00114253    2.092    0.522
       146 -11.0145    138.2562     48.9741   4.2672092916e+01   4.4083039520e+01    0.5315471    0.2890799 -44.63  0.001901288    1.864    0.463
       147 -10.9119    155.3029     46.9014   3.8713594186e+01   4.0042684730e+01    0.2984694     0.263904  31.27 0.0004836941    1.257    0.205
       148  -9.8711    145.4231     48.0860   4.0922116968e+01   4.2385158613e+01     0.217069    0.1915116  66.13 1.875314e-05    1.130    0.115
       149 -10.2830     74.5729     47.6919   6.1215766895e+01   5.9628905471e+01    0.2781612    0.2152141  73.43 0.0008525345    1.664    0.399
       150 -10.8297     68.7789     46.4239   6.3147375918e+01   6.1062030862e+01    0.2484308    0.2277244  15.86 0.0003216175    1.121    0.108
       151 -11.1957     79.1166     45.4488   5.8435534604e+01   5.9112266684e+01    0.2603842    0.2547401  55.54 0.0003620754    1.046    0.044
       152  -9.0732     54.3780     46.3039   6.9892414988e+01   6.3734169392e+01    0.1530028    0.1120561  -9.23 0.0007026748    1.772    0.436
       153 -10.0791     26.3037     45.1489   8.5371533080e+01   6.7786160230e+01    0.3897186    0.2708553 -61.42  0.002049252    1.342    0.255
       154 -10.0578     30.5839     43.6146   8.2210219576e+01   6.7708227037e+01    0.4853511    0.2475424 -61.59  0.002152796    1.886    0.470
       155 -11.0482     16.7335     42.4267   9.0681909567e+01   6.9279056191e+01    0.4626498    0.2604695 -60.53  0.001449325    1.553    0.356
       156 -10.0585    221.0517     43.0855   2.9198099910e+01   2.5181567483e+01    0.1909744    0.1614346 -42.57 0.0003021518    1.016    0.016
       157  -9.8800     95.0555     43.0087   5.1679031313e+01   5.5920970567e+01     0.189264    0.1685251  51.69 0.0005478268    1.100    0.091
       158 -10.9034    184.4308     40.5358   3.2441075582e+01   3.3688366540e+01    0.3813739     0.299559  86.57  0.001673858    1.346    0.257
       159 -10.9886    141.3981     41.0577   3.9253671592e+01   4.4450393769e+01    0.3250811    0.2524199 -79.52 0.0005118603    1.431    0.301
       160  -9.6636     90.3227     42.6954   5.3129444557e+01   5.7097433774e+01    0.1527475    0.1203443 -80.74  0.000445665    1.638    0.390
       161  -9.0770     86.4853     42.4053   5.4352453080e+01   5.8040410827e+01     0.150408    0.1424395  29.04 0.0001050155    1.054    0.052
       162 -10.4080     59.2034     41.3796   6.5385095556e+01   6.3938870744e+01    0.3313046    0.2530079  71.99   0.00157625    1.796    0.443
       163 -10.1188     36.2242     41.6093   7.8032531954e+01   6.7505176997e+01    0.2970738    0.2386108 -18.47 0.0007552373    1.326    0.246
       164  -9.5171     39.3399     40.2685   7.5635301909e+01   6.7398191736e+01    0.2342061    0.1272609 -54.26 0.0006538366    1.766    0.434
       165 -10.8601    170.3081     39.9834   3.4142576964e+01   3.7208991502e+01     0.330408    0.2367239 -79.06 0.0005091746    1.561    0.359
       166  -9.5231     43.8090     39.8689   7.2868337641e+01   6.6844428245e+01    0.1831906    0.1650524  63.93 0.0003896747    1.290    0.225
       167 -12.7088    121.3533     37.3144   4.2071754829e+01   5.0220647372e+01    0.3865824    0.3604141 -17.44 0.0008981598    1.140    0.123
       168  -9.7555    117.8386     31.5859   4.0583251259e+01   5.1963498095e+01     0.297515    0.2131875  85.84   0.00086928    1.605    0.377
       169  -9.7588      7.8812     38.6360   9.5707979708e+01   7.0765249792e+01    0.1792518    0.1120141  29.39 0.0009380389    1.752    0.429
       170 -10.9245     80.9725     67.4281   6.6144889672e+01   5.4108284520e+01    0.3561574    0.2145543 -48.15 0.0003074799    1.658    0.397
       171 -10.2399     49.8726     33.6166   6.6603259140e+01   6.7202740079e+01    0.2436425    0.1957634 -50.09 0.0003777937    1.276    0.216
       172  -9.8083     40.8700     34.5788   7.2245378829e+01   6.8442985570e+01    0.1934117    0.1348863  31.75 0.0006296554    1.470    0.320
       173 -11.1560     28.4633     33.1382   7.9550844856e+01   7.0399003744e+01    0.2533633       0.1983 -21.78 0.0004902746    1.311    0.237
       174 -11.5539    206.0910     32.3378   2.7798037650e+01   2.9638654438e+01    0.2530334    0.2122571 -77.42 0.0002462105    1.206    0.171
       175  -9.7812     67.4777     39.9565   6.0878177128e+01   6.2626157219e+01    0.2040454    0.1289318 -66.30 0.0008087255    2.453    0.592
       176 -10.6719    144.6986     30.4830   3.4887228489e+01   4.5010492740e+01    0.5294686    0.2588012 -22.49   0.00141182    2.267    0.559
       177 -11.5413    135.8189     29.2824   3.5991571390e+01   4.7513021863e+01    0.3269459    0.2420308 -53.62 0.0002873966    1.389    0.280
       178  -9.6134    128.8947     31.6818   3.8236078836e+01   4.9033920405e+01    0.2451495    0.1753276  43.13  0.001157642    1.485    0.327
       179 -10.1893     81.9869     32.1043   5.1283782608e+01   6.0881121571e+01     0.216902    0.2089705  32.92 0.0003706703    1.006    0.006
       180 -10.0830     91.8013     30.5982   4.7217279358e+01   5.8768026978e+01    0.3091729    0.2166788  68.84  0.001432757    1.574    0.365
       181 -11.3514     91.1890     26.9425   4.5683497121e+01   5.9473055565e+01    0.4314558    0.2789674  56.37 0.0009496568    1.487    0.328
       182 -12.5774     10.0366     29.5454   9.1637675539e+01   7.2867132013e+01    0.5829509    0.2330307  34.07  0.002502631    2.708    0.631
       183  -9.5037    230.1511    247.2213   6.7917215933e+01  -1.0880826597e+00    0.1223996   0.08997656  13.04 0.0005009253    1.266    0.210
       184  -9.3430      6.6344     19.9141   9.1174775555e+01   7.5340709969e+01     0.294572    0.2195578  -2.63  0.001253445    1.398    0.284
       185  -9.5761    188.4283     29.8557   2.8859980230e+01   3.4010385555e+01    0.1887886    0.1295057 -10.59  0.000945783    1.707    0.414
       186  -9.1139     59.4489     30.4836   6.0052629448e+01   6.6046020151e+01    0.1450883     0.133671   1.08  0.000807185    1.072    0.067
       187 -10.3757     54.3789     29.2475   6.1982296205e+01   6.7254590535e+01    0.2393739    0.2154505  57.11  0.000374005    1.248    0.199
       188  -9.7896     45.0826     30.0662   6.7560650340e+01   6.8733042462e+01     0.304945    0.1855713 -28.64  0.001377289    1.919    0.479
       189  -9.7305     38.9154     30.3037   7.1420320639e+01   6.9648068971e+01    0.1892633    0.1675251  14.61 0.0004224013    1.134    0.118
       190  -9.0504    153.2838     29.7193   3.3259295127e+01   4.2853623303e+01    0.1479817    0.1031646 -62.29 0.0003145328    1.515    0.340
       191  -9.9418     81.0318     26.7809   4.9018896313e+01   6.1964292999e+01    0.2134102    0.1972779 -84.35 0.0004569078    1.207    0.171
       192 -10.3891     68.3977     26.1576   5.3674838659e+01   6.4948290050e+01    0.3118103    0.2714394  37.54  0.001711321    1.114    0.103
       193 -10.0500    216.9359     25.6878   2.5122141269e+01   2.7982087506e+01    0.1732653    0.1486747 -58.74 0.0003650766    1.079    0.073
       194  -9.6712    102.7137     26.1086   4.1964937739e+01   5.6669376594e+01    0.2064333    0.1854612 -25.76  0.001105033    1.164    0.141
       195  -9.4086    224.5106    247.5115   6.8829519570e+01  -5.3851396228e-01    0.1023462   0.06842181   9.71  0.000810489    1.002    0.002
       196 -10.1534    191.0224     24.7166   2.7108368861e+01   3.3965643649e+01    0.1874343     0.167511 -80.68 0.0005013002    1.104    0.094
       197  -9.8710     51.3593     24.8957   6.1260670909e+01   6.8634905534e+01     0.197597    0.1734587 -28.53 0.0005777822    1.115    0.103
       198  -9.5768     34.1716     23.8776   7.1237219053e+01   7.1679155316e+01    0.1875476    0.1485956  -6.33 0.0004020222    1.341    0.254
       199  -9.9929    128.1516     23.1231   3.5016105303e+01   5.0325711083e+01    0.2197577    0.1926428  40.14  0.000331679    1.208    0.172
       200  -9.7440     59.0000     22.9001   5.6199830188e+01   6.7491162670e+01    0.2315583   0.07987931 -38.27 0.0007999793    2.925    0.658
       201 -10.3568    200.2996     21.9747   2.5489977415e+01   3.2085227050e+01     0.184452    0.1545859 -41.54 0.0003963585    1.074    0.069
       202  -9.9763    170.9305    246.7846   7.7759950896e+01   5.4573082295e+00    0.1719592    0.1112702  12.66 0.0008417806    1.289    0.224
       203 -10.1637    116.1133    246.7749   8.8145394607e+01   1.1961892624e+01    0.1661166     0.119484  40.00  0.001111652    1.221    0.181
       204 -10.3026     52.2909    244.5653   1.0086605895e+02   1.9414687485e+01    0.1547323     0.128897 -34.12  0.001184941    1.747    0.428
       205  -9.6142    131.9772     20.5084   3.3299113122e+01   4.9607862753e+01    0.2179281    0.1367305  64.92 0.0006039749    1.508    0.337
       206  -9.7828    146.5310    244.4855   8.2013379105e+01   8.6308837598e+00    0.1127429    0.0816928  21.38 0.0002506076    1.049    0.046
       207 -10.0310     39.4631     14.5406   6.2164686906e+01   7.2636856998e+01    0.2199742    0.1915371 -29.32 0.0006421215    1.122    0.109
       208 -10.1136     39.1754    242.3505   1.0342644099e+02   2.1073631648e+01    0.2236979   0.08116335  66.76 0.0008455571    3.308    0.698
       209  -9.4260     61.1993    240.6382   9.8825332423e+01   1.9119212342e+01    0.1535293   0.08633903  22.86 0.0004868422    1.665    0.399
       210  -9.4800    214.6985     19.6869   2.3740671912e+01   2.9089673379e+01    0.1192211   0.09578252  25.82 0.0003977249    1.611    0.379
       211  -9.7695    184.4833     19.5265   2.6216973821e+01   3.6097873543e+01    0.1352721    0.1230844 -58.84 -2.20894e-06    1.021    0.021
       212 -10.1861    155.4707     17.8913   2.8875014464e+01   4.3638787381e+01    0.2776603    0.2268233 -66.07  0.001510591    1.183    0.154
       213  -9.4552    119.9723     19.0050   3.4888589553e+01   5.3009144761e+01    0.1771461    0.1611052  72.73   0.00034341    1.045    0.043
       214 -10.6334      1.5144    249.4916   1.1102461499e+02   2.3225982113e+01    0.3170671    0.1298603  32.22  0.001283073    1.716    0.417
       215  -9.6282     54.3927     18.6771   5.6064338396e+01   6.9136764599e+01    0.1875739    0.1308145 -24.82 0.0006347462    1.512    0.339
       216  -9.4782     75.7407     26.2541   5.0727973917e+01   6.3283395916e+01    0.2044789    0.1648694  16.97  0.001039048    1.382    0.277
       217  -9.5567    204.1987    235.4000   7.0517896335e+01   2.8815065480e+00    0.1367215   0.07939038  31.54 0.0005432531    1.514    0.339
       218 -10.5469      1.7485    245.9729   1.1092874223e+02   2.3773093214e+01    0.2402477    0.1135127  52.79   0.00123644    1.478    0.324
       219  -9.1278    249.3740    233.2438   6.3132855987e+01  -1.7444706271e+00    0.1029439   0.05331674   8.36 0.0005562541    1.627    0.385
       220 -11.0617     69.8864     18.1290   4.8651698238e+01   6.5873340564e+01    0.4004337    0.2043302  54.73  0.001699433    1.922    0.480
       221 -10.8989    238.1651     16.8515   2.1521529067e+01   2.4497435934e+01    0.1993242    0.1620276 -19.98  0.000268446    1.281    0.219
       222  -9.8171     32.2946    233.0718   1.0446255280e+02   2.3283593263e+01    0.1508183    0.1112475  48.32 0.0004199926    1.045    0.043
       223 -10.5216    202.9760     16.6868   2.3819543289e+01   3.2014738008e+01    0.1827161    0.1560133 -70.40 0.0004499432    1.107    0.097
       224 -10.1801    125.0481     17.0490   3.3123930258e+01   5.1865468817e+01    0.2177373    0.2009895  67.70 0.0003649611    1.045    0.043
       225 -10.4872    160.4415     15.8323   2.7573072760e+01   4.2555522039e+01    0.3437587    0.1814668  65.72  0.001155555    1.814    0.449
       226  -9.7205    169.7736     15.1990   2.6343687400e+01   4.0216419127e+01    0.2660837    0.1086929 -57.82 0.0009674869    2.867    0.651
       227 -10.1941    245.0338    229.9545   6.3304251846e+01  -1.0031036295e+00    0.3039965   0.08753429  29.00   0.00143103    3.031    0.670
       228 -10.8781    140.2216    227.9977   8.1374694218e+01   1.1632452526e+01    0.2302984    0.1931053 -88.98  0.001534154    1.942    0.485
       229 -11.7172      2.3105    225.3329   1.1048246219e+02   2.7230721558e+01    0.3609871    0.1174625  67.74  0.001872305    2.699    0.629
       230  -9.6394    223.4352    226.5213   6.6133100460e+01   1.6451932568e+00    0.1059371   0.07539475   7.33 0.0001608491    1.029    0.029
       231  -9.5076    210.2824    229.3705   6.8676588831e+01   2.8335480999e+00    0.1116052   0.06366879   1.21 0.0007015064    1.698    0.411
       232  -9.4533    236.0137    138.4742   4.9102306721e+01   1.0311418634e+01    0.1604372    0.1121501  35.68 0.0008721299    1.539    0.350
       233  -9.6519    130.8174    221.3521   8.2509256504e+01   1.3820079749e+01     0.180799   0.09141447  25.06  0.000956602    1.744    0.427
       234  -9.7652    220.3011     11.3521   2.1234527582e+01   2.8699905501e+01    0.1180209   0.09269588  24.50 0.0004861018    1.698    0.411
       235 -10.4671      7.9947    219.7946   1.0917593255e+02   2.7773330682e+01    0.1510106     0.111515  51.68 0.0004388435    1.030    0.029
       236 -13.0012      5.2096    240.4146   1.1016670097e+02   2.4408542506e+01    0.5191168     0.389924  78.14  0.004229471    1.394    0.283
       237 -10.4459     85.9202    215.0275   9.1571783110e+01   2.0607492799e+01    0.1753175    0.1410003  37.65  0.001189322    1.019    0.018
       238  -9.3883    205.4281    211.7621   6.6948263288e+01   5.3976897293e+00    0.1490605   0.08965985 -16.32 0.0009432677    1.627    0.385
       239  -9.1535    229.7322    209.3567   6.2587968446e+01   2.7372857433e+00   0.08936118    0.0802049 -11.70 0.0006047111    1.636    0.389
       240  -9.3502     20.4878    209.5172   1.0612596255e+02   2.8634777067e+01    0.1192698   0.08433081  50.39 7.938427e-05    1.074    0.069
       241  -9.9327     39.3267    206.9734   1.0168274077e+02   2.7348829053e+01    0.1624592    0.1306429  60.50 0.0005394055    1.123    0.110
       242  -9.5483    124.0016    205.9830   8.2093609949e+01   1.7163684228e+01     0.144155    0.1159004  28.65            0    1.008    0.008
       243  -9.4074     46.4437    202.5013   9.9740608907e+01   2.7486509025e+01    0.1221858   0.09589006  48.03 0.0001155565    1.016    0.016
       244  -9.5749    194.0694    201.4893   6.7370178793e+01   8.1283020750e+00    0.1731631   0.09630182  30.34 0.0005554884    1.536    0.349
       245 -11.1001      4.1901    201.1583   1.0958353486e+02   3.1603068218e+01    0.1580056    0.1399779  56.81 0.0006962852    1.194    0.163
       246  -9.4925     22.4967    200.5300   1.0531230453e+02   3.0207337004e+01    0.1197707    0.0904596  50.88 -3.924653e-05    1.023    0.023
       247  -9.7329     19.0000    195.0027   1.0591945846e+02   3.1624669185e+01    0.1758826   0.06210203 -82.56 0.0008041455    2.954    0.662
       248  -9.5124      1.1608    191.2188   1.1006399055e+02   3.3819934675e+01     0.167467   0.06377119  78.64 0.0006535571    2.466    0.594
       249  -8.6933     18.3349    182.3303   1.0555665665e+02   3.4320051667e+01    0.1125639   0.08884112 -37.25 0.0007052122    1.728    0.421
       250 -10.0615     13.6059    180.9867   1.0670187724e+02   3.4999516089e+01    0.2701494   0.09012538  81.78  0.001117988    3.240    0.691
       251  -8.9941     22.6705    179.7042   1.0432377551e+02   3.4508161922e+01    0.1111185   0.09173887 -32.42 0.0003840835    1.634    0.388
       252  -9.3469     68.9397    178.3868   9.2096809818e+01   2.9824219382e+01    0.2148688     0.109641   4.18 0.0007009358    4.767    0.790
       253  -9.4987      3.5057    177.5480   1.0915062001e+02   3.6510703292e+01    0.1185953   0.09534448  57.23 4.345342e-05    1.026    0.025
       254  -9.7667      1.6599    170.8403   1.0944150171e+02   3.8097615857e+01    0.1744373   0.08906258  75.97 0.0005674144    1.738    0.425
       255 -10.0945      6.9650    168.4687   1.0796993780e+02   3.8244177264e+01    0.1763113    0.1058184  28.58 0.0004249698    1.557    0.358
       256  -9.2185    226.2063    164.0014   5.5481018017e+01   8.5033214466e+00    0.1529914   0.08152501 -29.16 0.0008288462    1.689    0.408
       257 -11.3733      4.9848    153.9872   1.0799876015e+02   4.1678105996e+01    0.4875647    0.2050143  24.10  0.002359775    2.251    0.556
       258  -9.4870     46.4777    152.5593   9.5702668487e+01   3.8319659117e+01    0.1350138    0.1177277  57.36 9.753201e-05    1.009    0.009
       259 -10.9775      6.5954    145.3436   1.0718230308e+02   4.3605063075e+01    0.2282211    0.1879425  63.65 0.0002576615    1.020    0.019
       260 -10.1495     29.0218    143.0537   1.0015718408e+02   4.2384156081e+01    0.1947148    0.1697243  64.19 0.0003043588    1.004    0.004
