#   1 NUMBER                 Running object number                                     
#   2 MAG_AUTO               Kron-like elliptical aperture magnitude                    [mag]
#   3 X_IMAGE                Object position along x                                    [pixel]
#   4 Y_IMAGE                Object position along y                                    [pixel]
#   5 X_WORLD                Barycenter position along world x axis                     [deg]
#   6 Y_WORLD                Barycenter position along world y axis                     [deg]
#   7 A_WORLD                Profile RMS along major axis (world units)                 [deg]
#   8 B_WORLD                Profile RMS along minor axis (world units)                 [deg]
#   9 THETA_WORLD            Position angle (CCW/world-x)                               [deg]
#  10 FWHM_WORLD             FWHM assuming a gaussian core                              [deg]
#  11 ELONGATION             A_IMAGE/B_IMAGE                                           
#  12 ELLIPTICITY            1 - B_IMAGE/A_IMAGE                                       
         1 -10.3048    226.3733     16.5021   4.7580842552e+01   2.5706624263e+01    0.5412211    0.5016133 -30.00  0.002536441    1.103    0.093
         2 -12.2385    237.3485      5.1809   4.3640336785e+01   2.4184955977e+01     1.454475    0.8274817  65.02  0.007347127    1.767    0.434
         3  -8.9669     80.6336     12.4766   7.2918143809e+01   6.2458968036e+01    0.2654921    0.1837187 -46.62  0.001290282    1.777    0.437
         4  -8.0563    142.9891     10.9996   5.6822180634e+01   4.8118510527e+01    0.2635067    0.1554755  33.08  0.001151031    1.863    0.463
         5  -8.1379    105.7429      1.6256   6.0629843534e+01   5.8267835166e+01    0.1908462     0.130124  71.05 0.0009569226    1.691    0.408
         6  -9.8225    109.9223    241.5540   1.1644516327e+02   1.4231410120e+01     0.294721    0.1668611 -62.87 0.0008202282    2.236    0.553
         7 -12.4621    243.0487    241.7532   9.4599679151e+01  -5.4554961902e+00     1.434108    0.8949784  17.95   0.01031156    1.315    0.240
         8  -8.1174    143.9498    250.1222   1.1159556360e+02   8.2029551992e+00    0.1632646    0.1135009  56.95  0.001057418    1.344    0.256
         9  -8.0916    128.9660    241.5096   1.1322980999e+02   1.1510104303e+01    0.1624028    0.1089345  53.70 0.0003177118    1.212    0.175
        10  -9.5885    134.7549    248.7693   1.1297752786e+02   9.7105606440e+00    0.5231081    0.2087707  48.76  0.002909404    1.949    0.487
        11  -8.3927    132.2168    244.3786   1.1296748339e+02   1.0651836575e+01    0.2092498    0.1209743  48.99 0.0006572346    1.308    0.236
        12  -8.3007    122.5106    249.6948   1.1508451174e+02   1.1342621058e+01    0.1490153    0.1389915  20.78 0.0008708414    1.464    0.317
        13  -9.0186    103.4808    249.0764   1.1815414987e+02   1.4066602057e+01    0.2912891    0.2248644  46.43  0.002331714    1.191    0.161
        14 -11.7401     85.4710    236.7400   1.2016091000e+02   1.8265295427e+01     1.678372     1.226623  66.16   0.01301697    1.142    0.124
        15 -14.0150    111.8302    205.7973   1.1250325729e+02   1.9456433087e+01     3.884192     3.458225 -43.35   0.02799014    1.505    0.335
        16  -8.7146    150.9681    240.9563   1.0945404161e+02   8.3146979409e+00    0.2376563     0.163343  71.76  0.001314557    1.974    0.493
        17 -10.9311    147.8447    228.1232   1.0852658991e+02   1.0487025436e+01    0.5126403    0.4687012  58.59  0.001159386    1.213    0.176
        18 -10.4724    154.8737    228.9754   1.0739960855e+02   9.2758257503e+00    0.7961071    0.3961197  57.96   0.00406207    2.500    0.600
        19  -9.6450    157.0295    223.5399   1.0635174166e+02   9.6674033962e+00    0.3841252    0.2825135  45.07  0.002216009    1.079    0.073
        20 -10.0049    151.3258    218.7689   1.0676637487e+02   1.1240089563e+01      1.09938    0.3698667  38.45  0.004821425    2.627    0.619
        21  -8.9757    163.0075    248.9869   1.0833893733e+02   5.5316751957e+00    0.2604398    0.1958629  16.65    0.0019181    1.575    0.365
        22  -9.0525    168.0016    233.6352   1.0570420104e+02   6.6279432092e+00     0.413643    0.1548354  35.31  0.001212415    2.505    0.601
        23 -10.0745    139.8681    228.3571   1.0995347046e+02   1.1688356325e+01    0.5237318    0.2687147  36.34  0.002356074    1.742    0.426
        24  -7.9263    218.1842    221.8136   9.5621627397e+01   1.3757820678e-01    0.1529508    0.1034573  21.99 0.0002951142    1.264    0.209
        25 -11.8472     57.6948    232.4188   1.2450819030e+02   2.2416008316e+01     1.698664     1.289277  30.61   0.01299089    1.788    0.441
        26  -9.6008    221.1438    239.0826   9.7639918424e+01  -2.0763594117e+00    0.2297656     0.156958  12.95  0.001315079    1.384    0.278
        27  -9.0575    167.0350    248.9497   1.0767351270e+02   4.9375645796e+00    0.3170773    0.1837342  25.96  0.001970197    1.902    0.474
        28  -8.2955    182.4272    211.1893   1.0015920869e+02   7.1795067283e+00      0.13949    0.1165946 -60.88 0.0006489466    1.683    0.406
        29  -9.2392    151.9374    203.5853   1.0463830236e+02   1.3365739127e+01    0.4508849    0.2871457 -59.00   0.00260835    2.057    0.514
        30  -9.8244    170.4748    204.9551   1.0139885365e+02   1.0037661747e+01    0.4313917    0.1969664  56.49  0.001829034    3.052    0.672
        31  -9.1419    137.8540    211.1905   1.0826942386e+02   1.4517295681e+01    0.4367627    0.1530587  43.66  0.001992538    2.278    0.561
        32  -9.8748    161.4411    195.7529   1.0171013687e+02   1.2935937218e+01    0.8207644    0.3276268 -43.66  0.003726801    3.018    0.669
        33  -9.0375    172.6188    241.8606   1.0592610312e+02   4.9242495852e+00    0.2246612    0.1817871  18.09 0.0007440466    1.328    0.247
        34  -9.5041    246.3622    184.7548   8.4820670867e+01  -2.8099626815e-01    0.2088622    0.2009195 -66.24 0.0008061902    1.697    0.411
        35 -13.6788     59.5548    207.2211   1.2242612029e+02   2.6402290162e+01     2.360398      2.02096  11.02   0.01735491    1.934    0.483
        36  -8.8941    203.0305    167.3080   8.8972487961e+01   9.5997568280e+00    0.2038185    0.1881879 -20.33 0.0004005884    1.208    0.172
        37 -13.2832     41.5415    197.5508   1.2504464284e+02   3.0231184250e+01     3.346063     1.824254 -63.70   0.02145516    2.013    0.503
        38  -8.1925    222.8128    150.1008   8.1958190479e+01   8.2663650976e+00    0.1833348    0.1683216  20.28 0.0003712473    1.120    0.108
        39 -10.3223    143.4601    238.6327   1.1047224820e+02   9.7457648475e+00     1.075423    0.4734894  43.83  0.006105362    1.693    0.409
        40  -7.3553    128.0243     99.9904   9.0061755509e+01   3.7124252575e+01    0.1710316    0.1692644  88.99 -0.003769674    1.004    0.004
        41  -8.8469    221.7156     95.3344   6.9387075548e+01   1.6504682417e+01    0.2595318    0.2282918   6.98 0.0003950088    1.128    0.114
        42  -8.1411    249.6782     92.6511   6.4523845697e+01   1.0795851265e+01    0.1448989   0.09906417  13.06 0.0007048941    1.743    0.426
        43  -8.7452    152.0829     89.8731   8.1466708387e+01   3.3803883710e+01    0.2838785    0.2689402  88.87 0.0009154513    1.135    0.119
        44  -7.9647    184.7101     78.0589   7.1220085010e+01   2.8003516725e+01    0.2138126    0.1940938 -15.77 0.0004082125    1.107    0.097
        45  -8.3586    248.4544     78.4647   6.1214062724e+01   1.2943870837e+01    0.1376606    0.1241584 -22.35 7.204207e-05    1.012    0.012
        46  -9.8185    167.2054     74.3577   7.3621509269e+01   3.2950044711e+01    0.3763694     0.314491  49.04  0.001521318    1.189    0.159
        47  -7.0868     34.6659     66.6840   1.1021453403e+02   5.8895484571e+01    0.1298601   0.08115926 -37.20 0.0002782372    1.691    0.408
        48 -10.4503    182.9508     59.1655   6.5967491860e+01   3.1411941182e+01    0.5331399    0.4457668   4.53  0.001489731    1.327    0.247
        49  -9.4979    122.8607     59.8498   7.9442214077e+01   4.6072938662e+01    0.2360316    0.2316261 -45.85  0.000258075    1.064    0.060
        50  -8.0126     94.7127     52.6575   8.5069423996e+01   5.3270544915e+01    0.1818725    0.1608194 -65.32 0.0006083403    1.311    0.237
        51  -9.6969    178.5903     55.0204   6.5482751710e+01   3.3153030754e+01    0.3453632    0.2770833 -66.11  0.001679826    1.435    0.303
        52  -8.7225    218.7996     46.5814   5.6739493722e+01   2.4058683828e+01    0.3350068     0.214096 -14.12  0.001530301    1.753    0.429
        53  -9.7743    203.5425     38.4873   5.6477436682e+01   2.8954528308e+01    0.2785046    0.2608073  -3.24  0.001557489    1.118    0.105
        54  -9.8996    185.5498     35.9734   5.8344150790e+01   3.3970467535e+01    0.3582441    0.2957139  53.38 0.0005517854    1.197    0.165
        55  -9.2829    195.9213     32.7607   5.5823794425e+01   3.1647016703e+01     0.494639    0.2914958 -71.62  0.001843737    2.329    0.571
        56  -9.7482    178.8727     31.1141   5.7836747511e+01   3.6347092667e+01    0.4348346    0.2392501 -40.60  0.001751296    1.832    0.454
        57  -9.8175    211.9366     30.5105   5.3064014601e+01   2.7774199640e+01    0.3134013    0.2694013  22.69 0.0006396253    1.305    0.233
        58  -8.2147     77.4675     29.5100   8.1774045237e+01   6.0541218476e+01    0.2391522    0.1161327 -46.11 0.0008654323    2.260    0.558
        59  -9.1469    203.6514     23.7694   5.2112984687e+01   3.0686917931e+01    0.6004357    0.2973821 -63.38  0.002222765    2.815    0.645
        60  -8.6311     84.8961     21.5347   7.5733568481e+01   6.0378766651e+01    0.2488909    0.2045301 -19.53 0.0005597266    1.129    0.114
        61  -7.4309     30.3759     22.1957   9.8184784078e+01   6.8466343988e+01    0.1571998    0.1001136 -52.79 0.0002313457    1.495    0.331
        62  -7.3913     50.2832     21.3132   8.8743029251e+01   6.6231415463e+01    0.1282441   0.08678424 -14.14 0.0006988135    1.575    0.365
        63 -13.9652     74.7397    163.2943   1.1506932148e+02   3.2808828992e+01     4.293925     1.904072  38.01  0.006683119    2.219    0.549
        64  -8.7871    152.6136    250.1410   1.1017234939e+02   6.9309282971e+00    0.3715656    0.1162646  43.59  0.001845984    2.309    0.567
        65  99.0000    191.2033    233.1750   1.0172133565e+02   3.0754789874e+00     1.623156    0.8879318  57.32  0.008650901    2.604    0.616
        66 -11.8470    180.5988    240.4084   1.0442119088e+02   3.8785233549e+00     1.327653    0.8697604 -46.60  0.009132067    2.119    0.528
        67  -9.5863     75.1739     17.8205   7.7339191402e+01   6.2759799704e+01    0.2786213    0.2065246 -30.50 0.0004739595    1.276    0.216
        68  -7.7132    189.5609     15.4968   5.1349954713e+01   3.5292757353e+01    0.1419152    0.1370444 -85.38 0.0001435295    1.009    0.009
