#   1 NUMBER                 Running object number                                     
#   2 MAG_AUTO               Kron-like elliptical aperture magnitude                    [mag]
#   3 X_IMAGE                Object position along x                                    [pixel]
#   4 Y_IMAGE                Object position along y                                    [pixel]
#   5 X_WORLD                Barycenter position along world x axis                     [deg]
#   6 Y_WORLD                Barycenter position along world y axis                     [deg]
#   7 A_WORLD                Profile RMS along major axis (world units)                 [deg]
#   8 B_WORLD                Profile RMS along minor axis (world units)                 [deg]
#   9 THETA_WORLD            Position angle (CCW/world-x)                               [deg]
#  10 FWHM_WORLD             FWHM assuming a gaussian core                              [deg]
#  11 ELONGATION             A_IMAGE/B_IMAGE                                           
#  12 ELLIPTICITY            1 - B_IMAGE/A_IMAGE                                       
         1 -15.2231    244.8685     36.9623   5.5513273633e+01   2.1175809997e+01     5.217072    0.6701252 -31.97   0.01608495    5.520    0.819
         2 -13.4445      5.8775     38.3910   1.2513598200e+02   7.1403942188e+01    0.9322117    0.6735716 -24.29  0.005316152    1.315    0.239
         3 -12.6993     50.6802     28.4408   9.1615863267e+01   6.8001185412e+01    0.7986563    0.5003725  25.53  0.003819627    1.769    0.435
         4 -12.3604      4.6113      5.6401   1.1287514797e+02   7.8432524943e+01    0.6534209    0.3703819  24.88  0.003706628    1.750    0.429
         5 -12.9443      3.4401     19.5709   1.2086541196e+02   7.5714322496e+01    0.7278578    0.5798393  83.03  0.004527139    1.683    0.406
         6 -12.5568     12.3481     12.7384   1.0951848888e+02   7.6405137627e+01    0.7168872    0.4647182 -13.94  0.003869937    1.575    0.365
         7 -12.4228     55.9855      6.9747   7.6728657166e+01   6.9993910864e+01    0.6800639    0.4291847  47.06  0.003586006    1.385    0.278
         8 -12.3729     84.1452      2.9728   6.5083458253e+01   6.3675719855e+01     0.484939    0.3042143  80.85  0.002384888    1.677    0.404
         9 -10.7422     53.5071    229.4707   1.3103048309e+02   2.0165919519e+01     0.303942    0.1811738  40.02  0.001217501    1.282    0.220
        10 -12.4990     26.2243    178.5695   1.3450917649e+02   3.4173928381e+01     2.469782     1.000846  40.33   0.01112184    1.990    0.497
        11 -14.7374    111.8279    152.7361   1.0634950472e+02   2.8448894416e+01     2.724121     1.591851  30.04   0.01010631    1.744    0.427
        12 -14.3465     54.5069    244.4652   1.3177216309e+02   1.7245720534e+01     2.491105          nan  39.75  0.006979574    6.074    0.835
        13 -12.7621     46.2684    248.8873   1.3381194816e+02   1.7361659289e+01     1.269116          nan  39.23  0.004454776    4.010    0.751
        14 -14.3414     66.4456    178.3278   1.2314625392e+02   2.9576771152e+01       3.9294    0.4836139  36.33   0.01099836    4.380    0.772
        15 -14.2202     49.8255    159.0879   1.2581756975e+02   3.6407335696e+01     2.657531     1.518188  24.97    0.0121896    1.775    0.437
        16 -13.9908     33.0761    208.0971   1.3455801603e+02   2.6784460632e+01     1.726565    0.6581659  32.48  0.007996724    2.060    0.515
        17 -14.2770     83.8900    217.1004   1.2280069046e+02   1.8831106806e+01     1.097557     1.014378  13.44  0.005248553    1.217    0.178
        18 -13.0322      5.2189    180.8492   1.4036286361e+02   3.5459221871e+01     1.119267    0.5950377  84.20  0.005892112    1.742    0.426
        19 -14.8842     76.8737    198.7997   1.2263597224e+02   2.3547892346e+01     2.127285    0.9920505  42.33  0.009659635    1.799    0.444
        20 -16.2710    102.5984    183.4558   1.1397015471e+02   2.3122231900e+01      3.30134     3.044767  71.58   0.01442244    1.169    0.144
        21 -14.8142     17.7606    242.1254   1.3960898494e+02   2.1489371040e+01     1.106546    0.7098305  65.84  0.006001316    1.362    0.266
        22 -14.1253      3.4559    234.3624   1.4242708492e+02   2.4243365807e+01    0.7029061    0.3430012  69.76  0.003939943    1.794    0.443
        23 -14.1340      8.1623    228.1449   1.4124327894e+02   2.5039013555e+01     1.413798          nan  39.65  0.004994915    4.148    0.759
        24 -13.4085      9.3227    249.6813   1.4158811933e+02   2.0889144639e+01    0.3782915     0.218128  47.26  0.001801655    1.210    0.173
        25 -14.0605      2.7861    247.3758   1.4286255667e+02   2.1882142097e+01    0.5262876     0.264111  75.42  0.003295709    1.856    0.461
        26 -11.6352     39.1525    227.0710   1.3419807856e+02   2.2228039677e+01    0.9940558     0.201794  44.44  0.003865294    3.088    0.676
        27 -13.3444     57.0630    214.9303   1.2912584761e+02   2.2660059118e+01     1.083139    0.3676741  39.87  0.003986265    2.172    0.540
        28 -10.2627     50.0387    220.2406   1.3121440711e+02   2.2393421130e+01     0.224555    0.1408636  68.36  0.001232854    1.609    0.379
        29  99.0000      6.5874    210.9040   1.4107744499e+02   2.8682529725e+01    0.5650442    0.3221318  68.56   0.00334379    1.509    0.337
        30 -14.5565     71.5711    237.8685   1.2751968877e+02   1.6450241000e+01     1.932189      0.91093  61.08  0.009240875    2.580    0.612
        31 -11.8540      2.7146    147.1233   1.3960156007e+02   4.3836825384e+01    0.5682352    0.2940957  83.02  0.002155326    1.778    0.438
        32 -14.0541     64.4173    208.4949   1.2676589351e+02   2.3103363653e+01      1.49649    0.4891769  41.47  0.006132626    2.349    0.574
        33 -12.1839     53.3834    135.5146   1.2155538294e+02   4.2034386782e+01     1.458742    0.5120248  36.31  0.005252878    2.508    0.601
        34 -12.1274     43.8519    139.5138   1.2537298513e+02   4.2153733424e+01     1.045319    0.4278557  41.74  0.004094499    2.234    0.552
        35 -12.2412     37.3615    142.3666   1.2791062778e+02   4.2129233571e+01    0.7001983    0.4324542  29.25  0.003381966    1.586    0.369
        36 -12.3492     32.4446    136.2764   1.2889540855e+02   4.4234286688e+01    0.8184237    0.5188624 -63.49    0.0034576    1.541    0.351
        37 -11.3943     15.0253    138.9748   1.3509559470e+02   4.5060301166e+01    0.4835591    0.3074278  63.83  0.002357591    1.485    0.327
        38 -12.4910      3.4097    131.1625   1.3849850337e+02   4.7871665547e+01    0.8078223    0.4635022 -68.87   0.00304374    1.621    0.383
        39 -13.3964      3.7463    112.7848   1.3712999257e+02   5.2643696043e+01     1.599281    0.6332631  85.30  0.006313406    2.605    0.616
        40 -13.4902    115.9150    124.4825   9.9232285951e+01   3.4184279382e+01    0.8958564    0.7427465  67.72   0.00373527    1.334    0.250
        41 -12.4594    108.1477    122.1425   1.0095597099e+02   3.6283265476e+01    0.8132793    0.5352753 -34.43  0.003451681    1.834    0.455
        42 -12.5600     10.3591    107.8264   1.3409776053e+02   5.3573730255e+01    0.9305648    0.4976256  71.05  0.004000575    1.993    0.498
        43 -15.2307     35.2099    194.7803   1.3317302434e+02   2.9496310464e+01     3.721511    0.7818518  29.81    0.0130876    3.410    0.707
        44 -12.2318     68.6319    118.6971   1.1321612033e+02   4.4253594530e+01    0.6721065    0.4711117  63.75  0.003043476    1.619    0.382
        45 -11.8263     46.9028    120.5512   1.2153121208e+02   4.6803937561e+01    0.7911537    0.4589617   9.96  0.003272659    2.259    0.557
        46 -12.1876     97.7545    116.8233   1.0290736565e+02   3.9591644281e+01    0.4276139     0.351896 -19.67  0.002039738    1.484    0.326
        47 -11.3185     29.9750    112.3772   1.2679713850e+02   5.0829306011e+01     0.626811    0.2808422  49.73  0.002468774    2.405    0.584
        48 -10.9015     36.6751    107.9271   1.2342975810e+02   5.1341596960e+01     0.358164    0.1774458 -78.38  0.001429893    2.183    0.542
        49 -13.8698    126.7508    102.0462   9.0538740427e+01   3.6875428169e+01     1.217557    0.6720176 -46.16  0.004907983    1.847    0.459
        50 -11.4570     49.0222    105.0192   1.1790352110e+02   5.0653159269e+01    0.4293025    0.2895238  63.98  0.001952617    1.713    0.416
        51 -11.9717     15.1284     98.6456   1.3108889242e+02   5.5697843452e+01    0.6962476    0.4166831  76.68  0.003236976    1.805    0.446
        52 -11.8657      2.9138     95.7298   1.3603764131e+02   5.7157397139e+01    0.6013958    0.4099628 -80.81  0.003276588    1.318    0.241
        53 -12.5736     28.5184     76.9597   1.2118246160e+02   6.0294152511e+01    0.8868229    0.6024637  -4.35  0.004354418    1.733    0.423
        54 -12.5431      2.7038     84.7531   1.3503484314e+02   6.0028309105e+01    0.8501406    0.3876957 -76.76  0.003226877    1.946    0.486
        55 -13.5550     13.4117     79.7297   1.2921901855e+02   6.0773688938e+01      1.40408    0.9141822 -48.67  0.006217932    1.446    0.308
        56 -12.0510     54.5440     92.8144   1.1294521953e+02   5.3074079203e+01     1.020117    0.6246088  84.71  0.003978219    2.509    0.602
        57 -11.4564     71.0958     92.8150   1.0622737313e+02   5.0432900172e+01    0.3433078    0.2042961  47.65  0.001433531    1.741    0.426
        58 -11.4158     93.7358    245.8736   1.2327724694e+02   1.2306089764e+01    0.3405281    0.1831247  48.55  0.001607929    1.728    0.421
        59 -12.0464    115.6512     76.5511   8.6135655367e+01   4.4745369212e+01    0.5616654     0.369256 -65.80  0.002310093    1.991    0.498
        60 -12.3089    108.0253     74.4979   8.7712604558e+01   4.6955160759e+01    0.4131108    0.3115316  63.46  0.001918238    1.397    0.284
        61 -10.2817      1.4161     68.2273   1.3369025967e+02   6.4319228072e+01    0.3196247    0.1194644 -80.03  0.001279734    2.551    0.608
        62 -11.3500     32.5669     61.3552   1.1507493627e+02   6.3761385690e+01    0.4669378    0.2855529 -82.17  0.002057169    2.225    0.550
        63 -13.9482     11.6755     56.4107   1.2578987509e+02   6.6777914358e+01       1.9905    0.8723497  11.17  0.008646365    2.481    0.597
        64 -10.6664     71.0903     58.8292   9.5378853226e+01   5.8267547747e+01    0.3265072    0.2112904 -37.87  0.001472434    1.654    0.395
        65 -12.7085     87.4252    238.1075   1.2397580492e+02   1.4442820517e+01    0.7851522    0.3879264  51.17  0.003233201    2.003    0.501
        66 -12.5437    136.4202     39.4710   6.8754810220e+01   4.5828832559e+01    0.6651801    0.4587584 -45.67    0.0032492    1.468    0.319
        67 -11.7750     90.9903    232.0873   1.2261086086e+02   1.5065287371e+01    0.7720268    0.2726715  39.80  0.003441506    2.157    0.536
        68  -9.9746     30.9273    246.8399   1.3699060693e+02   1.9335950264e+01      0.21215   0.06898575  45.53  0.001050959    2.075    0.518
        69 -11.1678     31.9761    233.9641   1.3618358958e+02   2.1634230335e+01    0.4125999    0.1501747  43.86  0.001710901    1.922    0.480
        70 -10.4758     25.2587    230.4872   1.3752878404e+02   2.2983397675e+01    0.3701463    0.1409554  35.31   0.00188005    1.883    0.469
        71 -10.7892     52.4893    233.0047   1.3149821170e+02   1.9602014419e+01    0.2336525    0.1978402  -5.21 0.0009594511    1.569    0.363
