#   1 NUMBER                 Running object number                                     
#   2 MAG_AUTO               Kron-like elliptical aperture magnitude                    [mag]
#   3 X_IMAGE                Object position along x                                    [pixel]
#   4 Y_IMAGE                Object position along y                                    [pixel]
#   5 X_WORLD                Barycenter position along world x axis                     [deg]
#   6 Y_WORLD                Barycenter position along world y axis                     [deg]
#   7 A_WORLD                Profile RMS along major axis (world units)                 [deg]
#   8 B_WORLD                Profile RMS along minor axis (world units)                 [deg]
#   9 THETA_WORLD            Position angle (CCW/world-x)                               [deg]
#  10 FWHM_WORLD             FWHM assuming a gaussian core                              [deg]
#  11 ELONGATION             A_IMAGE/B_IMAGE                                           
#  12 ELLIPTICITY            1 - B_IMAGE/A_IMAGE                                       
         1 -16.4002    231.4371     96.2889   2.5254527075e+01   1.4519720857e+01     4.461562     3.122995 -46.27   0.02367671    1.297    0.229
         2 -11.3801     82.0533     69.4493   5.1008833311e+01   5.2206106734e+01    0.7695878    0.2161803 -42.40  0.002522382    3.422    0.708
         3 -10.9966     40.9623     13.8960   4.4710968468e+01   6.7345774767e+01    0.1839429    0.1405174  -7.05 0.0002774169    1.094    0.086
         4 -10.2821    154.6699    240.3351   6.9080176027e+01   3.2322312009e+00     0.126118   0.09247606  64.10 0.0007052104    1.728    0.421
         5 -10.7984     52.4575    250.0089   8.9788139987e+01   1.6546365686e+01    0.2628365     0.154798  36.35  0.001031285    1.731    0.422
         6 -10.6716     57.1476    247.0593   8.8710604666e+01   1.6498472875e+01    0.2133038    0.1886147  36.05 0.0007701159    1.439    0.305
         7 -10.7746    162.0718    225.1842   6.5332052095e+01   4.5551862500e+00    0.3440491    0.2364259   8.80  0.001778275    1.888    0.470
         8 -10.7310     98.2174    225.1943   7.8516647100e+01   1.4942621184e+01     0.333299    0.2057472  37.57  0.001188476    1.527    0.345
         9 -10.3728    115.0000    221.5051   7.4548144262e+01   1.3034584959e+01    0.2696825   0.07491356 -56.27 0.0009420718    3.994    0.750
        10 -10.9229    126.2839    220.5988   7.2050937444e+01   1.1370972354e+01    0.2552595    0.1995799  69.97 0.0007219419    1.418    0.295
        11 -10.0417     74.0355    218.9960   8.2804049490e+01   1.9727068256e+01    0.2143213    0.1289389  66.27  0.001136324    1.704    0.413
        12  -9.9201    143.6144    216.8246   6.7839881482e+01   9.1743233174e+00    0.1765718    0.1295821 -65.64  0.000950217    1.677    0.404
        13  -9.4189     95.6654    217.3332   7.8082047464e+01   1.6899961111e+01    0.1394684   0.08906469  67.62 0.0007052216    1.735    0.424
        14 -10.1190    170.1622    215.1055   6.2041401934e+01   4.9289182348e+00    0.2072223    0.1726483   4.08  0.001126464    1.256    0.204
        15  -9.8919    186.3188    214.6386   5.8696151599e+01   2.2532444948e+00    0.1268088    0.1063417  76.67 0.0007042452    1.768    0.434
        16 -10.5203     76.5155    211.9560   8.1496769123e+01   2.0840578220e+01    0.1921333    0.1198866 -68.14  0.001042069    1.619    0.382
        17 -10.1043    116.4988    210.5000   7.2688021976e+01   1.4970740412e+01     0.136199    0.1198424  58.79 0.0008101294    1.053    0.050
        18 -10.7743    186.0063    204.0319   5.6870375335e+01   4.1147362940e+00    0.2064837    0.1738912  78.98  0.001142203    1.729    0.422
        19 -11.5050    165.1148    202.1182   6.0845267533e+01   8.1595194874e+00    0.5043816    0.3229363 -61.79  0.002372894    2.146    0.534
        20 -11.7079    163.7348    194.6990   5.9799721424e+01   9.8117930316e+00    0.5843192    0.3961578  80.08  0.002433282    2.868    0.651
        21 -10.9139    174.5617    199.4977   5.8391174511e+01   6.9510321274e+00      0.23118    0.1769169  26.27 0.0007264017    1.262    0.208
        22 -11.3582    177.4958    197.0170   5.7323799122e+01   6.8773660765e+00    0.2731771    0.2299086  49.08  0.001546158    1.272    0.214
        23 -10.9200    125.0478    197.1117   6.8739637126e+01   1.6273217565e+01    0.3504145    0.2292963  39.66  0.001750792    1.440    0.305
        24 -10.3410    112.7502    196.1583   7.1362073920e+01   1.8576457558e+01    0.4761391    0.1980877 -60.98  0.001840552    2.793    0.642
        25 -11.1349    172.7920    195.7637   5.8073867978e+01   7.9598644473e+00    0.1898127    0.1674632  66.95   0.00107131    1.369    0.269
        26 -10.2411     66.3227    193.4576   8.1528806241e+01   2.6278147082e+01     0.308713    0.1636638  75.01  0.001326085    2.573    0.611
        27 -10.2292    172.5981    190.7861   5.7181086730e+01   8.9300851877e+00    0.1926344    0.1353844 -55.05 0.0009489756    1.679    0.404
        28 -10.0985    138.8386    188.7162   6.4197139515e+01   1.5567372310e+01     0.268408    0.1733442 -62.73  0.001245354    1.847    0.459
        29 -11.0215     98.1886    188.1393   7.3468997640e+01   2.2726949716e+01     0.349301    0.2110522  53.33   0.00103854    1.675    0.403
        30 -10.5928     95.5282    184.4932   7.3530700420e+01   2.3970962391e+01    0.3399486    0.2305868  50.82  0.001502205    1.432    0.302
        31 -10.5321     94.3397    181.6684   7.3371713677e+01   2.4800000088e+01    0.2578736    0.2218115 -87.47  0.001029664    1.144    0.126
        32 -11.1019     11.9070    187.1060   9.2797812805e+01   3.3858976821e+01    0.1801275    0.1407427 -89.48 0.0005363857    1.044    0.042
        33  -9.7415    165.5007    186.5014   5.7882623555e+01   1.1073125309e+01    0.1416823    0.1348618  31.01  0.000810278    1.045    0.043
        34 -10.2126    109.1175    184.8905   7.0394624855e+01   2.1641209447e+01    0.2266652    0.1870128  74.93 0.0009868069    1.274    0.215
        35 -10.2347    120.2200    184.2011   6.7679328670e+01   1.9872941303e+01    0.2255912    0.1162977 -65.56 0.0007621924    2.510    0.602
        36 -10.3989    174.0461    183.0480   5.5378668005e+01   1.0138256244e+01    0.2217216      0.18252  86.63 0.0009927687    1.702    0.413
        37 -10.5321     20.4503    181.5240   9.0495870301e+01   3.4304838161e+01     0.372177    0.1504793 -86.16  0.001625142    2.632    0.620
        38 -10.7108    147.6813    179.5881   6.0503644200e+01   1.5827171912e+01    0.2470631    0.1854316 -74.60  0.001113268    1.741    0.426
        39 -10.6785    138.3291    178.8676   6.2506740100e+01   1.7735538021e+01    0.2870412     0.135968 -58.12  0.001082192    2.567    0.610
        40 -12.3459      3.4408    177.8129   9.3872203802e+01   3.6642227005e+01    0.3612918    0.2890815 -69.59  0.002576515    1.261    0.207
        41 -10.5057     14.1737    178.0231   9.1564602318e+01   3.5676218893e+01    0.1951503    0.1066747 -55.07  0.001008941    1.917    0.478
        42 -10.0835    183.4099    175.2062   5.1828282499e+01   9.8640670257e+00    0.2018671    0.1358908 -52.31 0.0009492479    1.693    0.409
        43  -9.6410    105.3471    174.6587   6.9567085043e+01   2.4580477788e+01    0.1540689    0.1072688  73.88 0.0007045944    1.791    0.442
        44 -10.8993     77.7984    175.5389   7.6411521420e+01   2.8750272944e+01    0.2728904    0.1635376  75.25  0.001198763    2.225    0.551
        45 -10.8445    177.0574    169.9702   5.2085974799e+01   1.2107573182e+01    0.4125198    0.2050331 -45.06  0.001692247    2.050    0.512
        46 -11.4168    121.7969    167.8548   6.4328405377e+01   2.3215181800e+01    0.6106372     0.316123 -59.29  0.002467782    2.151    0.535
        47 -10.6765     80.1050    163.9552   7.4019579455e+01   3.1128370271e+01    0.3463596    0.1839326 -86.12  0.001244591    3.244    0.692
        48 -10.7462    146.3093    162.7860   5.7458766569e+01   1.9658682432e+01    0.2646866    0.2240891  80.97 0.0005144924    1.413    0.292
        49 -10.9689    205.9758    162.0002   4.4506590055e+01   8.0073953190e+00     0.220229     0.181269 -75.33  0.001135604    1.710    0.415
        50 -10.4983    177.8975    160.3200   4.9853777832e+01   1.3851239780e+01    0.3405894    0.2132803 -57.62  0.001459128    2.006    0.502
        51 -10.8989     92.9675    159.3157   6.9934365743e+01   3.0209768988e+01    0.4253723     0.241579 -72.42   0.00176775    2.173    0.540
        52 -11.3484    197.0823    157.0216   4.5172207775e+01   1.0661531360e+01    0.3072844    0.2103959 -46.29  0.001323744    1.496    0.332
        53 -11.2906    188.5159    156.5173   4.6795996136e+01   1.2465118130e+01    0.4176781    0.2514844 -50.86  0.001636284    1.837    0.456
        54 -12.6844    188.9870    148.4830   4.4908780550e+01   1.3931155627e+01    0.7208734    0.3717161 -51.13  0.002849544    2.219    0.549
        55 -10.4156    105.4784    157.2285   6.6341194283e+01   2.8583060286e+01    0.3473138     0.236741 -83.90  0.001380868    1.963    0.491
        56 -10.5945    168.0017    156.8127   5.1238966669e+01   1.6562212471e+01    0.2791463    0.1959547 -58.66  0.001274694    1.674    0.403
        57 -10.6830     49.6498    154.2356   8.0333135217e+01   3.7559723759e+01    0.4651572    0.2458359  82.85  0.001886898    2.828    0.646
        58 -11.5835    204.9158    154.0900   4.2993823636e+01   9.6671033222e+00    0.3042122     0.185713 -42.89  0.001257182    1.600    0.375
        59 -10.9972    133.1863    152.5342   5.8428849645e+01   2.4496381374e+01    0.4297389    0.2919521 -88.34  0.001717025    2.434    0.589
        60 -11.2983    139.1209    163.6896   5.9338565166e+01   2.0867734102e+01    0.6141403    0.2854619 -58.25  0.002202233    2.711    0.631
        61 -10.4817     81.7582    153.9322   7.1872921463e+01   3.3263796455e+01    0.2771235    0.1940962 -83.05 0.0009981955    1.631    0.387
        62 -11.0056     67.9035    153.1627   7.5386591530e+01   3.5469200967e+01    0.4003472    0.2536244  77.09  0.001829801    2.064    0.515
        63 -11.9959    200.2006    148.0081   4.2558722553e+01   1.1740663372e+01    0.4065598    0.2452171 -50.58  0.001542913    1.824    0.452
        64 -11.0934     55.6875    144.7830   7.7270202309e+01   3.9098487227e+01    0.5096726    0.2714868  81.33  0.001899395    3.325    0.699
        65 -10.4010     39.1676    147.0212   8.2044712618e+01   4.0471782220e+01    0.2287974    0.1348075  81.07  0.001084593    2.073    0.518
        66 -11.5392    148.8548    142.8772   5.2490466219e+01   2.3455437783e+01    0.8462996     0.385077 -53.47  0.002999624    2.527    0.604
        67 -11.2022    106.8573    143.7256   6.3243638329e+01   3.1497879873e+01    0.6843961     0.376383 -69.14  0.002572073    2.547    0.607
        68  -9.8920    175.5189    145.5106   4.7060988660e+01   1.7316186651e+01    0.1490586    0.1462489 -30.56 0.0008099554    1.041    0.039
        69 -10.7409    165.7968    143.1788   4.8657261509e+01   1.9838706349e+01    0.4021174    0.2019582 -52.80  0.001386085    2.291    0.564
        70 -11.1685    124.6306    141.5143   5.8145327060e+01   2.8663007281e+01    0.6059217    0.3033443 -63.31  0.002083584    2.887    0.654
        71 -10.7414     87.8741    143.2571   6.8228062724e+01   3.4855517828e+01    0.3343564    0.2067597 -74.14  0.001300988    1.979    0.495
        72 -10.5690    182.1895    140.9532   4.4591516944e+01   1.6828106116e+01    0.3271481    0.2049472 -52.96  0.001413513    1.778    0.437
        73 -10.7024      3.5135    249.0371   9.8096647710e+01   2.2165524795e+01    0.1997462    0.1140262  54.62 0.0007378964    1.360    0.265
        74 -12.3674    188.7023    122.3388   3.8825795384e+01   1.9073763881e+01     0.583986    0.3061945 -34.24  0.002343508    1.964    0.491
        75 -11.5043     43.2165    121.2896   7.6757722717e+01   4.6206540789e+01    0.6952269    0.3343755 -84.55   0.00240905    3.896    0.743
        76 -11.0323     29.2273    123.0026   8.1192006152e+01   4.7200780176e+01    0.3026487    0.1780504  85.46  0.001450032    2.183    0.542
        77 -10.4997    162.5096    135.5013   4.7592073636e+01   2.2137819540e+01    0.3205962    0.1497187 -43.69  0.001137942    2.112    0.527
        78 -11.1829    158.4262    119.7973   4.4659051108e+01   2.6293163292e+01     0.469044    0.2759321 -48.44  0.001909292    1.734    0.423
        79 -11.7549    141.7261    116.6595   4.7815783668e+01   3.0621388993e+01    0.9330308    0.3260906 -47.34  0.002963626    2.939    0.660
        80 -10.2531     39.3079    135.6695   8.0317346692e+01   4.3180701206e+01    0.1353709   0.09339403  75.61 0.0005393361    1.663    0.399
        81 -10.9242    130.4454    117.1060   5.0767201948e+01   3.2936281804e+01    0.5453013    0.2774036 -53.17  0.002057015    2.162    0.537
        82 -10.6334      2.7322    116.3396   8.7938556310e+01   5.0780367767e+01    0.3354535    0.1299602 -89.54  0.001214529    4.081    0.755
        83 -11.5365    186.0322    114.3974   3.7400805694e+01   2.1187058494e+01    0.4557513    0.2215023 -41.42  0.001425273    1.974    0.493
        84 -11.8376    108.8342    111.6242   5.5147016274e+01   3.8509011793e+01    0.8914111    0.3254982 -50.30  0.002976656    2.775    0.640
        85 -10.8128    172.6377    119.9144   4.1542736998e+01   2.3105327995e+01    0.3559192    0.2278731 -47.34  0.001559289    1.568    0.362
        86 -10.7902    179.7275    132.8009   4.3187940510e+01   1.8976905897e+01    0.3992046    0.2588361 -48.57   0.00177927    1.575    0.365
        87 -12.4339    192.7175    113.3519   3.5839255001e+01   1.9894006445e+01    0.5477321    0.2794672 -50.50  0.002143307    2.147    0.534
        88 -14.1203    188.4156    104.2577   3.4388809086e+01   2.2554517233e+01    0.9941583    0.3789885 -42.80  0.003498454    2.517    0.603
        89 -11.4954     92.3956    109.6685   5.9364904283e+01   4.1972509582e+01    0.9275653    0.3104117 -52.99   0.00301419    3.070    0.674
        90 -11.3935    174.7672    110.0310   3.8588978678e+01   2.4569674780e+01    0.4662791    0.2596713 -41.70  0.001930192    1.746    0.427
        91 -10.5145    112.3214    132.2511   5.9247340067e+01   3.3157599973e+01    0.3712564    0.2332323 -73.63  0.001456365    2.354    0.575
        92 -11.3720    159.1934    110.3183   4.2044191026e+01   2.8051251578e+01    0.5109678    0.2260261 -39.57  0.001848552    2.256    0.557
        93 -11.4283    122.2839    110.1863   5.1097493238e+01   3.6136977514e+01    0.5588275    0.2604333 -39.47  0.002061754    2.235    0.553
        94 -11.6794     16.4967    108.0210   8.2601050673e+01   5.1775634959e+01      0.38167     0.240938  84.33  0.002043897    1.938    0.484
        95 -11.2536     66.1319    109.5322   6.7304858170e+01   4.6141110272e+01    0.3562959    0.2243872 -73.29  0.001610568    2.002    0.501
        96 -11.6627    182.9828    107.7719   3.6339485075e+01   2.3133316859e+01    0.4161285    0.2249793 -39.75  0.001341167    1.788    0.441
        97 -10.6304    133.1488    108.0560   4.7697999757e+01   3.4297756415e+01    0.3806524    0.2254322 -44.57  0.001598658    1.667    0.400
        98 -11.5244    139.7080    102.5263   4.4555914651e+01   3.4007138343e+01    0.5866454    0.2984311 -41.78  0.002293881    1.946    0.486
        99 -11.3844     22.9452    101.7542   7.9464088587e+01   5.2719851752e+01    0.7086834    0.3512547  73.95  0.002336041    5.532    0.819
       100 -11.6272     45.0036    101.4087   7.2202074376e+01   5.0675569207e+01    0.5847459    0.3378431  76.40  0.002191646    3.883    0.742
       101 -11.4732    128.5096    100.0260   4.6699057509e+01   3.6970250677e+01    0.5704172    0.2911514 -40.24  0.002241388    1.959    0.490
       102 -12.4495    175.6784    100.0224   3.5806750879e+01   2.6268702712e+01    0.4252978    0.3222681 -24.76  0.002032374    1.451    0.311
       103 -11.1450    159.8217     99.4126   3.9005323452e+01   3.0057154763e+01     0.524613    0.1953593 -44.04  0.001754455    2.681    0.627
       104 -12.1150    108.3511     96.1190   5.1082224843e+01   4.1959945018e+01    0.8291749    0.4226592 -50.98  0.003286266    2.076    0.518
       105 -10.9400     81.7018     97.9669   5.9550542454e+01   4.6400008988e+01    0.5283706    0.1936366 -54.90  0.001788844    3.023    0.669
       106 -11.0351     95.1568     94.0462   5.4350915518e+01   4.4913322821e+01    0.7080415    0.2338825 -40.95   0.00228184    3.158    0.683
       107 -11.2573     78.9593    112.3545   6.4039990733e+01   4.3583756539e+01     0.512673    0.3091015 -78.31  0.001990679    2.775    0.640
       108 -11.8638     63.2198     93.5161   6.4302072760e+01   5.0184879043e+01    0.8068076    0.2514328 -55.85  0.002693162    3.319    0.699
       109 -11.0646    165.0399     92.7968   3.6082910916e+01   3.0096668676e+01    0.3952688    0.2261953 -41.39  0.001662249    1.720    0.419
       110 -11.8487    166.8536    102.1140   3.8197757958e+01   2.7912736632e+01    0.5177006    0.2533424 -35.12  0.001962148    2.139    0.532
       111 -12.2208    176.9218     91.4804   3.3303996679e+01   2.7550628533e+01    0.4846524    0.2156491 -44.03  0.001816058    2.223    0.550
       112 -11.6623    197.9158    137.2245   4.0546198765e+01   1.4251748211e+01    0.4240288    0.2006203 -41.65  0.001683455    2.018    0.504
       113 -11.2441    138.7281     90.0288   4.1297051297e+01   3.6705249119e+01    0.5248318    0.2853479 -40.56  0.002148342    1.831    0.454
       114 -10.9117    157.9694     90.0085   3.6838825538e+01   3.2270565783e+01    0.3249424    0.2128928 -37.59  0.001453728    1.527    0.345
       115 -11.8391    124.8651     87.5176   4.4077427248e+01   4.0268981790e+01    0.7994011     0.373453 -33.32  0.002929341    2.433    0.589
       116 -11.6341    150.1888     99.9596   4.1341203978e+01   3.2161986358e+01    0.7831853    0.2568156 -40.83   0.00246673    3.014    0.668
       117 -10.9601     34.5870     87.5004   7.2556982328e+01   5.4905432784e+01    0.6649228    0.1972817 -59.52  0.002454931    3.046    0.672
       118 -10.9834    151.1415     87.5269   3.7663688110e+01   3.4326217351e+01    0.3001424    0.2155834 -38.76  0.001407577    1.391    0.281
       119 -10.9011    143.0598    130.0504   5.0846957004e+01   2.7456462007e+01    0.5463916    0.2319578 -45.42  0.001941098    2.329    0.571
       120 -11.1637     86.1855     85.6306   5.4680688121e+01   4.8281346465e+01    0.5021785    0.2593419 -59.50  0.001907222    2.725    0.633
       121 -11.9482    179.7830     84.8279   3.0981446954e+01   2.8057281607e+01    0.3585947    0.1864699 -44.22  0.001467651    1.898    0.473
       122 -10.1672    164.1627     85.8192   3.4354046439e+01   3.1579344658e+01    0.2118953    0.1833437   3.29 0.0009945033    1.348    0.258
       123 -10.7528     48.1088     83.8670   6.6911861573e+01   5.4241668875e+01    0.2768521    0.1975664  77.27  0.001359224    2.351    0.575
       124 -11.2145    131.7145    129.3907   5.3509287330e+01   2.9970386337e+01    0.6855895    0.3020457 -51.53  0.002439586    2.392    0.582
       125 -10.8419    170.8184     82.2717   3.2024795191e+01   3.0629304763e+01    0.2873384    0.1835183 -25.25  0.001246471    1.824    0.452
       126 -11.3313    140.9773     81.3245   3.8232085487e+01   3.7825689742e+01    0.4256169    0.2251691 -35.34  0.001720297    1.951    0.487
       127 -11.7673    104.3637     80.4575   4.7619789888e+01   4.5922021042e+01    0.7123919     0.271723 -41.53   0.00255749    2.579    0.612
       128 -10.6625     24.4900     80.4542   7.4502089966e+01   5.7368537456e+01    0.2236598    0.1144627 -71.07  0.001029093    2.348    0.574
       129 -10.8227    150.2367     78.8589   3.5385484130e+01   3.6111634174e+01    0.3785318    0.2040675 -39.28  0.001563977    1.855    0.461
       130 -10.7070    119.1361     78.4361   4.2875036551e+01   4.3241791173e+01    0.4232009    0.2097387 -34.67  0.001667931    2.124    0.529
       131 -10.1595     74.3922     79.5933   5.6693921443e+01   5.1489900267e+01    0.2756422    0.1263768 -59.13 0.0009598247    3.334    0.700
       132 -11.6506     83.3013    130.7955   6.6933575366e+01   3.8561180222e+01    0.6931308    0.2987847 -63.74  0.002452608    2.802    0.643
       133 -11.6053    174.8066     76.7246   2.9736314465e+01   3.0629105505e+01    0.3392713    0.1950642 -37.98     0.001475    1.720    0.419
       134 -11.2485    167.6152     76.1263   3.0960726857e+01   3.2451417343e+01    0.2908051    0.1948283 -18.94  0.001281679    1.881    0.468
       135 -10.9745    158.4251     81.3999   3.4328697217e+01   3.3727128642e+01    0.3690617    0.2359886 -21.52  0.001475649    1.959    0.490
       136 -11.9297    192.7113    129.4281   3.9737255847e+01   1.6841865709e+01     0.411442    0.2571995 -38.41  0.001552011    1.538    0.350
       137 -10.2933    157.7108     74.6557   3.2559330051e+01   3.5070129758e+01    0.2748114    0.1893602 -22.28  0.001175911    1.698    0.411
       138 -10.9965    140.8636     73.1864   3.5845750890e+01   3.9300900896e+01    0.4175377    0.2150871 -29.27   0.00163615    2.224    0.550
       139 -11.4505    128.0091     72.2724   3.8674769909e+01   4.2404993829e+01    0.6188695    0.2983086 -33.39  0.002423671    2.207    0.547
       140 -11.5233      5.3910    244.4622   9.7571774519e+01   2.2819973324e+01    0.2178566    0.1636194 -71.24  0.001269338    1.550    0.355
       141 -10.2408    115.7039     71.1764   4.1541835993e+01   4.5304953291e+01    0.3463919    0.1323633 -36.22  0.001216927    2.717    0.632
       142 -12.4136    188.8842    135.8627   4.2023219168e+01   1.6413392289e+01    0.6287155    0.3357131 -51.34  0.002387774    2.106    0.525
       143 -11.3506    168.6221    128.3383   4.4497760414e+01   2.2292188513e+01    0.4825009    0.2711152 -48.48  0.001969175    1.828    0.453
       144 -11.1126    152.9973    127.7789   4.7912329000e+01   2.5814806554e+01    0.6159507    0.2469892 -48.62  0.002081996    2.617    0.618
       145 -10.9711     94.7530     68.3745   4.6659851662e+01   5.0078220837e+01    0.6756403    0.1689498 -44.37   0.00198343    4.211    0.763
       146 -12.1518     98.6305    124.3410   6.1155770813e+01   3.7504062872e+01     1.005011    0.4059028 -54.08  0.003590789    2.485    0.598
       147 -10.1482     72.8781    128.4014   6.9413137567e+01   4.0720463981e+01    0.3712789     0.193443 -77.56  0.001300377    3.274    0.695
       148 -10.3572    162.9957     70.0052   3.0151858035e+01   3.4581670194e+01    0.2402729    0.1821673  17.60  0.001135305    1.718    0.418
       149 -11.0156     50.9327     67.8595   6.1333898320e+01   5.7223510227e+01    0.4703549    0.1854582 -58.40  0.001658323    3.718    0.731
       150 -10.8264    147.0309     65.9779   3.2296145319e+01   3.9061854501e+01    0.4480838    0.2242696 -27.26  0.001739527    2.372    0.578
       151 -10.6070     12.6437    128.8361   8.6755150026e+01   4.7199213898e+01    0.2717564      0.12905  82.97  0.001154815    2.938    0.660
       152 -10.6057    121.7295     63.4466   3.7491156500e+01   4.5319858371e+01     0.466564     0.200031 -29.01  0.001675414    2.811    0.644
       153 -10.7769    172.2212    137.0944   4.5815208708e+01   1.9725500452e+01    0.4098924    0.2339865 -62.19  0.001493203    2.685    0.628
       154 -10.7831     22.7044    137.1550   8.5094506366e+01   4.4422154588e+01    0.3759857     0.168592  84.33  0.001387205    3.738    0.732
       155  -9.9849     18.2982     62.3262   7.2317569761e+01   6.1679983213e+01      0.13002   0.07279385 -33.43 0.0003254756    1.632    0.387
       156 -10.8971    138.7014     64.3346   3.3657531333e+01   4.1293679915e+01    0.4379916    0.1800737 -31.10    0.0015693    2.727    0.633
       157 -11.2848    110.1247     60.5824   3.9634046241e+01   4.8320332937e+01    0.4735923    0.2302417 -20.15  0.001628347    3.381    0.704
       158  -9.9548    138.5030    137.0499   5.3637937736e+01   2.6874695919e+01    0.2419175    0.1507383 -48.24  0.001032784    1.598    0.374
       159 -11.5297    117.0525    123.1176   5.5801101640e+01   3.4329983342e+01    0.6850753    0.3762249 -55.64   0.00274242    1.961    0.490
       160 -10.2583     99.9989     57.1078   4.1328456420e+01   5.0995180391e+01    0.4547342    0.1366615 -34.31  0.001464848    3.617    0.723
       161 -10.9131     72.9789     56.6769   4.9747704807e+01   5.6072723988e+01    0.6496404    0.1758664 -40.72  0.002184908    3.555    0.719
       162 -11.0134     59.4323    123.5733   7.2365770300e+01   4.3729213857e+01     0.555903    0.3036143  88.11  0.001884355    4.033    0.752
       163 -11.6766    180.4805    122.2435   4.0470099255e+01   2.0902679071e+01    0.8039552    0.2854102 -34.76  0.002487355    3.272    0.694
       164 -10.0659     37.3249     63.6597   6.5199939444e+01   5.9654739830e+01    0.1178337    0.1009805  84.23 0.0007051199    1.728    0.421
       165 -10.4046     10.0150     74.3034   7.8429038326e+01   5.9765391873e+01     0.159437    0.1353162 -38.95 0.0002842342    1.105    0.095
       166 -10.3994     63.0000     54.0033   5.2325324710e+01   5.8132047571e+01    0.2174571   0.06987967 -42.60 0.0008027893    2.945    0.660
       167 -11.7568     45.4051     49.1028   5.7256214339e+01   6.1450664260e+01    0.2505841     0.190095 -22.16 0.0004299834    1.151    0.131
       168 -10.8454     92.0179     47.6709   4.0387769056e+01   5.4081440005e+01    0.6511949    0.1287018 -38.16  0.001869592    4.942    0.798
       169 -10.0625    151.3873     71.7869   3.3072602787e+01   3.7062969392e+01    0.2106655    0.1435666 -22.62 0.0008042593    1.705    0.414
       170 -10.3350    113.3716     42.6032   3.2671798281e+01   5.0346419473e+01    0.4384954    0.2455042  -3.30  0.001683766    3.093    0.677
       171 -10.6494    123.0527     41.6570   2.9993880162e+01   4.8298126474e+01    0.3645166    0.1868254  -9.20  0.001299467    3.522    0.716
       172 -10.6885      5.0000     40.5342   7.1682210863e+01   6.6842653330e+01    0.2548856    0.0533476 -56.10 0.0009403527    3.980    0.749
       173 -10.1840     83.3494     40.9548   4.0597850453e+01   5.6748059316e+01    0.2186835    0.1055513 -12.26 0.0007041029    4.351    0.770
       174  -9.1984     44.3383     25.3028   4.8389249978e+01   6.5374324640e+01    0.1275471    0.0808728   0.74 0.0005315421    1.670    0.401
       175 -10.3433     13.0001     21.0163   6.0788899896e+01   6.9574169433e+01     0.177137    0.1343686 -16.27 0.0006325626    1.031    0.030
