#   1 NUMBER                 Running object number                                     
#   2 MAG_AUTO               Kron-like elliptical aperture magnitude                    [mag]
#   3 X_IMAGE                Object position along x                                    [pixel]
#   4 Y_IMAGE                Object position along y                                    [pixel]
#   5 X_WORLD                Barycenter position along world x axis                     [deg]
#   6 Y_WORLD                Barycenter position along world y axis                     [deg]
#   7 A_WORLD                Profile RMS along major axis (world units)                 [deg]
#   8 B_WORLD                Profile RMS along minor axis (world units)                 [deg]
#   9 THETA_WORLD            Position angle (CCW/world-x)                               [deg]
#  10 FWHM_WORLD             FWHM assuming a gaussian core                              [deg]
#  11 ELONGATION             A_IMAGE/B_IMAGE                                           
#  12 ELLIPTICITY            1 - B_IMAGE/A_IMAGE                                       
         1 -12.7853      2.6305     43.2950   1.3501569916e+02   6.5909878653e+01     1.282528     0.186275 -63.19  0.004329058    4.804    0.792
         2 -13.7863      7.2716     11.7611   1.2278872607e+02   7.1564475707e+01      1.84554     0.765887 -44.10     0.010617    1.723    0.419
         3 -13.5295    187.7452     27.1052   7.4816998091e+01   3.4908682636e+01     1.270577     1.168169  68.39  0.006126884    1.055    0.052
         4 -14.1014    199.8082      9.3014   6.7915884508e+01   3.3696443694e+01     1.874866     1.201754  43.91  0.009167039    1.692    0.409
         5 -11.4162     14.1813     46.8913   1.3137592336e+02   6.4510333873e+01    0.2706709    0.1760716  31.88  0.001186228    1.970    0.492
         6 -11.3993    139.3654    249.0168   1.3329528568e+02   7.7403178990e+00    0.3123567     0.237696 -83.63   0.00226743    1.666    0.400
         7 -13.5919     32.5054    245.8645   1.4999169240e+02   2.2508683991e+01     2.060002    0.6323658  45.83   0.01219811    2.354    0.575
         8 -15.3886     41.9017    195.9972   1.4529623633e+02   3.0186193733e+01     10.40121     4.036594  71.79   0.04650344    3.336    0.700
         9 -14.6293      5.5697    237.7621   1.5356651305e+02   2.6554435002e+01     3.824513    0.3821526 -69.94   0.01574799    6.434    0.845
        10  -9.9760     64.1850    250.6190   1.4548910522e+02   1.8064447021e+01    0.2062218   0.08145163  42.51 0.0006200232    2.144    0.534
        11 -10.4745     95.2546    241.5374   1.3985520216e+02   1.5352817154e+01    0.2057571    0.1386498 -81.73 0.0001882264    1.609    0.379
        12  -9.8441    183.9215    237.8919   1.2447432351e+02   2.1235548320e+00    0.2023317    0.1147698  24.72  0.001098824    2.115    0.527
        13 -10.5078     34.6888    229.8490   1.4879416348e+02   2.4892254739e+01    0.2404735    0.1431478  63.75 0.0008310869    1.225    0.184
        14 -10.1691     36.9764    226.0606   1.4820760534e+02   2.5284363591e+01    0.1784537    0.1092287  83.36 0.0005625493    1.324    0.244
        15 -13.7439     11.1093    206.8414   1.5132175256e+02   3.1335397269e+01     1.168436    0.6847958  78.84  0.002801856    1.258    0.205
        16  -9.5827    177.1428    226.8417   1.2412169789e+02   4.6763210062e+00    0.1908423    0.1567064  77.15  0.000845566    1.601    0.375
        17 -10.7771    172.7972    221.5927   1.2414574516e+02   6.1338534597e+00    0.2941487    0.2468484  57.59  0.001357734    1.230    0.187
        18 -12.7021     46.0276    234.4298   1.4728037741e+02   2.2843348940e+01     0.296509    0.2353103  75.66 0.0007583989    1.203    0.169
        19 -10.1203     27.4937    221.4713   1.4945941138e+02   2.7103006358e+01    0.1817535    0.1214793  65.53 0.0007464242    1.104    0.094
        20 -13.9848     52.1239    225.0976   1.4567974402e+02   2.3701267422e+01    0.9483505    0.5858543  82.41  0.004930341    1.384    0.278
        21  -8.6665    152.5207    212.9527   1.2659132179e+02   1.0883429563e+01    0.1499303    0.1240096 -52.95 0.0003174142    1.445    0.308
        22 -11.8223     31.3107    205.2852   1.4783811727e+02   2.9599907486e+01    0.2712852    0.1604609  59.60  0.000739451    1.348    0.258
        23 -10.6218     84.2898    244.8889   1.4191641376e+02   1.6343097703e+01    0.3737435    0.1607902  68.09  0.001898623    2.878    0.653
        24 -11.6303     69.3225    198.9765   1.4049393957e+02   2.6262453777e+01    0.3945976    0.2688723  84.06  0.001191745    1.316    0.240
        25 -10.1857    192.7811    194.5599   1.1624343843e+02   6.5088699831e+00    0.5711496    0.2840983 -60.72  0.001827723    6.100    0.836
        26 -11.6495     74.7979    191.5446   1.3869650156e+02   2.6953492682e+01    0.2442494    0.2130019 -67.51 0.0006807585    1.364    0.267
        27 -10.9566     83.5662    178.7955   1.3547786298e+02   2.8248325546e+01    0.2234838    0.1926957 -84.31  0.000477822    1.134    0.118
        28 -13.1762     71.1132    176.6808   1.3777902030e+02   3.0414687560e+01    0.4387707    0.2624023 -45.72  0.001649572    2.354    0.575
        29  -9.2011    173.0057    174.9852   1.1650675560e+02   1.3386401706e+01    0.2001678    0.1605023  75.86  0.000381378    1.561    0.359
        30 -11.8932     90.4533    169.1940   1.3276754575e+02   2.9193060925e+01    0.7521781     0.491101  55.60  0.004231915    1.434    0.303
        31  -9.9861    195.5704    159.3460   1.0898867448e+02   1.1524734106e+01     0.289115    0.2344381 -76.54 0.0007422296    1.752    0.429
        32 -12.0529     90.6214    152.2041   1.3019432105e+02   3.2760772175e+01    0.2579203    0.2418087 -45.87 0.0005809485    1.296    0.229
        33  -9.9216    101.4694    152.6777   1.2779491090e+02   3.0934140192e+01    0.2550744    0.2442453 -79.62 0.0007551018    1.143    0.125
        34  -9.1199    104.2578    148.6000   1.2645349933e+02   3.1345111013e+01     0.245459    0.1680091 -34.24  0.000970357    2.025    0.506
        35 -12.6069     66.9706    143.9799   1.3442172224e+02   3.7936999468e+01    0.7701771    0.4790986  78.12  0.004030855    1.828    0.453
        36  -9.8536    198.3090    245.6782   1.2312254446e+02  -1.1029679524e+00    0.1046281   0.08006285  60.25 0.0007035608    1.646    0.392
        37  -8.5370    191.9952    143.9746   1.0636395919e+02   1.4894026913e+01    0.1704759    0.1613391  17.96 0.0003714718    1.007    0.007
        38 -10.2520    177.1524    140.3162   1.0854518042e+02   1.8739624413e+01    0.3983246    0.2890493  87.04  0.001679619    2.156    0.536
        39 -12.3296     31.0741    139.5183   1.4222214644e+02   4.2981864814e+01    0.4956317    0.2022622  47.73  0.002513184    2.502    0.600
        40  -9.5080     90.0496    138.8112   1.2807930721e+02   3.5775552774e+01    0.2003354    0.1603901  75.18 0.0004831373    1.255    0.203
        41  -9.7636    111.6979    137.4888   1.2263244380e+02   3.2458878947e+01    0.2924925    0.2309595 -26.48   0.00111749    1.669    0.401
        42 -10.6414     99.4683    135.0724   1.2510961125e+02   3.5087223472e+01    0.2902802    0.2271455 -47.15 0.0004833978    1.347    0.258
        43 -11.6443     57.9901    132.1702   1.3481885895e+02   4.1702282530e+01    0.7236604     0.289678 -77.08  0.002677141    3.474    0.712
        44 -11.7911     54.4241    120.5478   1.3388085055e+02   4.4746041680e+01    0.9422627    0.2173282 -65.88  0.002885481    4.624    0.784
        45  -9.5788    180.5050    245.0095   1.2598368785e+02   1.7964218576e+00    0.1427005   0.09351612  -5.02 0.0008104756    2.596    0.615
        46  -9.1137    108.3848    124.1674   1.2069258940e+02   3.5954203156e+01    0.1882073    0.1613912 -64.10 0.0003496956    1.114    0.102
        47 -10.5965    168.0599    113.2250   1.0394799662e+02   2.5886898251e+01    0.3814965     0.303413 -77.43  0.001087816    1.611    0.379
        48  -8.5963    146.3655    113.6847   1.0896283499e+02   3.0643211262e+01    0.1580989    0.1204593 -89.34 0.0007039323    1.770    0.435
        49  -8.9622    203.4919    111.4853   9.6328208210e+01   1.7987052865e+01    0.1524057    0.1419249   5.44  0.000809719    1.061    0.057
        50  -9.8201    170.2840    134.0409   1.0855272345e+02   2.1402397577e+01     0.264015    0.2111197  64.19 0.0008384374    1.383    0.277
        51 -10.4005    130.3733    102.2878   1.0987732186e+02   3.6402386529e+01    0.5198365     0.318494  74.71  0.001649749    2.982    0.665
        52  -9.5578    154.5432     75.4781   9.6326730869e+01   3.6176954896e+01    0.1533362    0.1498686 -12.25 0.0001117075    1.004    0.004
        53  -9.9158     24.4889     68.9589   1.3294831935e+02   5.9161040783e+01    0.1891231    0.1754733  26.11 0.0005663311    1.358    0.264
        54 -10.2527    248.6247    249.5164   1.1561310063e+02  -9.0761432372e+00    0.3095962   0.09629182  34.24  0.001488824    2.654    0.623
        55  -9.7044    162.4057    249.2001   1.2950488810e+02   4.1378468783e+00    0.1309699    0.1062603 -75.99 0.0007045082    1.693    0.409
        56  -9.9143    152.8302    248.8563   1.3105058669e+02   5.6793943269e+00     0.155195    0.1076806  57.46 0.0003995544    1.325    0.245
        57 -10.7429     81.7448    249.0797   1.4264616440e+02   1.6040407151e+01    0.2174589    0.1222452  51.18 0.0009876051    1.333    0.250
