#   1 NUMBER                 Running object number                                     
#   2 MAG_AUTO               Kron-like elliptical aperture magnitude                    [mag]
#   3 X_IMAGE                Object position along x                                    [pixel]
#   4 Y_IMAGE                Object position along y                                    [pixel]
#   5 X_WORLD                Barycenter position along world x axis                     [deg]
#   6 Y_WORLD                Barycenter position along world y axis                     [deg]
#   7 A_WORLD                Profile RMS along major axis (world units)                 [deg]
#   8 B_WORLD                Profile RMS along minor axis (world units)                 [deg]
#   9 THETA_WORLD            Position angle (CCW/world-x)                               [deg]
#  10 FWHM_WORLD             FWHM assuming a gaussian core                              [deg]
#  11 ELONGATION             A_IMAGE/B_IMAGE                                           
#  12 ELLIPTICITY            1 - B_IMAGE/A_IMAGE                                       
         1 -14.0645      1.9968    119.1049   1.3411117178e+02   5.0646716076e+01     4.350533    0.6126286 -69.30   0.01112017    6.982    0.857
         2 -14.7716      1.9687     34.8701   1.1530267985e+02   6.7547805926e+01      5.44845    0.4949572 -50.75   0.01675107    6.970    0.857
         3 -13.4267    198.2153     27.6081   6.0216428111e+01   3.2664830388e+01    0.7977198    0.7320662   4.57  0.005345491    1.584    0.369
         4 -12.0180    205.5328     19.2591   5.7624721125e+01   3.2025754184e+01     0.452924    0.2938839  54.84  0.001159458    1.719    0.418
         5 -13.1157    211.5419     11.4237   5.5429815164e+01   3.1598103025e+01    0.6687323    0.5195427 -84.46  0.002970938    1.004    0.004
         6 -13.0095    115.7164    135.6060   1.0409573318e+02   3.1852810258e+01    0.7237976    0.6507626  55.47  0.003747833    1.150    0.130
         7 -11.8323    248.2191    226.0435   9.3965556124e+01  -1.1076897839e+01    0.5828946    0.3246656 -32.24  0.003230024    1.598    0.374
         8 -13.6680    245.7091    244.3456   9.7620763793e+01  -1.3476815119e+01     1.194007    0.7425451 -13.51  0.007081016    1.585    0.369
         9 -13.4127    237.2988    236.9934   9.7860500027e+01  -1.1283607247e+01     1.392173    0.5509897  23.91  0.005570305    3.488    0.713
        10 -13.8388    141.1414    240.9045   1.1774488876e+02   3.1295557938e+00     1.184201    0.8878309  30.78  0.006629436    1.299    0.230
        11 -10.9725     93.6953    249.8913   1.2881193395e+02   9.0430405441e+00     0.326312    0.2881389  16.63  0.001363012    1.479    0.324
        12 -13.6261    121.3369    238.5404   1.2160938301e+02   6.9078558182e+00     1.563397     0.745622 -64.52  0.005756526    2.627    0.619
        13 -12.8717    129.1357    238.9761   1.2001005540e+02   5.5203604490e+00    0.7152054    0.5539743 -87.95  0.003538607    1.554    0.357
        14  -9.6572     85.3369    250.6026   1.3057689441e+02   1.0170291649e+01    0.2545199   0.09797464  44.23  0.001116374    2.192    0.544
        15 -15.0814     79.2151    140.9853   1.1541691138e+02   3.6998894055e+01     4.621386      2.53347 -68.88   0.00433617    2.134    0.531
        16 -13.4200     55.7159    203.4298   1.3148384225e+02   2.4896618853e+01     1.023185    0.6333528  42.46   0.00391027    1.614    0.381
        17 -14.7384     30.8744    203.9903   1.3704047282e+02   2.7827376901e+01     2.550743     1.394188 -87.61   0.01301524    1.739    0.425
        18 -15.7517     62.8040    237.5311   1.3374184878e+02   1.6171839348e+01     2.885599     2.183653  77.38    0.0177495    1.157    0.135
        19 -10.1169     91.4781    237.9800   1.2786517505e+02   1.1839185485e+01    0.2972882    0.2058088  41.36  0.001363858    1.364    0.267
        20 -15.0425     31.4371    239.4545   1.4006855489e+02   1.9821006996e+01     1.098689    0.7510568  73.50   0.00666226    1.194    0.163
        21 -12.3566    111.8017    212.7701   1.1993557697e+02   1.4050662343e+01    0.8567111    0.4548414 -62.02  0.002691888    2.007    0.502
        22 -12.0699    114.5358    205.8486   1.1821172688e+02   1.5157464843e+01    0.6175446    0.4835741  29.68  0.001904335    1.399    0.285
        23 -11.3705    123.5031    212.4441   1.1721331537e+02   1.2093827678e+01    0.7497613    0.3879942 -47.44  0.003202241    2.089    0.521
        24 -11.2678     98.5779    204.5277   1.2172734410e+02   1.8182852792e+01    0.6248347    0.5377338  25.38  0.002808824    1.356    0.262
        25 -11.6757    127.1611    199.2950   1.1415739660e+02   1.4415893819e+01    0.6411878    0.5405486 -30.76  0.002734492    1.381    0.276
        26  -9.9489    199.3364    199.3179   9.8216683678e+01   1.1458631667e+00    0.1467752    0.1064275  -4.51 0.0007048817    1.701    0.412
        27 -11.2683    118.8383    185.3009   1.1364093703e+02   1.9220703040e+01     0.612205     0.484692  64.56   0.00231388    1.339    0.253
        28 -12.1279    109.0740    191.9613   1.1719473455e+02   1.9374747314e+01     1.023618    0.6428264 -40.05  0.004512151    1.915    0.478
        29 -11.1685    113.3565    189.1958   1.1567619057e+02   1.9278954927e+01     0.635743     0.394405 -71.34  0.002734481    1.890    0.471
        30  -9.9523    135.3862    193.0592   1.1110470828e+02   1.4333192536e+01    0.3390414    0.1429309 -52.12  0.001240831    2.395    0.583
        31 -15.8025     16.0555    248.4082   1.4352354769e+02   1.9724735353e+01     1.548584    0.5323887  34.40  0.007325456    3.151    0.683
        32 -10.7552    127.4048    189.0883   1.1226702677e+02   1.6743273581e+01    0.3195088    0.2648673 -44.97  0.001245355    1.262    0.207
        33 -10.2651     95.0018    188.2775   1.2000232699e+02   2.2672933471e+01    0.2129745    0.1891839  58.55  0.001163359    1.104    0.094
        34 -10.4965     14.5262    186.6694   1.3892387491e+02   3.3616956836e+01    0.3256229    0.2182981 -79.71  0.001587623    1.206    0.171
        35  -9.7704      1.5216    187.9697   1.4187364781e+02   3.4476566053e+01    0.1872983   0.09610505 -77.34 0.0006092651    1.542    0.351
        36 -11.2876     94.5051    181.8373   1.1904122242e+02   2.4335240157e+01    0.6780289    0.3894385  44.74  0.002989684    1.742    0.426
        37 -12.7227    135.1712    172.1514   1.0710271033e+02   1.9269162689e+01     1.359921    0.6699631 -38.19  0.004881136    2.519    0.603
        38  -9.8216     34.2440    177.7677   1.3338314874e+02   3.3748465803e+01    0.2259077    0.1927048  13.15  0.001106818    1.561    0.360
        39 -14.3433     12.1187    203.6144   1.4096333758e+02   2.9891906982e+01     1.257155      1.03211 -76.84  0.007403749    1.199    0.166
        40 -11.2425     95.9381    175.5619   1.1758065549e+02   2.5645550321e+01    0.6635017    0.3296655  46.07  0.002673878    2.058    0.514
        41 -10.8473    114.8902    172.1236   1.1213098804e+02   2.3135588752e+01      0.33605    0.2029802 -59.01  0.001431891    1.662    0.398
        42 -11.0875     83.2494    168.3337   1.1956159146e+02   2.9530814042e+01    0.2749544    0.2599118 -36.23 0.0004234172    1.193    0.162
        43 -10.2200    128.1890    162.5086   1.0683387167e+02   2.2940640489e+01    0.3057088    0.2170784 -53.17 0.0009340844    1.380    0.275
        44 -11.8673     39.1506    160.8373   1.2990742537e+02   3.7384298843e+01    0.5746165    0.4318675  34.38  0.002072712    1.521    0.343
        45 -11.5665     89.1363    161.1243   1.1668723266e+02   3.0384026274e+01     0.500387    0.3146315 -31.13  0.001359324    2.241    0.554
        46 -13.5374    140.5909    130.2669   9.6400336487e+01   2.7989239012e+01     1.943334     1.125931 -23.79  0.006620168    3.033    0.670
        47 -12.6198    125.7546    139.1243   1.0227275325e+02   2.9023373964e+01    0.6503834    0.4117323  56.30  0.002715328    1.809    0.447
        48 -11.5309    135.7685    157.8336   1.0394436022e+02   2.2555670082e+01    0.6454922    0.3202772 -54.87  0.002415498    2.080    0.519
        49 -12.9602    138.2308    149.1091   1.0140128947e+02   2.4120285185e+01      1.03635    0.8416038   5.28  0.004840052    1.602    0.376
        50 -12.9944    100.3046    151.6706   1.1181118101e+02   3.0824427725e+01     1.112013    0.6477192 -53.31    0.0047503    1.631    0.387
        51 -11.4150    227.8458    246.6051   1.0125522305e+02  -1.1441270706e+01    0.3817131    0.2417007 -22.52  0.002151159    1.542    0.352
        52 -12.5805    179.4442    242.7980   1.1007083494e+02  -3.5595431025e+00    0.3783739    0.2994983  68.19  0.002130626    1.776    0.437
        53 -13.9740     58.6569    171.1229   1.2639238755e+02   3.2425883937e+01     2.110639    0.9252875 -54.30  0.008783703    2.096    0.523
        54 -11.1212    161.1076    131.5944   9.1855704724e+01   2.3247999062e+01    0.3652438    0.2064567 -41.29  0.001471597    1.778    0.438
        55 -10.6818    105.9873    131.1960   1.0570629530e+02   3.4764010057e+01    0.2872396    0.2244535 -53.50  0.001244618    1.235    0.190
        56 -10.1691     99.5090    129.3801   1.0708629345e+02   3.6389981768e+01    0.2879725    0.2352527 -23.14  0.001004118    1.408    0.290
        57 -11.7890    124.5087    120.5168   9.8088181638e+01   3.3578651491e+01    0.4025493    0.2571774 -47.72  0.001752915    1.533    0.348
        58  -9.1128    108.4847    120.9767   1.0253672419e+02   3.6677198984e+01    0.2208261    0.1469328 -48.22 -4.50537e-05    1.453    0.312
        59 -10.2508    167.6160    112.3081   8.5723225374e+01   2.5905751529e+01    0.3292612    0.2415145 -80.63  0.001039492    1.738    0.425
        60 -11.6712     52.9819     95.8678   1.1316382072e+02   5.1251223277e+01    0.3708681    0.3289738  51.55  0.001981691    1.363    0.266
        61 -15.8508     72.3971    192.4419   1.2614159537e+02   2.5206428313e+01     9.763084     2.583985 -62.06   0.03139765    3.517    0.716
        62 -10.4948     56.5026     74.0465   1.0595609710e+02   5.5227672113e+01    0.2064423    0.1191919 -44.59   0.00104168    1.616    0.381
        63 -11.4596     60.3646     67.0788   1.0248395438e+02   5.5971259070e+01    0.3082619    0.2309809 -52.03  0.001761479    1.539    0.350
        64 -11.9648     84.2971     60.1131   9.2357678138e+01   5.3277036966e+01    0.5235151    0.3401823 -33.58  0.002759145    1.554    0.357
        65 -12.7212     78.3601     59.3594   9.3980957851e+01   5.4441255111e+01    0.6007066    0.5285182  82.36  0.003577807    1.643    0.391
        66 -12.1830    111.7464    151.3003   1.0868063820e+02   2.8824173686e+01    0.7422674    0.6118682 -11.75  0.003578511    1.546    0.353
        67 -12.2837     85.7394     50.6051   8.8797709369e+01   5.4478435968e+01    0.5604481    0.4754091 -53.88  0.003390393    1.498    0.332
        68 -11.4257     95.6962     45.8925   8.4345670975e+01   5.3254017864e+01    0.6190099    0.2357281 -35.69  0.002574109    2.771    0.639
        69 -12.9457    114.6798     41.4790   7.8032054621e+01   4.9938252983e+01    0.6729712    0.5589268 -37.13  0.004080263    1.334    0.250
        70 -12.4758    189.3421     34.7817   6.2921081833e+01   3.3784629041e+01    0.4654506    0.3305437  65.26  0.001974433    1.296    0.229
        71 -13.9827    107.3979    239.9927   1.2476339625e+02   8.8948082832e+00     1.937996     1.470116  13.14  0.007711444    1.849    0.459
        72 -12.7654    162.8273    247.8106   1.1426481544e+02  -1.7443425191e+00      0.50414     0.414127  12.34  0.003038574    1.266    0.210
        73 -16.5701     10.0405    235.4675   1.4374704505e+02   2.3062531763e+01     1.680788     1.160455 -89.71  0.009386531    1.153    0.133
