#   1 NUMBER                 Running object number                                     
#   2 MAG_AUTO               Kron-like elliptical aperture magnitude                    [mag]
#   3 X_IMAGE                Object position along x                                    [pixel]
#   4 Y_IMAGE                Object position along y                                    [pixel]
#   5 X_WORLD                Barycenter position along world x axis                     [deg]
#   6 Y_WORLD                Barycenter position along world y axis                     [deg]
#   7 A_WORLD                Profile RMS along major axis (world units)                 [deg]
#   8 B_WORLD                Profile RMS along minor axis (world units)                 [deg]
#   9 THETA_WORLD            Position angle (CCW/world-x)                               [deg]
#  10 FWHM_WORLD             FWHM assuming a gaussian core                              [deg]
#  11 ELONGATION             A_IMAGE/B_IMAGE                                           
#  12 ELLIPTICITY            1 - B_IMAGE/A_IMAGE                                       
         1 -12.5320    215.2833     51.1857   2.8970013631e+02   5.8757550079e+00    0.1420073   0.07946394  10.84   0.01078361    2.369    0.578
         2 -13.8121    245.8667     98.1056   2.8964162623e+02   5.1559776359e+00    0.5036013   0.07105915 -61.59   0.02438367    7.055    0.858
         3 -13.6304    233.0477      7.0832   2.8922339184e+02   6.2708799444e+00    0.1519214   0.03977188 -57.38  0.005408172    3.373    0.704
         4 -14.8634    244.3532     17.5923   2.8915948884e+02   6.0827941431e+00    0.2963775    0.1116005  15.55  0.007456223    5.199    0.808
         5 -12.0171    222.5989     11.4062   2.8936965845e+02   6.2848443951e+00   0.07616652   0.04605388 -24.84  0.004912861    2.269    0.559
         6 -10.7816    202.2149     61.1420   2.8991125896e+02   5.8411533368e+00   0.03675295   0.03312544   2.47  0.003243776    1.161    0.139
         7 -10.3356    136.8099     25.3353   2.9043774411e+02   6.6439342998e+00   0.03215851   0.02246474 -76.82  0.003377175    1.623    0.384
         8 -10.4663    145.3191     22.1785   2.9032072028e+02   6.6286537059e+00   0.02027444   0.01282637 -37.15 0.0006700106    1.761    0.432
         9 -12.5755    249.6028      4.3541   2.8901730294e+02   6.2017680712e+00   0.03557218   0.02773439  25.43  0.002430423    1.299    0.230
        10  -8.7986    195.1480     11.3328   2.8968310307e+02   6.4515933352e+00   0.01723902   0.01122315  47.17  0.001075368    1.637    0.389
        11  -9.9831    217.4666      5.0066   2.8938858879e+02   6.3887683336e+00   0.01678285   0.01095424 -53.10 0.0005076863    1.493    0.330
        12  -8.3604    207.0281      7.2756   2.8952203619e+02   6.4260282788e+00   0.01196192  0.008530326 -44.59 0.0005014002    1.420    0.296
        13  -9.6774    208.7577      3.5413   2.8947906901e+02   6.4581089878e+00   0.01258215   0.01140534 -31.20 0.0003586301    1.129    0.114
        14  -9.3006    214.0282      9.1413   2.8945357516e+02   6.3624632353e+00   0.01236574   0.01020737 -53.52 0.0003891112    1.192    0.161
        15  -8.0920    137.6246      1.4436   2.9028025431e+02   6.9113653696e+00    0.0168966  0.006732772  24.62  0.001013717    2.723    0.633
        16  -7.9561     48.1279    223.1745   2.9267379590e+02   4.9169579366e+00  0.009974441  0.008518285 -23.06 0.0004103897    1.255    0.203
        17  -8.6062    249.0601    250.1956   2.9054544853e+02   3.4012940960e+00   0.01769287  0.009522893  13.23  0.001533842    2.404    0.584
        18 -11.7622     19.8223    191.3145   2.9280190565e+02   5.4505449772e+00   0.04338871    0.0410016 -58.61  0.004609001    1.050    0.048
        19 -10.0094    190.2139    189.6334   2.9084325430e+02   4.4469851687e+00   0.01297429   0.01074502 -72.34 0.0004388762    1.256    0.204
        20  -8.2702    216.6339    130.9675   2.9017892614e+02   4.9575212823e+00   0.01271561  0.009309541  37.19 0.0006217905    1.364    0.267
        21  -8.9809    198.9711    125.6609   2.9034788332e+02   5.1246058702e+00   0.01139561    0.0094723 -72.78 0.0003564765    1.254    0.202
        22  -8.9922    227.7410    121.3558   2.8999258634e+02   5.0001900553e+00   0.01100518  0.009509149 -60.04 0.0006961536    1.148    0.129
        23  -8.4393    131.5672    121.9113   2.9109545794e+02   5.5733636792e+00   0.01225832  0.009067323  32.98 0.0005301531    1.345    0.257
        24  -8.4259    220.3495    120.9470   2.9007447467e+02   5.0494580572e+00  0.009502207  0.008593787 -57.38  0.001149646    1.094    0.086
        25  -8.3272    186.3161    120.3278   2.9045952400e+02   5.2617710205e+00  0.007001471  0.004903587 -27.68 0.0003847843    1.676    0.403
        26  -9.2568    212.3184    117.4331   2.9014446687e+02   5.1380089847e+00   0.01773445   0.01183149 -78.65  0.001315654    1.771    0.435
        27  -9.6273    134.3143    115.5054   2.9102443952e+02   5.6299902955e+00   0.02888894  0.008363551 -61.80  0.001991471    3.448    0.710
        28  -9.1908    205.9918    110.2163   2.9017208221e+02   5.2585297342e+00   0.01682437   0.01068727   2.80  0.001524319    2.086    0.521
        29  -8.7580    192.6987    110.4394   2.9032538465e+02   5.3361559169e+00    0.0166336   0.00932082  72.16  0.001295952    3.220    0.689
        30  -7.3394    173.9415    110.2201   2.9053847044e+02   5.4517259501e+00  0.008529811  0.005324546  29.42 0.0004473373    1.597    0.374
        31  -9.1406    168.3919    114.5725   2.9062885398e+02   5.4354797230e+00   0.01285559   0.01166323  73.33 0.0006768354    1.179    0.152
        32  -9.3802    225.6042    107.7229   2.8993258352e+02   5.1686309785e+00   0.01382872  0.008226331  38.58  0.001366439    1.674    0.402
        33  -8.6016    230.5691    106.9587   2.8987114665e+02   5.1473779184e+00   0.01244939  0.008539402  45.11 0.0006107214    1.516    0.340
        34  -7.7160    151.7957    107.9216   2.9077754508e+02   5.6113634300e+00   0.01131158  0.007468946  75.98  0.001071416    2.107    0.525
        35  -9.7582    190.8157    103.4016   2.9030335059e+02   5.4278291591e+00   0.01426617  0.008951431 -51.95  0.000364023    1.553    0.356
        36  -7.8740    146.6127    100.6269   2.9079172770e+02   5.7258483456e+00   0.01045751   0.00749982 -27.07 0.0009986404    1.620    0.383
        37  -9.0916    186.4149     98.7648   2.9032496062e+02   5.5072814298e+00  0.009708391   0.00575431 -49.39 0.0009461088    1.662    0.398
        38  -8.8233    194.5359     97.7402   2.9022577614e+02   5.4699972485e+00   0.01234486  0.005992362 -55.74   0.00086481    1.963    0.491
        39  -8.8054    154.8853     94.2671   2.9065773325e+02   5.7486289582e+00   0.02309948   0.01262693 -17.98  0.001775942    3.305    0.697
        40 -10.3870    190.3707     90.8663   2.9023083267e+02   5.5735556707e+00   0.02046936   0.01595524   3.38  0.001590099    1.449    0.310
        41  -9.5473    186.1304     87.1308   2.9025618298e+02   5.6417522544e+00    0.0150263   0.01227518  30.71  0.001205701    1.225    0.184
        42  -9.8324    182.6151     82.7876   2.9026948564e+02   5.7125085142e+00   0.02298268   0.01249461 -85.36    0.0018336    3.016    0.668
        43  -9.4163    184.1584     77.9812   2.9022206787e+02   5.7580375933e+00   0.01419296   0.01328414   8.33  0.001759903    1.092    0.084
        44  -8.6572    220.0834     91.2206   2.8989343944e+02   5.3902147243e+00   0.01481075  0.009674657 -66.98  0.001517334    1.594    0.373
        45  -9.4449    169.9924     83.3092   2.9041708488e+02   5.7826616760e+00   0.01869341   0.01392168 -21.85  0.001225919    1.571    0.363
        46  -9.5653    152.7721     83.6619   2.9061628443e+02   5.8824003907e+00   0.01394336   0.01063014 -54.16 0.0006825369    1.286    0.222
        47  -7.3698    158.6191     82.6854   2.9054333691e+02   5.8583202469e+00  0.007178599  0.004898344 -23.59 8.670746e-05    1.811    0.448
        48  -9.9964    223.4272     77.0941   2.8976770101e+02   5.5311459525e+00    0.0302287   0.01058093 -55.67  0.002369867    2.623    0.619
        49  -9.2524    176.3521     78.5750   2.9031502587e+02   5.7983393024e+00   0.01222544   0.01116845 -27.41 0.0002273007    1.124    0.111
        50  -7.9249    214.2128     76.1143   2.8986691779e+02   5.5979624673e+00   0.01015648  0.008511931 -34.42  0.001178685    1.240    0.194
        51  -7.6151    206.5868     74.7620   2.8994569596e+02   5.6594264062e+00  0.008974071  0.006418339 -76.45 0.0009385612    1.564    0.360
        52  -7.7079    200.0346     73.0861   2.9001021114e+02   5.7180911911e+00   0.01087236  0.007634173  62.76  0.001008359    1.724    0.420
        53  -9.2964    184.4777     72.6761   2.9018555400e+02   5.8166349661e+00   0.01401955   0.01136548  -6.27 0.0006823948    1.392    0.281
        54  -9.6173    189.4265     69.4702   2.9010909701e+02   5.8233500025e+00   0.01859542   0.01289033 -24.13  0.001370644    1.755    0.430
        55 -10.6848    167.4851     68.7924   2.9035587173e+02   5.9634118059e+00   0.02220275   0.01340645 -39.70 0.0008472851    1.810    0.448
        56  -9.3238    169.2584     60.7307   2.9028564169e+02   6.0446872156e+00   0.01849216   0.01597741  58.12   0.00219859    1.233    0.189
        57  -7.8215    190.4952    174.5911   2.9074716593e+02   4.6170617548e+00  0.006535967  0.006277697  54.87 0.0001072644    1.066    0.062
        58  -7.3954    159.5787     60.1721   2.9039294469e+02   6.1094138732e+00  0.008657915  0.005997118 -49.51 0.0009102998    1.424    0.298
        59  -7.4779    148.0000     59.8623   2.9052354956e+02   6.1827213158e+00   0.01049592  0.003716985 -61.58 0.0007183883    2.805    0.643
        60  -8.8834    161.3142     55.6007   2.9034476275e+02   6.1511003274e+00    0.0113485   0.01108129 -63.53  0.001434044    1.025    0.025
        61  -9.0315    190.9459     53.6994   2.8999397928e+02   5.9940491760e+00    0.0123494   0.01031196  76.82 0.0004834672    1.354    0.261
        62  -8.8474    196.9870     55.0082   2.8993300870e+02   5.9426593873e+00  0.009401421   0.00935813  34.99  0.001194777    1.016    0.016
        63  -9.3742    132.9976     28.1754   2.9049901459e+02   6.6345139560e+00   0.02033743   0.01428089 -62.19  0.001408794    1.422    0.297
        64  -8.8191    138.2547     31.2756   2.9045801811e+02   6.5674951990e+00   0.01388894   0.01078242 -64.26  0.001283722    1.298    0.229
        65 -11.1923     60.7217    161.7768   2.9215216689e+02   5.5433101027e+00   0.03585858   0.02866041  64.80  0.002350276    1.415    0.293
        66 -10.6403     48.5843    171.6233   2.9235169414e+02   5.5034954258e+00   0.02440909   0.01911255  -9.97  0.001234211    1.478    0.323
        67 -11.2090     55.3960    166.4498   2.9224189322e+02   5.5218178637e+00   0.04002589   0.03338232 -75.02  0.003309523    1.260    0.206
        68  -9.1192    134.5758    136.8721   2.9115345230e+02   5.3844038933e+00   0.01143419   0.01062514  31.97 0.0003232222    1.082    0.075
        69  -7.6501    156.3981     16.5441   2.9015891435e+02   6.6260898565e+00  0.006457573  0.006297057 -52.44 -7.234522e-06    1.017    0.017
        70  -7.6201    145.9917     13.9963   2.9026227680e+02   6.7178712638e+00   0.00845708  0.006950254 -60.64 0.0009642267    1.209    0.173
        71  -9.9668    246.0123    154.5952   2.8998969151e+02   4.5106549223e+00     0.039116  0.008899992  37.24  0.002550909    3.864    0.741
        72  -9.8510     67.7740    145.3368   2.9197016236e+02   5.6889033677e+00   0.02658489   0.01754283  61.21  0.002426176    1.886    0.470
        73  -7.9670    203.8039    137.8123   2.9036782837e+02   4.9567674028e+00  0.009042121  0.007570645  68.18 0.0003267885    1.330    0.248
        74  -8.6287     70.4070    244.0973   2.9254758553e+02   4.5443646848e+00    0.0111703  0.009020313  -1.00 0.0004301523    1.387    0.279
        75  -8.0944      5.1993    234.1091   2.9323172894e+02   5.0486991563e+00  0.009877351  0.008394072 -27.94 0.0004197374    1.247    0.198
