#   1 NUMBER                 Running object number                                     
#   2 MAG_AUTO               Kron-like elliptical aperture magnitude                    [mag]
#   3 X_IMAGE                Object position along x                                    [pixel]
#   4 Y_IMAGE                Object position along y                                    [pixel]
#   5 X_WORLD                Barycenter position along world x axis                     [deg]
#   6 Y_WORLD                Barycenter position along world y axis                     [deg]
#   7 A_WORLD                Profile RMS along major axis (world units)                 [deg]
#   8 B_WORLD                Profile RMS along minor axis (world units)                 [deg]
#   9 THETA_WORLD            Position angle (CCW/world-x)                               [deg]
#  10 FWHM_WORLD             FWHM assuming a gaussian core                              [deg]
#  11 ELONGATION             A_IMAGE/B_IMAGE                                           
#  12 ELLIPTICITY            1 - B_IMAGE/A_IMAGE                                       
         1 -12.5476    199.8697     40.0349   4.3977465736e+01   3.0244234300e+01     1.061147     0.994207  61.63  0.005416167    1.182    0.154
         2 -12.4690    210.7784     28.8644   3.9892273039e+01   2.9078789244e+01    0.8778138    0.7663607  21.48  0.002397979    1.546    0.353
         3 -10.0801     33.1259     13.1915   7.7160386926e+01   6.9697952786e+01    0.5788333    0.0600863 -37.95  0.001447628    9.072    0.890
         4 -10.9220    238.4511      4.6304   3.2031816098e+01   2.5648882133e+01    0.5307487    0.4520668  49.93  0.003282431    1.583    0.368
         5 -10.8698    232.7013      4.5684   3.2418387065e+01   2.6889349837e+01    0.4694822    0.3367237 -56.86  0.002863856    1.185    0.156
         6  -8.8584     41.5025      9.5035   7.1349792151e+01   6.9007604664e+01    0.1223102    0.0949292   4.58 0.0001188905    1.014    0.014
         7 -10.4267     21.4348     10.2450   8.1664726473e+01   7.1495893483e+01    0.3626131     0.139456 -45.70  0.001649557    3.264    0.694
         8 -15.1934      6.3419    246.1680   1.2669555718e+02   2.1852954158e+01     2.082847     1.816535 -76.88   0.01451949    1.532    0.347
         9 -12.9856     43.3645    199.5578   1.1655365123e+02   2.7413834953e+01     3.665687     1.949554  73.41   0.01340238    1.970    0.492
        10  -8.2763     31.9214    202.4944   1.1925686598e+02   2.8056201570e+01    0.1721413    0.1109101  39.37  0.001027095    1.573    0.364
        11  -9.2920     62.0814    200.3895   1.1250583441e+02   2.4891690062e+01    0.2290988    0.1722711 -84.36 0.0004809106    1.240    0.194
        12 -11.6506     13.1349    189.5271   1.2224791426e+02   3.2817342801e+01    0.5145126    0.3142447 -67.50  0.002465851    1.531    0.347
        13  -9.0581    194.4738    197.4501   8.2537620960e+01   3.4162416872e+00    0.2389318    0.1294595 -51.87  0.001034745    2.429    0.588
        14 -15.1183      2.6265    197.9189   1.2495246183e+02   3.1901625805e+01     20.89257          nan -75.65   0.04040932   15.243    0.934
        15 -12.8690     54.1546    189.0679   1.1307085226e+02   2.8487927713e+01     6.393384     2.331783  62.30   0.01982475    4.922    0.797
        16  -8.2797     99.6812    181.0043   1.0106906212e+02   2.3750663047e+01    0.1978972    0.1832542 -88.86 0.0005844633    1.050    0.048
        17 -13.5218     10.2642    206.5002   1.2394687643e+02   2.9375838768e+01     1.232978    0.8286453  58.79  0.008329139    1.263    0.208
        18 -10.4216     68.3995    174.6077   1.0785876457e+02   3.0019008037e+01     0.424083    0.2839815 -39.07  0.001887449    1.952    0.488
        19 -10.3595     72.9372    169.6041   1.0600080366e+02   3.0586444230e+01    0.3862167    0.2554323 -46.39  0.001035989    1.698    0.411
        20  -8.1642    137.7244    168.4343   8.9475771307e+01   1.9801513170e+01    0.2967786    0.1390547  45.04  0.001129555    2.112    0.526
        21 -11.6973     58.3830    131.5586   1.0377033875e+02   4.1999061067e+01     1.226104     0.509387 -75.50  0.003951577    3.700    0.730
        22 -12.0212     69.9782    156.0240   1.0468021763e+02   3.4333116980e+01     0.607977    0.4973587 -15.35  0.001363081    1.640    0.390
        23 -11.8808     68.7042    144.4113   1.0307978298e+02   3.7401393130e+01    0.8391336    0.5872397  81.21  0.002983926    1.682    0.405
        24 -10.4220     88.1332    154.2427   9.9480062142e+01   3.2038689271e+01    0.5529187    0.3988309 -25.30  0.001812106    1.919    0.479
        25  -9.2117    134.4228    148.3459   8.6069403562e+01   2.5009619861e+01    0.5247996    0.1534675 -51.17  0.001502744    3.614    0.723
        26  -8.8043     39.1103    146.3274   1.1162280531e+02   4.0545745497e+01    0.2566083     0.175021 -81.02 0.0007086141    1.338    0.253
        27  -9.8890     30.0390    144.3062   1.1383285457e+02   4.1953019929e+01    0.2946346    0.2287687  63.72 0.0009166828    1.317    0.241
        28  -9.6617     33.0000    142.5349   1.1279179070e+02   4.2104998761e+01     0.434876    0.1357785 -72.59  0.001547797    3.111    0.679
        29  -9.0124     54.0651    149.5506   1.0798964205e+02   3.8039314041e+01    0.1936056    0.1365167  33.67  0.001018396    1.563    0.360
        30  -9.4867    102.0870    139.7488   9.2778535572e+01   3.3230160554e+01    0.4974822    0.3220586 -24.01  0.001988556    2.347    0.574
        31 -10.6350     89.7085    139.1966   9.6137479629e+01   3.5494877666e+01    0.2979233    0.2610961 -42.47 0.0003622896    1.178    0.151
        32  -7.7097     36.4676    140.4791   1.1154748576e+02   4.2269173715e+01    0.1350998      0.11439 -80.39 6.385807e-05    1.026    0.026
        33  -9.6634     32.8314    156.6724   1.1459733864e+02   3.8646997037e+01    0.3559463    0.1330184 -74.38  0.001441776    2.485    0.598
        34  -8.6910    105.7054    130.8033   8.9772784555e+01   3.4742666579e+01    0.3219373    0.2676013 -70.17  0.001091639    1.266    0.210
        35  -8.9892    111.3306    130.1525   8.8043820529e+01   3.3839748744e+01    0.3092519    0.2414153   1.28   0.00130035    1.702    0.412
        36  -9.1125     98.9005    125.9547   9.0593033829e+01   3.7156764388e+01    0.3130829    0.2494513  -7.29   0.00123441    1.613    0.380
        37  -8.5407    135.5066    126.5099   8.0642713103e+01   2.9794363276e+01    0.1568628    0.1545634 -44.97 0.0001243511    1.003    0.003
        38  -7.8494     92.3926    125.1725   9.2314666791e+01   3.8490650631e+01    0.2083645    0.1410636 -65.99 0.0003792303    1.588    0.370
        39  -8.8889     83.1765    142.9291   9.8726460718e+01   3.5622447578e+01    0.2336432    0.2069522  55.97 0.0004147179    1.159    0.138
        40  -8.4009    107.8176    118.9375   8.6312794084e+01   3.7180814383e+01    0.2232271    0.2006414 -20.71 0.0002947118    1.193    0.161
        41 -11.5731     81.7480    161.0774   1.0237474638e+02   3.1361107736e+01     1.354517    0.5413932  55.45 0.0006613189    3.824    0.738
        42  -8.3069    134.6104    113.1904   7.7433283714e+01   3.2978125357e+01    0.2359733    0.1475094 -34.72 0.0009563382    1.723    0.420
        43  -8.3643    205.7361    110.3898   6.1058277621e+01   1.7442089788e+01    0.1965988    0.1401367  40.68 0.0003976784    1.551    0.355
        44  -9.0325    114.6845    109.8447   8.1982157111e+01   3.7938199377e+01    0.3413869    0.1336171 -41.31  0.001113069    2.671    0.626
        45  -9.9634     26.6432    108.5287   1.0956274444e+02   5.1062272123e+01    0.2716228    0.1473891 -69.02  0.001327003    1.603    0.376
        46  -9.5182     45.2096    105.5117   1.0284181314e+02   5.0004645806e+01    0.2722135    0.1827032  55.90  0.001367404    1.871    0.466
        47 -12.6330     57.0568    239.2992   1.1715839345e+02   1.7443326240e+01    0.8344835    0.5539263  63.15   0.00295224    1.246    0.197
        48  -9.2922     33.1740    118.8485   1.0922700128e+02   4.7953772874e+01    0.1914208    0.1369384 -49.01 0.0005602739    1.308    0.236
        49  -8.8953     33.4164    100.7501   1.0585934927e+02   5.2347462303e+01    0.2010268    0.1013201 -53.80 0.0008907325    1.626    0.385
        50 -14.4155     30.0759    249.7145   1.2280795704e+02   1.8700845711e+01     9.297235     2.895055  26.37   0.02160022   14.977    0.933
        51  -8.1964    156.8068     88.9410   6.5217100415e+01   3.2901538931e+01    0.2692599    0.1756674 -63.90    0.0010806    2.041    0.510
        52  -8.2616    116.3332     85.6654   7.4561253042e+01   4.2849621140e+01    0.1571133    0.1246109 -84.63 0.0007052214    1.735    0.424
        53  -8.0845     59.4054    220.6546   1.1510093553e+02   2.0872569126e+01    0.2271287     0.191827  19.87  0.001452806    1.601    0.375
        54  -8.5374     91.6416    215.5035   1.0772284153e+02   1.7419169195e+01    0.2040036    0.1405072  80.55  0.000572295    1.614    0.380
        55  -8.0854     55.7085     66.3280   8.8697887976e+01   5.7635723526e+01    0.1260247      0.10936 -87.44 0.0002952515    1.622    0.383
        56 -11.9055    189.8205     47.2405   4.7257664695e+01   3.1702865879e+01    0.6668839    0.5827668  -2.03  0.002381117    1.420    0.296
        57  -9.5047     77.0856    220.8284   1.1143662349e+02   1.8441380224e+01    0.2917215     0.162778  67.19   0.00117901    1.969    0.492
        58  -9.6993     59.1011    230.2459   1.1601324681e+02   1.8957419958e+01    0.2830966    0.1841946 -73.75   0.00108916    1.553    0.356
        59  -8.1589     53.5814    220.4867   1.1627933447e+02   2.1651574241e+01    0.1819872    0.1079425  39.98  0.001029591    1.583    0.368
        60  -9.2616    142.3358     47.5108   5.5742227809e+01   4.3469118576e+01    0.2736142    0.2316705 -83.82 0.0007037281    1.335    0.251
        61  -8.4390    145.2741     41.7049   5.3258964986e+01   4.3556470296e+01    0.2237271    0.1970842 -88.74 0.0001990608    1.206    0.171
        62  -8.5308    142.4944     39.5964   5.3135922476e+01   4.4526637666e+01     0.217149    0.2083094  70.27 0.0001024258    1.038    0.037
        63  -8.6238     32.9845     36.9683   8.7862821992e+01   6.6016032014e+01    0.1683924    0.1573411 -84.32  0.001060436    1.685    0.407
        64  -8.0971     67.3083     51.6659   7.9115807311e+01   5.8732739836e+01    0.1261285    0.1116278 -80.52 0.0007041831    1.672    0.402
        65  -9.5127    109.5969    201.3004   1.0182391519e+02   1.7587721347e+01    0.4918082    0.2032999 -49.48  0.001823565    2.675    0.626
        66 -10.1130    148.7675    228.3503   9.7259207694e+01   5.7791476185e+00    0.2847098    0.2652192  80.74   0.00184765    1.267    0.210
        67  -8.4886     77.0384    225.5966   1.1194064450e+02   1.7475769988e+01    0.2618655    0.1582085  87.41 0.0009330524    1.891    0.471
        68 -10.8007     85.1165    221.1204   1.0977267090e+02   1.7229360343e+01    0.4253928    0.3095326  60.08 0.0007875956    1.225    0.184
        69 -10.0398     48.7507    216.5067   1.1692362190e+02   2.3085154065e+01    0.4891043    0.3089164  86.45  0.002273086    1.489    0.328
