#   1 NUMBER                 Running object number                                     
#   2 MAG_AUTO               Kron-like elliptical aperture magnitude                    [mag]
#   3 X_IMAGE                Object position along x                                    [pixel]
#   4 Y_IMAGE                Object position along y                                    [pixel]
#   5 X_WORLD                Barycenter position along world x axis                     [deg]
#   6 Y_WORLD                Barycenter position along world y axis                     [deg]
#   7 A_WORLD                Profile RMS along major axis (world units)                 [deg]
#   8 B_WORLD                Profile RMS along minor axis (world units)                 [deg]
#   9 THETA_WORLD            Position angle (CCW/world-x)                               [deg]
#  10 FWHM_WORLD             FWHM assuming a gaussian core                              [deg]
#  11 ELONGATION             A_IMAGE/B_IMAGE                                           
#  12 ELLIPTICITY            1 - B_IMAGE/A_IMAGE                                       
         1 -13.9310    225.0638    117.2087   8.7393154105e+01   1.1947625222e+01     5.962189      2.40313  61.04   0.01981558    3.613    0.723
         2 -13.8482    159.4520     51.9537   8.1462301636e+01   3.9101249527e+01      8.24643      3.54841  77.46  0.007606596    7.170    0.861
         3 -13.9192    218.2705      3.3290   5.9292841301e+01   2.9948249369e+01     5.378676    0.9236857  64.34   0.01734407    4.174    0.760
         4 -13.4288    232.2260     94.1726   8.0631315069e+01   1.4180679310e+01     3.927424     1.462058  63.43   0.01306901    3.658    0.727
         5 -10.8274    205.8250     64.5181   7.7000040428e+01   2.5224451122e+01     2.172136      1.07698 -74.25  0.005817156    5.459    0.817
         6 -13.7328    138.9797     26.1661   7.6873978245e+01   4.7861440141e+01     3.261396     1.346385  54.14  0.003821752    2.136    0.532
         7 -11.7784    240.7182     37.9152   6.5690018339e+01   2.0533992091e+01    0.8535328    0.3507247 -57.15  0.000430489    2.850    0.649
         8 -13.4954    222.6250     37.0576   6.7430819508e+01   2.4965423924e+01     1.710606     1.007429 -62.88  0.006113761    1.815    0.449
         9 -12.3115    221.2768     28.1640   6.5296077913e+01   2.6424966363e+01     1.029828    0.4518569  64.87  0.002036006    2.168    0.539
        10 -10.5372    186.4998     40.9183   7.3293545752e+01   3.3643641595e+01     1.005945    0.4469229 -54.44  0.003543394    2.902    0.655
        11 -10.7406    224.3861     15.8655   6.1876681808e+01   2.7114544273e+01    0.7251848     0.495631 -84.00  0.003937536    1.396    0.284
        12 -12.1626    212.2550     46.5243   7.1198747926e+01   2.6261568263e+01     3.593797     1.763623 -81.36    0.0117544    3.792    0.736
        13 -14.1082    246.0820     18.8642   6.0700736032e+01   2.1654603680e+01     1.672186    0.6861053 -34.82  0.002595698    2.155    0.536
        14 -13.2391    192.2950      9.4580   6.3428870143e+01   3.5866235961e+01     2.057907    0.8198037  68.27  0.008449534    2.212    0.548
        15 -12.9480    243.2638      2.5772   5.7197430759e+01   2.4105846816e+01     1.499316    0.4142087  70.83  0.005885181    3.234    0.691
        16  -9.8638    116.0002     12.5049   7.6619957794e+01   5.4977965038e+01    0.3118845    0.2295748  59.08  0.001355236    1.284    0.221
        17 -11.1006    120.2813      8.8977   7.4260016807e+01   5.4308561163e+01     0.439941     0.381495  47.52  0.001301864    1.032    0.031
        18 -10.5849    134.3207      8.9844   7.1544619905e+01   5.0858598351e+01    0.3361993     0.241237 -41.96  0.001790308    1.550    0.355
        19  -9.4886    145.8366      7.7735   6.9128666948e+01   4.8060633115e+01    0.3488266    0.2356015 -31.82  0.001646231    1.596    0.373
        20  -9.7157    140.4645      8.6793   7.0344467818e+01   4.9342383802e+01    0.2384394    0.1296498 -28.61 0.0008551067    1.954    0.488
        21 -11.2565      6.1634      3.2515   1.1524103091e+02   7.4195962563e+01    0.7309149    0.3061329  16.91  0.004076999    2.703    0.630
        22  -9.6235    113.2104      3.5620   7.3621920181e+01   5.6466083798e+01    0.2548766    0.1258142  67.65  0.001097181    2.076    0.518
        23  -9.9596    159.6951    158.9215   1.1003057333e+02   1.8383345390e+01    0.3399799    0.2140833  44.58 0.0008733245    1.507    0.336
        24  -9.0564     54.0497    250.5991   1.4332782427e+02   1.8115313959e+01    0.1507489   0.08173158  45.91            0    1.496    0.332
        25  -8.9927    247.6528    152.3478   9.1584164040e+01   1.7745065245e+00    0.1981616    0.1624058 -62.73  0.001113971    1.714    0.417
        26  -8.1636    191.6771    150.3356   1.0138189165e+02   1.3299642490e+01    0.1474062    0.1188579 -84.80   0.00070507    1.711    0.416
        27  -9.6851    134.2250    147.5937   1.1356000022e+02   2.5981131365e+01    0.7112074    0.2175322 -55.66  0.002003805    4.317    0.768
        28  -8.5047    178.3217    147.6641   1.0356232601e+02   1.6665852676e+01    0.1517007    0.1201451 -87.80 0.0007050326    1.709    0.415
        29  -8.7116    122.8525    146.7312   1.1614773080e+02   2.8415959085e+01    0.1995203    0.1930328  33.03 0.0004475162    1.142    0.124
        30  -9.6587    234.2837    145.0753   9.2240332808e+01   5.4354230220e+00    0.3432599    0.2181198  49.25  0.001275772    1.690    0.408
        31 -10.4012    240.4234    141.9388   9.0513036779e+01   4.7372695339e+00    0.3420932    0.2417554  14.82  0.001748159    1.658    0.397
        32 -10.1758     69.6649    145.3334   1.2940376504e+02   3.7662006383e+01    0.3300581    0.2482096  85.63  0.001260047    1.302    0.232
        33 -10.2199     66.4876    144.4820   1.3009092721e+02   3.8299679062e+01    0.4630427    0.2803293 -81.04  0.001409047    1.712    0.416
        34  -8.6331    192.2090    144.2162   9.9902819054e+01   1.4318743080e+01    0.1890325      0.17354 -89.24  0.000325943    1.269    0.212
        35  -8.9435    158.9734    142.0064   1.0654806796e+02   2.1987067944e+01    0.2484864    0.1917022  89.13  0.001143388    1.708    0.415
        36  -9.2476    187.9557    137.8362   9.9303769750e+01   1.6446666234e+01    0.2428485     0.212464 -36.75 0.0003341114    1.153    0.133
        37  -9.7805    149.0451    131.5512   1.0644391763e+02   2.6341019501e+01    0.3857746    0.2644544  75.10  0.001440792    2.042    0.510
        38  -9.2137     72.4866    249.5014   1.4012920451e+02   1.5911238836e+01     0.113081   0.08232886  61.42 0.0002207434    1.012    0.012
        39  -9.4308    165.0306    129.3210   1.0221458537e+02   2.3257849153e+01    0.2835287    0.2179136 -73.14   0.00097729    1.634    0.388
        40 -10.6257    159.5644    128.8566   1.0334419057e+02   2.4581455690e+01    0.4942105    0.3756765  33.24  0.002326478    1.424    0.298
        41 -12.4034    178.2692     75.1216   8.4800990766e+01   3.0479327264e+01      1.47536     1.311301 -84.33  0.007591452    1.185    0.156
        42 -10.5846    142.5575    123.5794   1.0609252840e+02   2.9469183720e+01    0.7216733    0.3977901 -72.46  0.002117873    4.246    0.764
        43  -9.0142    136.7812    128.3813   1.0866995978e+02   2.9667101187e+01    0.2288325    0.2041858  67.65  0.001179014    1.137    0.121
        44  -9.9547     91.4858    246.9899   1.3660719659e+02   1.3687945474e+01    0.1502004    0.1063121 -76.74 0.0006296384    1.575    0.365
        45 -10.4499    167.8189    114.0075   9.7756758114e+01   2.5720392005e+01    0.4560106     0.387923 -31.66  0.001318653    1.219    0.180
        46  -9.0837    136.2158    241.6005   1.2793874065e+02   7.7206116954e+00    0.1765611   0.09614167  36.64 0.0009587624    1.659    0.397
        47 -10.9753    134.7371    108.1762   1.0412504520e+02   3.4513952186e+01    0.8215315    0.4699959 -35.47  0.003276338    1.969    0.492
        48 -10.2104    230.3559     78.4094   7.6986590285e+01   1.7118689575e+01     0.417709    0.2743946 -76.39  0.001649391    2.044    0.511
        49 -10.0158     96.9858    240.0086   1.3498375847e+02   1.4056540456e+01    0.1545821    0.1357534  15.91  0.001075155    1.705    0.414
        50  -8.5986    176.9630    102.9794   9.2865348791e+01   2.5704464817e+01    0.2471271    0.1897759 -80.81 0.0006519658    1.677    0.404
        51  -9.6472    142.4650    102.1567   1.0054925326e+02   3.4054563383e+01    0.2607736    0.2179817  21.46 0.0008261228    1.392    0.282
        52  -9.2754    122.1180    102.2100   1.0584108824e+02   3.8528021430e+01     0.324102    0.1890671  24.46  0.001166137    2.763    0.638
        53 -10.0355    236.7203     78.4766   7.6112510047e+01   1.5649678026e+01    0.9566937     0.301485 -28.12  0.002904727    3.937    0.746
        54  -9.9129    148.0286     97.3053   9.7835598291e+01   3.3762165950e+01    0.3723265    0.2995008  18.22  0.000898736    1.523    0.344
        55  -8.9617    163.4940     95.9852   9.3868762558e+01   3.0323733692e+01    0.2411782    0.1531663 -42.62  0.001016521    1.567    0.362
        56  -9.5406    134.5474     94.5005   1.0040480932e+02   3.7449941510e+01    0.2891103    0.2572097  89.33 0.0006890101    1.242    0.195
        57 -10.6675    158.4341     89.0236   9.3030223163e+01   3.2903511306e+01    0.5843868    0.3908153  25.20  0.002369098    2.063    0.515
        58 -10.2585    142.1416     86.1240   9.6041459348e+01   3.7387988087e+01    0.3407616    0.3068388 -63.05 0.0007791314    1.160    0.138
        59 -11.6435    156.7809     78.1227   9.0188314507e+01   3.5359817458e+01    0.4427313    0.3411649 -42.62  0.002100472    1.300    0.231
        60 -10.0288    250.0500     80.6580   7.4871041904e+01   1.2372032489e+01    0.2843652    0.1957553 -75.16  0.001411727    1.840    0.457
        61  -8.5948    202.8636     80.5780   8.1846167676e+01   2.3366471204e+01    0.2093242    0.1449849  78.69  0.000925654    1.735    0.424
        62  -9.4388    139.4696     77.2950   9.4023715131e+01   3.9728998759e+01    0.4493537    0.2454236 -57.66  0.001628341    2.526    0.604
        63  -8.5050     32.2324    228.7425   1.4570524130e+02   2.4573262090e+01    0.1307557    0.1093129  84.68 0.0005384145    1.311    0.237
        64 -10.7306    191.3573     63.0042   7.8922978058e+01   2.9133376256e+01    0.3857626    0.2646889  37.61  0.001738428    1.720    0.419
        65 -11.1560    196.7893     58.7931   7.6834185588e+01   2.8395618884e+01    0.7856962    0.5205765 -14.63  0.002548668    1.944    0.486
        66 -11.1968    208.5084     61.5102   7.5773173934e+01   2.5014882727e+01    0.6284264    0.3335957 -67.79  0.002245148    2.958    0.662
        67 -11.2721    204.0017     56.9913   7.5214361011e+01   2.6831735454e+01    0.6204472    0.3427066 -64.10  0.002365937    2.420    0.587
        68  -9.3511    151.6308     71.3610   8.9284226533e+01   3.7862437556e+01     0.278548    0.2378631 -48.15 0.0006347981    1.191    0.161
        69  -9.3655    144.6908     69.5241   9.0319518132e+01   3.9901508058e+01    0.2765369    0.1403559 -36.97  0.001066706    1.981    0.495
        70 -13.1764      8.6949    207.7827   1.4870317406e+02   3.0994410849e+01    0.7860969    0.5419675  75.90  0.003908726    1.025    0.025
        71 -10.4734    133.1691     65.7946   9.1935659685e+01   4.3345169422e+01    0.3801039    0.2997248  35.34  0.001218858    1.328    0.247
        72 -10.7209    144.2857     59.2816   8.7109638696e+01   4.1771469766e+01    0.4415381     0.310265 -53.04 0.0007329699    1.587    0.370
        73  -9.0286    116.5984     60.4771   9.4542449930e+01   4.8100094700e+01    0.2886466    0.1966105 -64.63 0.0007089449    2.081    0.520
        74  -9.8370    134.2570     60.1260   8.9785556844e+01   4.4076907785e+01    0.3755916     0.186542  44.97  0.001463593    2.033    0.508
        75  -9.1704    184.2771     57.6274   7.8578007801e+01   3.1796409491e+01    0.3110218    0.2025238 -47.63  0.001186459    1.559    0.358
        76  -9.8885    129.8327     56.2795   8.9589342847e+01   4.5783130300e+01    0.3186204    0.2220064 -19.18 0.0004669183    1.651    0.394
        77  -8.2411     72.5822     58.4161   1.0778525058e+02   5.6933451422e+01     0.134068     0.122566 -29.67 0.0001457409    1.043    0.041
        78 -10.9496    246.5631     54.7680   6.9114768692e+01   1.6916003189e+01    0.6757329    0.4225828  71.49  0.003440132    1.722    0.419
        79  -9.1366    181.3795     51.3341   7.7212605020e+01   3.3499975512e+01    0.4228308     0.244012  68.42  0.001788353    1.793    0.442
        80  -8.9009     46.3292    210.3088   1.4189257831e+02   2.6455176203e+01   0.09928144   0.08925824 -51.91  0.000704009    1.662    0.398
        81  -9.8102    176.8842    201.2193   1.1432289798e+02   7.2280615477e+00    0.2070822     0.191966  49.76 0.0003022157    1.134    0.118
        82 -13.7813     40.7330    183.0970   1.4075595065e+02   3.2742514981e+01     1.703835     1.302258 -29.23   0.00154316    2.279    0.561
        83  -9.3541    124.5607     48.2190   8.8111166965e+01   4.8335985286e+01    0.2757418     0.137298 -38.19  0.001117756    2.025    0.506
        84  -9.6513    103.2358     46.0672   9.3200026183e+01   5.3444612180e+01    0.4622994    0.1717927 -48.35  0.001460048    3.916    0.745
        85 -10.3927    196.0322     42.3987   7.2303208352e+01   3.0965803070e+01    0.9490272    0.4214372 -63.13  0.002001205    4.010    0.751
        86 -13.1853     51.3322    174.2313   1.3758116067e+02   3.3428842619e+01     1.023264    0.9405492  75.11  0.002687345    1.227    0.185
        87  -8.7930    185.5065     35.4769   7.1837466447e+01   3.4626526942e+01    0.3195184     0.198416 -67.65 0.0009733377    1.928    0.481
        88 -10.7419    235.1078     37.8743   6.6262435096e+01   2.1852788873e+01    0.6819507    0.2781123 -54.33 0.0004190325    2.686    0.628
        89 -12.1335    220.4508    190.8570   1.0412972333e+02   9.2702747985e-01    0.8800176    0.3478228  44.23  0.003736194    2.404    0.584
        90 -10.9097    231.8377    191.4717   1.0220473129e+02  -1.1477753114e+00    0.6470805    0.1592461  43.26   0.00223724    3.817    0.738
        91  -9.3965    186.8106     30.4547   7.0168140638e+01   3.4923977792e+01    0.3207146    0.2096423 -54.86  0.001439597    1.598    0.374
        92 -11.9715    203.8137    190.5301   1.0716881370e+02   3.9884001774e+00    0.6980236    0.3371218  36.31  0.003141052    1.965    0.491
        93 -11.5566    211.8966    181.5382   1.0392130870e+02   3.9059395720e+00    0.4613035    0.4138552   3.67    0.0028362    1.052    0.050
        94  -9.8848    196.0146    180.4985   1.0676863905e+02   7.0891168635e+00    0.2187735    0.1269474  42.82  0.001035541    1.598    0.374
        95  -9.9143    234.3958    174.2783   9.8393110493e+01   8.9384881404e-01    0.3170535    0.2535888   2.49  0.001220228    1.183    0.155
        96  -9.1757    100.9999    175.9896   1.2650444012e+02   2.5857056414e+01    0.1880955    0.1653787  71.44  0.001119667    1.006    0.006
        97  -7.7622    120.4378    131.5027   1.1351580152e+02   3.2319070617e+01    0.1492278    0.1434176 -85.05 0.0001451315    1.019    0.019
        98 -11.2989    221.5745    179.5641   1.0174157701e+02   2.4225160022e+00    0.6502679    0.2612665  42.55  0.002715919    2.358    0.576
        99  -9.9845    214.2734    167.7592   1.0070473352e+02   5.6677774012e+00    0.6442279    0.3615999  66.80  0.002244434    4.117    0.757
       100 -10.7653    191.7200    192.6769   1.0989853205e+02   5.8871328075e+00    0.5286731    0.3105419 -65.05   0.00207871    3.651    0.726
       101  -8.4147    231.5395    160.5175   9.6054066102e+01   3.5183186498e+00    0.1359365    0.1227686  -1.24 0.0001969319    1.022    0.021
