#   1 NUMBER                 Running object number                                     
#   2 MAG_AUTO               Kron-like elliptical aperture magnitude                    [mag]
#   3 X_IMAGE                Object position along x                                    [pixel]
#   4 Y_IMAGE                Object position along y                                    [pixel]
#   5 X_WORLD                Barycenter position along world x axis                     [deg]
#   6 Y_WORLD                Barycenter position along world y axis                     [deg]
#   7 A_WORLD                Profile RMS along major axis (world units)                 [deg]
#   8 B_WORLD                Profile RMS along minor axis (world units)                 [deg]
#   9 THETA_WORLD            Position angle (CCW/world-x)                               [deg]
#  10 FWHM_WORLD             FWHM assuming a gaussian core                              [deg]
#  11 ELONGATION             A_IMAGE/B_IMAGE                                           
#  12 ELLIPTICITY            1 - B_IMAGE/A_IMAGE                                       
         1 -13.9736     68.7787    144.5581   7.7761375630e+01   3.7403947981e+01     2.390807     1.401426  88.38  0.006728491    2.485    0.598
         2 -13.1996    210.7260     44.1146   2.1035480289e+01   2.8041876876e+01    0.8028261    0.7166297  54.59  0.001504033    1.409    0.290
         3 -13.1889    236.4362     20.9175   1.3991246416e+01   2.5759911994e+01    0.8077154    0.6449824 -53.33  0.004164294    1.086    0.079
         4 -10.8800      8.4852     21.5031   7.2392160862e+01   7.4838260397e+01    0.2129217    0.1232652 -66.99  0.001040174    2.391    0.582
         5  -9.5193     33.0000      5.0103   4.4381124147e+01   7.3935990708e+01    0.1943978   0.06951544 -30.52  0.000802468    2.943    0.660
         6 -10.3592      8.5866      2.5600   6.0307380283e+01   7.8146208893e+01    0.3338667    0.1428253  18.87  0.001364105    3.337    0.700
         7 -11.0327     98.5239    180.8860   7.5090968810e+01   2.4071840011e+01    0.4580237    0.2800615  27.86  0.001937489    1.606    0.377
         8 -10.8721    139.7743    249.6745   7.4893637546e+01   5.4256613674e+00    0.3474372    0.1258553  38.86  0.001604474    2.539    0.606
         9  -9.0127    113.9562    250.2888   8.0304959684e+01   8.4388470148e+00     0.175503    0.1279066  25.97 0.0007615362    1.103    0.093
        10 -10.1488    101.4924    246.4551   8.2565510616e+01   1.0584119964e+01    0.3778978    0.1388555 -56.98  0.001762358    3.203    0.688
        11 -10.7426    102.8035    239.9427   8.1608163321e+01   1.1554558006e+01    0.4844147    0.1789454 -47.14  0.002149668    3.254    0.693
        12 -16.2825     56.0827    234.8036   9.1632887927e+01   1.8061912757e+01     5.925972     3.754989  10.55   0.03265235    1.927    0.481
        13 -10.3862    128.7764    179.8545   6.7274996207e+01   1.9585307101e+01    0.2145239    0.1952952  76.69 0.0005648589    1.324    0.244
        14 -10.1884    172.5810    177.7431   5.7149187885e+01   1.3058481293e+01    0.2329605    0.2162513 -17.14 0.0007133209    1.128    0.113
        15  -8.4867     97.2887    176.3120   7.4704475209e+01   2.5302843013e+01    0.1424253    0.1100059 -18.84 0.0003026333    1.583    0.368
        16 -11.2801    180.9410    174.0253   5.4788597678e+01   1.2429946152e+01     0.443189    0.3246223  22.36  0.002530753    1.371    0.270
        17 -10.7301    179.5802    168.2953   5.3959124115e+01   1.3655645525e+01    0.2965105    0.2623773 -83.82  0.001643141    1.649    0.394
        18  -9.9799    199.0132    172.1545   5.1057403026e+01   1.0029761499e+01    0.3226305    0.1557145 -53.45  0.001306215    3.320    0.699
        19  -9.1059     68.9785    172.7114   8.2017164189e+01   3.0255626104e+01    0.2003068    0.1710182  38.63 0.0003645945    1.114    0.102
        20 -10.8093    102.8877    171.1041   7.2356340485e+01   2.5632431997e+01    0.3902004      0.27096  66.58   0.00180328    1.873    0.466
        21 -11.2748    247.3277    165.0241   4.2112830671e+01   4.5519061447e+00    0.4657305    0.1801113 -42.53  0.002267123    2.459    0.593
        22 -11.1860     82.5269    165.3647   7.7054307535e+01   3.0129403291e+01    0.7691996    0.4655133 -19.77  0.002723839    2.846    0.649
        23  -9.5961    110.4067    166.6474   6.9583670645e+01   2.5442697125e+01    0.2680998    0.1456412 -60.76  0.000821916    2.092    0.522
        24  -9.0765     47.0882    167.2681   8.7723622839e+01   3.4381871606e+01    0.1994388    0.1665744  43.58 0.0005198095    1.136    0.120
        25 -10.1469    124.8274    248.5832   7.7840553039e+01   7.3995472280e+00    0.2265759    0.1598485 -48.55  0.001461776    1.709    0.415
        26  -9.1728     60.8148    159.1122   8.2534161383e+01   3.4757748038e+01     0.224885    0.1779903  62.95 0.0006131469    1.273    0.214
        27 -17.8927      6.9712    230.0127   1.0242166504e+02   2.3894143459e+01     7.654699     2.794579 -77.19   0.02708064    2.798    0.643
        28  -9.4251    167.6661    224.2893   6.5879181092e+01   5.8947029662e+00    0.1115518   0.09125048  46.77 0.0002697343    1.630    0.386
        29 -11.1381     80.8903    151.6028   7.5237683622e+01   3.3788502009e+01    0.4462032    0.3063109 -82.62 0.0005415191    1.760    0.432
        30 -10.8901    133.7029    145.6497   5.9442070060e+01   2.6074567863e+01     1.270016    0.3092202 -53.94  0.002863541    6.730    0.851
        31 -11.6769     87.7279    146.6164   7.2270689920e+01   3.3952698149e+01    0.6967469    0.4599171 -34.46  0.002489747    1.835    0.455
        32 -10.6738     55.2341    146.4755   8.2428682128e+01   3.8767044873e+01    0.6190363    0.4244967 -34.56  0.002873849    1.779    0.438
        33 -10.7466     24.8174    148.5273   9.2607868635e+01   4.1592795140e+01    0.4001361    0.2340677   8.58  0.001821253    2.136    0.532
        34 -16.2975      8.4541    207.5946   1.0120885831e+02   2.8530123972e+01     1.782392     1.249185 -30.87  0.007549628    2.069    0.517
        35  -9.2404     35.8947    144.1762   8.8470927467e+01   4.1655157457e+01    0.2793402     0.200826 -34.07 0.0008559002    1.667    0.400
        36  -9.8387     31.8984    144.1419   8.9796980937e+01   4.2076801864e+01    0.3312192    0.2124958  57.01  0.001589724    1.578    0.366
        37 -11.6661     68.3648    163.2438   8.0861033505e+01   3.2689730083e+01    0.5137341    0.3487997 -12.24  0.002269551    2.163    0.538
        38  -9.4086     24.5885    137.2120   9.1468164771e+01   4.4632251950e+01    0.2400993     0.181741  43.87 0.0006508025    1.311    0.237
        39 -11.4981     72.4717    159.5071   7.9074338071e+01   3.3051731388e+01    0.3257805     0.298647  27.66  0.001291317    1.118    0.106
        40 -11.0914    104.5375    131.9946   6.4258050196e+01   3.4615614648e+01    0.7331005    0.4585862 -18.71  0.002698939    2.758    0.637
        41 -11.4987     89.5694    133.2478   6.9023099340e+01   3.6981100242e+01    0.2851982    0.2649686 -47.47 0.0003244268    1.089    0.082
        42  -9.9751    136.7533    128.7501   5.4880343210e+01   2.9156934654e+01    0.3200981    0.2376986 -35.02  0.001541093    1.377    0.274
        43  -9.2890     82.6534    129.0978   7.0318943825e+01   3.9201550288e+01      0.21482     0.186398 -58.66  0.000334613    1.142    0.124
        44 -10.3418    111.1362    126.9134   6.1196738086e+01   3.4578559007e+01    0.3179335    0.2222138  30.48 0.0006997533    1.544    0.352
        45  -9.9802     45.3148    123.9864   8.2199103100e+01   4.6008256544e+01    0.3539657    0.2989617 -21.58  0.001582706    1.361    0.265
        46 -10.1909     98.4705    122.0624   6.3763877454e+01   3.8135561590e+01    0.2955214    0.2372225  -5.49 0.0007389497    1.580    0.367
        47  -9.8549     43.6067    129.7293   8.3767376111e+01   4.4668413782e+01    0.2067781    0.1364159 -82.91 0.0009417195    1.589    0.371
        48 -11.4342     71.9354    155.6600   7.8627804665e+01   3.4100522418e+01    0.2681022    0.2084843  45.72 0.0006794624    1.247    0.198
        49 -10.4576     55.3570    118.3954   7.7478716965e+01   4.6197038522e+01    0.4381286    0.2741618  52.15  0.001913326    1.759    0.432
        50  -9.1160    107.5269    116.5061   5.9700590499e+01   3.7716776902e+01    0.1533919    0.1513217 -46.15 9.280508e-05    1.015    0.015
        51  -9.6604     39.8372    113.0812   8.2325148065e+01   4.9590436894e+01    0.2367025    0.2071324  41.04  0.000356846    1.181    0.154
        52  -9.8262    205.4466    110.2748   3.7115610394e+01   1.9302534780e+01    0.2352065    0.2154612 -34.21 0.0005929348    1.068    0.064
        53 -10.7181     32.4165    108.2395   8.4395978968e+01   5.1706484979e+01    0.4896418     0.301526  35.07  0.002289512    1.663    0.399
        54 -11.0263    115.7585    108.3844   5.5248391772e+01   3.7906420309e+01    0.3315533    0.2521708  53.62  0.001565164    1.379    0.275
        55 -10.7378     53.2062    108.4709   7.6209378508e+01   4.9117434634e+01    0.3046729    0.2144519  58.74  0.001401865    1.622    0.383
        56  -9.7261    134.5836    104.9476   4.9421540546e+01   3.4656766612e+01     0.433515    0.1217378 -52.60    0.0009521    6.401    0.844
        57 -10.9987     42.8558    103.8962   7.9321579921e+01   5.1683076908e+01    0.6006936    0.2129752  46.91  0.001896781    3.554    0.719
        58 -10.2220     35.7186    100.8449   8.1636606581e+01   5.3329644908e+01    0.3869375    0.2297023  36.78  0.001433499    1.732    0.422
        59 -15.7041     13.1206    242.2094   1.0153086889e+02   2.0941409333e+01    0.8927318    0.4820818 -77.84  0.004922368    2.010    0.502
        60 -11.3429     15.5072     89.5114   8.8393878542e+01   5.8223563218e+01    0.5065075    0.1729887  32.50  0.001914526    2.878    0.653
        61  -9.9140     42.2515     87.6446   7.5828530362e+01   5.5994177321e+01    0.2245448    0.1823127  45.44   0.00116403    1.313    0.238
        62 -10.7807    161.6443    187.1531   6.1120309645e+01   1.3027313383e+01    0.4456299    0.2256362 -54.26   0.00137081    2.553    0.608
        63  -9.2034    184.6564     77.2923   3.2329644110e+01   2.8782055713e+01    0.1430548   0.09799259 -67.50  0.000386219    1.658    0.397
        64  -9.8032    141.6650    212.6559   6.9569048741e+01   1.1307664225e+01    0.2160039    0.1965015  27.84 0.0004876239    1.162    0.139
        65 -10.7797     31.6250     68.6633   7.5695851150e+01   6.2028739568e+01    0.3231128     0.254851 -30.76  0.001157795    1.266    0.210
        66 -12.7626    188.5371     60.5816   2.7512703940e+01   3.0483884182e+01     1.663515     1.054872  21.90  0.006013202    3.128    0.680
        67 -12.9568    203.8188     49.6405   2.3026652999e+01   2.8747663869e+01    0.7854015    0.6411457 -18.54   0.00390753    1.466    0.318
        68 -10.5998    124.8644    243.8263   7.7288667065e+01   8.1632087724e+00    0.1824481    0.1728178 -31.83 0.0006148924    1.285    0.222
        69  -9.7479     64.1212     62.9746   5.8534525832e+01   5.8375315534e+01    0.3478939    0.1951528  57.12  0.001364045    2.447    0.591
        70  -9.1488     45.3031     69.3355   6.9171793508e+01   6.0079503651e+01    0.1524725    0.1068107 -24.08 0.0004090755    1.664    0.399
        71 -10.0123     77.0000    185.5595   8.1500782941e+01   2.6090654906e+01    0.3538783      0.21812 -60.34  0.001276414    1.702    0.413
        72 -10.0112     75.6567    181.3309   8.1308453770e+01   2.7267694123e+01    0.3680789    0.2684799  64.94  0.001883989    1.489    0.328
        73 -10.3969    192.6649    194.0018   5.6175596908e+01   7.3877646946e+00    0.5721999    0.2750162 -58.00  0.001740255    7.102    0.859
        74 -14.8669      2.9013    249.0369   1.0387583319e+02   2.0537870286e+01     0.490314    0.2576533  43.65  0.003115683    1.377    0.274
        75  -9.4581    150.5072    245.4867   7.2215324443e+01   4.7693170080e+00    0.1193392   0.09425293  13.84 -6.580539e-05    1.008    0.008
        76  -9.4744     60.3314     21.0969   4.1288533509e+01   6.6429573968e+01    0.2279528    0.1675057  38.87 0.0004916452    1.271    0.213
        77  -9.7109    108.9251    240.7193   8.0353958835e+01   1.0660550976e+01    0.3004314      0.13718 -37.34  0.001362575    3.113    0.679
