#   1 NUMBER                 Running object number                                     
#   2 MAG_AUTO               Kron-like elliptical aperture magnitude                    [mag]
#   3 X_IMAGE                Object position along x                                    [pixel]
#   4 Y_IMAGE                Object position along y                                    [pixel]
#   5 X_WORLD                Barycenter position along world x axis                     [deg]
#   6 Y_WORLD                Barycenter position along world y axis                     [deg]
#   7 A_WORLD                Profile RMS along major axis (world units)                 [deg]
#   8 B_WORLD                Profile RMS along minor axis (world units)                 [deg]
#   9 THETA_WORLD            Position angle (CCW/world-x)                               [deg]
#  10 FWHM_WORLD             FWHM assuming a gaussian core                              [deg]
#  11 ELONGATION             A_IMAGE/B_IMAGE                                           
#  12 ELLIPTICITY            1 - B_IMAGE/A_IMAGE                                       
         1 -14.7509      8.4674    150.9834   1.4972612709e+02   4.1932974676e+01     11.34833     3.589088  61.17    0.0499147    3.198    0.687
         2 -13.1936      4.5266     11.3531   1.3037706727e+02   7.4331789032e+01     2.124783    0.4730627 -55.95  0.008561636    2.842    0.648
         3 -13.5325    191.5754     25.5109   7.3182556382e+01   3.4232588716e+01     1.493188     1.439116  14.43  0.007477117    1.059    0.056
         4 -13.4613    206.0509      7.2512   6.6180993472e+01   3.2457075816e+01     1.495006    0.9791679  42.47  0.007789974    1.697    0.411
         5 -11.9206      2.1687     47.9103   1.4181662163e+02   6.6145164750e+01     1.062551   0.08502697 -72.06  0.002591417    7.555    0.868
         6 -12.9231     10.7921    206.4925   1.5163796009e+02   3.1059071647e+01     1.201706    0.4865395  42.10  0.004602442    1.827    0.453
         7 -10.8844    174.4545    249.4887   1.2510505234e+02   6.2287242414e+00    0.2149379    0.1792092  54.68  0.001288128    1.737    0.424
         8 -12.9623    127.2918    248.6240   1.3306782800e+02   1.2184889580e+01    0.8362512     0.332547  29.01  0.004513009    2.368    0.578
         9 -12.6140    140.5767    248.3799   1.3074452038e+02   1.0581997098e+01    0.5559207    0.3582752  46.38   0.00406422    1.445    0.308
        10  -8.3367     63.2950    250.6836   1.4428511735e+02   1.9170208787e+01    0.1009552   0.05280259  55.41 0.0002101002    1.604    0.377
        11  -8.3728     51.3170    250.2753   1.4629101543e+02   2.0435924180e+01   0.08124501   0.06889595  17.24 0.0002439087    1.568    0.362
        12 -10.3602     28.9180    248.9808   1.4996960943e+02   2.2732422210e+01    0.3126925     0.150758  42.68  0.002328307    1.446    0.308
        13 -10.6588     19.2369    247.6148   1.5151158662e+02   2.3781114358e+01    0.3186893    0.2054912  33.37  0.002177944    1.463    0.317
        14  -9.8460      2.3559    249.4568   1.5426932785e+02   2.4902381282e+01    0.1959186    0.1163022  63.39  0.001036365    1.250    0.200
        15 -12.5753     39.0996    236.7626   1.4774637557e+02   2.3611719173e+01    0.2509825    0.2269697 -86.31 0.0007868255    1.395    0.283
        16 -13.9541     45.0862    229.5928   1.4633572160e+02   2.4145449559e+01    0.8539827    0.7405739  35.92  0.004808343    1.312    0.238
        17  -9.7317     33.3069    218.4303   1.4793095808e+02   2.7075119688e+01    0.2226412    0.1760044 -68.02  0.001451061    1.550    0.355
        18 -10.7342     37.9608    213.4361   1.4680511592e+02   2.7474161127e+01    0.2848773    0.2777511 -27.75  0.001935853    1.453    0.312
        19  -9.2926    237.6739    247.3268   1.1475299221e+02  -1.2398592924e+00   0.08582173   0.06998546  29.43 0.0007049854    1.697    0.411
        20  -8.2272    221.5456    213.5399   1.1243919744e+02   3.9326380972e+00    0.1121068   0.08257799  14.55 0.0001605585    1.026    0.025
        21 -11.3145     64.3899    201.6102   1.4081095601e+02   2.6791473268e+01    0.2064483    0.1970636 -58.09 0.0005607017    1.325    0.245
        22 -11.5989    141.9282    230.9545   1.2867149602e+02   1.2600647825e+01    0.4324392    0.1467592  33.26  0.002102396    2.450    0.592
        23  -9.9123    193.2180    195.3898   1.1444008161e+02   1.0020954127e+01    0.5198621    0.2925229 -58.31  0.001980175    6.014    0.834
        24 -11.6493     70.3658    192.9960   1.3883733922e+02   2.7651422524e+01    0.2199077    0.2065321 -49.16 0.0005145241    1.324    0.245
        25 -10.5951     80.0717    179.7225   1.3540311647e+02   2.8945085955e+01    0.1988443    0.1866414  74.39 0.0003085692    1.105    0.095
        26 -13.0768     67.1280    177.8700   1.3811140580e+02   3.0865997465e+01    0.4428233    0.2583985 -42.79  0.002045949    2.356    0.576
        27 -11.2300    154.1104    229.3879   1.2629283655e+02   1.1196594937e+01    0.3708325    0.1609807  24.93  0.001837763    2.588    0.614
        28  -8.4669    209.4048    180.1479   1.0897126303e+02   9.5045014294e+00    0.1441868    0.1091792 -33.51 0.0004086816    1.557    0.358
        29 -11.4939     87.1841    170.3090   1.3268410263e+02   2.9838580268e+01    0.5285821    0.4746328   0.58  0.003552624    1.340    0.254
        30 -10.2315     95.1293    240.7694   1.3806254249e+02   1.7071876978e+01    0.1586723    0.1480333  15.29 0.0008483111    1.332    0.249
        31  -8.7304     32.2281    228.2624   1.4857754027e+02   2.5578244533e+01    0.1401543    0.0807597  55.63 0.0006461465    1.326    0.246
        32  -9.7445     99.2320    153.7031   1.2750019566e+02   3.1453390243e+01    0.2302369    0.2188796 -16.46 0.0006546379    1.170    0.145
        33 -11.8082     88.0081    153.0658   1.3016248016e+02   3.3184220767e+01     0.256192    0.2331985 -20.77 0.0005679058    1.291    0.226
        34  -9.9694    134.2830    146.0934   1.1779481295e+02   2.7337903740e+01    0.7747084    0.2396883 -55.70  0.002121908    6.141    0.837
        35  -9.0880    102.0870    149.3704   1.2610999777e+02   3.1905490738e+01    0.2049063    0.1737794 -41.30 0.0004788014    1.283    0.221
        36 -12.1825     67.2023    143.6836   1.3414524093e+02   3.7898833585e+01    0.6318552    0.4030799  61.19  0.002992948    1.677    0.404
        37  -9.5239    110.2385    138.2929   1.2213868231e+02   3.2892974492e+01    0.4001642    0.2264237 -27.24  0.001618234    2.917    0.657
        38  -9.2318     86.5069    136.4631   1.2796372511e+02   3.6904264215e+01    0.2180645    0.1543242  63.86 0.0005647582    1.599    0.375
        39 -10.3254     97.8047    135.5004   1.2482044526e+02   3.5436626411e+01    0.2314218    0.2152364 -30.57 0.0006192469    1.159    0.137
        40  -8.2528    192.2911    144.2801   1.0513841984e+02   1.7286984971e+01    0.1345449   0.09347737   8.51 0.0002744801    1.527    0.345
        41  -8.3632    174.4257    137.4656   1.0720550716e+02   2.1620990794e+01    0.1351851    0.1250099   7.30 -7.929475e-05    1.079    0.073
        42 -10.3606      3.9260    227.4983   1.5350012298e+02   2.8113037667e+01    0.2840898    0.1582043  29.47  0.002131126    1.779    0.438
        43  -9.0216    107.2384    124.5189   1.2021308325e+02   3.6255752277e+01     0.187675    0.1345242  36.50  0.000411736    1.387    0.279
        44 -10.7691    172.6902    222.4623   1.2209737112e+02   9.5576495998e+00    0.2871829    0.1493535  17.91  0.001539227    2.274    0.560
        45  -9.8787    167.9505    112.9480   1.0285693102e+02   2.7005509362e+01    0.3112256    0.2656198 -58.75 0.0009972786    1.462    0.316
        46  -9.2869    203.4898    111.5063   9.5598192308e+01   2.0054216780e+01    0.1420127    0.1222047  -0.50 -8.619831e-05    1.030    0.029
        47  -9.8787     28.1752    221.6928   1.4902150636e+02   2.7007192967e+01    0.1865572    0.1436145   6.71  0.001115227    1.938    0.484
        48  -8.5253    184.5031     77.4706   9.0008274274e+01   2.9188632670e+01    0.1485367    0.1347356  -2.15  0.000115746    1.034    0.033
        49  -8.8652    156.2972     75.3547   9.4996900379e+01   3.5983880435e+01    0.1587719    0.1145223   8.72 0.0007034678    1.695    0.410
        50 -11.1492    179.2728    246.3957   1.2394254465e+02   5.9552478364e+00    0.2078805    0.1378366  39.92   0.00149011    1.419    0.295
        51 -11.0414      7.1449     62.9053   1.4207635439e+02   6.2348359047e+01    0.2239693    0.1651532  21.92  0.001118194    1.638    0.389
        52 -10.5489     28.0032     60.3878   1.3258959688e+02   6.1571771702e+01    0.2461024    0.2242197  56.39 0.0005074056    1.273    0.214
        53  -9.4462     19.8964     57.4578   1.3549709222e+02   6.2893451602e+01    0.1636167    0.1278864  15.02  0.000624213    1.519    0.342
        54  -8.4043     73.6492    250.3117   1.4249513054e+02   1.8135214398e+01    0.1061316   0.05308522  53.95 0.0007045418    1.721    0.419
        55 -11.7010    185.4748    238.6405   1.2196044121e+02   5.9992819011e+00    0.4255074    0.3092342 -72.59  0.002459505    4.058    0.754
