#   1 NUMBER                 Running object number                                     
#   2 MAG_AUTO               Kron-like elliptical aperture magnitude                    [mag]
#   3 X_IMAGE                Object position along x                                    [pixel]
#   4 Y_IMAGE                Object position along y                                    [pixel]
#   5 X_WORLD                Barycenter position along world x axis                     [deg]
#   6 Y_WORLD                Barycenter position along world y axis                     [deg]
#   7 A_WORLD                Profile RMS along major axis (world units)                 [deg]
#   8 B_WORLD                Profile RMS along minor axis (world units)                 [deg]
#   9 THETA_WORLD            Position angle (CCW/world-x)                               [deg]
#  10 FWHM_WORLD             FWHM assuming a gaussian core                              [deg]
#  11 ELONGATION             A_IMAGE/B_IMAGE                                           
#  12 ELLIPTICITY            1 - B_IMAGE/A_IMAGE                                       
         1 -16.8206     16.7134     25.7025   9.3130292673e+01   6.9121075474e+01     4.353766     1.847217 -36.36   0.01984427    1.914    0.478
         2 -12.7796    171.3124     54.9895   5.3416626911e+01   3.5247704861e+01     1.858298     1.149886  25.53  0.005701385    2.396    0.583
         3 -12.9617    185.9589     40.3074   4.6828399327e+01   3.3680742610e+01    0.9688756    0.9161115 -40.50  0.003480426    1.118    0.106
         4 -12.3594    190.6255     34.3457   4.4542501057e+01   3.3300278937e+01    0.5665472    0.4918023 -45.93  0.001308679    1.162    0.140
         5 -13.3178    209.0249      8.7714   3.5954307981e+01   3.1795573431e+01     0.968574    0.8922889  74.23  0.004161972    1.182    0.154
         6 -11.2096    190.9646     16.0188   3.9629467804e+01   3.5322822543e+01    0.5932719    0.2915448  63.22  0.002825194    1.829    0.453
         7 -12.2736    113.1327      4.2038   4.7942180337e+01   5.5341171605e+01     1.078394    0.5092441  62.65  0.005029105    1.901    0.474
         8 -11.2819    121.8541      8.9338   4.7914327235e+01   5.2899569231e+01    0.3895615    0.2419163 -39.02   0.00116873    1.863    0.463
         9 -12.6628    127.0590      4.7391   4.5428023730e+01   5.2015427871e+01    0.9784798     0.478068  67.23  0.004544161    1.893    0.472
        10  -9.9061     24.0852    214.7413   1.2264621155e+02   2.6195571416e+01    0.1371196     0.121217  77.05 0.0002361803    1.211    0.174
        11 -10.5028    249.3811    248.7481   8.2287730798e+01  -1.1513449039e+01    0.3849522    0.2208958  -9.98  0.002381007    1.641    0.391
        12 -11.2046    243.2560    246.6727   8.3012190571e+01  -1.0499699585e+01    0.3249218    0.3134034 -35.20  0.001835842    1.920    0.479
        13 -18.3628     38.4454    232.6775   1.2111787570e+02   2.1077596131e+01       5.6803     5.032334  49.86   0.03920533    1.313    0.239
        14 -11.1889    185.5768    210.8454   8.7868015151e+01   3.1446882058e+00    0.6273737    0.4314163   7.93  0.003283917    1.625    0.385
        15 -11.3215    202.9647    202.2579   8.2783357754e+01   1.6543109695e+00     0.665436    0.3450017 -21.48  0.002149516    2.529    0.605
        16  -9.6301    201.3646    207.8845   8.4140815272e+01   1.0045651842e+00    0.2109319    0.1653154  34.16 0.0004901384    1.255    0.203
        17 -10.4473    231.9871    211.3764   7.8920697744e+01  -4.3395385003e+00    0.2238967    0.1826884   3.33 0.0001890505    1.046    0.044
        18 -10.6392     97.3556    201.2477   1.0570915811e+02   1.9758106115e+01    0.4103669    0.3319419 -23.01  0.001546951    1.679    0.404
        19  -8.5975    200.0842    212.3102   8.5194174790e+01   5.0538475738e-01    0.1807968    0.1460686  25.41 0.0003412902    1.123    0.109
        20 -10.7355    193.1051    196.1992   8.3639578079e+01   4.3573102580e+00    0.9205878    0.4936007 -61.33  0.003051332    4.876    0.795
        21  -9.2418    228.6824    199.3397   7.7275297680e+01  -2.0552070132e+00    0.1705696    0.1610922 -72.86 0.0008725566    1.694    0.410
        22 -10.3100    169.6008    198.0619   8.8950870973e+01   8.1609300361e+00    0.2461025    0.2273114  -8.14 0.0004246993    1.093    0.085
        23 -11.6308     64.2775    196.7809   1.1265088753e+02   2.5424374609e+01    0.3747753    0.2529167 -44.79  0.001252509    1.876    0.467
        24  -8.5139    159.5392    195.7198   9.0728466313e+01   1.0394599676e+01    0.1764203    0.1396555 -60.67 0.0007084697    1.545    0.353
        25 -10.9648    151.3000    196.1022   9.2630070437e+01   1.1788249269e+01    0.4865072     0.197418  39.13   0.00190012    2.267    0.559
        26 -10.2939     96.9432    193.3871   1.0471449884e+02   2.1525005532e+01    0.3835872    0.2676524 -32.55  0.001128524    1.968    0.492
        27  -9.2148     79.3604    195.2782   1.0904389883e+02   2.3712522249e+01    0.2352727    0.1623486  75.36 0.0004409929    1.556    0.358
        28  -8.8243     55.6116    189.3020   1.1379271473e+02   2.8191516431e+01    0.2631249    0.1767098  59.89  0.001480936    1.412    0.292
        29 -11.5875     71.2294    208.6509   1.1241508206e+02   2.1933358464e+01     0.529521    0.3538013  16.06  0.002768026    2.196    0.545
        30 -10.0910     30.2499    186.1208   1.1919387504e+02   3.1739406468e+01    0.2563909    0.1556738  39.37 0.0007623644    1.662    0.398
        31  -8.5197     32.1730    182.6501   1.1845385663e+02   3.2330471253e+01    0.1750711    0.1551967 -60.12 0.0004536702    1.310    0.237
        32  -9.3890    153.3275    184.8542   9.0129319930e+01   1.3667418457e+01    0.2225424    0.1876105 -74.49  0.001172849    1.488    0.328
        33  -8.9745    191.0473    182.7370   8.1438989944e+01   7.1175760741e+00    0.2206791    0.1913768 -18.07            0    1.113    0.101
        34  -9.3840    188.9390    178.9552   8.1117924259e+01   8.1999600682e+00    0.3403189    0.2856218  69.57  0.001161667    1.666    0.400
        35  -9.4980    188.0986    174.2503   8.0329200449e+01   9.2356339054e+00    0.3896794    0.2511862 -60.26  0.001645544    2.337    0.572
        36  -9.6379     26.0826    209.8271   1.2192099430e+02   2.7010909262e+01    0.1620852    0.1156057  65.44 0.0003869895    1.158    0.136
        37 -10.6270    244.4708    173.4136   6.9293823271e+01  -5.4818721764e-01    0.4157639    0.2162752   0.31   0.00145294    4.110    0.757
        38  -8.7544    195.4254    173.7287   7.8683782914e+01   7.9607798001e+00     0.204662    0.1307442 -27.65 0.0009533821    1.619    0.382
        39  -8.3596     55.3388    173.2281   1.1199327330e+02   3.1942102652e+01    0.1180881     0.100905 -25.44  0.000504483    1.536    0.349
        40 -10.2022     21.3335    210.1985   1.2288278994e+02   2.7409213262e+01    0.1421503    0.1048148  78.61 0.0003156511    1.074    0.069
        41 -10.2290    230.5484    167.8575   7.0609398587e+01   2.6626185131e+00    0.3869688    0.1790746 -51.16  0.001408254    3.502    0.714
        42  -9.0503     39.5734    167.7953   1.1521276743e+02   3.5014683780e+01     0.212711     0.175346  42.55 0.0006054845    1.310    0.237
        43  -8.8830    186.5987    166.2769   7.8968487962e+01   1.1039159684e+01    0.2803901    0.1387855 -45.06  0.001129839    2.099    0.524
        44  -8.4028    137.6786    166.3210   9.0232349870e+01   2.0516626708e+01    0.1520553    0.1188877  76.85 0.0003161702    1.672    0.402
        45 -10.1440      5.3741    162.1893   1.2283762461e+02   3.9372714448e+01    0.2259262    0.1867174  17.71 0.0006219902    1.606    0.377
        46 -10.8836     93.2941    158.7734   1.0010977189e+02   3.0083770477e+01    0.2989621    0.2783687 -67.33 0.0004271142    1.049    0.047
        47 -12.1039     98.6270    152.1731   9.7471226868e+01   3.0799332384e+01    0.7180093    0.5870802  -0.91  0.003641818    1.546    0.353
        48 -11.1316    133.8169    146.7067   8.7058995879e+01   2.5661652968e+01     1.393883    0.3584197 -53.74  0.003338715    5.453    0.817
        49  -8.9014    127.9186    140.1514   8.7112632832e+01   2.8320557816e+01    0.2912073    0.2088115  46.34  0.001334315    1.428    0.300
        50 -11.2277    113.7081    152.7374   9.3571156235e+01   2.8054767129e+01    0.5688843    0.3448126  65.44  0.002205776    2.486    0.598
        51  -9.7156    144.4782    149.5312   8.5005049567e+01   2.2909246185e+01    0.3031143    0.2657008   3.50 0.0008907632    1.236    0.191
        52 -10.1577    143.2375    146.2312   8.4571868089e+01   2.3891527126e+01    0.3598804    0.2420532 -59.10  0.001445231    1.716    0.417
        53 -11.5790    108.3431    139.3640   9.2207318550e+01   3.2189770876e+01    0.7660785    0.4490342 -28.51  0.002912145    2.495    0.599
        54 -11.6153     97.7924    138.0173   9.4853177173e+01   3.4354791579e+01    0.3344032    0.3112398 -71.92 0.0003911879    1.070    0.065
        55 -10.7635    135.8899    130.6751   8.2789805266e+01   2.8880544709e+01    0.9021912    0.1991218 -49.26  0.002168974    5.021    0.801
        56  -8.9402    138.9566    129.7414   8.1767363685e+01   2.8455349795e+01    0.2640939    0.2129933  49.44 0.0002427105    1.291    0.226
        57 -10.2215    115.7496    129.7286   8.7973711727e+01   3.3099988599e+01    0.3401778    0.2901799 -27.44 0.0007214946    1.239    0.193
        58  -9.5777    195.2970    129.1052   6.8632861338e+01   1.6470018195e+01    0.2405698    0.2134201  43.74 0.0002703487    1.190    0.159
        59  -9.3828    160.6791    128.5074   7.6085734807e+01   2.4090284903e+01     0.320525    0.2471417 -73.36   0.00142873    1.748    0.428
        60 -10.4518    103.5860    125.2619   9.0353956270e+01   3.6408829467e+01    0.3256604     0.307591 -43.19   0.00096288    1.022    0.022
        61 -10.1715    134.9280    121.5178   8.0756748322e+01   3.1135408535e+01     0.541612    0.1513455 -46.75  0.001518698    3.582    0.721
        62  -9.9735    120.3335    124.0030   8.5320864154e+01   3.3544434213e+01     0.285776     0.222982   1.67   0.00108847    1.619    0.382
        63  -9.4681      2.7197    204.5746   1.2614680970e+02   3.0283117928e+01    0.1067698   0.07885743 -83.88 0.0006140257    1.200    0.167
        64  -9.3052    110.9645    119.0159   8.6714408177e+01   3.6516110214e+01    0.2255046    0.2211276 -28.60 0.0003566039    1.018    0.017
        65  -9.6868     67.3751    116.2030   9.9223359819e+01   4.4339781559e+01    0.2604716    0.2043209 -26.76 0.0005373049    1.411    0.291
        66  -9.1669    167.5383    113.3085   7.0598305862e+01   2.5719862490e+01    0.3511437    0.2537237 -75.36  0.001460607    2.067    0.516
        67 -10.0532    134.5549    106.6901   7.6923728290e+01   3.4469084755e+01    0.5704204    0.1522327 -44.58  0.001570088    3.712    0.731
        68 -11.4202    119.1339    111.3837   8.2419007135e+01   3.6665964701e+01    0.6904642    0.4536022  61.55  0.002838347    2.041    0.510
        69  -9.8207     62.5005    108.5030   9.9086070624e+01   4.6854302283e+01    0.4477414    0.2670813 -46.80  0.002118637    1.526    0.345
        70  -9.2129     65.7053    105.9510   9.7456379356e+01   4.7043932887e+01    0.3127094    0.2352271 -43.49  0.001194675    1.226    0.185
        71  -8.8281    128.3476     96.5716   7.5743809813e+01   3.7966284541e+01    0.3054086    0.1433736  58.17 0.0009584935    3.258    0.693
        72  -9.9598    113.5146     95.9554   7.9758711468e+01   4.1211580807e+01     0.282242    0.2249081  60.67    0.0011794    1.491    0.329
        73  -9.3632    188.7477     89.2653   5.9751452239e+01   2.5384066025e+01    0.4487046    0.2997486 -86.64   0.00180982    2.406    0.584
        74 -10.2685    102.1800     82.9567   7.9292501416e+01   4.6216216196e+01     0.239798    0.2099078  24.42 0.0002700478    1.149    0.130
        75  -8.6856    198.4503     81.9637   5.6057550074e+01   2.4374333409e+01    0.2270356    0.1408357 -34.45  0.001018457    1.569    0.363
        76 -12.4282     24.8312    200.5052   1.2150479950e+02   2.9113824525e+01    0.2795346    0.2612554 -60.85  0.001165557    1.395    0.283
        77 -10.7667      5.4302    207.4961   1.2578952752e+02   2.9445864149e+01    0.1651396    0.1205442  76.54 3.858713e-05    1.037    0.035
        78  -8.9448    167.9203    231.9059   9.4937722319e+01   2.5728152869e+00    0.1848326    0.1612552  29.47 0.0004778917    1.081    0.075
        79 -13.8406     11.0405    207.4717   1.2471392540e+02   2.8951245762e+01    0.3382726    0.2960762  88.48  0.001433291    1.241    0.194
        80 -10.4470    130.7341     36.8519   5.5906849036e+01   4.7744832088e+01    0.2280332     0.177659   7.34 0.0007367991    1.450    0.310
        81 -10.1553    129.0654     24.1445   5.1851616262e+01   4.9672256068e+01    0.2202227    0.1992228   1.37 0.0003464965    1.169    0.144
        82 -12.1494     17.7773    205.8503   1.2329755044e+02   2.8662990123e+01    0.2579001    0.2092381   5.60  0.001183046    1.913    0.477
        83 -11.4849     60.9508    205.9740   1.1435733589e+02   2.3847077291e+01    0.3672275    0.2469696 -47.04  0.001314642    1.891    0.471
        84 -10.6508      8.0518    218.8564   1.2590963035e+02   2.6905590455e+01    0.1463941    0.1163995  80.83 0.0002892439    1.117    0.105
        85  -8.7272    212.4417    218.2618   8.3835738098e+01  -2.3738276744e+00    0.1584247    0.1203279 -42.01 0.0009339412    1.625    0.385
