#   1 NUMBER                 Running object number                                     
#   2 MAG_AUTO               Kron-like elliptical aperture magnitude                    [mag]
#   3 X_IMAGE                Object position along x                                    [pixel]
#   4 Y_IMAGE                Object position along y                                    [pixel]
#   5 X_WORLD                Barycenter position along world x axis                     [deg]
#   6 Y_WORLD                Barycenter position along world y axis                     [deg]
#   7 A_WORLD                Profile RMS along major axis (world units)                 [deg]
#   8 B_WORLD                Profile RMS along minor axis (world units)                 [deg]
#   9 THETA_WORLD            Position angle (CCW/world-x)                               [deg]
#  10 FWHM_WORLD             FWHM assuming a gaussian core                              [deg]
#  11 ELONGATION             A_IMAGE/B_IMAGE                                           
#  12 ELLIPTICITY            1 - B_IMAGE/A_IMAGE                                       
         1 -10.1853    224.7124      5.0121   5.6999751129e+01   2.9021392347e+01    0.3637688    0.2003772  64.40  0.001421454    1.699    0.411
         2 -12.2627    228.8802     19.7385   5.9666750740e+01   2.6407555723e+01    0.9737326    0.6345944 -65.14  0.005617698    1.376    0.273
         3 -13.4573    240.8884      6.3085   5.5919200357e+01   2.5346985692e+01     1.397973    0.7460927  69.29  0.008021719    1.712    0.416
         4 -11.1444    201.2097     17.5138   6.2074473693e+01   3.3028352904e+01    0.5689923    0.3080612 -78.54  0.002697947    2.126    0.530
         5 -11.1300    189.7726     14.5321   6.2712182554e+01   3.6062011548e+01    0.6727374    0.3515859 -80.68   0.00303366    2.381    0.580
         6 -10.2871      4.3529     13.2278   1.1323727617e+02   7.0493951472e+01    0.3793737    0.2240637  45.19  0.002089979    4.029    0.752
         7 -10.6122    198.0660      8.3871   6.0314305938e+01   3.4755611068e+01    0.5723966    0.3003986  31.49  0.002275242    4.223    0.763
         8  -8.3401     55.5363     10.0771   9.0141314694e+01   6.5067301286e+01    0.1577954    0.1016671 -22.34 0.0005335126    1.523    0.344
         9 -10.6180      6.0756      8.9331   1.1064996180e+02   7.0950899052e+01    0.2384365    0.1732684  22.60  0.001045942    1.632    0.387
        10  -8.8576    173.9253      9.3549   6.3414983043e+01   4.0363605156e+01    0.1902189    0.1403858  69.22  0.001134484    1.143    0.125
        11  -8.3925     90.7033      9.3372   7.9013173024e+01   5.8986661032e+01     0.109276   0.09540033 -69.90 0.0003690962    1.653    0.395
        12  -8.9948     33.0634      5.0791   9.6666280643e+01   6.8696646942e+01    0.2156167    0.1416329 -46.35  0.001312195    2.666    0.625
        13 -10.5502    205.3231      2.1008   5.8157421050e+01   3.3713545631e+01    0.5730637    0.2067348  73.71  0.002197242    2.396    0.583
        14  -8.5036     79.1302      3.9669   8.0113186143e+01   6.1650445581e+01    0.1736046     0.126932 -47.63 0.0008645515    2.023    0.506
        15  -9.6697     16.2243      4.3055   1.0379103391e+02   7.0643692571e+01    0.1836292    0.1246197 -22.52  0.001371072    1.247    0.198
        16  -8.0804    150.0444      1.1880   6.4533554446e+01   4.6731787855e+01    0.1693838   0.08123442  65.86  0.000352385    1.708    0.415
        17  -8.3562     62.4652      1.4779   8.4150296603e+01   6.4779854294e+01    0.1137803   0.09176414  20.92 6.898979e-05    1.065    0.061
        18  -8.7075     38.5271      1.5199   9.2823819443e+01   6.8365152705e+01    0.1115331   0.08277943   7.93 0.0008097219    1.007    0.007
        19  -9.7768    119.5194    245.0208   1.2850000952e+02   7.0039987619e+00    0.3595408    0.2085463  83.16   0.00161317    2.780    0.640
        20  -9.0173    153.7093    250.3211   1.2245984556e+02   3.0803443453e-01    0.1811917    0.1065233  35.28 0.0003471812    1.550    0.355
        21  -8.8170    132.2071    248.1556   1.2639853870e+02   4.3146614841e+00    0.2293992    0.1348792  58.03 0.0007525633    1.725    0.420
        22 -10.9224     67.0795    249.8320   1.3899151665e+02   1.4174700514e+01    0.2945113    0.1698809  52.14 0.0007441636    1.418    0.295
        23  -9.4180     52.8741    250.0130   1.4155060576e+02   1.6077850756e+01      0.19415    0.1376568  59.77 0.0004809661    1.142    0.124
        24  -8.9745     27.1007    250.5585   1.4600715480e+02   1.9181936356e+01    0.2566844   0.07993423  42.72  0.001001883    2.657    0.624
        25  -9.8003     21.8473    248.4842   1.4674596268e+02   2.0183091588e+01    0.2061179    0.1450482  73.08 0.0003733155    1.021    0.020
        26  -9.3347    116.4857    243.4605   1.2890540833e+02   7.7975571613e+00    0.2521173    0.1692777  61.71  0.000623029    1.415    0.293
        27  -8.7521    159.9693    244.9796   1.2046042906e+02   1.4505488478e-01    0.2029037    0.1922751 -64.37 0.0005781911    1.242    0.195
        28  -9.2070    160.0512    240.2024   1.1973749548e+02   9.5177878458e-01    0.3712876    0.2576096  84.63  0.001613262    2.361    0.576
        29  -9.4474     46.4997    244.7752   1.4226272117e+02   1.7926830359e+01    0.1989098    0.1334087  54.64 0.0004501293    1.268    0.211
        30  -8.5035    169.3211    243.6518   1.1840483824e+02  -1.2331418368e+00    0.1888014    0.1421111  67.82 0.0006752143    1.701    0.412
        31  -8.3169    201.7418    243.3718   1.1200486672e+02  -6.6199590536e+00    0.1133265    0.1003127  79.64  0.000385431    1.649    0.394
        32  -7.9742    182.2132    243.3503   1.1580859483e+02  -3.3763392441e+00    0.2439079    0.2006707  23.68  0.001221742    1.120    0.107
        33  -9.0251    182.5183    239.7905   1.1518575304e+02  -2.8504839571e+00    0.3237353    0.2079498  60.73  0.001543658    2.158    0.537
        34  -8.9802    150.9684    243.2903   1.2201048609e+02   1.9825725080e+00     0.305172    0.1492092  35.73   0.00140772    1.931    0.482
        35  -9.3353    135.9560    242.7918   1.2494411503e+02   4.6466007431e+00     0.207385    0.1921145 -60.23 0.0004222477    1.260    0.206
        36  -8.3249    135.3324    238.6734   1.2450616488e+02   5.5097054909e+00    0.1776199    0.1314826 -86.66 0.0008145449    1.677    0.404
        37 -10.1513     30.6160    242.0262   1.4483896922e+02   2.0424649015e+01    0.2428042    0.1610692  58.39 0.0004861891    1.247    0.198
        38  -8.2861    142.8527    241.8161   1.2342784432e+02   3.6412096990e+00    0.1787291    0.1360668  60.44 0.0003816749    1.300    0.231
        39  -8.9449     62.5055    241.9584   1.3912405833e+02   1.6349975627e+01    0.2259383    0.1287434  58.31 0.0005577902    1.473    0.321
        40  -9.5610     38.1145    241.6149   1.4350183669e+02   1.9603056551e+01    0.1894594    0.1245694  80.10 0.0004763012    1.223    0.182
        41 -10.5787      3.7693    241.0853   1.4926821447e+02   2.3548649772e+01    0.2309648    0.1400599  76.44 0.0004410991    1.200    0.167
        42  -9.9025    108.0214    239.4030   1.3008651347e+02   9.9625704841e+00    0.2961085    0.2120637  81.31 0.0004602237    1.489    0.328
        43  -9.6052    108.5025    234.5335   1.2938994303e+02   1.0836957697e+01    0.3053944    0.1939645  67.47   0.00113504    1.662    0.398
        44  -9.7699    126.7712    239.9880   1.2641009636e+02   6.7272547106e+00    0.3241437    0.1709876  41.26 0.0007735582    1.663    0.399
        45  -9.4666     53.5863    239.6311   1.4056208433e+02   1.8022441790e+01    0.2407982    0.1537629  70.84 0.0005228737    1.320    0.242
        46  -9.6297     84.6079    239.0361   1.3464642806e+02   1.3725976509e+01    0.2268535    0.1594886  50.43 0.0003187482    1.241    0.194
        47  -8.5269     72.1486    238.8774   1.3702361182e+02   1.5601863368e+01    0.1518989    0.1428407  81.18 0.0004552115    1.328    0.247
        48  -9.8046     19.5902    238.7006   1.4650439148e+02   2.2341861365e+01    0.2061058    0.1471231  75.52 0.0005650438    1.015    0.015
        49  -9.3565    230.8917    237.1432   1.0543940188e+02  -1.0289629140e+01     0.176575    0.1638187  33.25 0.0007705642    1.363    0.266
        50  -9.2521    187.1922    236.0588   1.1365597168e+02  -3.0365573427e+00    0.3741232    0.2336735  60.84  0.001364449    2.364    0.577
        51  -9.1396    186.4798    230.6920   1.1291014798e+02  -2.0196357338e+00    0.3139446    0.2187987 -75.43  0.001499759    2.601    0.616
        52  -8.9102     44.9599    236.5513   1.4188018883e+02   1.9762082097e+01    0.2145508    0.1302807  82.67 0.0005012005    1.449    0.310
        53  -8.7664    216.9792    235.5230   1.0776880657e+02  -7.8891709835e+00    0.2239758    0.1647639 -68.91  0.000990564    2.597    0.615
        54  -9.3351    213.6019    231.4649   1.0771265668e+02  -6.7249584343e+00    0.3742573    0.2538696 -62.55  0.001850259    2.593    0.614
        55  -9.6164    175.6436    233.2845   1.1551711213e+02  -5.7063465373e-01    0.4613525    0.2500902 -61.48  0.001991046    2.962    0.662
        56  -9.7704     95.9844    235.2822   1.3199191484e+02   1.2711036403e+01    0.2674005    0.1950648  55.47 0.0004474668    1.163    0.140
        57  -9.0397    202.8754    234.5292   1.1031478361e+02  -5.4375788936e+00     0.229018     0.172218 -61.46 0.0008575305    1.955    0.489
        58  -9.4081    132.2887    234.4917   1.2454450045e+02   6.8203538586e+00    0.2955168    0.1667085 -56.41  0.001467328    2.006    0.501
        59  -8.6376     78.8750    234.5343   1.3528403566e+02   1.5492243965e+01    0.2466442    0.1447076  85.18  0.001199065    1.893    0.472
        60  -8.4284     38.9781    235.0304   1.4284297667e+02   2.0816872700e+01    0.1953792    0.1046388  69.45 0.0004580879    1.661    0.398
        61  -8.5298      7.0744    235.4545   1.4840974640e+02   2.4313949417e+01    0.1447757   0.09065088  49.81 0.0004069828    1.503    0.335
        62  -8.3048    122.9696    234.4665   1.2644406468e+02   8.4252686441e+00      0.19488    0.0938801  58.41 0.0006269124    2.420    0.587
        63  -8.0606    194.4752    232.9705   1.1170054166e+02  -3.7736380076e+00    0.1606045    0.1184784 -75.27 0.0008073188    2.365    0.577
        64  -8.2951      1.4329    232.3060   1.4916606673e+02   2.5500474569e+01    0.2099776   0.07744897 -72.70  0.001144532    2.243    0.554
        65  -9.4629    235.9674    231.2533   1.0347232188e+02  -1.0209318942e+01    0.2329296    0.1635264 -21.60 0.0006531517    1.375    0.273
        66  -9.2898    140.6774    230.4577   1.2224037735e+02   6.1224937410e+00    0.4400623    0.2086004  62.26  0.001536542    3.722    0.731
        67  -8.9250     67.6825    232.1140   1.3721079698e+02   1.7614751700e+01    0.2087316    0.1300488  79.70  0.001166229    1.558    0.358
        68  -9.2741     11.5483    232.0500   1.4745141368e+02   2.4530443359e+01    0.2050947    0.1128383  61.34 0.0005055307    1.471    0.320
        69  -8.6628    127.2565    231.0243   1.2509440701e+02   8.3582665057e+00    0.2291573    0.2167481  19.84 0.0009094751    1.265    0.209
        70  -8.8084    127.6859    227.1583   1.2446060169e+02   9.0431576941e+00    0.2123322    0.1590431  80.80 0.0009028902    1.521    0.343
        71  -8.9978     32.8556    230.5801   1.4360444463e+02   2.2462260691e+01    0.1876363    0.1329712 -77.12 0.0006512244    1.324    0.245
        72  -9.6664    246.4099    229.5059   1.0126739374e+02  -1.1507540290e+01    0.2267135    0.1938253 -37.96 0.0008611948    1.465    0.317
        73  -9.0383    104.0010    230.0083   1.2973689184e+02   1.2481808986e+01    0.2030478    0.1657256  65.46 0.0003695063    1.058    0.055
        74 -10.4618     63.2419    228.9405   1.3775689006e+02   1.8895563808e+01    0.2586816    0.1967222  74.03 0.0004926052    1.072    0.067
        75  -8.3817    220.6640    229.3032   1.0598503361e+02  -7.5341618103e+00    0.1168803    0.1023793  66.53 0.0003590915    1.665    0.399
        76  -9.8806    149.3917    225.7341   1.1971330859e+02   5.4708827142e+00    0.5751969    0.3474773 -85.59  0.002240688    3.473    0.712
        77  -8.9281    146.6653    227.2937   1.2052248754e+02   5.6620839324e+00    0.2448606    0.1693533  50.81  0.000605439    1.331    0.249
        78  -8.1812    136.2991    229.6875   1.2303409920e+02   7.0408122437e+00    0.1366355   0.09734022  69.92 0.0003164982    1.605    0.377
        79  -9.6810    118.0355    228.5327   1.2665739149e+02   1.0433501171e+01    0.3229528    0.2276476  39.12 0.0009649459    1.372    0.271
        80  -9.2998     96.0533    228.1178   1.3112496694e+02   1.4153663604e+01    0.2448798    0.1778427 -72.64 0.0008523435    1.411    0.291
        81  -8.8408     93.6878    224.0533   1.3111263996e+02   1.5374781727e+01    0.2576855    0.1568682  85.07  0.001062539    1.974    0.494
        82  -9.4249     48.1852    228.5949   1.4060699717e+02   2.0982101720e+01    0.2335891    0.1665222 -68.91 0.0004154344    1.442    0.307
        83  -8.5033     40.2352    229.2492   1.4214825753e+02   2.1846525350e+01    0.1682298    0.1068049  69.95  0.000615458    1.308    0.236
        84  -8.9618    180.6642    227.7633   1.1359284093e+02  -4.9793642640e-01    0.3277085    0.1696416  50.77  0.001461243    2.099    0.524
        85  -8.8836    161.6696    228.2294   1.1755773228e+02   2.8022912762e+00    0.2311132    0.1819402  38.74 0.0007640536    1.134    0.118
        86  -8.0373     24.6912    228.7020   1.4493269958e+02   2.3788009582e+01    0.1001854    0.0832447 -62.05 0.0002602194    1.595    0.373
        87 -10.4122      6.6809    225.8576   1.4790132555e+02   2.6276155519e+01    0.2204499    0.1508305 -90.00 0.0004591326    1.130    0.115
        88  -9.4008     88.5112    225.9523   1.3240247894e+02   1.5792838047e+01    0.2369347    0.1718275  50.35 0.0003708659    1.239    0.193
        89  -9.9474     75.5041    225.5320   1.3498371059e+02   1.7853338418e+01    0.2406349    0.1978189  73.54 0.0005140959    1.012    0.012
        90  -9.0465    104.6375    224.0073   1.2883746889e+02   1.3606927146e+01    0.2878753    0.1625061 -77.80  0.001329722    2.216    0.549
        91  -9.4672     27.0810    225.0670   1.4423340894e+02   2.4268846788e+01    0.1898618    0.1284759  75.33 0.0008183113    1.158    0.136
        92  -8.6924    216.3288    223.4458   1.0577161128e+02  -5.9118371379e+00    0.2083521    0.1588005 -57.73  0.000957317    1.851    0.460
        93  -8.6187    180.4048    224.2346   1.1305036647e+02   1.6744571044e-01    0.1690125    0.1317819 -59.36 0.0003264729    1.584    0.369
        94  -8.2226    123.5370    224.4896   1.2494873018e+02   1.0298542671e+01    0.1365815    0.1201497  58.83 4.300007e-05    1.013    0.013
        95  -8.5995    173.1675    223.2116   1.1436272243e+02   1.6498179635e+00    0.1835825    0.1575575  70.34 0.0005034073    1.376    0.273
        96 -10.2712     19.7600    221.8440   1.4532488906e+02   2.5747901966e+01    0.2840834    0.1645446  62.59 0.0004364405    1.450    0.311
        97  -9.2745    238.9443    221.5229   1.0117598347e+02  -9.2276499892e+00    0.2170833    0.1729054 -45.54 0.0007239074    1.568    0.362
        98  -9.1217    192.2171    221.4565   1.1017243549e+02  -1.4460251123e+00    0.2473407    0.2141424 -70.42 0.0009407588    1.521    0.343
        99  -9.4892    134.7170    220.9820   1.2207285866e+02   9.0323378936e+00    0.2937442    0.2631633  87.45  0.001232015    1.160    0.138
       100  -8.9832    132.1513    215.2903   1.2174937055e+02   1.0648784676e+01     0.355032    0.2189017 -88.97  0.001328106    2.666    0.625
       101 -10.0270     55.6326    221.6113   1.3852455471e+02   2.1478117933e+01      0.22122    0.1851659  84.68 0.0004593666    1.109    0.098
       102  -8.9148    225.4597    221.5282   1.0368371574e+02  -7.1027150391e+00     0.129429    0.1119837   6.86 1.176946e-05    1.012    0.012
       103  -9.1719    158.8688    220.4295   1.1687813061e+02   4.7647753918e+00    0.2438841     0.185084 -89.27 0.0007566566    1.810    0.448
       104  -8.2891    117.3590    220.7166   1.2571668007e+02   1.2138365281e+01    0.1963392    0.1385069 -66.61 0.0005525349    1.522    0.343
       105  -9.3390    119.8161    218.9787   1.2494625757e+02   1.2072126289e+01    0.3856896    0.2246234  72.71  0.001640567    2.473    0.596
       106  -8.8795     82.6322    220.6368   1.3297954650e+02   1.7821764771e+01    0.2541524    0.1388403  87.68 0.0009480885    2.360    0.576
       107  -9.5363     11.8011    226.0301   1.4702525596e+02   2.5722325319e+01    0.1798914    0.1364928  67.95  0.000553923    1.165    0.142
       108  -9.0268     63.7433    221.1610   1.3687190098e+02   2.0468089317e+01    0.2107027    0.1429592  60.80 0.0003939313    1.279    0.218
       109  -9.2734     44.0411    221.0119   1.4072274740e+02   2.3103233770e+01     0.186807    0.1425314  78.28 0.0004067756    1.026    0.026
       110  -8.3930    205.6594    225.8269   1.0826796081e+02  -4.5083887920e+00    0.1722464    0.1212566 -50.07 0.0005019577    1.738    0.425
       111  -8.3721    220.6442    220.3025   1.0437579152e+02  -6.1232234636e+00    0.1215219    0.1051529  70.96 0.0007038897    1.711    0.415
       112  -9.4015    154.3966    219.6633   1.1769507254e+02   5.7287543470e+00    0.2789446    0.2090896  74.17 0.0007428891    1.675    0.403
       113  -9.3500      1.8550    219.7119   1.4835880187e+02   2.8000144585e+01    0.1978218    0.1198161  87.53 0.0004897593    1.239    0.193
       114  -9.1657    143.0818    217.6256   1.1977063184e+02   8.1945333268e+00    0.3929997    0.2006392 -65.88  0.001572577    2.834    0.647
       115  -9.9283    109.4195    218.3230   1.2706746750e+02   1.3994647782e+01    0.3472583    0.2391467  56.79  0.001014707    1.334    0.251
       116  -8.9818     76.9160    217.4270   1.3378363568e+02   1.9373378672e+01    0.2113839    0.1576316  84.14 0.0004340563    1.227    0.185
       117  -8.9224    169.0751    216.3409   1.1404604792e+02   3.6671941939e+00    0.2414512     0.194168 -89.36 0.0007692525    1.663    0.399
       118  -9.7404     87.7291    215.9801   1.3135289322e+02   1.8035009322e+01    0.2496712    0.1878362  71.62 0.0003882602    1.216    0.178
       119  -8.8490     51.4135    217.2655   1.3893367439e+02   2.2966965889e+01    0.1742966    0.1017671 -87.01 0.0006502135    1.611    0.379
       120 -12.5690     30.1273    209.3924   1.4239625714e+02   2.7260199902e+01     1.031279    0.6335359  65.35  0.006236893    1.431    0.301
       121 -10.0658     29.9991    201.4782   1.4172279559e+02   2.9014179251e+01    0.2537526    0.1700625  51.74 0.0004101741    1.439    0.305
       122  -9.1446     12.8369    216.0821   1.4617089931e+02   2.7676723257e+01    0.1850528    0.1343639  64.43 0.0004632507    1.206    0.171
       123  -8.7211    232.3566    215.1247   1.0121226985e+02  -7.2092460892e+00    0.1766449    0.1150798 -45.24 0.0007261446    1.757    0.431
       124  -9.4383     99.5660    219.8308   1.2935383939e+02   1.5315662384e+01    0.2495396    0.1804651  62.76  0.000428967    1.267    0.211
       125  -8.2516    185.6497    214.3227   1.1024489975e+02   9.9898689180e-01    0.1381086    0.1088718  73.40 0.0007048546    1.749    0.428
       126  -9.4841    161.7057    213.3591   1.1509136766e+02   5.6031982152e+00    0.2888405    0.2224279 -66.36  0.001163273    1.558    0.358
       127  -9.2132    115.8560    210.1019   1.2449775034e+02   1.4637561599e+01    0.2699985     0.188026 -84.50 0.0007856488    1.679    0.404
       128  -8.6215     92.9375    214.0136   1.2999861892e+02   1.7636239359e+01    0.2259613    0.1424773  72.48  0.001031856    1.738    0.425
       129  -9.2644    214.0016    212.3902   1.0420184960e+02  -3.7064546168e+00    0.3226029    0.2195177  60.38  0.001367853    2.185    0.542
       130  -9.4125    147.3657    211.7511   1.1789552564e+02   8.5884674578e+00    0.3416508    0.3054696 -22.51  0.001716959    1.321    0.243
       131  -9.0979    127.2258    212.7641   1.2242442437e+02   1.2058360772e+01    0.2319023    0.2000811  54.95   0.00105171    1.047    0.045
       132 -10.8644    123.8407    205.8701   1.2209029298e+02   1.4132422356e+01    0.4837208    0.2983035  82.39  0.002011603    2.507    0.601
       133 -10.2791     70.9140    212.2724   1.3443406208e+02   2.1379325210e+01    0.4819957    0.2713359  46.63  0.001538185    1.641    0.390
       134  -9.0732     45.7642    212.6339   1.3960878228e+02   2.4693996454e+01    0.2044129    0.1597039  73.77 0.0003657128    1.060    0.056
       135  -7.8122    224.5472    212.5201   1.0219566000e+02  -5.5147573771e+00    0.1313084    0.1166707   3.76 0.0001284884    1.028    0.027
       136 -10.0719    100.6370    211.3583   1.2798932715e+02   1.6958662958e+01    0.4380845     0.238534  56.34  0.001325484    1.834    0.455
       137  -9.6062     99.3344    206.4014   1.2758135741e+02   1.8263293173e+01    0.3930247    0.2382217  88.01  0.001309586    2.153    0.536
       138  -9.3077      4.2236    212.1033   1.4745834428e+02   2.9354928130e+01     0.170519    0.1329653  70.79 0.0004838976    1.177    0.150
       139  -8.7172    204.3214    210.8698   1.0582813201e+02  -1.7518730191e+00    0.1994747    0.1675852 -58.03 0.0007070077    1.487    0.327
       140  -9.3096    175.3618    209.9833   1.1160823364e+02   3.7056769381e+00    0.3556671    0.2540262  89.58  0.001248543    2.369    0.578
       141  -8.3496    192.2937    210.6528   1.0821678287e+02   4.5270477500e-01    0.1330041    0.1112265  83.73 0.0007030762    1.670    0.401
       142  -9.3550    137.2922    208.8400   1.1960654907e+02   1.1049700386e+01    0.3755721    0.2679277  28.16   0.00161062    1.592    0.372
       143  -8.8846    236.4597    208.4477   9.9198285569e+01  -6.8111551416e+00    0.2421697    0.1970101 -81.72 0.0009551545    2.225    0.551
       144  -8.4718    110.7359    209.5582   1.2553668947e+02   1.5643349158e+01    0.1895925    0.1186707  53.04 0.0003793096    1.496    0.332
       145  -9.3613    246.1687    207.4197   9.7239640311e+01  -8.1871000361e+00    0.2318013    0.1688834 -35.62 0.0006814767    1.355    0.262
       146  -8.5078    167.1949    208.1818   1.1301750547e+02   5.5857101044e+00    0.1980921    0.1599784  59.74 0.0007162301    1.327    0.247
       147 -10.1938     79.9813    206.5667   1.3181919992e+02   2.1301912236e+01    0.3635734    0.2114273  51.66 0.0008357456    1.595    0.373
       148  -9.4570     51.5831    206.2740   1.3779040465e+02   2.5357664300e+01    0.2325167    0.1880088  74.30 0.0004743038    1.058    0.055
       149 -10.7219     45.5811    199.7825   1.3835982619e+02   2.7571734252e+01    0.4914532    0.2326653  63.44  0.001621899    2.302    0.566
       150  -9.9186    181.6001    205.0242   1.0939384818e+02   3.4801145012e+00    0.4871119    0.3098612  37.22  0.001292331    1.494    0.330
       151 -10.2260     90.0228    205.5614   1.2950621830e+02   1.9964434908e+01    0.3011271    0.2214738  48.65 0.0006324491    1.285    0.222
       152 -10.4318     13.6067    204.3593   1.4517167408e+02   3.0099080086e+01    0.2664018    0.1839532  76.85 0.0005853583    1.158    0.136
       153  -8.2921      2.9594    206.0117   1.4728223943e+02   3.0758487285e+01    0.1327715   0.09969003  78.66 0.0003559085    1.079    0.073
       154  -8.5326    152.2736    205.1940   1.1571397309e+02   9.0049278721e+00    0.2009341    0.1608979  67.52 0.0007323826    1.370    0.270
       155  -8.9795    130.6838    204.4591   1.2034668450e+02   1.3191822666e+01    0.2650662    0.2367936 -27.76  0.001098233    1.364    0.267
       156  -8.1857    109.2935    205.6318   1.2527420101e+02   1.6749342562e+01    0.1487662    0.1005569  76.67 0.0007027648    1.720    0.419
       157  -9.5965    250.0511    202.6325   9.5636221519e+01  -8.0422628531e+00    0.3454677    0.1711906 -41.28  0.001127089    1.995    0.499
       158  -9.5093    194.9822    203.5135   1.0633604230e+02   1.2626081747e+00       0.3614    0.2353023 -45.89  0.001474514    1.641    0.391
       159 -10.1594    192.4959    197.3543   1.0566995673e+02   2.8801473480e+00    0.4339238    0.3089056 -64.34   0.00132582    1.914    0.477
       160  -8.8521    140.4495    200.9936   1.1759415552e+02   1.2116424594e+01    0.3398262    0.2267964  84.16  0.001072118    2.251    0.556
       161  -9.1223    242.9999    200.9691   9.6574341694e+01  -6.6648913835e+00    0.2859517    0.1750346 -44.12 0.0008760819    1.741    0.426
       162  -8.7576    112.6900    201.7156   1.2392374987e+02   1.7024133142e+01     0.217903    0.1734581  48.81 0.0004747758    1.185    0.156
       163  -9.8298    112.2684    198.1002   1.2345395182e+02   1.7904471974e+01    0.4346825    0.2428109  72.73  0.001553919    2.842    0.648
       164 -10.6601     60.4160    182.0342   1.3301021739e+02   2.9770311506e+01    0.4313251    0.2412587  50.45 0.0006167634    1.780    0.438
       165  -9.4133     61.6258    201.8948   1.3519613512e+02   2.5006290106e+01    0.2688659    0.1881936  64.02 0.0003781976    1.307    0.235
       166 -10.9759     41.9470    193.2420   1.3843908478e+02   2.9497783893e+01    0.5570135    0.2895934  49.43  0.002361371    1.853    0.460
       167 -10.1366     61.4741    197.2368   1.3468053069e+02   2.6087801694e+01    0.4282635    0.2122864  71.93  0.001789573    2.668    0.625
       168 -10.9080     52.7376    198.3390   1.3669097481e+02   2.6996151870e+01    0.4545003    0.2943991 -72.77  0.001102965    1.377    0.274
       169 -10.3544     56.5239    193.6470   1.3533394541e+02   2.7576850362e+01    0.4002998     0.253635  69.82 0.0008372887    1.566    0.361
       170 -11.9413     50.9887    188.3136   1.3592249084e+02   2.9525380593e+01    0.7037629    0.5159706  44.47  0.001581798    1.437    0.304
       171 -10.1578     45.1505    183.0785   1.3660665137e+02   3.1463524204e+01     0.394189    0.2333747  67.44  0.001522447    1.752    0.429
       172  -8.7794     79.7994    201.0258   1.3114446829e+02   2.2578414781e+01    0.2361575    0.1381588  79.59    0.0010724    2.081    0.519
       173  -9.4603     37.1518    200.8735   1.4021515462e+02   2.8336492566e+01    0.1938368    0.1358521  74.95 0.0004563115    1.230    0.187
       174  -9.4256    149.3861    198.7057   1.1520607659e+02   1.0903125115e+01     0.403121    0.2619967  78.80  0.001183034    2.503    0.601
       175  -8.9821    144.8773    197.1751   1.1593825673e+02   1.2090817309e+01    0.2228267    0.1875119  68.06 0.0004816606    1.234    0.189
       176  -8.9493    135.3285    200.0301   1.1857261139e+02   1.3283874270e+01    0.2621374    0.1868114  66.27 0.0005920943    1.569    0.363
       177  -9.6659    105.5826    199.1355   1.2512508982e+02   1.8832992952e+01    0.2672541    0.2093075  58.76 0.0004571618    1.189    0.159
       178  -9.3372     88.5304    198.6588   1.2888677791e+02   2.1760200812e+01    0.3802195    0.2301193  78.87  0.001732217    2.041    0.510
       179  -9.0481     84.1138    197.3391   1.2969156449e+02   2.2756423509e+01    0.2579454    0.1809998  73.72 0.0006233874    1.440    0.306
       180  -9.1294     75.9841    199.7182   1.3181341345e+02   2.3449676369e+01    0.1879622    0.1555565  65.52  0.000420425    1.099    0.090
       181  -8.6877     69.8633    200.1474   1.3320803183e+02   2.4247159849e+01    0.2057697    0.1532617  73.51 0.0004327059    1.229    0.187
       182  -8.9797     22.1031    199.7965   1.4315136693e+02   3.0234642065e+01    0.1826309    0.1292819  75.49 0.0004615431    1.173    0.148
       183  -8.9642    236.8580    198.5371   9.7220509277e+01  -5.2649826555e+00    0.2568512    0.1652835 -51.11  0.001056041    1.938    0.484
       184  -9.7222    163.6328    203.0738   1.1286758350e+02   7.2747629535e+00    0.4036199     0.260535  65.13  0.001038358    2.098    0.523
       185  -8.6863    176.9819    198.9987   1.0924546706e+02   5.5257258588e+00    0.2193423    0.1768627  85.77  0.000607582    1.665    0.400
       186  -8.7595    123.6995    199.1216   1.2103453687e+02   1.5629480897e+01    0.2282223    0.1734146 -88.46 0.0008103806    1.493    0.330
       187  -8.1299    202.2678    197.6862   1.0373463375e+02   9.8545164925e-01    0.1299559    0.1131323 -86.54 0.0002574798    1.548    0.354
       188  -8.5960    215.9121    195.9141   1.0067538652e+02  -1.1889143559e+00    0.2051995    0.1731948 -80.60 0.0007968454    1.722    0.419
       189  -8.3750    133.1283    196.1502   1.1840327049e+02   1.4539021823e+01    0.2063382    0.1663111  79.18 0.0005595339    1.358    0.264
       190  -8.9597    185.1255    194.7693   1.0670951800e+02   4.7866639430e+00    0.2373547    0.1986353 -60.33 0.0006581772    1.375    0.273
       191  -8.6207    181.5081    195.5106   1.0761803737e+02   5.3398416137e+00    0.1431487    0.1368173  38.83 0.0003884982    1.049    0.047
       192  -9.1900    160.9680    194.5317   1.1187957701e+02   9.5361613920e+00    0.2716226    0.2084047 -75.86 0.0009798264    1.643    0.391
       193  -8.5970     26.1331    195.2152   1.4193541087e+02   3.0830109701e+01     0.170512    0.1140847  71.85 0.0005275286    1.316    0.240
       194  -9.5895      6.6972    194.5231   1.4575184112e+02   3.2894301555e+01    0.2082713    0.1539225  87.78 0.0003106892    1.002    0.002
       195  -9.7594    245.3889    193.6081   9.4713014161e+01  -5.8549555290e+00    0.2483897    0.2139993 -70.92 0.0008623805    1.717    0.418
       196  -9.4456    155.3171    193.7746   1.1299026142e+02   1.0796909846e+01    0.3142911    0.2148506  59.46 0.0006598221    1.631    0.387
       197  -8.9601    128.5064    194.0381   1.1908991270e+02   1.5868430547e+01    0.2696418    0.1862845  58.59 0.0005528952    1.485    0.326
       198  -8.6431     76.8491    194.0693   1.3087523787e+02   2.4618054455e+01    0.2131363    0.1613014  82.26 0.0005236643    1.251    0.200
       199  -8.9727     33.0702    193.6988   1.4035924936e+02   3.0416836565e+01     0.206081    0.1398323  87.27  0.000419337    1.249    0.199
       200  -8.8344    198.0141    192.5397   1.0359218842e+02   2.7458926044e+00    0.3045965    0.2243575  -4.66  0.001343691    1.696    0.410
       201  -9.6963    118.4163    192.6764   1.2117048814e+02   1.8027723033e+01     0.279357    0.2356178  75.71 0.0005008947    1.173    0.147
       202  -9.6905     95.2455    193.0038   1.2654611257e+02   2.1969763447e+01    0.2716995    0.2684956  44.63 0.0004323753    1.233    0.189
       203 -10.6414     90.4849    188.3011   1.2693440289e+02   2.3838392890e+01    0.8063611    0.2879177  50.95  0.002705243    3.109    0.678
       204  -8.5400    224.4099    194.1963   9.8697551506e+01  -2.3990269354e+00    0.1905177    0.1249551 -48.67 0.0009458847    1.715    0.417
       205  -8.4661    172.2124    192.1438   1.0896527393e+02   7.8253855541e+00    0.2015629    0.1746963  81.33 0.0008021471    1.364    0.267
       206  -9.0862    139.3416    190.5064   1.1599273286e+02   1.4598229973e+01    0.3299097    0.2241705  75.22  0.001115046    1.995    0.499
       207  -9.5592     17.7203    191.9717   1.4335716315e+02   3.2415900039e+01    0.2052967    0.1488254  63.55 0.0004158124    1.276    0.216
       208  -9.1880    164.6209    186.7830   1.0959178718e+02   1.0437412963e+01    0.2998562    0.1793493 -63.26 0.0008604915    2.205    0.546
       209  -9.3179    191.4568    188.1480   1.0407669128e+02   4.8534277757e+00     0.335051     0.204195 -52.61  0.001393657    1.859    0.462
       210  -9.7027    155.8655    187.5383   1.1169306590e+02   1.2015935322e+01    0.3888365     0.264484 -74.87  0.001188056    2.050    0.512
       211  -8.4591    148.2005    189.1986   1.1373715242e+02   1.3166057399e+01    0.2086647    0.1721286  80.30 0.0005903037    1.379    0.275
       212  -9.0038    129.1421    188.4561   1.1796874390e+02   1.6996583178e+01    0.3059433    0.2119819  79.87 0.0008603571    1.889    0.471
       213  -9.9047    120.9665    186.9661   1.1960604439e+02   1.8858693296e+01    0.5796856    0.3061679 -73.96  0.002104577    2.933    0.659
       214  -8.9476     70.9551    189.1835   1.3154975678e+02   2.6620950641e+01    0.2091261    0.1614051  73.69 0.0004681132    1.207    0.172
       215  -8.4522    237.0186    188.2715   9.5166570303e+01  -3.5650440708e+00    0.1886562    0.1379555 -52.28 0.0005966251    1.639    0.390
       216  -8.9066    216.4803    188.0065   9.8991432072e+01   1.3046636038e-01    0.2057125    0.1331398 -40.68 0.0004952554    1.526    0.345
       217  -9.2984     82.5074    187.4939   1.2866311805e+02   2.5288967488e+01    0.2433081    0.2069448  88.54 0.0005631794    1.054    0.052
       218  -9.9101     29.0762    187.3717   1.4057512647e+02   3.2290740219e+01    0.2480312    0.1957092  60.73 0.0008654551    1.249    0.199
       219  -8.5980     10.9589    188.3481   1.4441661289e+02   3.3867187759e+01    0.1565211    0.1245607  77.62 0.0004462427    1.123    0.110
       220  -8.3438      3.9662    187.9697   1.4578461420e+02   3.4574888061e+01    0.1357914    0.1059566  83.54  0.000406839    1.082    0.075
       221  -9.2113    109.2645    186.0538   1.2218929636e+02   2.1182626345e+01    0.3525889    0.2368996 -89.46 0.0009841832    1.857    0.461
       222  -8.6970    249.2313    185.9773   9.2527186600e+01  -5.2230321177e+00     0.202966     0.144738 -59.18 0.0009329983    2.008    0.502
       223  -9.1178    210.0889    184.4375   9.9527091986e+01   1.9815651044e+00    0.2188058    0.1801731 -36.93 0.0004950981    1.200    0.166
       224  -8.7421    202.6657    184.5660   1.0104449641e+02   3.3744520702e+00    0.2385421     0.173943 -61.97 0.0009051649    1.766    0.434
       225  -9.0429    144.0274    184.9747   1.1389679862e+02   1.4908382610e+01    0.2338101    0.2087616  73.98 0.0005950293    1.145    0.127
       226  -9.5235     66.2921    184.5459   1.3199222224e+02   2.8372533576e+01    0.3027251    0.1886423  76.56 0.0008968668    1.776    0.437
       227  -8.7842    195.9153    184.2468   1.0236347611e+02   4.7458410343e+00    0.2894387    0.1784576  37.77  0.001323743    1.620    0.383
       228  -9.3322    174.0259    183.5066   1.0687301506e+02   9.2409569933e+00    0.2698793    0.2090066 -66.38 0.0005774389    1.541    0.351
       229  -9.7744     39.5977    183.0602   1.3783950655e+02   3.2119594039e+01    0.2244202    0.1799273  68.32 0.0003478227    1.173    0.147
       230  -8.5931    223.8562    183.6111   9.6680879177e+01  -4.2309355661e-01    0.1802391    0.1313489  51.15 0.0005199653    1.579    0.367
       231  -9.1963    147.4168    180.5607   1.1227138202e+02   1.5215806190e+01    0.3261168    0.2265463  75.69  0.001066276    1.977    0.494
       232  -9.3701    115.0826    180.8835   1.1992543877e+02   2.1339991799e+01    0.2750243     0.202743  53.43 0.0005065071    1.324    0.245
       233  -9.1926     24.4989    179.1672   1.4073619193e+02   3.4644257497e+01    0.5126347    0.3010684  81.10  0.001995083    1.637    0.389
       234  -8.7895     16.0370    181.3788   1.4276034736e+02   3.4960698737e+01    0.1592425    0.1293937  75.02 0.0004182559    1.151    0.131
       235  -8.7260    137.8706    179.5787   1.1430019515e+02   1.7321854273e+01    0.2863293    0.1906824  82.21   0.00116352    2.266    0.559
       236  -9.4792    191.3306    178.3092   1.0210196937e+02   6.8275335613e+00    0.2833323    0.2374193  85.43 0.0005627989    1.543    0.352
       237  -8.0524     86.3076    179.6508   1.2658680300e+02   2.6546829259e+01    0.1468599    0.1342726 -87.17   0.00053723    1.056    0.053
       238  -9.1064     88.9252    177.1097   1.2555615989e+02   2.6733982884e+01    0.2704706    0.1805725  62.96 0.0008872184    1.594    0.373
       239  -9.6148    248.3989    177.0057   9.0871764738e+01  -3.5756098629e+00    0.4216259    0.2549787 -48.88  0.001851189    1.813    0.448
       240  -8.6888    250.5084    172.8704   8.9669206535e+01  -3.2261640767e+00    0.1929283    0.1545029 -29.54 0.0005492594    1.106    0.096
       241  -9.1413    204.9412    177.6064   9.9153011680e+01   4.2715146160e+00    0.2939862    0.1872098 -57.03 0.0009477591    1.952    0.488
       242  -8.1972    169.3362    178.6789   1.0693158067e+02   1.1201156264e+01    0.1544075    0.1197115  82.15 0.0007050117    1.708    0.415
       243  -8.8822    101.4846    178.4723   1.2275967706e+02   2.4316712111e+01    0.1466341    0.1332736  83.63 9.826445e-05    1.009    0.009
       244  -9.0859     36.3173    177.4999   1.3794443355e+02   3.3785091331e+01    0.3878045     0.162385  80.22  0.001272137    4.622    0.784
       245  -8.3719    231.1895    177.1781   9.3989015621e+01  -5.9706543711e-01    0.1811398    0.1620094 -59.46  0.000415929    1.331    0.249
       246  -8.0982    217.4917    177.4648   9.6641123408e+01   1.8844223044e+00    0.1395634    0.1339958 -21.32  6.28133e-05    1.074    0.069
       247  -8.9451    128.9236    177.1752   1.1595432883e+02   1.9607134027e+01    0.2399033    0.1976583  80.92 0.0007824106    1.313    0.238
       248 -10.1000     57.4861    173.8799   1.3260062020e+02   3.2094778366e+01    0.8034168    0.3709311  84.02  0.002567859    4.517    0.779
       249  -9.5534    182.9934    176.0688   1.0340938854e+02   8.9660380494e+00    0.2250744    0.2194184 -89.81 0.0004939821    1.094    0.086
       250  -9.3739    158.9808    175.1889   1.0855004839e+02   1.4065199042e+01    0.3658843    0.2563767  81.21  0.001165029    2.131    0.531
       251  -9.7649    104.1774    175.0592   1.2152124769e+02   2.4658715826e+01    0.4932797    0.2572666  65.35   0.00159432    2.972    0.663
       252 -11.3720     75.6416    170.2881   1.2769590832e+02   3.0428833155e+01       1.2554    0.5173784 -77.18  0.003757139    4.484    0.777
       253  -9.8330     52.2509    175.2936   1.3402108318e+02   3.2427179255e+01    0.2587672    0.2400952  51.52    0.0007472    1.259    0.206
       254  -8.9173    153.3635    174.8620   1.0977074225e+02   1.5282068341e+01    0.2599053    0.2015606  56.36 0.0006739068    1.322    0.244
       255  -9.0742    142.9174    174.0289   1.1203478230e+02   1.7577585186e+01    0.3762103    0.1921554 -44.08  0.001475949    2.090    0.521
       256  -9.2673    134.0832    172.5591   1.1383665175e+02   1.9666975459e+01       0.3855     0.275217  18.85  0.001405438    1.922    0.480
       257  -9.4418    198.4988    170.4912   9.8970496180e+01   6.9501965048e+00      0.25541    0.1449614  44.24 0.0001655883    1.781    0.439
       258  -9.9998    112.4009    171.4747   1.1887274960e+02   2.4040009524e+01    0.3684755    0.2867533  61.05 0.0009929123    1.303    0.232
       259  -9.1684    111.3452    167.6606   1.1842085833e+02   2.5138876321e+01    0.2670297    0.1374164 -56.43 0.0009531152    1.918    0.479
       260  -9.3601     44.9121    171.2988   1.3522486155e+02   3.4266706932e+01    0.3030872    0.1644268 -86.63  0.001154622    1.971    0.493
       261 -10.0578     40.0687    170.9223   1.3630981051e+02   3.4912764543e+01    0.2762474    0.2015724  75.80 0.0004013513    1.309    0.236
       262  -9.2216    230.5575    170.5875   9.2739536385e+01   7.0931513231e-01    0.2556419    0.2348799 -47.81 0.0007384394    1.177    0.150
       263  -8.6969    164.5197    171.4913   1.0653143329e+02   1.3732678350e+01    0.2817495    0.1389775  53.75  0.001028612    2.345    0.574
       264  -9.7003    121.1787    170.3288   1.1651556310e+02   2.2678708814e+01    0.3689867    0.2583213 -73.35 0.0009954502    1.623    0.384
       265  -9.0313     96.3699    170.9249   1.2270781207e+02   2.6987367378e+01     0.240193    0.1879475  59.69 0.0004401514    1.274    0.215
       266  -8.9037     20.0463    170.6435   1.4084461646e+02   3.7041904815e+01    0.1610115    0.1375956  74.70 0.0005677638    1.174    0.148
       267  -8.3282    237.3601    170.0827   9.1398659464e+01  -4.4075531222e-01     0.195274    0.1186462 -47.88 0.0005724732    1.705    0.413
       268  -9.2916    167.2366    168.7884   1.0535146599e+02   1.3755447367e+01    0.3443828      0.24832 -83.01 0.0009642431    2.017    0.504
       269 -10.2600    175.8463    172.0031   1.0411363136e+02   1.1280190657e+01    0.4420418     0.245077 -46.38  0.001060991    1.829    0.453
       270  -8.7463    149.5256    169.4743   1.0956338257e+02   1.7267473645e+01    0.1537447    0.1464403  76.20 0.0002021596    1.041    0.039
       271  -9.1645    138.9947    167.1980   1.1158964120e+02   1.9923456345e+01     0.323186    0.2629023  16.64  0.001558292    1.523    0.343
       272  -9.6495    135.6881    164.0224   1.1173502108e+02   2.1321002326e+01     0.405781    0.2495444  58.36   0.00083865    1.866    0.464
       273  -9.5252    191.9839    166.5696   9.9486174043e+01   9.0733888904e+00    0.2836196    0.2058973 -58.56 0.0006861966    1.572    0.364
       274  -9.1287    185.1218    167.0638   1.0104922040e+02   1.0393165490e+01     0.210427    0.1792321 -70.63 0.0008681871    1.353    0.261
       275 -10.8522     94.2914    162.3954   1.2171013498e+02   2.9393160753e+01    0.8540605    0.4592251  78.19  0.002648877    4.233    0.764
       276 -10.0906     92.0251    164.9886   1.2274594827e+02   2.9142636033e+01    0.2518333     0.227551  89.82 0.0004326287    1.028    0.027
       277 -10.6971     64.0047    165.0305   1.2974642440e+02   3.3353966053e+01    0.4435798    0.2530394  46.20 0.0004209118    1.810    0.447
       278  -8.8727     60.4120    160.2471   1.2991000951e+02   3.4992032172e+01    0.2436445    0.1567862 -86.77 0.0009311272    1.671    0.401
       279  -9.3966     18.2138    164.5623   1.4061974352e+02   3.8617991471e+01    0.4188491    0.1730519  60.70  0.001801641    3.109    0.678
       280  -9.0552    205.7191    170.3756   9.7477429834e+01   5.5248118627e+00    0.2612337     0.175272 -53.21 0.0006646695    1.651    0.394
       281  -9.3426     33.2770    163.4305   1.3698592148e+02   3.7420494256e+01    0.4962705    0.2048038  58.93  0.001988154    3.286    0.696
       282  -8.1789    239.7402    164.3440   8.9779390712e+01   1.5660839314e-01    0.1341559    0.1048254 -62.12 0.0003958789    1.594    0.373
       283  -8.6779    212.9866    163.9301   9.4659253816e+01   5.3338052012e+00    0.2242476    0.1785105 -73.30 0.0006215387    1.654    0.395
       284  -8.7230    159.2316    164.2245   1.0620610871e+02   1.6430064247e+01    0.2162824     0.182377  87.39 0.0006716265    1.375    0.273
       285  -9.4319    127.8911    163.3788   1.1350402152e+02   2.3018139603e+01    0.3981845    0.2464024  64.60  0.001162864    2.092    0.522
       286  -8.7692    115.0459    164.0267   1.1680753736e+02   2.5322413830e+01    0.2451178    0.1783026  77.47 0.0007896048    1.665    0.399
       287  -9.0364    246.2396    163.0317   8.8376690236e+01  -7.7625081338e-01    0.1954107    0.1633119 -33.39 0.0004980714    1.074    0.069
       288  -8.4975    204.7111    162.9728   9.6092002920e+01   7.1874157405e+00    0.2106013    0.1817477 -39.13 0.0004189532    1.126    0.112
       289  -8.8629      3.5784    162.7253   1.4372078177e+02   4.0262697027e+01      0.26234    0.1186052  62.61  0.001295625    2.532    0.605
       290  -9.1346    177.4232    160.7655   1.0135505900e+02   1.3339340567e+01    0.2894684    0.2399955 -87.80 0.0007744641    1.480    0.324
       291  -8.9250    151.5161    161.1604   1.0734890826e+02   1.8731193187e+01    0.2504995    0.2111162  80.01 0.0007553038    1.338    0.252
       292 -10.0680     84.6443    159.8369   1.2370089388e+02   3.1583910393e+01    0.3222474    0.2967627 -29.45 0.0003643265    1.296    0.229
       293 -10.7395     81.5668    154.6908   1.2357353212e+02   3.3317122734e+01     0.494413    0.2901798  72.29  0.001508922    2.530    0.605
       294 -10.6052    105.3190    157.8327   1.1804821485e+02   2.8584788911e+01    0.5285326    0.3292745 -72.47  0.001338672    1.891    0.471
       295 -10.8623    100.7564    157.2601   1.1910274138e+02   2.9529793739e+01    0.5685406    0.3467917  61.61 0.0006947879    1.998    0.499
       296  -9.6794    250.2735    157.7708   8.6600681599e+01  -5.6386159294e-01    0.3374562    0.1660839 -38.01  0.000882072    1.815    0.449
       297  -8.3716    227.4149    159.2101   9.0909766828e+01   3.4052396440e+00    0.1998327    0.1271144 -49.96  0.000930245    1.634    0.388
       298  -9.0514    145.4107    158.9291   1.0832058314e+02   2.0510058101e+01    0.2715464    0.2089463  56.91 0.0006028039    1.345    0.257
       299  -8.7487    196.4946    157.9944   9.6676872639e+01   9.8875526130e+00    0.2289651    0.1456226 -44.17 0.0006758187    1.542    0.351
       300  -9.0308    167.6240    157.2808   1.0277598367e+02   1.6183616495e+01    0.3159348    0.2439998 -87.86 0.0008696604    1.704    0.413
       301  -9.5141     79.0268    158.3053   1.2486782675e+02   3.2826181358e+01    0.2009055     0.184154  62.64  0.000969474    1.125    0.111
       302 -10.5477     42.7064    157.7169   1.3395542527e+02   3.7760700410e+01    0.2529661    0.2224351  60.76 0.0002600593    1.218    0.179
       303  -9.5737    157.2517    156.5467   1.0500055366e+02   1.8560547439e+01    0.3071907    0.2769036  46.54    0.0015758    1.107    0.096
       304  -8.8370     65.5288    156.5154   1.2802246876e+02   3.5210387191e+01    0.2430419    0.2118103 -79.92  0.000516878    1.017    0.017
       305 -10.4847     67.7994    153.9923   1.2702035257e+02   3.5510409967e+01    0.4334123    0.2605641  84.36  0.001415563    2.277    0.561
       306  -9.4434    119.2736    155.1891   1.1397072831e+02   2.6628161375e+01     0.385098    0.2607639 -75.37  0.001223476    1.819    0.450
       307  -9.3845     49.2461    155.0903   1.3194387899e+02   3.7636312558e+01    0.3261509     0.176412  72.94  0.001148862    2.617    0.618
       308  -8.2073    242.5164    155.4520   8.7426159389e+01   1.2492554081e+00     0.139103    0.1244784 -26.12 3.246598e-05    1.028    0.027
       309  -7.9001    204.6631    155.3492   9.4432324119e+01   8.7176013859e+00    0.1543575    0.1192834 -81.10 0.0007046703    1.785    0.440
       310  -8.7517    144.6879    155.1374   1.0767317053e+02   2.1529579904e+01      0.24826    0.1937148 -75.90 0.0007876783    1.494    0.330
       311 -10.0587    132.9399    153.2134   1.1012835606e+02   2.4394576433e+01    0.4326428    0.3419092 -79.44  0.001298195    1.450    0.310
       312  -9.9412    133.4932    148.5013   1.0895953792e+02   2.5383366073e+01    0.4446943    0.2705332 -39.46  0.001192602    1.811    0.448
       313 -10.0983    113.2329    153.3773   1.1513235648e+02   2.8206521036e+01    0.3880845    0.2579999  59.58 0.0009465032    1.701    0.412
       314 -10.2784    151.0046    152.5949   1.0559854033e+02   2.0779845331e+01    0.3162364    0.2681966  64.05  0.001170855    1.236    0.191
       315 -10.9719     97.0264    151.0673   1.1885881680e+02   3.1675386070e+01    0.5631998    0.3298515  33.51  0.002447713    1.922    0.480
       316 -10.2546     87.3403    149.9017   1.2117407574e+02   3.3571325386e+01    0.3530833    0.2891328  70.44  0.000502678    1.290    0.225
       317 -10.8866     89.0873    146.2900   1.2000953577e+02   3.4165531956e+01    0.6722066    0.4034562  84.76  0.002531017    2.859    0.650
       318  -8.9316    189.4432    150.4500   9.6462791085e+01   1.2944947923e+01    0.2822449    0.2101224 -54.57 0.0007901306    1.405    0.288
       319  -8.1108    182.2879    151.5950   9.8251088285e+01   1.4250155134e+01    0.1620382    0.1213756 -78.63 0.0006988557    1.802    0.445
       320  -9.9490     54.5292    150.3349   1.2986068298e+02   3.8143967650e+01    0.3702921    0.2679036  78.63  0.001117961    1.499    0.333
       321 -10.7571     55.0468    145.2842   1.2890449456e+02   3.9301599202e+01    0.7679392    0.4123094  75.73  0.002971513    3.169    0.684
       322  -9.4058     28.8116    150.4165   1.3642140561e+02   4.0947195794e+01    0.3320162    0.1654159  70.22  0.001439703    2.830    0.647
       323  -9.3491     24.9926    148.0611   1.3706711809e+02   4.1861671098e+01    0.1943244    0.1757577  68.77 0.0004650543    1.219    0.180
       324  -9.3369    248.7924    149.5559   8.5125735625e+01   1.1575494201e+00     0.268718    0.1710453 -43.45 0.0008533301    1.423    0.297
       325  -8.4564    243.0000    149.9689   8.6180923941e+01   2.1507547633e+00    0.2352383   0.07247332 -40.24 0.0007990579    2.919    0.657
       326  -8.1795    236.7016    150.6909   8.7417220513e+01   3.2065881083e+00    0.1400212    0.1073821  -4.93 0.0005355916    1.596    0.373
       327  -8.3389    162.3403    150.6782   1.0250835929e+02   1.8777823430e+01    0.1629948    0.1246741  87.41 0.0005138646    1.720    0.419
       328  -8.3074    198.5991    148.8781   9.4209697892e+01   1.1303545696e+01    0.2142459    0.1379526 -54.06  0.000503935    1.677    0.404
       329  -8.8930    124.8939    149.2348   1.1128385009e+02   2.6944257782e+01    0.2342838    0.2025767  76.31 0.0004868027    1.227    0.185
       330 -10.9664     82.9326    133.8270   1.1915237512e+02   3.8166211149e+01    0.6929567    0.3936833 -50.04  0.002087262    1.644    0.392
       331 -11.0953     75.9377    147.7982   1.2379608286e+02   3.5848819663e+01     0.565804    0.3174528  32.91  0.001475762    2.017    0.504
       332 -12.0267     68.0044    142.7806   1.2500046399e+02   3.8207813723e+01    0.8246325    0.5216954 -59.68  0.004095497    1.413    0.292
       333 -11.4159     62.7705    136.5311   1.2527779884e+02   4.0429028763e+01    0.4907008    0.4038222  58.38 0.0005972617    1.321    0.243
       334 -11.1954     74.7243    134.6821   1.2160887001e+02   3.9207737451e+01      0.63605      0.30348  47.61  0.001302407    2.393    0.582
       335 -10.5822     72.9844    129.5289   1.2105021848e+02   4.0698804492e+01    0.4088237    0.2845626 -89.55  0.001248775    1.855    0.461
       336 -10.0840     39.8268    148.2697   1.3334079260e+02   4.0338916237e+01    0.4006611    0.2258097  65.69  0.001901626    2.243    0.554
       337  -8.4869    233.4985    147.8895   8.7373451417e+01   4.3422258154e+00    0.2194234    0.1303903 -40.84 0.0005924893    1.540    0.351
       338 -10.2852    138.9485    146.1376   1.0707554550e+02   2.4804093579e+01    0.5970011    0.2900129 -53.40  0.002051433    2.136    0.532
       339  -9.7840    222.2665    146.0128   8.8982323368e+01   6.9296814276e+00    0.2548449    0.2254153 -66.11 0.0004208443    1.235    0.191
       340 -10.5992    148.8231    145.0491   1.0441603785e+02   2.2960950109e+01    0.5356642    0.3619766 -80.54  0.001634028    2.243    0.554
       341 -10.8420    106.2347    144.3968   1.1507163557e+02   3.1656099757e+01    0.7621023    0.5010841 -87.65   0.00272127    2.246    0.555
       342  -9.6023    102.6704    146.3007   1.1641130048e+02   3.1840504957e+01    0.2741454    0.1717466  57.85  0.000927343    1.856    0.461
       343  -9.9512     34.0129    146.1364   1.3452551804e+02   4.1451441110e+01    0.3140758    0.2104364  78.68 0.0009079601    1.628    0.386
       344  -8.2659    175.5209    146.4565   9.8560882149e+01   1.6825656809e+01    0.1554948    0.1502222 -82.53 0.0001308792    1.051    0.048
       345  -8.8231     13.2132    146.1708   1.3974583057e+02   4.3311313702e+01    0.2255514    0.1279703  62.08 0.0009064804    2.020    0.505
       346  -9.1000      7.3921    145.9864   1.4113883714e+02   4.3801490714e+01    0.1824181    0.1472849  74.24  0.000548869    1.256    0.204
       347  -8.4394    240.4379    145.4842   8.5656011834e+01   3.4501961473e+00    0.1809253    0.1388478  63.21 0.0005077685    1.594    0.373
       348  -8.8841    242.6986    143.3301   8.4812988552e+01   3.4133471647e+00    0.2006683    0.1246688 -32.28 0.0005544795    1.566    0.361
       349  -8.7193    250.4717    141.4372   8.3137223298e+01   2.2984199307e+00    0.2192164    0.1913964 -31.47 0.0005857177    1.058    0.055
       350  -8.8388    165.4925    144.1266   1.0028156094e+02   1.9538849373e+01    0.2522582    0.2145256  80.87 0.0006529891    1.336    0.251
       351  -9.8132    124.9422    142.7328   1.0983582861e+02   2.8468767683e+01    0.4937384    0.3237385 -84.16  0.001635974    2.394    0.582
       352  -9.7839     81.9069    143.4669   1.2137903524e+02   3.5995988122e+01    0.2719274    0.2133933  85.43  0.000621799    1.414    0.293
       353  -9.1251      3.0161    142.6356   1.4182785680e+02   4.4882625699e+01    0.2240108     0.135828  83.64  0.001264084    1.622    0.383
       354 -10.0354     46.7859    141.0629   1.3041096143e+02   4.1299260945e+01    0.3032562    0.2379189  79.20 0.0005581377    1.344    0.256
       355 -10.3806    131.4084    137.4877   1.0698257607e+02   2.8379126735e+01    0.5947112    0.3901138  87.10  0.002031246    2.624    0.619
       356 -10.0535    132.1265    131.3280   1.0534233848e+02   2.9652463718e+01    0.4598503    0.2652355 -61.37  0.001027793    2.078    0.519
       357  -9.5725     19.9737    140.0299   1.3728984598e+02   4.4187666347e+01    0.2453032    0.2187193  34.44 0.0004281159    1.388    0.279
       358  -9.5920     23.0169    138.2629   1.3626734043e+02   4.4341006650e+01    0.4125344     0.199216  68.52  0.001729494    3.248    0.692
       359 -10.2999    115.4821    138.9651   1.1144663946e+02   3.1218525429e+01    0.6195528     0.369448  65.75   0.00130563    2.468    0.595
       360  -9.3681    112.9274    133.4919   1.1087928944e+02   3.3003629301e+01    0.3581201    0.2560674 -83.21  0.001005622    1.862    0.463
       361 -10.3443     94.1081    138.4173   1.1704851026e+02   3.5233048089e+01    0.4250744    0.3019298  69.72 0.0008917476    1.754    0.430
       362  -9.0561    171.7409    138.6508   9.7583084168e+01   1.9350197651e+01    0.2786167    0.2513681  -8.46 0.0007496414    1.256    0.204
       363  -8.9433    247.1266    143.8796   8.4197854461e+01   2.4811944983e+00    0.2505437    0.1849858 -29.70 0.0006948516    1.299    0.230
       364  -8.2350    207.4669    137.9958   8.9969839328e+01   1.1597672974e+01     0.214671    0.1244135 -62.15 0.0008074883    2.427    0.588
       365  -8.6633    197.3210    137.4264   9.1844949336e+01   1.3920802706e+01    0.2668555     0.176413 -60.11 0.0006896431    1.773    0.436
       366  -8.9172    158.1917    136.7827   1.0024960244e+02   2.2775933828e+01    0.2703842    0.1762864  89.11 0.0009503817    2.806    0.644
       367  -9.2102    248.3712    135.4956   8.2208943601e+01   3.7556283045e+00    0.2588453    0.1846124 -44.74 0.0007628601    1.255    0.203
       368  -9.8667    136.6041    134.0720   1.0486165735e+02   2.8079681985e+01    0.4745469    0.1504017 -50.81   0.00139236    3.307    0.698
       369  -9.4025     38.9344    136.1677   1.3173493486e+02   4.3322365541e+01    0.2055403    0.1596815  83.64 0.0008988976    1.344    0.256
       370  -9.2041    179.5355    134.3105   9.4834829144e+01   1.8533154277e+01     0.285704     0.220926 -66.62 0.0009715933    1.471    0.320
       371  -9.7387     10.5330    134.3256   1.3897778825e+02   4.6254125239e+01    0.2286361    0.1769875 -81.72 0.0004791916    1.116    0.104
       372  -8.0231    237.3232    133.6781   8.3618801331e+01   6.2294204646e+00    0.1444856    0.1076185 -70.74 0.0007046422    1.679    0.404
       373 -10.5500     98.2396    130.5146   1.1418972236e+02   3.6409175483e+01    0.6209721    0.3004192 -57.49  0.001611051    2.091    0.522
       374  -9.3532    142.9063    131.6583   1.0270786494e+02   2.7279407039e+01    0.3101371    0.2053497 -66.27  0.000725671    1.872    0.466
       375 -10.4202     31.7493    131.0519   1.3287972567e+02   4.5245118347e+01    0.3055476    0.2266921  67.19 0.0004968665    1.534    0.348
       376  -9.1501    250.9010    129.9110   8.0619031759e+01   4.2768171043e+00    0.4410901   0.07691149 -38.89   0.00111768    5.482    0.818
       377  -8.4344    246.6933    130.4575   8.1394805965e+01   4.9835393158e+00    0.2391771    0.1145048 -40.47 0.0005458502    1.851    0.460
       378  -9.5952     12.8848    129.5863   1.3774732549e+02   4.7172350157e+01    0.3670751    0.1997039  79.54  0.001822694    2.360    0.576
       379  -7.8504    204.6439    130.3106   8.8738726564e+01   1.3746803661e+01    0.1573318    0.1187233 -81.24 0.0007043378    1.732    0.423
       380  -8.6784    192.5486    130.4710   9.1181014356e+01   1.6406195507e+01    0.1538641    0.1471878 -62.02 7.862476e-05    1.023    0.022
       381  -9.1804    168.0946    129.4795   9.6204448628e+01   2.2153647618e+01    0.2985452    0.2150445 -62.57 0.0006870288    1.572    0.364
       382 -10.8759    159.3946    124.8268   9.7059946563e+01   2.5134063218e+01     1.052219    0.4192566 -56.94   0.00290641    4.050    0.753
       383 -10.1043    152.7716    128.5818   9.9553862493e+01   2.5799359647e+01    0.4482599    0.2644314 -54.39  0.001057252    1.810    0.448
       384 -10.8279     60.5874    125.9271   1.2385660607e+02   4.3253684348e+01    0.8033908    0.4495075  72.03  0.003006333    3.482    0.713
       385 -10.7980    117.8546    126.3005   1.0786540412e+02   3.3724407246e+01    0.6093808    0.4049217 -69.26  0.001921807    1.885    0.470
       386 -10.9647     44.8340    124.6258   1.2812822494e+02   4.5432529426e+01    0.9617262    0.5227479 -86.18  0.004015736    2.771    0.639
       387 -10.5662     37.3813    115.6879   1.2865124778e+02   4.8292496658e+01    0.3697743    0.2548977  41.13 0.0005559542    1.692    0.409
       388 -10.6880    136.7899    124.5002   1.0248625691e+02   3.0215441106e+01    0.6394385    0.4529238  87.80  0.002620595    2.103    0.524
       389 -10.0035    130.6804    118.4701   1.0253866939e+02   3.2872193448e+01    0.3944137    0.2776773 -88.05  0.001241282    2.167    0.539
       390  -8.7546    228.4506    125.5221   8.3307904863e+01   9.5578873089e+00     0.146334    0.1319327 -53.90 0.0002123636    1.048    0.046
       391  -9.0621    179.1334    124.8686   9.2643263406e+01   2.0614867315e+01    0.2414623    0.2090798 -83.76  0.000564142    1.274    0.215
       392  -9.9681    172.8447    123.1148   9.3581831051e+01   2.2427158639e+01    0.5706211    0.3025138 -64.81   0.00181333    3.304    0.697
       393 -10.5054     28.8046    123.0746   1.3242035387e+02   4.7383299683e+01    0.5977708    0.3165688  80.61  0.002496851    3.205    0.688
       394 -10.4375     21.6764    119.2422   1.3381995522e+02   4.8875713215e+01    0.2458671    0.2342823   4.24 0.0002549477    1.294    0.227
       395  -9.8517      5.1626    124.1788   1.3908350672e+02   4.8944412660e+01    0.3366667    0.1911942  55.18  0.001421845    2.180    0.541
       396  -9.7220     92.2961    122.3070   1.1397231969e+02   3.9373407090e+01     0.363688     0.256438  57.43 0.0007208264    1.662    0.398
       397  -9.9249    107.9843    119.8305   1.0897477013e+02   3.7129978412e+01    0.4744125    0.3181896  80.94  0.001842465    2.478    0.596
       398  -9.9940    141.4934    118.5531   9.9805932265e+01   3.0514897735e+01    0.4306987    0.2883164 -69.25  0.001200513    1.994    0.498
       399 -10.1448    125.5531    119.0929   1.0403805171e+02   3.3808390511e+01    0.3659823    0.3107487  76.87 0.0006333523    1.340    0.254
       400  -9.3197     70.9658    119.9714   1.1960358875e+02   4.3254941540e+01    0.2247857     0.168402  82.18 0.0006374509    1.724    0.420
       401  -9.4118      2.7737    117.5798   1.3885466083e+02   5.0583554913e+01    0.3749854    0.1848612  76.04  0.001714018    3.123    0.680
       402  -8.8472    164.2995    117.6294   9.4125309210e+01   2.5555164537e+01    0.1659006     0.123508 -78.73  0.000703061    1.741    0.426
       403 -10.4402     65.2263    115.9475   1.2041726749e+02   4.4991097873e+01    0.3843271    0.2981992  67.18 0.0006539836    1.591    0.371
       404 -10.3857     66.1770    110.3790   1.1888374554e+02   4.6148216492e+01    0.3865712    0.2503554 -74.69  0.001328212    1.953    0.488
       405  -8.9027    192.9756    115.5116   8.7491710839e+01   1.9341054528e+01    0.2454449    0.1967752 -46.21 0.0004876599    1.207    0.172
       406 -10.0520    109.3430    114.4312   1.0725034309e+02   3.8101621734e+01    0.4444482    0.2951526 -74.64  0.001267644    2.184    0.542
       407  -9.9141     78.8686    112.7269   1.1562033940e+02   4.3769907605e+01    0.4391182    0.3041479  89.55  0.001816138    2.205    0.546
       408 -10.7777     51.7049    113.7841   1.2400283523e+02   4.7193488960e+01    0.3427523    0.2843564  86.46  0.000428409    1.389    0.280
       409 -10.4417    144.4416     99.1875   9.3971401468e+01   3.3961939957e+01    0.6344994    0.3271796  43.98  0.002476056    1.974    0.493
       410 -10.1171    128.7833    107.2128   1.0010529274e+02   3.5744661591e+01    0.3910674    0.2320164  62.46  0.001511829    2.257    0.557
       411 -10.1861    139.7575    104.5247   9.6571942082e+01   3.3916404247e+01    0.4245355    0.3593366 -45.89  0.001335174    1.178    0.151
       412  -9.8337    135.6229    113.8310   1.0007464665e+02   3.2834911971e+01    0.3595647    0.2444227 -58.12 0.0008833222    1.611    0.379
       413 -10.9071    133.6512    108.7615   9.9251949716e+01   3.4362409936e+01    0.6504406    0.3765331 -38.67  0.001838109    1.801    0.445
       414  -9.5063     78.3147    124.8259   1.1853442824e+02   4.1028710086e+01    0.2302763     0.194352  56.37 0.0005702276    1.300    0.231
       415 -10.0992     92.6420    112.6943   1.1156427965e+02   4.1536227581e+01    0.4436665     0.297094 -67.41   0.00121515    1.776    0.437
       416 -10.4359    121.8199    112.4900   1.0334125105e+02   3.6053599918e+01     0.369188    0.3018861 -77.76 0.0008841989    1.447    0.309
       417  -8.8990    174.8252    112.0158   9.0373127228e+01   2.4274335131e+01    0.2584991    0.1705703 -65.54 0.0006903683    1.919    0.479
       418  -8.4497    159.2206    112.1218   9.3884236087e+01   2.7888245240e+01    0.2187325    0.1836573 -77.36 0.0006273265    1.338    0.252
       419  -9.1809    149.1030    111.7516   9.6181825201e+01   3.0284922407e+01     0.328767    0.2543767  82.23  0.001025385    1.625    0.385
       420  -9.3642     14.3959    111.7172   1.3471177188e+02   5.1141278503e+01    0.2553142    0.1746366  75.86  0.001176401    1.804    0.446
       421 -10.2638      8.9088    110.5775   1.3612274740e+02   5.1769874155e+01    0.3453986    0.2284974  71.39 0.0008540513    1.909    0.476
       422 -11.0044    248.9470    107.6219   7.6127288138e+01   8.6143230186e+00    0.5266514     0.304857 -46.80  0.002562122    1.523    0.344
       423 -10.7937    115.4745    107.6210   1.0379006547e+02   3.8413786843e+01    0.4734708    0.3494667  82.43 0.0005272398    1.957    0.489
       424 -10.7428    109.1141     98.9916   1.0324241391e+02   4.1532722627e+01    0.6364536    0.4232737  80.34  0.001774588    2.837    0.648
       425  -9.7735     86.2416    106.0330   1.1177972217e+02   4.4115848132e+01     0.481092    0.2642764  58.28  0.001681318    2.846    0.649
       426  -9.8354     72.9233    105.9894   1.1579295151e+02   4.6193503678e+01    0.2817533    0.2008481  45.56 0.0006261829    1.580    0.367
       427 -10.9188     22.5736    103.1846   1.3079747810e+02   5.2445345296e+01    0.5951778    0.4135132  83.65  0.002663988    1.852    0.460
       428 -10.6878     45.5475    102.5745   1.2350865121e+02   5.0440474426e+01    0.5992962    0.3840893  75.17  0.002773831    2.679    0.627
       429  -8.5461    166.4271    104.2956   9.0221381479e+01   2.7815502611e+01    0.2160336     0.145317 -53.08 0.0006543716    1.551    0.355
       430  -9.6270    150.3877    103.1441   9.3602712867e+01   3.1791353827e+01    0.3898989    0.2441749 -61.21  0.001001195    1.998    0.499
       431  -9.0739    102.3668    103.9650   1.0651011029e+02   4.1746927379e+01     0.266574    0.2106389  74.33  0.001063594    1.641    0.391
       432  -9.9546    128.2333    102.0857   9.8870523080e+01   3.6953403715e+01    0.3023476    0.2483612 -67.49 0.0008212299    1.376    0.273
       433  -8.6579      6.7123    103.3712   1.3564044006e+02   5.3509185197e+01    0.1778856    0.1262663  74.80  0.001103987    1.746    0.427
       434  -8.2043    159.7014    101.3242   9.0948206264e+01   2.9995576500e+01    0.1592624    0.1221305 -79.63 0.0002678823    1.629    0.386
       435  -9.0946     81.9188    100.0430   1.1154572717e+02   4.6141037950e+01    0.2880369    0.1998194 -71.57 0.0009544853    1.900    0.474
       436  -9.8648    250.4470     97.3831   7.3715135208e+01   1.0089860107e+01    0.2822652    0.1395279 -47.46 0.0006875651    1.786    0.440
       437  -9.0662     94.8807     97.2433   1.0689234167e+02   4.4561031664e+01    0.2423618    0.1935139 -58.04 0.0005294033    1.323    0.244
       438 -10.2087     63.9303     96.0699   1.1614139052e+02   4.9653555345e+01     0.482965    0.3182241 -86.05  0.001732806    2.727    0.633
       439  -9.6830     13.3511     97.4557   1.3260986307e+02   5.4383826597e+01     0.241754    0.1957508  64.26 0.0007963048    1.557    0.358
       440 -10.4748    117.9291     93.2362   9.9185035367e+01   4.0959212222e+01    0.7857468    0.5182912 -86.70  0.002886744    3.117    0.679
       441 -10.0104    124.0231     91.4403   9.7030228324e+01   4.0042933012e+01    0.4378948    0.3986966  34.52   0.00128067    1.104    0.094
       442 -10.7740     30.7023     93.4794   1.2628517072e+02   5.3907880052e+01      0.42384    0.2674002 -80.85 0.0005502805    2.099    0.524
       443 -10.6116     54.6278     94.4865   1.1873397484e+02   5.1187406607e+01    0.8854708    0.3293045  44.98  0.003267833    3.775    0.735
       444 -10.8592    244.5191     93.7097   7.3741442173e+01   1.1939108971e+01    0.3846164    0.3020038  25.98  0.001216694    1.851    0.460
       445  -9.9716    154.8670     87.7239   8.8369307365e+01   3.3791229289e+01    0.3708107     0.236604 -57.14  0.001577498    1.825    0.452
       446  -8.3338    164.8229     94.5672   8.8007352912e+01   3.0118944985e+01    0.2153512    0.1473231  66.25 0.0006582948    1.629    0.386
       447  -9.5334    139.2500     92.5560   9.3424007720e+01   3.6471369266e+01    0.4506888    0.2941675 -75.62  0.001288441    2.579    0.612
       448  -9.6425      1.7023     93.5053   1.3555331284e+02   5.5943466688e+01    0.2535171    0.1362391 -59.77 0.0007425629    1.381    0.276
       449  -9.3487      5.3239     92.6391   1.3427200734e+02   5.5928287313e+01    0.2116851    0.1637166  65.01  0.001160424    1.676    0.403
       450  -9.3634    189.1432    108.1635   8.6441814742e+01   2.1689716265e+01    0.2198453    0.1783436 -69.23 0.0007526139    1.325    0.246
       451  -9.7435     34.7881     89.9801   1.2416947756e+02   5.4292981811e+01    0.3991522     0.232414 -80.47  0.001728134    2.747    0.636
       452  -8.8805     89.4250     94.8322   1.0787051050e+02   4.6025309702e+01    0.2337275    0.1913027  51.42 0.0006375707    1.375    0.273
       453  -9.5273     22.9377     89.9666   1.2808007385e+02   5.5313485493e+01    0.2302625    0.1630336 -12.19  0.000991207    1.638    0.390
       454 -10.4632    151.5130     90.3173   8.9854705935e+01   3.4084785941e+01    0.8507841     0.458654 -56.20  0.003214966    2.343    0.573
       455  -9.1984    239.1463     88.2662   7.3299249301e+01   1.4006685281e+01    0.2213853    0.1553437  13.89 0.0009584786    2.840    0.648
       456  -8.4340    145.6133     88.2988   9.0684281242e+01   3.5845708173e+01    0.1600669    0.1205166 -88.52 0.0007016279    1.782    0.439
       457  -9.8879     86.3376     86.7456   1.0655835816e+02   4.8233000209e+01    0.4026715    0.2969926 -89.32  0.001130805    2.292    0.564
       458  -8.9584     74.8791     86.8295   1.1018775900e+02   5.0050902485e+01    0.3305364    0.2075377  64.04  0.001380579    2.908    0.656
       459 -10.4311     14.9345     86.1425   1.2993511439e+02   5.6714103407e+01    0.4506577    0.2140869  42.03  0.002275187    2.886    0.653
       460 -10.1426     48.2961     84.2362   1.1824897150e+02   5.4114720791e+01    0.4157182    0.2802767  71.60  0.001963191    2.819    0.645
       461 -10.5206     43.6802     80.5807   1.1887479508e+02   5.5380987013e+01    0.2426315    0.2300989  -9.72  0.000237779    1.166    0.143
       462  -9.2932    141.0934     83.2528   9.0346517336e+01   3.7843079756e+01    0.2856525     0.190487 -65.58 0.0006515977    2.042    0.510
       463  -9.6423    104.7034     83.2584   1.0003526300e+02   4.5601557451e+01    0.3487448    0.2606338 -72.39 0.0009677642    1.900    0.474
       464 -10.2179     24.6155     80.6757   1.2547167451e+02   5.7144980821e+01    0.4012131    0.2414331 -80.06  0.001433773    2.504    0.601
       465  -8.1725    185.3006     82.6761   8.0715073473e+01   2.7403869868e+01    0.1558811    0.1128921 -74.20 0.0005757692    1.632    0.387
       466  -9.4245    180.8320     82.1255   8.1421252838e+01   2.8582687117e+01    0.2355224    0.1985333 -78.85 0.0006534823    1.241    0.194
       467  -8.3924    150.3044     80.6865   8.7447765653e+01   3.6174606337e+01    0.2346644    0.2011999 -52.92 0.0007877509    1.206    0.171
       468  -9.5142    147.0837     78.5982   8.7597945300e+01   3.7309399263e+01    0.3459471    0.3099867 -52.52  0.001023553    1.152    0.132
       469  -8.5997    119.4878     80.5140   9.5083620515e+01   4.3131682242e+01    0.2511308    0.1364848 -51.45 0.0006960633    2.127    0.530
       470  -8.8886     74.6069     80.5023   1.0847808512e+02   5.1377857200e+01    0.2764726    0.1968226 -79.42  0.001152709    2.438    0.590
       471 -10.0863    163.3931     73.2422   8.2513627127e+01   3.4364737218e+01    0.3207472     0.244412 -66.07  0.001056773    1.490    0.329
       472  -9.5526    163.4844     79.9846   8.4349874010e+01   3.3160321629e+01     0.295012     0.226949 -73.90  0.000830662    1.535    0.349
       473  -9.6936    166.5392     79.5260   8.3584329214e+01   3.2505816556e+01    0.2818042    0.2156437  54.56 0.0005589174    1.272    0.214
       474 -11.3970    167.9194     75.8835   8.2309412759e+01   3.2813196022e+01    0.4575885    0.4211745  10.37  0.001761801    1.263    0.208
       475  -9.6006     96.5864     79.1187   1.0119839341e+02   4.7938049674e+01    0.4346345    0.2249779  52.64  0.001327043    2.416    0.586
       476  -9.4732    184.2209     78.1455   7.9743177272e+01   2.8462778848e+01    0.2439477    0.2392607 -87.58 0.0005709511    1.084    0.077
       477 -10.3021     63.7681     74.8549   1.1041761188e+02   5.4070756494e+01    0.6442063    0.2892153 -59.59  0.002372982    3.519    0.716
       478  -9.6768     57.7595     78.0876   1.1338236940e+02   5.4231213170e+01    0.2964267    0.2081074  55.24  0.001552531    2.050    0.512
       479  -9.5899    112.8645     77.3067   9.5943002974e+01   4.5110014827e+01    0.4059237    0.2289824  60.58   0.00162013    2.445    0.591
       480  -9.5812     17.5213     76.6796   1.2701787728e+02   5.8506915494e+01     0.245608    0.1928339  60.38   0.00107395    1.814    0.449
       481  -9.2360    128.0329     75.4765   9.1337838712e+01   4.2213604938e+01    0.2755935    0.2011845 -57.09 0.0006311203    1.604    0.377
       482  -9.7656     82.2772     72.6056   1.0364966548e+02   5.1683518587e+01    0.3495298    0.2419063 -58.40 0.0009647484    1.822    0.451
       483  -8.3156    140.4142     75.2798   8.8212908685e+01   3.9453004571e+01    0.2056545    0.1388538 -49.98  0.000881655    1.603    0.376
       484  -9.6884      3.4657     73.2826   1.3119526943e+02   6.0075034553e+01    0.2567365    0.1876621 -82.44  0.001145601    1.656    0.396
       485  -8.5436    115.5014     73.0245   9.3918761187e+01   4.5347205940e+01    0.2136553    0.1415295 -39.33 0.0006569828    1.529    0.346
       486  -9.3819    105.7834     71.8997   9.6297099731e+01   4.7525724872e+01    0.2520562    0.1928871 -57.38 0.0006095323    1.571    0.364
       487  -9.3093     94.9706     71.2765   9.9291548959e+01   4.9704681654e+01    0.2984931    0.1918186 -55.18 0.0008746376    1.936    0.483
       488 -10.0515     51.2608     69.6013   1.1319581651e+02   5.6707560398e+01    0.3610398    0.2332117 -66.74  0.001348729    2.282    0.562
       489 -10.1130     35.8862     69.3214   1.1861521863e+02   5.8438811340e+01    0.5379121    0.2202527  39.93  0.002402173    3.213    0.689
       490  -8.8315     28.1808     71.0168   1.2185116256e+02   5.8812753759e+01    0.2164187    0.1013137 -35.43 0.0007169268    2.037    0.509
       491  -9.0842     16.5137     70.0551   1.2582616297e+02   5.9916783182e+01    0.1848114    0.1516843 -88.44  0.001144071    1.658    0.397
       492  -9.3546    248.8801     68.0064   6.7664366658e+01   1.5259553273e+01    0.3201309     0.158031 -37.67 0.0008923184    1.969    0.492
       493  -8.6901    147.1177     68.5947   8.4713404886e+01   3.9044536698e+01    0.2450788    0.1931709 -50.59 0.0005272824    1.349    0.259
       494  -9.0529    134.4151     68.5664   8.7681143787e+01   4.1992653869e+01      0.40939    0.1975575  66.20  0.001360448    3.380    0.704
       495  -9.3225    121.0608     66.7012   9.0490687408e+01   4.5271069514e+01    0.3617095    0.2638423 -20.27  0.001215772    1.555    0.357
       496 -10.5682    163.3586     65.3548   8.0333768157e+01   3.5690122038e+01    0.3878544    0.1929348 -38.27  0.001594681    2.073    0.518
       497 -11.5094    183.0831     61.1517   7.5514541149e+01   3.1550468390e+01    0.7526727      0.54369 -65.66  0.003055695    1.507    0.336
       498  -8.8697    138.5126     66.0938   8.5962336178e+01   4.1469403957e+01    0.2143398    0.1434795 -40.16 0.0005926134    1.553    0.356
       499  -9.7032    100.2130     64.2097   9.5499755863e+01   4.9964878783e+01    0.3173237    0.2270484  70.49  0.001072788    2.137    0.532
       500  -9.4133     97.3073     60.8317   9.5270510475e+01   5.1091833336e+01    0.2531851    0.1938944  57.51 0.0008671828    1.557    0.358
       501  -9.5453     72.3367     63.6482   1.0408940533e+02   5.4915535095e+01    0.4149139    0.2766611  71.78   0.00168369    3.767    0.735
       502  -9.7093     73.1815     59.7312   1.0253830762e+02   5.5471867271e+01     0.421691    0.3350999 -31.39  0.002079421    1.185    0.156
       503  -9.0181     37.1658     64.2777   1.1672834104e+02   5.9284001609e+01    0.2133914    0.1582686 -75.92 0.0009491839    2.086    0.521
       504 -10.1724    236.2947     70.3613   6.9735893572e+01   1.7594251658e+01    0.3921444    0.2592905 -61.27  0.002038256    1.447    0.309
       505  -9.5707     58.2752     63.4162   1.0884677384e+02   5.6978305822e+01    0.2158434    0.1928484  70.46 0.0007916056    1.629    0.386
       506  -9.2032     25.9741     63.5952   1.2068731802e+02   6.0449745478e+01    0.1999233    0.1401464  35.00 0.0009185493    1.778    0.438
       507  -8.6458    158.2103     62.3729   8.0542133618e+01   3.7414457106e+01    0.2029293    0.1338802  69.08 0.0002745933    1.626    0.385
       508  -9.5103      2.6019     60.8821   1.2876287164e+02   6.2571993037e+01     0.231469    0.1811633  72.60  0.001160842    1.975    0.494
       509  -9.2998     44.1772     59.8584   1.1282342406e+02   5.9359514937e+01    0.3238534    0.2494139  68.24  0.001728439    2.364    0.577
       510  -9.0454     44.2394     55.6059   1.1146744647e+02   6.0117277449e+01    0.2653327    0.1699332 -56.50  0.001118782    1.920    0.479
       511  -9.8874    244.7339     59.5098   6.6357982996e+01   1.7456091707e+01    0.2709129    0.1635453 -27.32  0.001307511    2.187    0.543
       512  -9.4300    110.1126     64.7308   9.2834838777e+01   4.7907972591e+01    0.4209422    0.2074308 -39.19  0.001449202    2.066    0.516
       513 -10.1500     23.5584     56.7076   1.1967346139e+02   6.1948132938e+01     0.381487     0.251331 -75.61  0.002051612    2.637    0.621
       514  -8.1336    130.6539     58.2725   8.5474359244e+01   4.4524456805e+01     0.140812    0.1123861 -88.85 0.0002627126    1.622    0.384
       515  -9.7648      7.4561     57.4261   1.2607492144e+02   6.2957652500e+01    0.2127825    0.1589537  71.36  0.001028247    2.313    0.568
       516  -8.3891    139.7916     56.9089   8.2920296746e+01   4.2639939446e+01    0.1868483    0.1169915 -32.33 0.0008635808    1.721    0.419
       517  -9.6958     54.2275     55.3622   1.0771201436e+02   5.8942961922e+01    0.3422489     0.228981 -61.95  0.001260076    2.316    0.568
       518  -8.8090     50.1455     50.1957   1.0749130301e+02   6.0343705506e+01    0.2094048    0.1650746 -67.20 0.0008692476    2.038    0.509
       519  -9.4104    119.0525     55.6536   8.7556129156e+01   4.7495652805e+01    0.2621004    0.1922494 -53.43 0.0008510511    1.644    0.392
       520  -9.3770    105.2713     54.3400   9.0846596606e+01   5.0577740640e+01    0.4117206    0.2644876 -21.50  0.002013586    1.759    0.432
       521 -10.0998    191.5080     54.1230   7.2310904996e+01   3.0572062735e+01    0.3030149     0.215521 -57.99 0.0008101682    1.431    0.301
       522  -9.9486    219.7488     52.5043   6.7878385555e+01   2.4094501245e+01    0.3581435    0.1619349 -42.21  0.001468155    2.077    0.518
       523  -9.6199     81.2806     51.7828   9.7215202632e+01   5.5459136712e+01    0.4380099    0.2514379  61.43  0.001777574    3.413    0.707
       524  -8.7720    126.2087     52.3622   8.4718091804e+01   4.6423200793e+01    0.2017503    0.1287151  61.51 0.0009461117    1.685    0.406
       525  -9.5810     92.3268     50.5120   9.3338232863e+01   5.3680036611e+01    0.3384852    0.2094041 -48.56  0.001214146    1.996    0.499
       526  -9.9194     15.4793     49.6216   1.2079133454e+02   6.3865733200e+01     0.257044    0.2082593 -75.97 0.0007984691    1.826    0.452
       527  -8.8943    206.4180     49.0195   6.8849595052e+01   2.7734062983e+01    0.2602765    0.1702016  51.84 0.0007333875    1.638    0.389
       528  -8.6197    163.4218     48.7362   7.5684319919e+01   3.8205030042e+01    0.1752952    0.1409358 -15.68 0.0004299712    1.515    0.340
       529  -8.6351    129.5506     49.4884   8.3015900785e+01   4.6093442270e+01    0.1392811    0.1296381  41.50 0.0001421518    1.006    0.006
       530  -8.8919    244.9918     47.7963   6.3874931000e+01   1.9135199664e+01    0.2231086    0.1253005 -76.24  0.001077479    1.995    0.499
       531  -8.7926    120.8010     47.5479   8.4521628737e+01   4.8318068886e+01    0.2069247    0.1622535 -36.81 0.0005333101    1.369    0.270
       532  -8.7231    112.3732     47.1674   8.6555152287e+01   5.0183155624e+01     0.186449     0.124005 -43.63  0.000666971    1.695    0.410
       533  -8.9736     81.9989     46.4620   9.5148877748e+01   5.6155380399e+01     0.228461    0.1764159 -46.19 0.0006432631    1.549    0.354
       534  -9.0274    133.1158     44.7043   8.0703144595e+01   4.5954513714e+01    0.3147464    0.1817243 -47.45  0.001444064    2.041    0.510
       535  -8.4512     44.8728     44.8018   1.0763443843e+02   6.1878263521e+01    0.1498237    0.1358567 -31.91 0.0005176573    1.316    0.240
       536  -8.9374     16.7785     44.9884   1.1887283142e+02   6.4587183402e+01    0.1593715    0.1275928 -75.69 0.0007948699    1.983    0.496
       537  -9.4778    100.4424     44.0823   8.8776667985e+01   5.3062266746e+01     0.244763    0.1870765  61.39  0.001077541    1.561    0.359
       538 -10.1723      5.2422     42.4394   1.2286579002e+02   6.5817719411e+01    0.2681292    0.1793276 -69.35  0.001400086    2.105    0.525
       539 -11.3955    203.6630     40.3293   6.7147403834e+01   2.9607531506e+01    0.7035567    0.3827676 -65.96  0.002663357    2.193    0.544
       540  -9.2669     69.6170     41.9126   9.7622592735e+01   5.8888447680e+01    0.2780851    0.2018307 -57.60  0.001002997    2.167    0.539
       541  -9.2766     58.1786     42.5301   1.0187027165e+02   6.0505830546e+01     0.236415    0.1568776 -50.55   0.00126234    1.979    0.495
       542 -10.9677    185.1110     37.9044   6.9163301825e+01   3.4399691584e+01    0.6106406    0.3684559 -47.76  0.003040309    1.707    0.414
       543  -9.1495    105.5910     41.3615   8.6427496253e+01   5.2401024696e+01    0.2203195    0.1942623 -59.42 0.0008663733    1.432    0.302
       544  -8.4784    223.9814     41.5095   6.4879537472e+01   2.4694515195e+01     0.183268   0.09651272  46.82 0.0007170559    2.523    0.604
       545  -8.4154     36.8159     40.8333   1.0939136283e+02   6.3436028619e+01    0.1451309    0.1334792 -23.77  0.000468698    1.331    0.249
       546  -8.5789    162.9261     38.5269   7.2923718836e+01   3.9711205554e+01    0.2002592    0.1255658  63.32 -2.300021e-05    1.449    0.310
       547  -9.1279    111.2279     36.4288   8.3280320841e+01   5.1876192052e+01    0.3511374    0.1968146 -27.00  0.001711764    1.946    0.486
       548  -9.1239     95.4133     38.1920   8.8175329484e+01   5.4855124736e+01    0.1757807    0.1198409 -41.01 0.0009455019    1.674    0.403
       549  -9.1315    249.0126     36.8949   6.1239656784e+01   1.9802235691e+01    0.1900918    0.1512284 -78.03  0.000330954    1.043    0.041
       550  -9.6431     75.0793     36.0897   9.3676046896e+01   5.8823736614e+01    0.3809732    0.2105499  58.84  0.001664008    3.177    0.685
       551  -9.6999     26.1230     35.5110   1.1186726095e+02   6.5367248298e+01    0.2255517    0.1624334 -51.85 0.0007591004    1.729    0.422
       552  -9.3986     12.9014     36.2274   1.1769805667e+02   6.6361284370e+01    0.1948878    0.1147678  40.99  0.001145548    2.677    0.626
       553 -11.1379    212.5672     33.5367   6.4436010714e+01   2.8408685104e+01     0.590194    0.3394575 -59.75  0.001610926    1.755    0.430
       554  -9.0212    208.4471     27.7616   6.3601316220e+01   3.0109505044e+01    0.2294105    0.1898256  36.97 0.0008165397    1.614    0.381
       555  -7.8633    125.7192     35.7044   7.9543553885e+01   4.8808402480e+01    0.1351775   0.09617486  27.03 0.0002114384    1.537    0.349
       556  -8.4418     42.0446     35.5343   1.0541899548e+02   6.3664385074e+01    0.1423898     0.100425  51.80 0.0007696333    2.428    0.588
       557  -8.9354     48.3409     33.4350   1.0219274321e+02   6.3189096641e+01    0.1782241    0.1363928 -46.72 0.0007330151    1.708    0.414
       558  -8.9836    118.2191     32.6569   8.0300777535e+01   5.0841452563e+01     0.363236    0.2151834 -75.46  0.001250006    4.756    0.790
       559  -8.7748     60.7276     32.7726   9.7356575340e+01   6.1553812156e+01    0.1489537    0.1410536 -10.72 0.0005661913    1.344    0.256
       560  -9.0481     72.2527     31.5720   9.2932113541e+01   5.9898264292e+01    0.2065549    0.1424971 -38.83 0.0007745813    1.650    0.394
       561  -8.2298    162.0000     30.3687   7.0810819542e+01   4.0949839721e+01    0.2767282   0.07854934 -29.91 0.0009380825    3.962    0.748
       562  -9.7797     12.7863     30.1390   1.1568038843e+02   6.7351619117e+01    0.2852407    0.1449256 -57.77  0.001502607    2.857    0.650
       563  -8.3568    101.5049     29.4920   8.3435461328e+01   5.4740537595e+01    0.1288065    0.1151518  31.40  0.000171628    1.052    0.049
       564  -9.0906     81.0844     27.3913   8.8537169258e+01   5.8896753353e+01    0.2007276    0.1781182 -51.19 0.0007459645    1.548    0.354
       565  -9.6848      3.6263     27.7656   1.1893219127e+02   6.8366993700e+01    0.1730639    0.1558454 -60.25 0.0008991414    1.670    0.401
       566  -8.9990     91.5409     26.4793   8.5102909374e+01   5.7061016638e+01    0.2021943    0.1109682 -39.83 0.0007211135    2.152    0.535
       567  -8.0922    128.6682    249.2722   1.2723632071e+02   4.7072124244e+00    0.1312422   0.08557209  62.93 0.0002862268    1.592    0.372
       568  -9.2996    104.0671    247.3918   1.3179961322e+02   9.0751922848e+00    0.4061579    0.2093225 -83.87  0.001774516    3.066    0.674
       569  -8.6043     93.6715    249.3621   1.3400561768e+02   1.0336002253e+01    0.2387138    0.1195833  57.70   0.00119547    1.855    0.461
       570  -9.2507     18.5414     22.4834   1.1031712532e+02   6.8031667083e+01    0.2310225    0.1361972   3.25  0.001482281    1.667    0.400
       571  -9.3010    167.4731     25.0443   6.8466834496e+01   4.0250717952e+01    0.1860583    0.1340227 -31.48  0.001027916    1.580    0.367
       572  -9.1168     34.4042     24.4032   1.0425579642e+02   6.6155132237e+01    0.2074459    0.1846709  89.30  0.001384526    2.406    0.584
       573  -9.5762    183.9651     23.9425   6.5781007271e+01   3.6400595352e+01     0.271251    0.1656178 -55.81  0.001388746    1.749    0.428
       574  -9.9345    213.1675     21.4524   6.1640066540e+01   2.9777757798e+01    0.2723824    0.1751137 -53.24 0.0009712068    1.486    0.327
       575  -8.9939     63.9001     21.4260   9.1844003443e+01   6.2511757746e+01    0.2032399    0.1586584 -37.98 0.0009493727    1.602    0.376
       576  -8.7568     48.2076     21.6969   9.7662851557e+01   6.4792374018e+01    0.1855275     0.140489 -29.35 0.0007485171    1.391    0.281
       577  -8.9344      8.7463     21.7227   1.1445123498e+02   6.8944555518e+01    0.1517505   0.08258876 -53.86 0.0008853045    2.383    0.580
       578  -8.5080    120.6847     21.3101   7.6003071546e+01   5.1576765968e+01    0.1242165   0.09957147 -78.05 0.0003953872    1.634    0.388
       579  -9.9749    207.6307     19.6223   6.1835674488e+01   3.1281118630e+01    0.2324283    0.1886381  64.06 0.0008230704    1.266    0.210
       580  -8.7288     90.0481    247.5296   1.3450009146e+02   1.1241153316e+01    0.2393363    0.1402756  56.79 0.0004576812    1.460    0.315
       581  -8.7318     74.0292     19.5911   8.7772147787e+01   6.1040141376e+01    0.2083147    0.1602396 -39.10 0.0007355952    1.638    0.389
       582 -10.4404    248.4363    235.8283   1.0202558320e+02  -1.2677178616e+01    0.3141566    0.3004336 -14.76  0.001195829    1.448    0.310
       583  -8.3113    141.5646     15.2005   6.9965814611e+01   4.7445493372e+01    0.1663072    0.1242528   4.22 0.0005985878    1.690    0.408
       584  -9.7333    242.6003    247.2381   1.0503510241e+02  -1.3381175035e+01    0.3822702    0.1287549 -30.80  0.001615154    3.388    0.705
       585  -8.0036     80.6480     14.3145   8.3702705792e+01   6.0417039071e+01    0.1093647   0.09735494 -82.61 0.0007046257    1.732    0.423
       586  -8.4501     69.1995     14.4308   8.7285632688e+01   6.2419644778e+01    0.1555666    0.1072891  51.83 0.0008375999    1.668    0.400
       587  -9.3351     19.6784     25.3566   1.1091248542e+02   6.7510817758e+01    0.1861553    0.1469244 -60.61 0.0009859881    2.158    0.537
       588 -10.7721    248.4825    242.6537   1.0320366810e+02  -1.3599775216e+01    0.3495923    0.2784668 -19.32  0.001903029    1.237    0.191
       589  -8.4476     29.8444     16.0014   1.0276444417e+02   6.7782167152e+01    0.1524178    0.1255158 -49.36 0.0008047052    2.007    0.502
       590  -8.8110    218.6279    248.1965   1.0958875449e+02  -9.9898428296e+00    0.1623036    0.1067348 -22.11 0.0006491464    1.634    0.388
       591  -8.3932     28.2847     10.6242   1.0115007014e+02   6.8623733876e+01    0.0929799   0.08402585 -32.03 0.0007015401    1.717    0.418
       592  -8.6522    175.6727    247.7326   1.1776849148e+02  -2.9782308876e+00    0.2295961    0.1614432 -79.66  0.001091846    2.539    0.606
       593  -9.0211    144.9950    248.4839   1.2392204862e+02   2.0978455939e+00    0.2510916    0.1051579  45.01 0.0009864677    2.018    0.504
       594  -8.7238    146.3878    245.6904   1.2326194832e+02   2.3475010433e+00     0.236569    0.1543798  73.24  0.001173269    2.188    0.543
       595  -9.4110     77.2591    247.7936   1.3693099271e+02   1.3106288638e+01    0.2088626    0.1316473  56.92 0.0005323158    1.301    0.231
       596  -9.3072     35.1914    248.1355   1.4448127338e+02   1.8684001394e+01    0.1886718    0.1308723  59.76 0.0005864083    1.185    0.156
       597  -9.0357    232.4035    247.2430   1.0688241999e+02  -1.1919714027e+01    0.1492051    0.1110647 -40.47 0.0005966233    1.647    0.393
       598 -10.2966    224.0589    244.3499   1.0793649903e+02  -1.0276491596e+01    0.3934713    0.2581475 -42.53  0.002312163    1.817    0.450
       599  -8.9458    210.8766    246.5274   1.1077430686e+02  -8.5492226435e+00    0.2098171    0.1640597 -58.67 0.0007257715    1.918    0.479
       600  -8.1978     58.2775    247.3334   1.4036635549e+02   1.5872841669e+01    0.1009115     0.090818 -57.64 0.0004418927    1.605    0.377
