#   1 NUMBER                 Running object number                                     
#   2 MAG_AUTO               Kron-like elliptical aperture magnitude                    [mag]
#   3 X_IMAGE                Object position along x                                    [pixel]
#   4 Y_IMAGE                Object position along y                                    [pixel]
#   5 X_WORLD                Barycenter position along world x axis                     [deg]
#   6 Y_WORLD                Barycenter position along world y axis                     [deg]
#   7 A_WORLD                Profile RMS along major axis (world units)                 [deg]
#   8 B_WORLD                Profile RMS along minor axis (world units)                 [deg]
#   9 THETA_WORLD            Position angle (CCW/world-x)                               [deg]
#  10 FWHM_WORLD             FWHM assuming a gaussian core                              [deg]
#  11 ELONGATION             A_IMAGE/B_IMAGE                                           
#  12 ELLIPTICITY            1 - B_IMAGE/A_IMAGE                                       
         1  -7.9404    250.4848     11.4735   2.5663240932e+01   2.4392859898e+01    0.2464126          nan -47.91 0.0008104813    5.847    0.829
         2  -7.7574    250.6740      5.7002   2.4669870384e+01   2.4986458432e+01   0.08834792   0.07721905  67.66            0    1.635    0.388
         3  -8.3160    244.1871      3.7894   2.4704052055e+01   2.6361803080e+01    0.2247496   0.04000451 -41.88  0.001000887    3.480    0.713
         4  -8.9942    193.4891    248.3494   7.9281415579e+01  -4.7647675572e+00    0.3008101    0.1876604 -12.33  0.001132945    1.703    0.413
         5  -9.6425    249.0794    247.6437   6.8937074612e+01  -1.1116939306e+01    0.5641717    0.2202158 -31.03  0.002939008    2.234    0.552
         6  -9.0657    228.7644    243.3565   7.1788058335e+01  -8.3116978505e+00    0.5498344    0.2482485  -7.04  0.001880268    5.323    0.812
         7 -11.3850    239.3579    231.1798   6.7902536530e+01  -7.7284426940e+00     0.864594    0.5049055  -6.05  0.004919006    1.812    0.448
         8  -9.7473    247.1751    224.5708   6.5455753366e+01  -7.6316076002e+00    0.4873217    0.2926294  11.70   0.00293304    1.734    0.423
         9  -8.7208    226.0603    250.5346   7.3431784819e+01  -9.0401723760e+00    0.2334766    0.1009626  27.41  0.001089124    2.188    0.543
        10  -8.3072    245.9834    230.4652   6.6648486703e+01  -8.3672725849e+00    0.2123253    0.1340689 -29.86 0.0006034854    1.309    0.236
        11  -9.6581    230.8970    246.8373   7.1968172080e+01  -9.0559708679e+00    0.4939454    0.2349485   8.68  0.002334725    2.787    0.641
        12 -10.4184    241.0109    247.2315   7.0250464439e+01  -1.0217100341e+01    0.5807186    0.4056962 -10.41  0.004016823    1.114    0.103
        13  -9.7106    247.6953    239.8537   6.7910864861e+01  -9.8976270949e+00    0.6233929    0.2571094 -21.63  0.002824128    2.983    0.665
        14 -10.7126    244.0494    236.4460   6.7970899341e+01  -9.0212112948e+00     1.314652    0.5995755   1.84  0.005075932    4.497    0.778
        15  -8.9170    214.6880    250.5969   7.5540859684e+01  -7.7332059791e+00    0.3267682     0.102803  29.02  0.001337274    3.058    0.673
        16  -9.0184    202.5507    249.0540   7.7613051147e+01  -6.0247562488e+00    0.2827021    0.1745579   9.99  0.001191754    1.558    0.358
        17  -8.5493    176.4870    250.4838   8.3050635722e+01  -2.8655086983e+00    0.3794864    0.1489232  39.03  0.001659479    2.537    0.606
        18  -8.9629    182.7864    249.4190   8.1599236168e+01  -3.5341126064e+00    0.4420881    0.1459978  29.26  0.001778337    2.878    0.653
        19  -9.5783    176.9199    244.3061   8.2012736870e+01  -1.8968433702e+00    0.4191793     0.260307 -19.46  0.002214788    1.800    0.445
        20  -8.8818    169.9519    250.2966   8.4376048043e+01  -1.9479090978e+00    0.3077902    0.1528585  33.17  0.001532261    1.790    0.441
        21  -8.2483    171.6924    245.9989   8.3362208710e+01  -1.4630324629e+00    0.2986737    0.1702305  -3.31  0.001265714    2.544    0.607
        22  -9.9130    163.5470    247.6877   8.5331581225e+01  -6.1953652364e-01    0.6317122    0.3203389   2.31  0.002178201    4.427    0.774
        23  -8.9930    144.4711    248.6790   8.9572134100e+01   1.9063621928e+00    0.2759425    0.1682302 -16.07  0.001304638    2.333    0.571
        24  -8.1727    126.5025    249.4803   9.3621101893e+01   4.3369694217e+00    0.1316254     0.113739  23.12 0.0002805042    1.038    0.036
        25  -9.3019    224.1583    245.3404   7.2945530603e+01  -8.0711591943e+00    0.3953325    0.1421333 -46.66  0.001677195    3.561    0.719
        26  -8.9564    156.9168    245.5258   8.6424058142e+01   6.9326717531e-01    0.4120148    0.2302441   0.24  0.001713798    2.947    0.661
        27  -8.7783    186.8226    245.4036   8.0155747220e+01  -3.4180772014e+00    0.2463724    0.1543955  23.41  0.001027587    1.430    0.301
        28  -9.0770    149.9957    245.7010   8.7944886346e+01   1.6514299430e+00    0.2778445    0.1494909 -23.51  0.001190201    2.787    0.641
        29  -8.0940    136.4967    246.4725   9.1008919579e+01   3.4570693199e+00    0.2358173    0.1168471  21.98 6.500194e-05    2.218    0.549
        30  -8.7549    206.8448    245.1766   7.6166419825e+01  -5.9637191793e+00    0.1991993    0.1505302  -2.01 0.0007023113    1.103    0.093
        31  -9.5628    210.3561    242.3185   7.5032722341e+01  -5.9592238657e+00    0.2670188    0.1625226  -7.80 0.0009737643    1.725    0.420
        32  -9.9762      4.4607    248.8417   1.1971503309e+02   1.9729704321e+01    0.2567149    0.2045572 -61.12  0.001812311    1.558    0.358
        33  -8.4973    147.0166    242.5179   8.8130206549e+01   2.6616319132e+00    0.2082875    0.1170666  30.03 0.0009200418    1.588    0.370
        34  -8.1933    201.4766    240.3617   7.6430048338e+01  -4.5271389320e+00    0.2540601    0.1583285   0.22  0.001059476    1.709    0.415
        35  -7.7897    206.4719    240.3363   7.5455118856e+01  -5.1626428215e+00    0.2102415    0.1032986  29.81  0.001074606    1.924    0.480
        36  -9.0940    187.3886    239.9381   7.9172241221e+01  -2.5928381129e+00    0.2702871    0.1502686  14.04  0.001226182    1.985    0.496
        37  -7.5549    138.6594    240.6992   8.9713009158e+01   4.2242667545e+00    0.1366153   0.09745685  -3.17 0.0007036939    1.670    0.401
        38  -8.9882    226.6912    238.8620   7.1427356726e+01  -7.4074852305e+00    0.1985962    0.1208332 -19.82   0.00116921    1.482    0.325
        39  -8.0786    221.0683    238.1719   7.2342805169e+01  -6.6341693951e+00    0.2287261    0.1296576 -21.81  0.001263092    1.690    0.408
        40  -9.7547    195.5971    243.2552   7.8055802776e+01  -4.2271315296e+00    0.4444769    0.2052108  29.44  0.002186859    2.005    0.501
        41  -8.1077    194.8301    237.2264   7.7232924617e+01  -3.1445357619e+00    0.2477856    0.1406669 -17.76  0.001219646    2.052    0.513
        42  -9.3296      3.6534    237.9630   1.1932943337e+02   2.2076685824e+01    0.2229633    0.1196142  57.77 0.0009739479    1.550    0.355
        43  -8.9227    183.7362    236.1913   7.9314143939e+01  -1.4592015006e+00    0.2496079    0.1581531 -21.81  0.001272581    1.659    0.397
        44  -9.3029    159.4537    236.2156   8.4459935942e+01   2.0043450051e+00    0.3841552    0.2043509  16.95  0.001697104    2.242    0.554
        45  -8.1055    178.0165    235.9870   8.0466885688e+01  -6.2403052600e-01     0.218038    0.1419122  -4.00  0.001124967    1.754    0.430
        46  -8.0119    147.9208    236.4787   8.7031767281e+01   3.6543436834e+00    0.3644038    0.1187524  33.81  0.001364173    2.744    0.636
        47  -9.0437      7.1551    235.6177   1.1849341633e+02   2.2251001927e+01    0.2731477    0.1082817  81.28  0.001223056    2.716    0.632
        48  -7.4549    216.6607    235.6595   7.2746633416e+01  -5.7080864126e+00    0.1329277   0.08006687  -8.19  0.000704998    1.767    0.434
        49  -8.1530    204.3385    234.8065   7.4958637666e+01  -4.0046439104e+00    0.2450673    0.1417961   2.65  0.001073531    2.070    0.517
        50  -9.0892    170.9053    233.7144   8.1599905304e+01   7.9243033445e-01    0.2283636    0.1685575 -23.72  0.001299281    1.357    0.263
        51  -8.2697     15.3613    232.6763   1.1661311846e+02   2.2095465423e+01    0.1370427   0.06897122  59.94 0.0007042164    1.781    0.439
        52  -8.3496    210.0981    236.0976   7.4061578597e+01  -4.9531908281e+00    0.2822888     0.155699  -8.38  0.001355939    2.313    0.568
        53  -7.8163    219.1956    231.6013   7.1594800579e+01  -5.3880270121e+00    0.1720031    0.1022759  15.30 0.0009472099    1.687    0.407
        54  -8.1724    214.2891    230.4572   7.2321330441e+01  -4.5880785161e+00    0.3718136    0.1741793 -15.18  0.001393333    3.847    0.740
        55  -9.0441    188.8038    230.4218   7.7325609955e+01  -1.1727986748e+00    0.3250394    0.1895882  -1.31  0.001507122    2.282    0.562
        56  -7.9813    202.8346    229.9973   7.4447736264e+01  -3.0175920647e+00    0.2197549    0.1245889 -18.39  0.001081992    1.995    0.499
        57  -8.7215    195.6157    229.1711   7.5738544967e+01  -1.9015443421e+00    0.3255944    0.1979718  -0.17  0.001624309    1.966    0.491
        58  -7.6528    158.3825    229.8314   8.3686267430e+01   3.3495063227e+00    0.1918628    0.1169275 -34.03 0.0009446929    1.758    0.431
        59  -8.5010    230.0883    232.6004   6.9774481855e+01  -6.8649823140e+00    0.3376347    0.1627892 -10.13  0.001395779    3.422    0.708
        60  -9.0087      5.5256    229.5208   1.1849182118e+02   2.3727372057e+01    0.2129142   0.07779407  41.38  0.001029869    2.233    0.552
        61  -7.8054    177.9899    227.8432   7.9137660594e+01   8.2134666229e-01    0.2312806    0.1420416   2.04  0.001092683    2.045    0.511
        62  -8.0265    133.4696    226.9216   8.8850890731e+01   7.7097373884e+00    0.3174253     0.143215 -58.39  0.001154593    2.739    0.635
        63  -7.8091    223.7268    225.8276   6.9779549018e+01  -5.0419935560e+00    0.2069253    0.1095916  -7.93 0.0009331047    2.652    0.623
        64  -8.4143    212.1340    225.0326   7.1806457228e+01  -3.4291244575e+00    0.2988638    0.1342814 -23.93  0.001227706    2.930    0.659
        65  -7.3618    184.5167    226.4723   7.7544538204e+01   1.2484929351e-01    0.1361407    0.1111597  -2.92 0.0008081105    1.093    0.085
        66  -9.8627    238.6317    224.8227   6.6954395125e+01  -6.6889097714e+00    0.3285501    0.2075453  20.23  0.001846254    1.581    0.368
        67 -10.2428    242.1050    220.2092   6.5568694372e+01  -6.3917817282e+00    0.3981792    0.2375361 -52.09  0.002117625    2.461    0.594
        68 -10.0743    238.8234    217.8064   6.5716381678e+01  -5.6316130110e+00    0.3277392    0.2009382  -6.65  0.001856548    1.739    0.425
        69  -9.0460      6.9338    225.5143   1.1796555623e+02   2.4482406163e+01    0.1722115    0.1093816  34.67  0.001027714    1.576    0.365
        70  -7.9697    219.0102    223.5206   7.0253049846e+01  -4.0754173021e+00    0.1774294    0.1121569  22.57  0.000564301    1.554    0.356
        71  -8.0469    200.6525    223.0372   7.3690376527e+01  -1.5479287933e+00    0.2191622   0.08490494 -26.99  0.000704516    4.369    0.771
        72  -7.0570    233.2738    222.3610   6.7469681188e+01  -5.6715509462e+00     0.128335   0.07718911 -14.66  0.000700372    1.657    0.397
        73  -8.9889    246.1617    219.8188   6.4816244877e+01  -6.8034621115e+00    0.1707508      0.13772 -21.84 0.0008201919    1.151    0.131
        74  -8.0500    207.2856    222.3566   7.2275514713e+01  -2.3381967993e+00    0.2086946    0.1319461  -7.22  0.001091987    1.747    0.428
        75  -7.8854    174.5087    221.9973   7.8892855165e+01   2.4025819821e+00    0.1936166    0.1033775 -23.96 0.0008095301    2.459    0.593
        76  -7.7048    216.4023    219.8410   7.0102164485e+01  -3.1344793444e+00    0.1830069    0.1004156 -28.97 0.0009389507    1.706    0.414
        77  -8.0246    194.1353    220.2491   7.4510253842e+01  -1.4904495147e-01    0.2301085    0.1269335  -8.26 0.0009447287    2.829    0.647
        78  -7.6536    249.8329    219.3663   6.4128051805e+01  -7.1542836964e+00    0.1513067   0.09687653  11.84 0.0005683972    1.598    0.374
        79  -7.4316    225.4687    219.5158   6.8373848626e+01  -4.2530384192e+00    0.1282636   0.09890831 -12.30 0.0002338491    1.073    0.068
        80  -8.0536    149.8344    218.7762   8.3801202035e+01   6.8145830515e+00    0.2479451    0.1458228  -9.40 0.0009605307    2.910    0.656
        81  -8.5494      3.0016    218.4943   1.1839740946e+02   2.6411596952e+01    0.1903466    0.1375065  88.79 0.0006815516    1.181    0.153
        82  -7.9235    204.0123    216.4987   7.1889361844e+01  -8.8726006496e-01    0.2800936    0.1393551 -15.54  0.001039991    3.526    0.716
        83  -8.4923    247.6681    205.6384   6.2102649520e+01  -4.7919414959e+00    0.2906519    0.1916058 -20.04  0.001412287    1.323    0.244
        84  -8.9545    250.0496    199.8748   6.0696799208e+01  -4.1711307737e+00    0.4580368    0.1578504 -33.97  0.001528637    2.633    0.620
        85  -8.7328    248.8119    215.2238   6.3585334641e+01  -6.4110349717e+00    0.2282839    0.1403695 -28.29 0.0009743553    1.314    0.239
        86  -9.4143    247.6051    211.2021   6.3087441824e+01  -5.6522982497e+00    0.3366005    0.2292997   2.55  0.002116635    1.481    0.325
        87  -7.5739    227.3193    216.3235   6.7482584194e+01  -3.9729136770e+00    0.1312389   0.08206055 -10.76  0.000704505    1.673    0.402
        88  -7.5829    234.2864    214.3467   6.5900975797e+01  -4.5320227979e+00     0.129282   0.07934293 -14.24 0.0002278584    1.652    0.395
        89  -8.5085      4.9325    212.3790   1.1760489141e+02   2.7639745757e+01    0.2255509    0.1409109  85.24  0.001011416    1.398    0.285
        90  -8.2541    242.6036    210.0851   6.3726203243e+01  -4.8787473616e+00    0.3298488    0.1565643  23.72  0.001647671    2.484    0.597
        91  -7.1794    236.3550    209.2498   6.4644263204e+01  -3.9738889140e+00    0.1239269   0.08098731  -5.71 0.0002755919    1.599    0.374
        92  -7.9818    179.3122    207.9833   7.5414890042e+01   4.3184520847e+00    0.2249016   0.09272841 -28.80 0.0007008723    4.077    0.755
        93  -9.2315    124.0087    205.9911   8.7789857784e+01   1.3671883693e+01    0.2021592    0.1913008  24.88  0.001151279    1.004    0.004
        94  -7.4919    225.5091    205.5112   6.5887050254e+01  -1.9532028311e+00    0.1302142    0.1037171 -15.89 -0.0001539097    1.048    0.046
        95  -7.7892      5.4928    205.4968   1.1703557122e+02   2.9194391904e+01     0.127506    0.1016447  75.59 -1.811309e-05    1.047    0.045
        96  -8.9673    243.7860    198.5435   6.1480580410e+01  -3.1809483114e+00    0.3472884    0.1761471 -34.52  0.001843141    1.641    0.391
        97  -8.2597    237.9948    199.4675   6.2615864625e+01  -2.5914996765e+00    0.2384703     0.143305 -26.32 0.0008402923    1.485    0.326
        98  -8.3506    230.6039    198.2223   6.3662236993e+01  -1.4094602888e+00      0.31664    0.1792147   6.52  0.001471472    2.602    0.616
        99  -8.4659    237.1419    193.8303   6.1737222267e+01  -1.5458942654e+00    0.3045839    0.1697727 -28.75  0.001612021    1.626    0.385
       100  -8.1515    231.5126    191.8532   6.2335585350e+01  -4.5276304322e-01    0.3579198    0.1676361 -23.22  0.001461453    2.927    0.658
       101  -9.3567    243.8927    189.6656   5.9857793016e+01  -1.7432261437e+00    0.4170786    0.2434454 -37.16  0.002323941    1.413    0.292
       102  -7.9023    224.4097    190.7908   6.3383465011e+01   7.2240584182e-01     0.193372    0.1041264 -31.35 0.0009482252    1.714    0.417
       103  -8.5331    237.8743    185.9181   6.0159684545e+01  -3.1404514938e-01    0.3225866    0.1477794 -32.06  0.001507552    2.041    0.510
       104  -8.3462    230.9766    185.0275   6.1158407391e+01   7.9494394649e-01    0.2802927    0.1812991 -12.80   0.00148533    1.775    0.437
       105  -8.8584    249.5631    183.7177   5.7867223495e+01  -1.5030049055e+00    0.3620336     0.192849 -29.05  0.001791143    1.713    0.416
       106  -9.5896    242.7248    177.5930   5.7822126504e+01   4.3096765025e-01    0.5786404    0.2687625 -29.32  0.002658157    2.237    0.553
       107  -8.0261    235.3377    179.1862   5.9325507235e+01   1.1885700427e+00    0.2578068    0.1643931 -21.18  0.000988536    1.612    0.380
       108  -8.5819    244.8907    166.4674   5.5397797804e+01   2.0170865809e+00     0.266316    0.1407511 -28.64  0.001086189    1.908    0.476
       109  -7.5559    239.4901    161.5052   5.5295569809e+01   3.6517331441e+00     0.130078    0.1061793 -31.88 0.0008105192    1.019    0.018
       110  -8.9768    248.0144    146.0201   5.1053227336e+01   5.0462347147e+00    0.2014313    0.1426555 -63.41  0.001150461    1.752    0.429
       111  -8.7528    241.1885    143.8461   5.1627177648e+01   6.4609797427e+00    0.1802558    0.1384677 -20.97 0.0008391666    1.379    0.275
       112  -7.3193    250.6747    140.3389   4.9596166860e+01   5.6089102682e+00     0.125284   0.08774131 -63.41 0.0007051374    1.726    0.421
       113  -7.6154      3.6733    144.3540   1.1239321615e+02   4.4475204913e+01    0.1396818   0.08684214  66.29 0.0007046612    1.770    0.435
       114  -7.5935    235.4813    137.5122   5.1231558150e+01   8.4745945259e+00    0.1314887    0.1095872 -38.64  0.000810056    1.032    0.031
       115  -9.0165    239.8853    125.5844   4.8236669252e+01   9.8223945806e+00    0.3228465    0.1449206 -42.78  0.001520524    1.832    0.454
       116  -8.9018    247.7688    116.6624   4.5440203286e+01   1.0033110712e+01    0.4200315    0.1264367 -46.55  0.001655409    2.798    0.643
       117  -8.6432    230.9613    114.3588   4.7237234247e+01   1.3278220662e+01    0.3091129    0.1592028 -42.45   0.00151941    1.643    0.391
       118  -8.8432    240.5811    108.1545   4.4700307693e+01   1.2649708377e+01    0.2998492    0.1095901 -34.56  0.001146178    3.113    0.679
       119  -8.4049     78.3824    103.8154   7.9638527611e+01   4.6234681560e+01    0.2569342    0.2069836  20.13 0.0005888544    1.296    0.228
       120  -8.5539    246.0000     33.0087   2.9760963624e+01   2.2684448382e+01     0.178037    0.0539428 -38.22 0.0008029013    2.946    0.661
       121  -8.9457    219.4771    248.0123   7.4236561998e+01  -7.9174573850e+00    0.2281571    0.1576435 -27.92  0.001471682    1.318    0.241
       122  -8.9904    215.3379    244.3507   7.4419534605e+01  -6.8795815411e+00    0.3224207    0.1436301  12.13  0.001308013    3.446    0.710
