#   1 NUMBER                 Running object number                                     
#   2 MAG_AUTO               Kron-like elliptical aperture magnitude                    [mag]
#   3 X_IMAGE                Object position along x                                    [pixel]
#   4 Y_IMAGE                Object position along y                                    [pixel]
#   5 X_WORLD                Barycenter position along world x axis                     [deg]
#   6 Y_WORLD                Barycenter position along world y axis                     [deg]
#   7 A_WORLD                Profile RMS along major axis (world units)                 [deg]
#   8 B_WORLD                Profile RMS along minor axis (world units)                 [deg]
#   9 THETA_WORLD            Position angle (CCW/world-x)                               [deg]
#  10 FWHM_WORLD             FWHM assuming a gaussian core                              [deg]
#  11 ELONGATION             A_IMAGE/B_IMAGE                                           
#  12 ELLIPTICITY            1 - B_IMAGE/A_IMAGE                                       
         1 -10.9284    145.1521     29.8874   5.1547506981e+01   4.5461989521e+01    0.7693515    0.6485126   5.68  0.003759202    1.366    0.268
         2 -10.6417    142.1130     23.8630   4.9858124744e+01   4.7023680805e+01    0.5454726    0.3310865  10.38  0.001248011    2.497    0.599
         3 -11.2960    130.9974     35.8498   5.6593349883e+01   4.8334767190e+01     1.327837    0.7154816 -77.86 0.0009741848    4.112    0.757
         4 -10.1742     57.3265     33.4455   7.9993589038e+01   6.5305901933e+01    0.8842635     0.661755  57.59  0.002079506    1.693    0.409
         5 -10.1054     45.5752     15.7798   7.6849025324e+01   7.0512654362e+01    0.5958939    0.3029959  34.74   0.00260913    2.074    0.518
         6 -10.4852     51.0260      9.8941   7.0378946811e+01   7.0505880237e+01    0.7332435    0.5058099  57.49  0.002750924    1.828    0.453
         7  -9.2386     40.1207     10.6830   7.6907786387e+01   7.2254355204e+01    0.5157176     0.235932  47.16  0.002256429    2.626    0.619
         8  -9.9361     36.1284     20.5866   8.5048031921e+01   7.1060586129e+01    0.4468848    0.2230275 -35.11 0.0008650239    2.027    0.507
         9 -11.7042     14.5771     39.0995   1.0588347129e+02   6.9180136153e+01    0.6599386    0.3949848 -80.77  0.003389352    1.832    0.454
        10 -11.2998    221.6078     29.3751   4.1648616943e+01   2.6518756807e+01    0.4896459    0.2524593 -34.22  0.002393952    1.641    0.391
        11 -12.3865    107.5719     29.1876   5.9569505519e+01   5.5243069321e+01      0.56928    0.4139344 -33.53  0.002798105    1.385    0.278
        12 -10.2690     30.9249      3.2752   7.7872400697e+01   7.4870046214e+01    0.4838862    0.2191727 -37.91  0.001817489    2.051    0.513
        13  -9.5820     23.6668      1.3817   8.1794096343e+01   7.6186557187e+01    0.1803358    0.1434414  32.61 0.0001591034    1.401    0.286
        14 -10.6695     16.4285     17.4090   9.6734769570e+01   7.3905667546e+01    0.5538152    0.4600362  -3.95  0.003614365    1.230    0.187
        15 -10.3330     17.5523      1.8342   8.7003146807e+01   7.6844756036e+01    0.4256221    0.2490739   6.87  0.002238227    2.076    0.518
        16 -11.1286     18.4558     22.3550   9.7503213220e+01   7.2678192926e+01    0.5755156    0.3035838 -55.63  0.002957431    1.648    0.393
        17 -11.1071     24.8948      6.7211   8.4502212156e+01   7.5104542264e+01    0.2880672    0.2591486  57.17 0.0004380981    1.551    0.355
        18 -12.5603     26.3948     31.0657   9.5929751345e+01   7.0036875621e+01     1.300965    0.5416269  19.63  0.002128837    2.910    0.656
        19 -10.6789     13.9564     11.0049   9.5460687805e+01   7.5440653655e+01     0.255163    0.1965154 -32.71 0.0004307958    1.107    0.097
        20 -12.4875     19.1366      7.0061   8.9073771562e+01   7.5721638830e+01    0.5630865     0.396891  -1.25  0.001960336    1.497    0.332
        21 -11.5805    165.5317     18.2459   4.4342157784e+01   4.1494938602e+01    0.4290493    0.3475467  52.83  0.000937025    1.287    0.223
        22  -9.9442      1.3619      9.5144   1.0524737231e+02   7.6601603087e+01    0.4803514   0.09145083 -64.98  0.001632609    4.269    0.766
        23  -9.2276      5.9390      9.1625   1.0115690504e+02   7.6420394508e+01    0.3220781    0.2688797  13.57  0.001129367    1.343    0.255
        24 -11.6573      5.5448     16.2775   1.0452800227e+02   7.4921118970e+01    0.4640927     0.347185 -66.17  0.001656201    1.284    0.221
        25 -12.5749    116.6611     22.2650   5.4317233524e+01   5.3889827213e+01    0.4860854    0.3318653  70.02 0.0006184396    1.516    0.341
        26 -10.1693     60.4080     17.6062   7.0410857364e+01   6.7548966115e+01    0.6058795    0.3205495  37.24  0.002453529    1.976    0.494
        27 -11.0607     68.0081     15.2694   6.5809493880e+01   6.6371500069e+01    0.3528112    0.2719824 -33.24 0.0003403707    1.301    0.231
        28  -9.7444     69.6611     11.7470   6.3154877789e+01   6.6512166562e+01    0.2339444    0.1951481  46.69  0.000218547    1.194    0.163
        29 -10.5877    182.7979     17.8314   4.2175134743e+01   3.7091647176e+01    0.5631342    0.3205017  24.28 0.0008597909    2.799    0.643
        30 -11.0071     26.8942     21.2525   9.1268042380e+01   7.2072206982e+01    0.6214921    0.3155225 -25.19  0.002680455    2.644    0.622
        31  -9.7091     32.3896     12.3665   8.2796706602e+01   7.3108002938e+01    0.2479726     0.215943 -53.14 0.0006742906    1.357    0.263
        32  -9.9118    199.3470     18.3520   4.0666012098e+01   3.2931886804e+01    0.3980276    0.2068337 -24.44  0.001626283    1.892    0.471
        33 -10.3176    218.7649     18.9368   3.9145603384e+01   2.8309888589e+01     0.355119    0.2449635 -41.42  0.002006774    1.245    0.197
        34 -10.0244    230.1243     15.2955   3.7359641984e+01   2.6166209589e+01    0.3631852    0.1702554 -36.00  0.001156894    1.723    0.419
        35 -10.0588    225.6474     16.8778   3.8081469177e+01   2.6984398727e+01    0.3275888     0.200224 -23.69  0.001229551    1.587    0.370
        36  -9.8831    209.9986     13.8610   3.8484874939e+01   3.0864354004e+01    0.2454978    0.2032589 -25.56 0.0004821999    1.229    0.187
        37  -9.4914    212.5364      8.9793   3.6966457577e+01   3.0763977227e+01    0.3610273    0.2356528  55.42  0.001953128    1.738    0.425
        38  -9.9889    208.9751      4.8520   3.6102500698e+01   3.1996788949e+01    0.3193447    0.2592615  41.04  0.001649259    1.510    0.338
        39  -8.4820    206.3585      1.7339   3.5429392284e+01   3.2906555711e+01     0.189034    0.1088281 -42.54 0.0002996253    1.499    0.333
        40  -9.9742    173.3146     13.6745   4.1901884409e+01   3.9959163328e+01    0.3354591    0.2758097 -57.40  0.001471185    1.152    0.132
        41 -10.5267    176.1505     10.8762   4.0696642316e+01   3.9513511259e+01    0.4990172    0.3219762  42.48  0.002396087    1.812    0.448
        42 -10.9636    133.1488     12.7853   4.7115920781e+01   5.0665955143e+01    0.2465205    0.2405233  -7.59 0.0003026636    1.086    0.079
        43 -10.2959     88.8365     13.4155   5.7476176882e+01   6.1932547725e+01    0.3061715     0.224456  47.94 0.0004303473    1.296    0.228
        44  -9.3814     75.9178     12.8613   6.1435403306e+01   6.4992381265e+01    0.3334912    0.1690537 -46.42  0.001379839    2.435    0.589
        45  -9.4431     74.0913      8.1772   5.9456639723e+01   6.5994443047e+01     0.235012    0.2208608  54.43 0.0006927243    1.141    0.124
        46 -10.6976    146.8131     12.1404   4.4731160976e+01   4.7093391020e+01    0.5201797    0.3912416 -83.47 0.0008837472    1.376    0.273
        47  -9.2977    142.2566      8.2016   4.3904042944e+01   4.8702792188e+01    0.2346158    0.1911132   7.02 0.0007203177    1.415    0.293
        48  -9.9525    138.8922      6.5777   4.3763822550e+01   4.9756849326e+01    0.3516195    0.2039258 -18.07  0.001005015    1.872    0.466
        49  -8.6541     26.5542     12.6275   8.6916120736e+01   7.3813372964e+01    0.2140626    0.1482642 -53.92 0.0006831554    1.541    0.351
        50  -9.0488     97.8341      9.5892   5.3046918811e+01   6.0178765968e+01    0.5688646    0.1676031 -24.55  0.001876313    3.473    0.712
        51  -8.8683    219.0334     11.3115   3.7117817891e+01   2.9038437116e+01    0.1846231    0.1541174 -65.57 0.0005911552    1.096    0.087
        52  -8.6056     79.7608      9.5099   5.8262890173e+01   6.4541659178e+01    0.3138212    0.1828369   1.62  0.001326996    2.375    0.579
        53 -10.2138    165.1355      7.7511   4.0856894576e+01   4.2681126616e+01    0.4298085     0.201178 -31.77  0.001135185    2.000    0.500
        54 -10.8038    160.3320      2.9664   3.9751005624e+01   4.4388495770e+01    0.4224711    0.3221523  70.82  0.001143344    1.253    0.202
        55 -10.5955    247.9517      4.9627   3.3791588165e+01   2.3446926215e+01    0.3739178    0.2596488   5.97 0.0004308586    2.049    0.512
        56  -9.3819    224.8272      9.0738   3.6140469443e+01   2.7959362856e+01    0.1968217    0.1409825 -50.55 0.0003092895    1.186    0.157
        57  -9.8853    202.7279      8.6516   3.7618798454e+01   3.3113949756e+01    0.2588972    0.1863649 -55.86 0.0001125563    1.254    0.202
        58  -9.4859    128.1364      8.1501   4.6080279876e+01   5.2471749251e+01    0.2237483    0.2018819 -54.26 0.0002739711    1.137    0.121
        59 -10.1202     86.6347      6.0636   5.4264089774e+01   6.3311158755e+01    0.3596671    0.3413899  77.43  0.001902696    1.145    0.126
        60  -9.0238     92.3717      8.0182   5.3690655129e+01   6.1703445972e+01    0.4857814    0.2222817 -17.71  0.001935979    2.487    0.598
        61  -9.8688     89.8035      1.6927   5.1054639162e+01   6.2982903783e+01    0.4971486    0.1876215  57.53  0.001155657    2.293    0.564
        62  -9.3292    194.5355      8.4810   3.8238308871e+01   3.5121651000e+01    0.2349307    0.1279933  78.05 0.0006870842    1.840    0.456
        63 -10.9173    195.1687      3.3653   3.6699171631e+01   3.5454353152e+01    0.7568609    0.3245786  58.65  0.003211532    2.398    0.583
        64  -9.0343    120.0355      7.5758   4.7270393044e+01   5.4672154099e+01     0.400012    0.1934369 -41.39 0.0009062559    2.157    0.536
        65 -10.1853    119.4711      2.4259   4.5124091099e+01   5.5304609111e+01    0.2514364    0.2159272  48.60 0.0005529414    1.130    0.115
        66 -10.4372    115.7097      1.9805   4.5589986354e+01   5.6335004091e+01    0.2727453    0.2095887  59.00 0.0003193381    1.208    0.172
        67  -8.9255    108.5186      1.5353   4.6740637790e+01   5.8253059596e+01    0.3021487    0.2083849  51.81  0.001535531    1.349    0.258
        68 -10.5775    107.7510      6.9538   4.9446309116e+01   5.7937865873e+01    0.4457919    0.3486789 -61.21  0.001592346    1.444    0.308
        69  -9.7850    111.4233      6.2724   4.8360855448e+01   5.7054941223e+01    0.3001679    0.2219362 -34.23   0.00104777    1.402    0.287
        70  -9.5840     62.2983      6.0002   6.2709207922e+01   6.8823424283e+01    0.2956014    0.2253158 -41.14  0.001643935    1.457    0.314
        71  -8.6107    133.7711      6.3886   4.4454511943e+01   5.1141629469e+01    0.2118374    0.1196266  59.50 0.0009513556    1.635    0.388
        72  -9.5543     40.2337      4.5173   7.2791687963e+01   7.3210407191e+01    0.3495821    0.3178805 -18.69    0.0022732    1.144    0.126
        73  -8.6758     42.9968      1.0000   6.8729524061e+01   7.3233864139e+01    0.1673149    0.1022808  43.63   0.00087736    1.640    0.390
        74 -11.3171    179.6266      2.1733   3.7616552325e+01   3.9452465135e+01    0.4701732    0.2559817 -86.52 0.0004367257    1.918    0.479
        75  -8.8554    174.4842      5.2247   3.9055889857e+01   4.0490284865e+01    0.1962557    0.1140197 -39.95 0.0004650614    1.602    0.376
        76 -10.2816    238.1889      3.0487   3.3851118994e+01   2.5646716448e+01    0.2792688    0.1878364 -77.48  0.001089696    1.463    0.316
        77 -10.3871    218.9095      2.5658   3.4839228934e+01   2.9915905881e+01    0.2938937     0.240726  85.87 0.0009618991    1.250    0.200
        78  -9.2825    224.0257      3.3637   3.4732717446e+01   2.8689526207e+01      0.23794      0.17689 -20.08   0.00104243    1.410    0.291
        79  -9.4274     81.5373      1.8002   5.3399652384e+01   6.4975633320e+01    0.3071131    0.2037924  72.94  0.001522967    1.698    0.411
        80 -10.7392     74.0226      1.8903   5.5807603746e+01   6.6723822996e+01    0.3851368    0.2266435  53.42 0.0008134149    1.583    0.368
        81  -9.5074     69.6724      1.6885   5.7185317150e+01   6.7731494759e+01    0.3547315    0.1656261  52.42  0.001170548    1.962    0.490
        82 -10.5270     49.7683      2.1914   6.5971251447e+01   7.1821519665e+01      0.32039    0.1923736  35.27 0.0002982924    1.648    0.393
        83  -9.2815      3.9988      2.4946   9.9495253845e+01   7.7913415472e+01    0.2427289    0.1537791 -50.43  0.001475767    1.312    0.238
        84  -9.0612    126.8254      1.5882   4.3561150590e+01   5.3428485702e+01    0.3521834    0.1241282  56.82  0.001313984    2.446    0.591
        85  -8.3210     35.4527      2.4327   7.4276168955e+01   7.4307235635e+01    0.1278519    0.1098578  -4.52 0.0001331567    1.008    0.007
        86  -9.8507    146.2702      2.6003   4.1252945955e+01   4.8151462405e+01    0.5034835    0.2372848  57.93  0.002144966    1.970    0.492
        87  -9.1694    186.0356      1.3104   3.6812552780e+01   3.7909045907e+01    0.1910461    0.1169112  80.93 0.0002987823    1.591    0.371
        88  -9.8946     50.9189     99.0056   1.0291870643e+02   5.0836585756e+01     0.299053    0.2087221 -69.54 0.0002810779    1.336    0.251
        89  -9.5332    201.4725    249.5405   9.0227591005e+01   3.2544348674e-01     0.192795    0.1274011  23.27 0.0007133647    1.100    0.091
        90  -8.4042    153.6961    106.7277   7.3871881601e+01   3.0242529225e+01    0.1477816    0.1169684   9.36  0.000694957    1.537    0.349
        91  -8.0569     91.6702    106.3070   9.0622319177e+01   4.2887585794e+01    0.1549509    0.1147746  74.78  0.000703875    1.660    0.397
        92  -9.3472      1.9723     92.9627   1.2040497436e+02   5.6480935862e+01    0.2094623    0.1654159  61.02 0.0007094184    1.253    0.202
        93  -9.8157     16.2832     86.6531   1.1419991034e+02   5.7266186895e+01    0.4231374    0.2870015 -59.78   0.00168787    1.328    0.247
        94  -9.0155     11.2192     85.9344   1.1613688160e+02   5.7765828671e+01    0.2925974    0.1303688 -63.59  0.001370219    1.856    0.461
        95  -9.5834      3.2500    102.4812   1.2068326391e+02   5.4037356323e+01    0.4981229    0.1624577 -84.78  0.001990366    2.712    0.631
        96  -9.0963      7.0941     89.2838   1.1812428417e+02   5.7149001619e+01    0.2390898     0.193249  79.61 0.0006655628    1.137    0.120
        97  -9.2803      6.2429     93.7754   1.1887870713e+02   5.6061856529e+01    0.3349825    0.1982316  88.71 0.0009276026    1.494    0.331
        98  -9.6772      9.0226     99.0500   1.1833956144e+02   5.4577351844e+01    0.3073658    0.1912926  64.98  0.001010081    1.569    0.363
        99  -9.6732      4.0154     97.9847   1.2006158553e+02   5.5121560753e+01    0.2585441    0.2301547   4.33  0.001729385    1.387    0.279
       100  -9.9875     74.6612    104.6351   9.5763962816e+01   4.6122524219e+01    0.3169021      0.17936 -66.90  0.001351387    1.859    0.462
       101 -10.2318     13.7365    113.4326   1.1798886086e+02   5.0666014095e+01    0.3872436    0.2081574  30.63  0.001604634    1.928    0.481
       102 -12.2701    108.9845     99.0318   8.3511751537e+01   4.1312611184e+01     1.173689    0.9056019  28.36  0.004328979    1.447    0.309
       103  -9.9034    102.9974    100.9929   8.5815043745e+01   4.2040509552e+01    0.2958838    0.2683227  -5.76 0.0003289445    1.263    0.208
       104  -9.7875    100.8605     98.1861   8.5740762742e+01   4.3097951763e+01     0.263788    0.2407692 -47.69 0.0003059187    1.097    0.088
       105  -9.4640    101.6904     88.6948   8.2891795985e+01   4.5104314057e+01    0.2519963    0.2279199 -41.79 0.0002816209    1.112    0.100
       106  -8.6782     47.9009    103.3982   1.0480969704e+02   5.0080043483e+01    0.2299874    0.1416108 -62.63  0.001116017    1.484    0.326
       107 -10.2981     67.6625    103.4937   9.7893308211e+01   4.7460760067e+01    0.4212421    0.1478725  31.18  0.001446553    3.109    0.678
       108  -8.8541     29.5563    102.4853   1.1127448660e+02   5.2193820174e+01    0.2658104    0.1176223 -72.01    0.0006261    1.993    0.498
       109 -10.2198     57.0375    100.0183   1.0090632300e+02   4.9806104128e+01    0.3449677    0.1964088 -51.10  0.001026976    1.719    0.418
       110 -10.2009    124.5212     98.2492   7.8897721721e+01   3.8274328665e+01    0.4862872    0.3036249  29.45  0.001989013    1.988    0.497
       111  -9.4385     16.8819     98.4429   1.1540236857e+02   5.4226778653e+01    0.3655517    0.1865512 -47.64  0.001743251    2.073    0.518
       112  -9.8148    104.0538     90.9836   8.2805330431e+01   4.4114991677e+01    0.2693251    0.2177377  42.41            0    1.256    0.204
       113  -8.6601     33.8280     97.8069   1.0902139923e+02   5.2996246911e+01    0.1808802    0.1417834  69.28            0    1.281    0.220
       114  -8.3035     27.2427     98.3220   1.1154968656e+02   5.3457340457e+01    0.1339022   0.08849557 -50.65 0.0002030261    1.524    0.344
       115  -9.3708    129.9445     96.8857   7.7075472530e+01   3.7397480580e+01    0.2219404    0.2205537 -21.69 0.0004125498    1.012    0.011
       116  -8.9849    135.3250     96.2986   7.5521038155e+01   3.6343397326e+01    0.1548503    0.1222577   6.53 0.0002152712    1.630    0.387
       117  -7.9772     63.3105     96.2997   9.7871524917e+01   4.9883705136e+01    0.1445631    0.1093948 -29.78 0.0003419028    1.602    0.376
       118  -9.7313     23.6383     95.4392   1.1250689267e+02   5.4489302435e+01    0.2306709    0.1820109 -87.14 0.0009602966    1.133    0.118
       119  -9.4930     12.2734     93.7603   1.1660660741e+02   5.5718051407e+01    0.3125924    0.1548877 -86.24  0.001480446    1.846    0.458
       120  -9.6457     80.5163     95.2993   9.1603287216e+01   4.7457328396e+01    0.4605536    0.2083841  30.71  0.001690592    2.616    0.618
       121  -9.0773    179.0549     94.1706   6.5239680378e+01   2.6948417558e+01    0.2247506    0.1906984   1.12 0.0005173683    1.292    0.226
       122  -9.6481     51.9619     93.9790   1.0154023460e+02   5.1982403961e+01    0.2172739    0.1997792  51.11 0.0003029931    1.138    0.121
       123  -9.5450     52.4898     90.5034   1.0061186742e+02   5.2794756772e+01    0.2772066    0.1693792 -67.18 0.0009934045    1.551    0.355
       124  -9.2691     54.4006     86.7529   9.9046216370e+01   5.3492874285e+01    0.2670857    0.1827442 -40.79 0.0006634639    1.572    0.364
       125 -10.2928     46.7892     93.5065   1.0339145607e+02   5.2725585448e+01    0.3247923    0.2125841 -60.60   0.00162816    1.390    0.281
       126  -9.5037     32.6289     92.9309   1.0870024694e+02   5.4355928090e+01    0.3647131    0.1912322 -52.46  0.001701206    1.813    0.448
       127  -9.2508    134.4730     92.4075   7.4650562717e+01   3.7327221380e+01    0.1503854    0.1490259  55.92 8.246723e-05    1.017    0.017
       128  -9.2245    117.0550     91.3780   7.9064939287e+01   4.1340673971e+01    0.2608349    0.2123577 -30.47 0.0006738958    1.325    0.245
       129 -10.9573     28.8407     86.6650   1.0915863639e+02   5.6299097970e+01    0.8195423    0.3318241 -51.91  0.003425554    2.289    0.563
       130  -8.7189     21.2427     87.5949   1.1234698056e+02   5.6675873885e+01    0.2194975     0.135593  17.17 0.0002142809    1.901    0.474
       131 -10.2220    124.5011     88.5299   7.6169591983e+01   4.0336524191e+01    0.4308751    0.3113367 -58.77    0.0013018    1.532    0.347
       132 -10.0804    129.6064     85.6294   7.3950368991e+01   3.9798686231e+01    0.3864754    0.2780803 -13.93  0.001127312    1.890    0.471
       133 -10.0229     87.8258     87.7082   8.7124849043e+01   4.7985439491e+01    0.5875798    0.2490453 -50.66   0.00167323    2.277    0.561
       134  -9.6324    189.2738     87.1246   6.1496217982e+01   2.5849774947e+01    0.2329321    0.2170674 -16.00 0.0004389817    1.047    0.045
       135  -9.5844     94.5360     86.9293   8.4676627099e+01   4.6908060350e+01    0.3718009    0.2646904  50.50 0.0002823809    1.467    0.318
       136  -9.6909     79.7962     84.0377   8.8886492788e+01   5.0283670813e+01    0.4436686    0.3624331 -12.40  0.002218525    1.525    0.344
       137 -10.3563     68.9831     87.0985   9.3619819871e+01   5.1321323354e+01      0.46258    0.3400611  15.95  0.001970078    1.688    0.407
       138 -10.5030     73.2539     81.5138   9.0555696119e+01   5.1993379748e+01    0.5911768    0.3672007 -46.65  0.002685416    1.576    0.365
       139  -9.7815     43.6538     88.1296   1.0353482306e+02   5.4450452754e+01    0.2659088     0.197966  37.85 0.0005062683    1.425    0.298
       140  -9.4376     48.1616     87.8025   1.0170252839e+02   5.4010533788e+01    0.1976703    0.1712729 -68.72   0.00111908    1.057    0.054
       141 -10.0591     56.8899     82.1159   9.6969320847e+01   5.4317207518e+01    0.5144911    0.2570665  55.55   0.00195746    2.779    0.640
       142 -10.3257     49.3112     83.4965   1.0030187840e+02   5.4957108978e+01     0.372178    0.3152684  -7.40   0.00125756    1.407    0.289
       143  -9.7025     53.0000     82.0171   9.8485296993e+01   5.4860972310e+01     0.287448    0.1809217 -52.90  0.001152815    1.473    0.321
       144  -8.9134      2.2408     86.7085   1.1976912775e+02   5.8037347554e+01    0.1687903     0.123456 -56.75 0.0006341409    1.313    0.238
       145 -10.1557    155.1692     84.9044   6.7571219059e+01   3.4053606307e+01    0.2599845     0.239091  33.47 0.0002455057    1.124    0.111
       146 -10.1317    118.4743     84.6526   7.6700781150e+01   4.2473779650e+01    0.3127009    0.2687457 -18.88  0.001561554    1.303    0.233
       147  -9.7310     35.6095     82.7393   1.0569684476e+02   5.6670423808e+01     0.310332    0.2233209 -83.19 0.0006717616    1.368    0.269
       148  -8.8710     12.1581     74.6381   1.1428538740e+02   6.0572521506e+01    0.1611469    0.1192604 -14.63  0.000428578    1.634    0.388
       149  -9.8042     20.6866     81.9620   1.1173748456e+02   5.8152893621e+01    0.3552305    0.2154272  51.72   0.00158916    1.794    0.443
       150  -9.0007     16.3752     78.7382   1.1306307579e+02   5.9272433372e+01    0.2246027    0.1957387  -7.84 0.0008984894    1.361    0.265
       151 -11.3867     16.9766     73.9210   1.1206200958e+02   6.0453841234e+01    0.2961689    0.2768746 -33.80 0.0003964029    1.191    0.160
       152 -10.3324    110.4158     76.8044   7.6635450502e+01   4.5889694415e+01    0.5513402    0.3601575 -19.06  0.002191885    2.269    0.559
       153 -10.0174    107.4549     77.4817   7.7745183400e+01   4.6383679395e+01    0.6285353    0.3459737 -25.39  0.002168856    2.952    0.661
       154  -8.7688    133.2473     81.5649   7.1787206882e+01   3.9786258900e+01    0.2126944    0.1457349  38.05  0.000933402    1.574    0.365
       155  -9.5428     42.9058     80.0255   1.0212239345e+02   5.6586022797e+01    0.4104325    0.2188159 -42.96  0.001810338    2.005    0.501
       156  -9.5036      1.7498     79.8001   1.1932044173e+02   5.9793619933e+01    0.3275846    0.1502537 -87.44  0.001217076    1.946    0.486
       157  -9.2481      1.7374     74.5904   1.1879642726e+02   6.1100892735e+01    0.2937199    0.1518306 -71.14 0.0009355021    1.565    0.361
       158  -9.3158    173.7519     69.1122   5.9211943244e+01   3.2373650997e+01    0.4041294    0.2165913  30.01  0.001318509    3.066    0.674
       159  -9.9862    179.5502     74.6331   5.9768851300e+01   3.0102933646e+01    0.4280131    0.3314235  11.52  0.002093172    1.608    0.378
       160 -10.1227    169.0080     77.0000   6.2410554618e+01   3.2197952944e+01    0.4634294    0.2594515 -10.93  0.001578286    3.245    0.692
       161  -8.9765    175.2985     75.2810   6.0723678637e+01   3.0998120022e+01    0.2287494    0.1769707 -19.97 0.0002071132    1.369    0.269
       162 -10.8640    170.9562     73.1540   6.0916174149e+01   3.2381053971e+01    0.5306978    0.3315363  67.07  0.002315803    1.869    0.465
       163  -9.6128    140.4273     78.7842   6.9154897020e+01   3.8656637882e+01     0.219242    0.1488194 -26.82 0.0006589287    1.646    0.392
       164  -8.9995     89.0000     66.8919   8.0324329194e+01   5.2486589297e+01    0.3249602    0.1930126 -41.97 0.0006525718    1.669    0.401
       165  -9.3393     93.4784     67.4805   7.8979567561e+01   5.1456585223e+01    0.3212786    0.2085915 -55.09  0.001413396    1.635    0.388
       166 -11.1772     89.7740     73.0749   8.2093242363e+01   5.0972598231e+01    0.6479995    0.5227708 -81.18  0.001909632    1.504    0.335
       167  -8.9224     94.5436     71.4618   7.9946716766e+01   5.0378288675e+01    0.2857722    0.2464315 -61.00 0.0007827975    1.197    0.164
       168  -8.5172     90.6526     79.2965   8.3729865573e+01   4.9400750288e+01    0.1551015    0.1195877  80.49 0.0004465184    1.676    0.403
       169 -10.7241    157.9447     76.6521   6.4549171144e+01   3.4890589962e+01    0.3331491    0.2971078  21.20 0.0004542948    1.223    0.182
       170  -8.5139     67.6919     78.3231   9.1762474935e+01   5.3656896811e+01    0.1534654     0.142057 -41.28 0.0004084992    1.086    0.079
       171 -10.5492     63.3205     75.6022   9.2704698029e+01   5.4988272934e+01     0.423359    0.3946202  26.97  0.001886564    1.152    0.132
       172 -10.9731     46.9606     68.0128   9.7426106705e+01   5.9094034209e+01    0.9456474    0.4334789 -34.51  0.002313772    3.233    0.691
       173 -11.9639     53.0113     75.1678   9.6762297322e+01   5.6558939083e+01    0.2841023     0.273123 -11.12  0.000235279    1.129    0.114
       174 -10.5847     52.9319     70.0022   9.5395371347e+01   5.7834278157e+01    0.3927127    0.2060473 -62.01 0.0008972858    1.848    0.459
       175 -12.2626    199.7387     71.8091   5.5674188354e+01   2.5886332967e+01    0.3428285    0.2608569 -24.06 0.0004288138    1.282    0.220
       176  -9.6154    126.0620     75.8723   7.1904707294e+01   4.2572016359e+01    0.2578367    0.2240442  33.16 0.0003509953    1.216    0.178
       177  -9.4785     82.9933     74.8365   8.5037040566e+01   5.1861432830e+01    0.4280176     0.300858  -0.50  0.001809876    2.243    0.554
       178  -8.8425     28.5201     75.7397   1.0732901551e+02   5.9107261683e+01    0.2549396    0.1095955 -62.83 0.0007673816    1.940    0.485
       179  -9.9513     69.0218     74.1910   9.0061351439e+01   5.4433613580e+01    0.2968093     0.199249 -53.38  0.001083439    1.408    0.290
       180  -8.5456     37.1038     75.4525   1.0355664225e+02   5.8363885955e+01    0.1844613     0.139213  19.04 0.0006075375    1.515    0.340
       181 -10.2619    152.1066     72.2184   6.4455415586e+01   3.7078936154e+01    0.2672048    0.2306882 -35.53 0.0002586704    1.139    0.122
       182  -9.5075    137.9646     72.1699   6.7692252525e+01   4.0490318502e+01    0.2526772    0.2178833 -41.94  0.000377165    1.144    0.126
       183 -10.8873    151.0529     80.1386   6.7088499483e+01   3.5897746319e+01    0.4804054    0.3881484  25.68  0.001690365    1.415    0.293
       184 -11.5341     79.7861     69.8645   8.4633250235e+01   5.3583693636e+01    0.2697175    0.2678607 -66.65 0.0003215614    1.033    0.032
       185 -10.0434     75.2627     66.0899   8.5105323477e+01   5.5254503653e+01     0.476886    0.2810358 -37.94 0.0002623319    1.819    0.450
       186  -9.0762    101.1409     69.8885   7.7262477559e+01   4.9345788219e+01    0.2341009    0.2088788 -72.15  0.000616708    1.212    0.175
       187  -9.8956     15.1896     64.7428   1.1132397597e+02   6.2880777654e+01    0.3901898    0.2640926  43.24  0.002070982    1.652    0.395
       188 -10.6338      2.1375     67.6586   1.1783895170e+02   6.2819274758e+01    0.4964199    0.2406246 -68.65  0.001513976    1.648    0.393
       189  -9.9114      9.1916     62.1933   1.1376175346e+02   6.3861863133e+01    0.3001677    0.2448167 -47.66  0.001573073    1.190    0.159
       190 -11.1765      1.7138     61.9695   1.1732581718e+02   6.4253054369e+01    0.5709554    0.1910136 -72.90 0.0006513078    2.335    0.572
       191 -10.9962      6.0899     59.1418   1.1479184426e+02   6.4772104316e+01    0.3906311    0.3052823  84.63  0.000710686    1.262    0.208
       192  -8.9996    157.1742     68.7863   6.2322018296e+01   3.6446895839e+01    0.2263331     0.202004 -68.20 0.0005720254    1.185    0.156
       193  -9.5645    119.8798     66.9030   7.0659148141e+01   4.5769921595e+01    0.3957147    0.3014174 -42.19  0.001886808    1.299    0.230
       194  -9.0172    121.2231     63.0853   6.8987939684e+01   4.6187621137e+01    0.2350186    0.2078866   5.16 0.0004777341    1.277    0.217
       195  -8.9784     64.0442     69.3050   9.0570487941e+01   5.6383700692e+01    0.1981243    0.1858278  36.83 0.0004564163    1.130    0.115
       196 -10.6867     23.4694     62.9745   1.0701808728e+02   6.2734873396e+01     1.480737    0.5699887 -27.27  0.004411346    5.644    0.823
       197 -10.0232     22.0750     57.3821   1.0644815696e+02   6.4229166792e+01    0.3701257    0.2245049 -81.66  0.001227531    1.731    0.422
       198 -10.4459     29.7069     53.1844   1.0149069885e+02   6.4595896255e+01    0.3851704    0.2680614  10.45  0.001663655    1.678    0.404
       199  -9.7897     25.0537     53.0367   1.0385048901e+02   6.5050363270e+01    0.4842474    0.2016806 -56.04  0.002132127    1.957    0.489
       200 -10.8045     32.3162     64.6571   1.0320883265e+02   6.1539644752e+01    0.3548773    0.2661574  27.45  0.001089201    1.478    0.324
       201 -10.4641     31.6197     59.0295   1.0212182647e+02   6.2992837070e+01    0.3974993    0.2277427 -77.32  0.001841287    1.937    0.484
       202  -9.9266     25.7322     67.7757   1.0697481502e+02   6.1351733001e+01     0.846051    0.3243107  27.54  0.003556747    2.730    0.634
       203 -10.5169     38.8564     58.1398   9.8367104224e+01   6.2451773848e+01    0.5453741    0.3524119  25.33     0.001878    1.713    0.416
       204  -9.8710    106.2286     66.9499   7.4669818705e+01   4.8856683534e+01    0.3620617    0.3363588  62.45  0.001154524    1.114    0.103
       205 -10.7270    136.0006     64.7745   6.5768200976e+01   4.2325505368e+01    0.6683804    0.3183146  50.24  0.002541749    2.094    0.522
       206 -10.6599    143.6267     66.3949   6.4507218517e+01   4.0175041277e+01    0.3501105    0.2694431  33.19   0.00071258    1.460    0.315
       207 -10.2531    203.4042     63.3561   5.2849119604e+01   2.6288135612e+01    0.3934634    0.3437797  31.82  0.001408304    1.286    0.222
       208  -8.3857    170.9768     64.9474   5.8475832054e+01   3.3714252784e+01    0.1748592    0.1686809 -44.07   0.00035467    1.005    0.005
       209  -9.9876     82.9073     62.9179   8.1144770268e+01   5.4542416791e+01    0.4585249    0.2610754 -58.12  0.001118434    2.026    0.506
       210 -10.0435     99.7542     63.3285   7.5461654045e+01   5.1010054456e+01    0.4220148    0.2417271 -56.57 0.0009397014    2.093    0.522
       211  -8.3072     59.6762     64.3394   9.0840616966e+01   5.8225144119e+01    0.1473715    0.1123128  79.22  0.000705105    1.723    0.420
       212  -9.7240    194.1167     61.1946   5.3584513539e+01   2.8742536371e+01    0.3806139      0.22556 -28.39  0.000987359    1.625    0.385
       213 -10.6202     70.5148     60.2565   8.4991894570e+01   5.7401147730e+01    0.3999506    0.3639488  14.25 0.0005456821    1.174    0.148
       214  -9.3361    160.3285     61.1509   5.9307533987e+01   3.6944851628e+01    0.3094269    0.2317725 -38.10  0.001007287    1.290    0.225
       215  -9.2406    163.7917     59.5977   5.8159129347e+01   3.6334802325e+01    0.3967716    0.2438179  86.79   0.00155464    2.444    0.591
       216  -9.1405    171.2297     57.9800   5.6313406460e+01   3.4744491856e+01    0.2394655    0.1952548 -61.95  0.000496551    1.292    0.226
       217 -10.1693    167.2226     56.8036   5.6657385799e+01   3.5919644628e+01     0.284101    0.2517443  19.37 0.0002937147    1.268    0.212
       218  -9.9074    163.2851     54.8502   5.6754766190e+01   3.7205525928e+01    0.3959283    0.2909603 -35.18  0.001361925    1.317    0.241
       219  -8.1958    216.3609     61.2553   5.0579126964e+01   2.3692742098e+01    0.1333001    0.1015829  25.84 0.0003217075    1.621    0.383
       220 -10.6862    152.4647     59.7826   6.0444994133e+01   3.9125768333e+01    0.5912576    0.4272837  70.67  0.002757067    1.530    0.346
       221  -9.6895    145.4073     52.6223   5.9540236237e+01   4.2069556762e+01    0.3589444    0.2215644 -40.14  0.001329842    1.583    0.368
       222  -9.6073    146.6185     48.5245   5.7884632451e+01   4.2411024507e+01    0.3138207    0.1840063 -36.80  0.001102666    1.657    0.396
       223  -9.8941    149.6624     54.7566   5.9370845990e+01   4.0650386804e+01    0.5049164    0.2741132  51.09  0.001029965    1.847    0.459
       224 -10.5918    153.9570     49.4199   5.6733665818e+01   4.0400783614e+01    0.5515587    0.3795218  57.50  0.002582711    1.455    0.313
       225 -10.4866    135.3888     56.8794   6.3243212322e+01   4.3871584629e+01     1.131201    0.3999979  46.11  0.003623976    3.035    0.670
       226 -11.0658    124.7724     46.0478   6.1916532450e+01   4.8340831147e+01    0.5108767    0.4324912  -5.73  0.001178422    1.333    0.250
       227 -10.4936    136.0887     36.4277   5.5723488463e+01   4.6934694917e+01    0.6881733    0.3785053 -48.39 0.0009142584    1.973    0.493
       228  -9.6880    115.8663    248.7278   1.0542592996e+02   1.1171663414e+01    0.1899855    0.1543781  24.80  0.000678837    1.204    0.169
       229 -10.3867    153.2736     31.6118   5.0751208627e+01   4.3105913023e+01    0.8196729      0.26217  59.77   0.00278091    2.840    0.648
       230 -10.0243    163.4952    246.2405   9.6399275122e+01   5.4219659497e+00    0.1989219    0.1521611 -19.24  0.001241646    1.541    0.351
       231 -11.0421    127.2737     39.5016   5.8832339832e+01   4.8746210366e+01    0.5580436    0.3077528  61.52 0.0006976886    1.843    0.457
       232  -8.8439     30.3137    247.6480   1.2137871527e+02   2.1041729962e+01    0.1142068   0.04913658  55.25 0.0007045933    1.729    0.422
       233 -10.5320     70.9086     52.1762   8.1880280291e+01   5.9095058963e+01    0.4809232    0.3422348 -15.07  0.001496901    1.851    0.460
       234  -8.9514      1.4323    244.0367   1.2647002041e+02   2.4248913194e+01    0.1319829   0.07839481  79.52 0.0003449304    1.531    0.347
       235 -10.1193    202.7255    242.1899   8.9074244782e+01   9.5132023975e-01    0.1759888    0.1112952  30.67 0.0005669052    1.290    0.225
       236  -9.4242    247.4153    239.7676   8.1636671275e+01  -4.0045558718e+00    0.1368688   0.07523998 -12.12 0.0007664053    1.660    0.398
       237  -9.1741    189.9852    240.0000   9.0961383537e+01   2.7816934061e+00    0.1795717   0.04829681  35.24  0.000796315    2.900    0.655
       238  -9.9060     41.1579     21.5909   8.2590346457e+01   7.0155255373e+01    0.3247374    0.2631407 -66.64  0.001507978    1.619    0.382
       239  -9.5701    221.1475    237.3315   8.5385844559e+01  -7.6846303029e-01    0.1751616   0.09895444  16.99  0.001095936    1.459    0.315
       240  -9.5983     51.7470     28.9252   8.0585432830e+01   6.7111745037e+01     0.194233    0.1864187  -6.13 0.0003184044    1.090    0.083
       241  -9.9978     48.6209     25.9197   8.0709874742e+01   6.8189679246e+01    0.4125112    0.2885692  47.56   0.00195336    1.663    0.399
       242 -12.5522     61.8175     44.0083   8.2538882833e+01   6.2410556749e+01     0.607823    0.3050263 -45.00  0.000564539    1.883    0.469
       243 -10.6019     65.4058     49.5808   8.3191245914e+01   6.0620022298e+01    0.4227383    0.2840161 -25.32  0.001272461    1.783    0.439
       244 -10.6620     67.7105     44.3122   8.0084983863e+01   6.1312367180e+01    0.4729812    0.3613172   9.76 0.0007525587    1.586    0.369
       245  -9.4932     15.9981     59.9218   1.1002601312e+02   6.4032041174e+01    0.1906998    0.1748104 -84.24 0.0007305993    1.108    0.097
       246  -9.9537    180.5875     58.7613   5.4975564773e+01   3.2332176488e+01    0.3593224    0.2673662 -32.61  0.001323507    1.282    0.220
       247 -11.0525    119.8188     53.0229   6.5785757457e+01   4.8369640515e+01    0.9548144     0.579531  48.69  0.002649811    1.646    0.392
       248 -12.1878    225.8466     55.2914   4.7922896767e+01   2.2435521518e+01    0.2876603    0.2213779 -39.77 0.0003019624    1.130    0.115
       249  -8.6937    104.8128     57.2211   7.1659580389e+01   5.1111555968e+01    0.2076491    0.1798402  -2.32 0.0006356372    1.311    0.237
       250 -10.5463     82.5686     52.1460   7.7303004598e+01   5.6878413272e+01    0.6132742    0.4736006 -54.15  0.001980048    1.357    0.263
       251  -8.5529     55.4535     57.4401   9.0426982158e+01   6.0461202986e+01     0.140828    0.1321221 -49.51 6.346465e-05    1.026    0.025
       252  -9.6151     52.5695     54.1380   9.0608875578e+01   6.1639418602e+01    0.4387294    0.2416907 -58.53  0.001473179    1.806    0.446
       253  -9.7313     46.9265     47.0819   9.0780896595e+01   6.4030902312e+01    0.7022535    0.3453381 -58.52  0.002059731    2.061    0.515
       254  -9.5358     42.7134     44.3979   9.1908044857e+01   6.5193605325e+01    0.2633878     0.205093   6.39  0.001039628    1.456    0.313
       255  -9.5120     32.4123     41.8359   9.6467161248e+01   6.6993481034e+01    0.3729402    0.2936576 -75.93  0.002118003    1.424    0.298
       256 -11.8156     41.1431     37.8261   9.0170343005e+01   6.6848836812e+01    0.5836405    0.3424518 -29.46  0.002713006    1.974    0.493
       257 -11.1385     42.1496     51.2649   9.4614904256e+01   6.3693708712e+01    0.7530442       0.4374 -66.95  0.002336038    1.877    0.467
       258 -10.2523     37.9609     46.2150   9.5024171826e+01   6.5365931205e+01    0.4280698     0.326416  61.48  0.001193049    1.680    0.405
       259  -9.1637      8.4733     43.9220   1.1067458613e+02   6.8386364895e+01    0.2025809    0.1559506 -57.12 0.0003393506    1.086    0.080
       260 -11.1972      4.9629     37.9044   1.1138970144e+02   6.9994358972e+01    0.5156077    0.3892925  71.87  0.002474884    1.538    0.350
       261  -9.8129      5.2538     31.6776   1.0967350211e+02   7.1448534031e+01    0.4927495    0.2505767   8.73  0.002542472    2.280    0.561
       262  -9.1184    168.0077    237.5120   9.4548010463e+01   5.9181005638e+00    0.1512204   0.07734417  48.33 0.0008085304    2.402    0.584
       263 -11.4959     11.5564     46.6079   1.0953624689e+02   6.7570645252e+01    0.9857689    0.3241035 -70.85   0.00391903    2.668    0.625
       264 -10.3186      6.9710     50.4927   1.1285272574e+02   6.6863698336e+01    0.3675077     0.239646  88.47  0.001395248    1.574    0.365
       265 -10.6223    191.4738     54.3183   5.2011230003e+01   3.0353601520e+01    0.3066961    0.2493513 -24.89  0.001137856    1.219    0.180
       266  -9.8343     84.1031     46.0947   7.4318415231e+01   5.7765330536e+01    0.4878604    0.2770426 -62.45  0.001799035    2.869    0.651
       267 -11.2621    116.5851     33.6171   5.9090281889e+01   5.2340857088e+01    0.6029798    0.4099737  17.09 0.0005309746    1.996    0.499
       268  -9.5468     87.7436     46.8565   7.3312577949e+01   5.6854827897e+01    0.4312814    0.2113674 -46.47  0.000809725    2.094    0.523
       269 -12.2548    104.0642     39.7019   6.5031967696e+01   5.4452534694e+01     0.667806    0.5009096 -39.24 0.0007543245    1.335    0.251
       270  -9.9118     96.1544     44.9013   6.9643223259e+01   5.5378625536e+01    0.4706188    0.3335576  41.85  0.002240484    1.437    0.304
       271  -9.6378     93.4931     54.6542   7.4372917670e+01   5.4108220675e+01     0.400342    0.2887518 -20.75  0.001105206    1.662    0.398
       272 -11.4187     95.7981     49.3241   7.1536349428e+01   5.4639134943e+01    0.8914591    0.2670729  45.11   0.00219605    3.429    0.708
       273  -8.5558    106.6313     53.0924   6.9564996070e+01   5.1481043766e+01    0.1970968    0.1427771 -24.70 0.0001655536    1.529    0.346
       274  -9.8223    176.5404     49.7451   5.2902095736e+01   3.4650038482e+01    0.4478609    0.2632047  41.06  0.001853928    2.019    0.505
       275  -9.4020    181.4911     49.0452   5.1926091839e+01   3.3522824415e+01    0.2154139    0.1868744 -43.18  0.001170352    1.086    0.079
       276  -8.6468    137.2822     49.6347   6.0272772811e+01   4.4608469634e+01    0.1612514    0.1141177 -63.11 0.0007016283    1.686    0.407
       277 -10.3527    114.5005     46.4302   6.4745318236e+01   5.0807757047e+01     0.398267    0.2760026 -15.79  0.001593855    1.768    0.434
       278  -9.6350     19.3153     47.2862   1.0539998395e+02   6.6896863223e+01     0.432785    0.3564534 -15.08  0.002666654    1.321    0.243
       279  -9.5508    203.9821     46.4674   4.8124542561e+01   2.8464099846e+01    0.3802283    0.2109102  45.31  0.001710624    2.134    0.531
       280  -9.0576    196.9716     48.1772   4.9494431470e+01   2.9888998929e+01    0.2074816    0.1829885  27.70  0.000612739    1.303    0.233
       281  -9.4205     31.7539     47.8118   9.8820246792e+01   6.5674748607e+01    0.1840966    0.1613624 -40.93 0.0005192977    1.057    0.054
       282  -8.5543    243.4616     55.5911   4.6156971139e+01   1.8783456261e+01     0.127003    0.1082468 -35.78 0.0001433474    1.020    0.020
       283  -8.8804    164.8472     46.1853   5.3697034740e+01   3.8106531694e+01    0.2625223    0.1657445  43.49 0.0002455327    1.759    0.431
       284  -9.2961     26.5135     45.1641   1.0082407002e+02   6.6806134865e+01    0.3998634    0.1551584 -52.39  0.001197847    2.111    0.526
       285  -9.3286    232.0161     46.4860   4.5052166431e+01   2.2234808933e+01    0.3042147    0.1629104  74.19  0.001477884    2.238    0.553
       286  -9.5970    245.2208     44.7003   4.3386441122e+01   1.9744970699e+01    0.2956955    0.2523969 -31.20  0.001936615    1.085    0.078
       287  -9.7790    179.7231     43.1436   5.0391580025e+01   3.4777809153e+01    0.4586127    0.2440619 -18.94  0.001525548    2.206    0.547
       288  -8.8653    176.1347     44.6752   5.1399175823e+01   3.5466160093e+01    0.2557417    0.1876476  68.68 0.0008079279    1.409    0.290
       289  -9.4443    200.0190     43.3844   4.7745343875e+01   2.9797518074e+01    0.2517669    0.1856689 -37.25 0.0003854466    1.231    0.188
       290  -9.3049    157.5227     43.4932   5.4087779625e+01   4.0369052774e+01    0.2380362    0.1955645 -19.04  0.000704233    1.298    0.229
       291  -9.7428    158.1570     39.4304   5.2609580375e+01   4.0781120826e+01    0.4147124    0.1424986 -45.48  0.001331391    3.139    0.681
       292  -9.3236    150.1609     43.3910   5.5413380979e+01   4.2279572939e+01    0.3232495    0.1999897  31.83 0.0007940079    2.125    0.529
       293  -9.8812     60.7040     57.7021   8.8205754088e+01   5.9601962671e+01    0.6709278    0.3868487 -57.12  0.002097857    1.737    0.424
       294 -10.2042     53.2210     42.8995   8.6085292915e+01   6.4036448414e+01    0.2842052     0.234875 -74.22 0.0004698225    1.470    0.320
       295  -9.4666     91.0032     41.0288   6.9752367355e+01   5.7226111537e+01    0.2193474    0.2122172 -21.04 0.0003695714    1.021    0.021
       296 -10.3879    228.2090     37.8006   4.3222039591e+01   2.4090676363e+01    0.3689914    0.1667877 -38.08 0.0004514007    1.811    0.448
       297  -9.0810    191.0296     39.7607   4.7827210852e+01   3.2430621844e+01    0.2972339    0.1784129   2.92  0.001194473    2.686    0.628
       298  -8.9819    165.9165     39.5093   5.1348579361e+01   3.8770967684e+01    0.2121108    0.1908218 -40.72 0.0003527524    1.081    0.075
       299  -8.8180    214.9901     38.9559   4.4827149517e+01   2.6878765403e+01    0.2277342    0.1394508 -58.25  0.001120238    1.694    0.410
       300  -9.6764    186.5792     36.8353   4.7529915058e+01   3.3900938702e+01    0.2940291    0.2742496 -16.65  0.000619458    1.145    0.127
       301  -9.2231    182.1924     38.8448   4.8724899252e+01   3.4733384102e+01    0.2137232    0.1801599 -62.50 0.0004585469    1.167    0.143
       302  -9.9636    176.2891     36.2211   4.8733437720e+01   3.6560555740e+01    0.3685085    0.2523741 -85.84 0.0009750949    1.675    0.403
       303  -8.5133     78.7677     39.0138   7.3317947858e+01   6.0204836965e+01    0.1950327    0.1672808  -5.84 0.0003129053    1.242    0.195
       304 -10.3784     77.4914     34.7152   7.1880537381e+01   6.1248549350e+01    0.5999442    0.3667923  54.21  0.002728117    1.810    0.448
       305 -10.1203     83.5191     31.9488   6.8348076308e+01   6.0445422074e+01    0.6135676    0.3855037  54.58  0.002838046    1.681    0.405
       306  -9.9516     82.3852     38.7565   7.1837571061e+01   5.9499469531e+01    0.2656972    0.2523327 -64.22 0.0005004348    1.157    0.135
       307  -9.0086     85.9934     36.9337   6.9721986118e+01   5.9051166811e+01     0.287665    0.1977358 -20.25  0.001331754    1.669    0.401
       308  -9.7407     71.5876     29.7733   7.1905456676e+01   6.3322698994e+01    0.3434124    0.2696931 -55.93  0.000949821    1.494    0.331
       309 -10.2786     75.0880     28.0368   6.9654380521e+01   6.2900513321e+01    0.3774315     0.308045 -36.19  0.001516217    1.217    0.178
       310  -9.3890     24.5368     38.5460   9.9805936537e+01   6.8528354018e+01    0.2718953    0.2013139 -51.28   0.00157574    1.164    0.141
       311 -10.1180    238.1899     37.8551   4.2340922054e+01   2.1973170582e+01     0.209862    0.1883522 -28.83 0.0002337548    1.128    0.113
       312 -10.4739    208.2772     34.6932   4.4372960954e+01   2.8939837803e+01    0.4894118    0.3039456  -7.47  0.001447098    2.085    0.520
       313  -9.5762    204.8238     23.5563   4.1623347601e+01   3.1046706368e+01    0.2898496    0.2237221 -17.16  0.001615228    1.388    0.279
       314  -9.5052    211.9399     28.0348   4.2181714624e+01   2.8870382632e+01    0.2373553    0.1836721 -49.88 0.0003926722    1.153    0.133
       315  -9.1081    207.9619     26.7208   4.2202699471e+01   2.9948100156e+01    0.2119418    0.1811859 -54.32 0.0005284601    1.050    0.048
       316  -9.2332     47.6993     34.6153   8.5327943208e+01   6.6611270387e+01    0.2234108    0.1590569  17.90 0.0005550909    1.587    0.370
       317  -8.5765     31.5838    232.5198   1.2055177138e+02   2.3424934278e+01    0.1087835   0.07685519  54.16 -3.408871e-05    1.030    0.029
       318  -9.6219    186.8235    231.1920   9.0359367610e+01   4.2225018846e+00    0.1615487    0.1078385  11.81  0.001080159    1.368    0.269
       319  -9.8799     98.2812     27.5077   6.1453781181e+01   5.7754869360e+01    0.7527495    0.3684202  38.95  0.002908202    2.354    0.575
       320  -8.5362    163.4628    226.5191   9.4006906291e+01   7.9574849503e+00    0.1167775   0.09034247  23.70 7.790972e-05    1.027    0.026
       321  -8.7488    223.3576    225.1828   8.3298790970e+01   2.3475326456e-01    0.1529894    0.1015267  16.60 0.0004936166    1.153    0.133
       322  -8.3958      2.0044    224.2424   1.2596171174e+02   2.7562586567e+01    0.1258898   0.06941213  35.95 0.0003201569    1.514    0.339
       323  -9.0913    196.4742    222.5149   8.7457155013e+01   3.9937158047e+00    0.1152511   0.08655011  15.66 -3.430828e-05    1.032    0.031
       324  -9.1180     88.7704    221.0301   1.0828270604e+02   1.8918272964e+01    0.2082237     0.140614  38.98 0.0006753179    1.179    0.152
       325  -8.2689    183.4783    219.4655   8.9348540262e+01   6.1349905734e+00     0.116571   0.09095397  20.51 9.599004e-05    1.019    0.018
       326  -9.0302    203.0444    217.7157   8.5612630912e+01   3.6957041906e+00    0.1600759    0.1134699  20.59 0.0003586911    1.107    0.097
       327 -11.0463     19.2974     29.0729   9.9647362276e+01   7.1133267302e+01    0.2681979    0.2200234  -2.60 0.0003857449    1.296    0.229
       328  -8.3662      2.2533    211.9675   1.2562849234e+02   2.9768830524e+01    0.1265979   0.07532085  82.77 0.0003618476    1.492    0.330
       329  -8.9482    230.9310    209.3353   7.9661766906e+01   1.0134204013e+00    0.1578081    0.1101082  14.89  0.000502804    1.124    0.110
       330 -10.8535    186.2579     29.8459   4.5458670153e+01   3.4847239252e+01    0.7165232    0.4485828  81.14  0.002297738    1.724    0.420
       331  -9.2171    247.4068     30.5853   3.9846825028e+01   2.0916400006e+01     0.210744    0.1499278  71.46 0.0007393782    1.613    0.380
       332  -8.0923    235.3017     29.6775   4.0564085687e+01   2.3508810887e+01    0.1379516   0.07869285 -53.13 0.0007027903    1.631    0.387
       333 -10.1744    159.1597     24.5308   4.7359579042e+01   4.2445074048e+01    0.2649485    0.2306433 -52.61  0.001447677    1.118    0.105
       334 -10.5102    165.0309     25.7539   4.6927905552e+01   4.0763351344e+01     0.449126    0.2822195 -63.78  0.001392015    1.784    0.440
       335  -8.7618    241.3123    205.3422   7.7384514691e+01   1.3882786816e-01    0.1169709   0.06706933   3.77 0.0007046384    1.701    0.412
       336  -9.1967    133.4719     27.0950   5.2701716747e+01   4.8893813039e+01     0.447131    0.2630864 -85.12  0.001653668    2.464    0.594
       337  -9.4741    132.2886     21.8582   5.0880166473e+01   4.9862939295e+01    0.3283078    0.2518443 -23.57   0.00108068    1.360    0.265
       338  -9.5379    127.7448     19.2025   5.0691343801e+01   5.1378110235e+01    0.3874389    0.2370456 -62.32  0.001045069    2.037    0.509
       339  -9.8565     34.6675    201.1169   1.1840966314e+02   2.8891859459e+01    0.2818087     0.153411  75.60  0.001645518    1.758    0.431
       340  -8.6368    120.4306    199.2291   9.9179118592e+01   1.8358772131e+01    0.1491926    0.1212361 -84.98 0.0006708003    1.557    0.358
       341  -9.6077      7.1015    194.5141   1.2412875461e+02   3.2734687497e+01    0.2196378    0.1624167  62.58  0.001593942    1.015    0.015
       342 -10.8593      2.0301     25.5071   1.1017878130e+02   7.3017238013e+01    0.2139701    0.1691328 -72.01 0.0003534373    1.193    0.161
       343 -10.7690      1.6593     22.2856   1.0951627039e+02   7.3767819372e+01    0.1977527     0.160239  84.74 0.0003445637    1.423    0.297
       344 -11.1823    153.5744     23.1222   4.7708261911e+01   4.4082621794e+01    0.3229606    0.2683059  42.20 0.0003416645    1.290    0.225
       345  -8.5423     92.2246    188.3923   1.0419253830e+02   2.4455351953e+01    0.1800179    0.1002857  43.62 0.0007094107    1.527    0.345
       346 -10.1524    123.9687     22.6525   5.2871170569e+01   5.1947202695e+01    0.4459996    0.2807642 -78.65  0.001002932    2.196    0.545
       347 -10.9378    105.0093     20.9375   5.6580944409e+01   5.7019260241e+01     0.302804    0.2565709 -84.03 0.0003291535    1.351    0.260
       348  -9.3975     55.4065    181.4310   1.1223783532e+02   3.0652645596e+01      0.20956    0.1746558  59.62 0.0004508289    1.006    0.006
       349 -10.5121     61.5566     23.9877   7.3337541795e+01   6.6278273642e+01    0.3342678    0.2446984 -16.43  0.001737419    1.472    0.321
       350  -9.1110     65.8656     22.6290   7.0709465460e+01   6.5671976893e+01     0.242236    0.2197855  18.36 0.0006707184    1.067    0.062
       351  -9.0809     17.0089    174.7660   1.2107105241e+02   3.6002038267e+01    0.1475082   0.08829133  32.49 0.0003278782    1.605    0.377
       352  -9.7411      7.0226    174.5042   1.2343971665e+02   3.6880135470e+01    0.1663421    0.1021038  32.26  0.001031906    1.587    0.370
       353  -9.2616    234.2654     24.5725   3.9377663825e+01   2.4291600088e+01     0.226577    0.1228402  83.89   0.00113922    2.123    0.529
       354 -10.1587    175.4025     21.5840   4.4203348339e+01   3.8563651566e+01    0.5095546     0.253346  55.43  0.001509107    2.032    0.508
       355  -9.3345     16.4502    169.4903   1.2094157830e+02   3.7198155597e+01    0.1193909    0.0969528  69.40 6.516351e-05    1.034    0.033
       356  -9.3084    169.9137     23.0775   4.5378344543e+01   3.9809230206e+01    0.2125023    0.2006517 -73.55 0.0004200094    1.014    0.014
       357  -8.2164     85.5438     23.4408   6.3573273102e+01   6.1338472770e+01    0.1431934    0.1342356  17.16 0.0005848077    1.026    0.025
       358 -10.9119      6.3216    167.7587   1.2334312390e+02   3.8393679957e+01    0.3538499    0.2495431  -2.22  0.001538526    2.109    0.526
       359 -11.5996     37.8100    159.4184   1.1480200272e+02   3.7459653176e+01    0.6126677    0.3061731  52.49  0.002470749    1.793    0.442
       360  -9.1950     10.0796     22.7389   1.0357069540e+02   7.3225642625e+01    0.1661801    0.1374238 -40.13  0.000468269    1.050    0.047
       361  -8.8908    189.2447     21.1916   4.2507781574e+01   3.5104160265e+01    0.2481554    0.1673677 -21.26  0.001248085    1.542    0.352
       362  -8.4189     80.0105     22.5139   6.5048468984e+01   6.2719176694e+01    0.1959373    0.1300002  82.62 0.0008104284    2.569    0.611
       363 -12.0983     30.1518    154.5141   1.1645364041e+02   3.9349955190e+01    0.6693789    0.3976103  50.88  0.002836976    1.481    0.325
       364  -9.4910    199.0913     14.1413   3.9481694221e+01   3.3438043764e+01    0.2404683     0.188482  72.59    0.0003073    1.311    0.237
       365 -10.2091     24.6548    162.7285   1.1848550242e+02   3.7981871730e+01    0.2229808    0.1904728  47.46 0.0002485864    1.180    0.152
       366  -9.8318    212.6400     19.1291   3.9700680758e+01   2.9694933621e+01    0.4205064    0.1913938  54.79  0.001866783    2.447    0.591
       367  -8.7718     93.8720     20.2008   5.9342811693e+01   5.9847932802e+01    0.2085598    0.1874076 -76.34 0.0004520661    1.278    0.218
       368  -9.8280    235.4585     18.5383   3.7795946958e+01   2.4681876330e+01    0.2910066    0.1824492  73.94  0.001643036    1.742    0.426
       369  -9.4739     20.6610    161.3381   1.1942666738e+02   3.8651825714e+01    0.2108582    0.1220222  67.02 0.0008473844    1.512    0.338
       370  -8.4242    193.5312     18.9465   4.1399701832e+01   3.4288805002e+01    0.1988281    0.1160876   9.96 0.0008081698    2.806    0.644
       371 -10.4323     11.0177    152.1871   1.2142923279e+02   4.1529247525e+01    0.3242329    0.2311099  88.24  0.001347768    1.209    0.173
       372  -9.1722    151.6790     18.3422   4.6286508619e+01   4.5134006226e+01    0.2850997    0.1753216  64.84 0.0008403647    1.557    0.358
       373  -9.5907    144.5945     16.7607   4.6786257537e+01   4.7190801183e+01    0.3340069    0.1887984  73.48   0.00145864    1.775    0.437
       374  -9.5299     72.9947     16.5258   6.4527375670e+01   6.5131176788e+01    0.2397236    0.1803135 -44.72 0.0004755747    1.464    0.317
       375  -9.7339    116.6558     15.1449   5.1241408953e+01   5.4752054033e+01    0.3608654    0.2170454  60.09  0.001034491    1.561    0.359
       376 -11.7470     14.9341    142.6884   1.1980447310e+02   4.3444226730e+01    0.7542211    0.4322347 -33.66    0.0032446    2.689    0.628
       377 -11.4746      2.4579    153.1105   1.2372152912e+02   4.1939925322e+01     1.107681    0.1148034 -71.72  0.003423372    5.776    0.827
       378 -11.1239      4.7780    146.8566   1.2283314686e+02   4.3213729068e+01    0.5684919    0.2419711  74.88  0.002195399    2.132    0.531
       379  -9.4892      9.0176    147.4871   1.2171794044e+02   4.2765641453e+01    0.1599595    0.1142079  30.67 -5.604275e-05    1.487    0.327
       380  -8.8614    179.4867     13.4844   4.1173157336e+01   3.8393151079e+01    0.2206019    0.1328245  75.69 0.0005508502    1.646    0.392
       381 -10.5761     45.5493    152.0140   1.1202616664e+02   3.8350476661e+01    0.3721118    0.2162976 -52.45  0.001887356    1.957    0.489
       382  -8.3543    230.3020    147.6963   6.8695107283e+01   8.7729861867e+00    0.1115419   0.09746276 -51.35 0.0002664254    1.593    0.372
       383  -9.4753    139.3156     13.8364   4.6512159601e+01   4.8913125508e+01    0.2768875    0.1884939  60.01 0.0007176134    1.397    0.284
       384  -9.5858     54.1064    145.9945   1.0896868313e+02   3.8786906432e+01    0.1984897    0.1725706  74.22 0.0003414277    1.021    0.021
       385  -8.7480     30.1308    141.8571   1.1541320002e+02   4.2339766167e+01    0.1659388    0.1415362 -61.67 0.0004259326    1.292    0.226
       386  -9.3891    235.8363    137.0055   6.5650460612e+01   9.3265205230e+00    0.2014762    0.1746084  22.68 0.0005974795    1.220    0.180
       387  -9.3146     49.8268    136.8222   1.0910167090e+02   4.1498310905e+01    0.1894432    0.1396939  70.68 0.0004416482    1.300    0.230
       388  -9.7921     34.4610    136.5820   1.1365061797e+02   4.3199650379e+01    0.2831423    0.1994774  42.09  0.001024851    1.368    0.269
       389  -8.7055     69.0413    135.7467   1.0324675570e+02   3.9319846773e+01    0.1869438    0.1634992  54.02   0.00018962    1.090    0.082
       390  -8.6291     58.3557    136.3044   1.0649510690e+02   4.0594140353e+01    0.1356838    0.1042061 -30.34  0.000704022    1.715    0.417
       391  -9.8116     12.6908    130.9957   1.1967694350e+02   4.6414693436e+01    0.1780268     0.135004  85.63            0    1.111    0.100
       392 -11.0496      2.8505    132.7330   1.2268029032e+02   4.6660920631e+01    0.6676733    0.2013667 -76.83  0.002800259    2.741    0.635
       393  -8.8840    233.0044     32.0266   4.1338646696e+01   2.3731378716e+01    0.2154211     0.126419 -56.01 0.0004599459    1.657    0.397
       394 -10.2550      7.7777    133.2340   1.2127259174e+02   4.6219710352e+01    0.3580485    0.1987288 -17.98  0.001719092    3.013    0.668
       395  -9.4564     12.4777    127.4354   1.1949163014e+02   4.7295673492e+01    0.2395752    0.1736393 -63.93 0.0009051263    1.380    0.275
       396 -10.8001      7.6664    123.3964   1.2069286368e+02   4.8608695876e+01    0.4290614    0.1907962  46.08  0.002112945    2.074    0.518
       397  -8.6410     83.0179    134.4765   9.8947366911e+01   3.7585682149e+01    0.1984614     0.135953  36.87 -3.748057e-05    1.437    0.304
       398 -10.4235     43.1269    130.9298   1.1040762658e+02   4.3692551980e+01    0.5443462    0.2317618 -50.88  0.002253543    2.613    0.617
       399  -9.8788     61.9484    131.4547   1.0472132033e+02   4.1314817224e+01    0.3124079    0.2097432 -84.96  0.001186922    1.551    0.355
       400 -10.6376     38.8642    124.4937   1.1095919687e+02   4.5738309130e+01    0.4471022     0.342294  21.10  0.002542109    1.511    0.338
       401  -9.3397     23.7081    133.4012   1.1656484351e+02   4.4960714751e+01    0.2153957    0.1691678  35.73 0.0004173048    1.337    0.252
       402 -10.3834     20.1439    131.3477   1.1746486579e+02   4.5757687615e+01     0.377914    0.1979211  64.14 0.0003809957    1.838    0.456
       403 -11.9913     28.7374    131.9622   1.1491792414e+02   4.4869260838e+01     0.265386    0.2146131  71.88 0.0002943834    1.090    0.083
       404 -10.3572     33.8504    128.9670   1.1304615246e+02   4.5127148137e+01    0.4909179    0.2835635  47.39  0.002315551    1.645    0.392
       405  -8.9208     88.4889    127.1488   9.6017230873e+01   3.8459415369e+01    0.2087689    0.1409966 -61.81  0.000634454    1.493    0.330
       406  -9.0546    217.9344    125.5001   6.5985793077e+01   1.4039473074e+01    0.2189231    0.1581719 -27.45 0.0007898559    1.248    0.199
       407  -9.7078     59.8896    125.7084   1.0448105945e+02   4.2995269588e+01     0.225539    0.1770318 -59.47 0.0002465401    1.275    0.216
       408  -9.2303    123.5365    120.9708   8.4850186494e+01   3.3557153693e+01    0.2195456    0.1952358  44.15 0.0003061521    1.103    0.093
       409 -10.9016     33.3728    113.9743   1.1145175579e+02   4.8924161522e+01    0.6686046    0.2865302  61.83  0.002504697    2.951    0.661
       410 -10.7968     19.7580    109.6010   1.1558753752e+02   5.1192296656e+01    0.4808244    0.3124962 -69.18  0.001675199    1.365    0.267
       411 -11.4173     21.6220    119.4308   1.1594825022e+02   4.8580124359e+01    0.6251891    0.4432395  37.01  0.003640181    1.452    0.311
       412  -9.8889     27.6338    115.2245   1.1352973738e+02   4.9131494161e+01    0.3129828     0.167401  30.95  0.001262811    1.922    0.480
       413  -9.4465     93.4093    119.0637   9.2932402857e+01   3.9554687696e+01    0.2684627    0.2479007  11.68 0.0009980473    1.222    0.182
       414 -10.1673     32.0985    121.7827   1.1280703860e+02   4.7080555689e+01    0.4889467    0.4069144 -47.99  0.002948734    1.356    0.263
       415  -9.0962      8.1553    107.2427   1.1935405754e+02   5.2572823239e+01    0.2817308    0.1897275 -80.27  0.001590781    1.256    0.204
       416 -10.7058      2.3514    115.8984   1.2189016589e+02   5.0765373752e+01    0.3761405    0.2949833  84.42  0.001446411    1.048    0.045
       417 -10.1851      4.2081    112.0620   1.2103935464e+02   5.1605383004e+01    0.3765254    0.1328226 -74.80  0.001192323    2.311    0.567
       418  -9.1544     83.3804    117.6104   9.5685234712e+01   4.1570822138e+01    0.2242514    0.1636886  71.16 0.0006894046    1.580    0.367
       419  -9.3199     66.8465    118.1352   1.0100964242e+02   4.3934071593e+01    0.2156566    0.1801323  66.27 0.0004873988    1.184    0.156
       420  -9.8086      9.4644    118.0162   1.1975170053e+02   4.9813603560e+01    0.2185319    0.1738386  14.65 0.0009507114    1.529    0.346
       421  -9.7399     61.6126    114.7564   1.0211057608e+02   4.5492895361e+01    0.2969391    0.2173105 -88.67  0.001125996    1.428    0.300
       422 -10.2374     62.9422    110.9867   1.0098288917e+02   4.6255918695e+01    0.2913776    0.2064759 -60.67  0.001478006    1.344    0.256
       423  -9.2576    129.8324    114.1023   8.1569595057e+01   3.3778120047e+01    0.2035803    0.1787971  -6.41 0.0003893102    1.295    0.228
       424 -10.9941     54.7179    118.1148   1.0494002598e+02   4.5541265907e+01    0.2356069    0.2113822  60.44 0.0002497196    1.092    0.084
       425  -9.2383    129.2319    109.4045   8.0560916665e+01   3.4902221609e+01     0.225655    0.1413475  54.41 0.0009607458    1.740    0.425
       426  -9.6072     37.1011    107.6636   1.0931481864e+02   5.0161965109e+01    0.3710068    0.1569421 -60.52  0.001582967    2.081    0.519
       427  -9.0179     36.3357    103.7278   1.0900742786e+02   5.1240842801e+01    0.2602274    0.1738265  48.77  0.000889932    1.527    0.345
       428 -10.0697    137.3008    107.3204   7.7958859118e+01   3.3646434515e+01    0.2736124    0.2551269  84.27 0.0004422943    1.163    0.140
       429  -9.4506     52.7392    106.7106   1.0368816441e+02   4.8660017673e+01    0.4351074    0.2410674 -88.94  0.001811566    2.286    0.563
