#   1 NUMBER                 Running object number                                     
#   2 MAG_AUTO               Kron-like elliptical aperture magnitude                    [mag]
#   3 X_IMAGE                Object position along x                                    [pixel]
#   4 Y_IMAGE                Object position along y                                    [pixel]
#   5 X_WORLD                Barycenter position along world x axis                     [deg]
#   6 Y_WORLD                Barycenter position along world y axis                     [deg]
#   7 A_WORLD                Profile RMS along major axis (world units)                 [deg]
#   8 B_WORLD                Profile RMS along minor axis (world units)                 [deg]
#   9 THETA_WORLD            Position angle (CCW/world-x)                               [deg]
#  10 FWHM_WORLD             FWHM assuming a gaussian core                              [deg]
#  11 ELONGATION             A_IMAGE/B_IMAGE                                           
#  12 ELLIPTICITY            1 - B_IMAGE/A_IMAGE                                       
         1 -10.0241     69.7765     26.9270   9.6650996688e+01   6.1055823541e+01     0.249491    0.2293686 -41.05  0.001456658    1.470    0.320
         2 -10.8909    184.7367      2.5313   6.3952291370e+01   3.8593979840e+01     1.127635    0.1790949  58.95  0.003659078    3.973    0.748
         3  -9.0408    181.1464     21.7991   6.9526219613e+01   3.7486943956e+01    0.6261559    0.3045897 -36.07  0.002688975    2.141    0.533
         4 -12.2638    173.0350     10.5953   6.7609848953e+01   4.0673357288e+01    0.9291616    0.8532211  86.90  0.004496871    1.078    0.073
         5 -12.0719    165.6176      4.8844   6.7056758065e+01   4.3020877919e+01     0.997133    0.5361189  58.55   0.00379511    1.569    0.363
         6 -11.2759    159.6899     16.8503   7.1399666705e+01   4.3299288565e+01    0.8715153    0.5122939  51.90  0.003565975    1.529    0.346
         7  -9.1884    146.2041     12.8784   7.2470223615e+01   4.6938869584e+01    0.3234769    0.1744314  28.76  0.001441483    2.447    0.591
         8  -9.6094    203.1115     11.2614   6.4017717178e+01   3.3254851243e+01    0.5498478    0.2638143  56.95  0.002604622    1.953    0.488
         9 -10.9459    199.0551      5.5191   6.3067108566e+01   3.4833196138e+01     0.892477    0.4410627  67.72  0.004391994    1.722    0.419
        10  -8.2175     59.5221     12.5014   9.4288277631e+01   6.4385960559e+01    0.1923609   0.09697679 -37.88  0.001023274    2.280    0.561
        11  -8.4273    112.0306     10.3556   7.8446892466e+01   5.4913733848e+01    0.1791195    0.1361101  48.74 0.0004151822    1.154    0.133
        12  -8.5107    127.5295      2.4860   7.2515545317e+01   5.2186741527e+01    0.2319887    0.1672778  48.46 0.0007880869    1.175    0.149
        13  -9.2729    125.6475      7.9031   7.4695981306e+01   5.2151284593e+01    0.4289888    0.2382301 -26.85  0.001613085    1.989    0.497
        14  -9.6634    121.3176      4.7444   7.4488772991e+01   5.3387983359e+01    0.4469741    0.3238665 -65.59  0.002515862    1.932    0.482
        15  -8.0207      3.0235      7.9818   1.1591781403e+02   7.1203422117e+01    0.1202366   0.08495262 -19.26 0.0009422186    1.036    0.034
        16  -7.9942     71.5575      5.5029   8.7346679272e+01   6.3168958149e+01     0.120801   0.09380432  16.87 9.975347e-05    1.049    0.047
        17 -10.6756    211.4556     91.7844   8.3072225388e+01   1.9464489913e+01    0.5854397    0.3684483 -64.90 0.0008961773    1.991    0.498
        18  -8.5259    181.1260     91.1562   8.8585684179e+01   2.6951376257e+01    0.2102421    0.1771326 -88.87            0    1.306    0.234
        19  -8.7890    128.0366     90.8596   1.0077860864e+02   3.9423617566e+01     0.214918    0.1985071 -85.78            0    1.196    0.164
        20  -8.7366    148.8560     89.8641   9.5315206763e+01   3.4953118277e+01    0.2279722    0.2045013  11.72 0.0003476797    1.245    0.196
        21  -8.4167    192.4778     88.0815   8.5548076330e+01   2.4735197395e+01    0.2257829    0.1497347 -37.96 0.0003746262    1.511    0.338
        22  -9.3624    210.6264     82.7646   8.0944363380e+01   2.1253692297e+01    0.2807182    0.1783796 -47.39 0.0008244885    1.526    0.345
        23  -8.4349    105.3044     82.9641   1.0467909893e+02   4.5606117560e+01    0.2051642    0.1839472 -36.81  0.000925223    1.072    0.067
        24  -8.5554    160.5902     81.0055   9.0114854793e+01   3.3837200661e+01    0.2361595    0.1969443  56.48 0.0001131018    1.185    0.156
        25  -8.0168    170.0389     79.0034   8.7529083918e+01   3.1896034628e+01    0.1807075    0.1762036 -89.96 0.0003180836    1.008    0.008
        26 -10.3724    216.0734     77.5192   7.8740216363e+01   2.0837807307e+01    0.3305262    0.2887231 -44.82 0.0008650162    1.129    0.115
        27 -10.6201    220.4727     75.8263   7.7634279355e+01   2.0068628124e+01    0.4316446    0.2755506  40.19  0.001943661    1.975    0.494
        28  -7.9910     47.2656     78.3453   1.2140047684e+02   5.5233745552e+01    0.1322282   0.08166914 -32.48 0.0002215019    1.607    0.378
        29  -8.8056     86.4789     77.4789   1.0861133143e+02   5.0035655823e+01    0.1391976    0.1258962 -22.92 -3.486348e-05    1.021    0.021
        30  -9.8685    236.3085     74.7808   7.5065359103e+01   1.6539031085e+01    0.3763266    0.2251647 -72.80   0.00162056    2.199    0.545
        31  -9.4609    121.9085     74.8849   9.7673336268e+01   4.3809944622e+01    0.2278525    0.1952731  15.05 0.0006026248    1.250    0.200
        32  -8.3503    246.6208     74.1951   7.3536784299e+01   1.4311680027e+01    0.1814999    0.1267892 -30.49 0.0002170446    1.542    0.351
        33 -10.3876    148.1611     73.2786   9.0674317388e+01   3.8195680047e+01    0.3747599    0.2543242  74.22  0.001336749    1.920    0.479
        34  -8.8508    114.3983     74.1995   9.9490804206e+01   4.5496552132e+01    0.2037939    0.1333987 -49.58 0.0003366844    1.645    0.392
        35  -8.8217      7.1269     67.1401   1.3225682900e+02   6.0797454176e+01    0.3902181    0.2859077 -55.28  0.002786909    1.097    0.089
        36  -9.6204     12.6490     70.0572   1.3101766842e+02   5.9881815852e+01     0.315989    0.2157247 -26.90   0.00170581    1.470    0.320
        37  -9.5298     16.4401     66.7294   1.2894606257e+02   6.0293163102e+01    0.5975159    0.3126462 -73.55  0.002992764    2.641    0.621
        38  -9.0059    174.0658     69.8112   8.4134758356e+01   3.2495609636e+01    0.2342085    0.1978367 -79.97 0.0005754964    1.283    0.220
        39  -8.0844     40.0186     70.8341   1.2184672911e+02   5.7503179559e+01    0.1501566   0.09009016  25.01 0.0008379334    1.923    0.480
        40  -8.7581    243.0054     68.9094   7.2803096446e+01   1.5960856844e+01    0.2073319    0.1893105 -61.95 0.0005701017    1.070    0.065
        41 -10.7978    231.9622     68.7658   7.4251709225e+01   1.8512145239e+01    0.3971969    0.3296827  66.65  0.001026058    1.235    0.191
        42 -11.0640    232.6648     64.7370   7.3203316536e+01   1.8986051478e+01    0.5834016    0.2533829  48.33  0.001891213    2.764    0.638
        43 -10.7297    151.5098     68.4765   8.8488439918e+01   3.8232041268e+01    0.3028342     0.268847  23.64  0.001356476    1.210    0.174
        44  -9.8988     69.0138     68.5220   1.1143573350e+02   5.4453731116e+01    0.2820361    0.1641758 -61.28   0.00127182    2.451    0.592
        45 -11.9277    138.9182     65.3344   9.0449842651e+01   4.1722074757e+01    0.6074768    0.4792788 -32.96  0.003119281    1.301    0.231
        46  -8.9973    183.6752     66.1413   8.1290323113e+01   3.0711010173e+01    0.2634122    0.2021441  79.61 0.0009007755    1.390    0.281
        47  -8.3000     73.3382     66.3168   1.0934551579e+02   5.4238045020e+01    0.1387079   0.09604163 -10.90  0.000249702    1.703    0.413
        48 -10.0856     80.2607     64.6515   1.0659615115e+02   5.3474197257e+01    0.2200862    0.1752365 -39.63 0.0005290008    1.205    0.170
        49  -9.3659    100.9868     63.4500   9.9892645066e+01   5.0064329499e+01    0.2882524    0.2021479 -37.34 0.0008370142    1.391    0.281
        50  -9.3118    241.4674     63.0993   7.1670518978e+01   1.7216932949e+01    0.2180243    0.1276473 -38.06  0.001043815    1.632    0.387
        51  -8.4700    194.2650     63.4499   7.8696887801e+01   2.8502682957e+01    0.2133773     0.139581  75.64 0.0009557473    1.675    0.403
        52 -10.4252     60.3347     63.0380   1.1264066499e+02   5.6669155962e+01    0.3138085    0.1788543  26.10  0.001420989    1.966    0.491
        53  -9.1915    212.4326     55.9110   7.3892851947e+01   2.5183093191e+01    0.2761594    0.1931146  62.95 0.0004266161    1.393    0.282
        54 -11.0979    220.0845     59.8902   7.3779340597e+01   2.2719526573e+01    0.4424115    0.3530625 -75.11 0.0009335096    1.228    0.186
        55 -10.5277    216.8813     56.1229   7.3307326737e+01   2.4068592274e+01    0.4238081    0.2542907 -25.22  0.001903492    2.059    0.514
        56  -8.7987     84.5311     62.4802   1.0455045636e+02   5.3167182964e+01    0.1344384    0.1222164 -15.76 2.453834e-05    1.032    0.031
        57  -8.6264     72.2313     61.9899   1.0833674518e+02   5.5197103112e+01    0.1751386    0.1000803 -41.87 0.0003626571    1.609    0.379
        58 -10.2172    122.8129     66.9706   9.4986374112e+01   4.5033312978e+01      0.39102    0.1929568 -27.62  0.001499429    2.482    0.597
        59  -8.2750    116.4335     61.5140   9.4943562353e+01   4.7316404460e+01    0.1407529    0.1341005   3.69 5.479317e-05    1.017    0.017
        60  -8.7633    181.1224     58.8532   7.9744279445e+01   3.2510256765e+01    0.2300085    0.1919154 -80.51 0.0006572356    1.263    0.208
        61 -11.8627    149.7384     57.1993   8.5490566572e+01   4.0495181570e+01    0.6358375    0.4565696 -51.83  0.003100288    1.553    0.356
        62  -9.6153     90.7704     56.8338   1.0075871212e+02   5.3070219511e+01    0.4065995    0.1807866  40.20  0.001737395    2.288    0.563
        63 -10.9491     96.9663     53.0233   9.7614145029e+01   5.2567777993e+01    0.6112505    0.3964675  57.94  0.002985253    1.992    0.498
        64  -9.1358    245.1589     56.1302   6.9636207072e+01   1.7442386128e+01    0.1970555    0.1384739 -60.55 0.0003398796    1.314    0.239
        65  -9.0406    176.5601     56.2288   7.9839549048e+01   3.4055075844e+01     0.197112    0.1467015 -18.00 0.0005760014    1.630    0.387
        66  -8.2570    107.2534     56.1918   9.5721075018e+01   5.0068999800e+01    0.1795936    0.1659203 -77.65 0.0007063659    1.355    0.262
        67 -10.1902     84.1426     55.3759   1.0232211788e+02   5.4461134458e+01    0.2679952    0.1977597 -20.73  0.000922586    1.326    0.246
        68  -9.9967     83.5009     50.9878   1.0102758449e+02   5.5293367900e+01    0.2437097    0.2310977 -78.68 0.0008008241    1.421    0.296
        69 -10.6194    222.6915     53.8662   7.1953990655e+01   2.3007700013e+01    0.3941807    0.1925215 -53.04   0.00165402    2.127    0.530
        70  -8.5186    186.1161     55.0932   7.7833110090e+01   3.1837234013e+01    0.2177953    0.1920513  40.94 0.0003627373    1.238    0.192
        71  -9.6189    207.7988     50.2668   7.3143802444e+01   2.7159089409e+01    0.4141202    0.3180376  71.09  0.002211353    1.239    0.193
        72  -9.2955    212.9745     49.2144   7.2144630989e+01   2.6043492875e+01    0.2230937      0.19121 -49.07 0.0003567254    1.166    0.142
        73  -9.6228    181.9951     52.0129   7.7695786453e+01   3.3329538491e+01    0.2330302    0.1700131  32.65 0.0006134605    1.679    0.404
        74 -10.2423     62.9066     52.1332   1.0822835445e+02   5.8268808410e+01     0.345466    0.1718378  38.40  0.001303356    2.188    0.543
        75 -10.0453    237.3082     49.3982   6.9047223975e+01   2.0225488451e+01    0.4700548    0.1245232 -38.41  0.001635397    3.258    0.693
        76  -9.7630    172.6781     49.3220   7.8590318071e+01   3.6051686844e+01    0.4599073    0.2912495  23.31  0.001917458    2.445    0.591
        77  -9.5780    178.7531     48.4197   7.7258129129e+01   3.4664779720e+01    0.3011959    0.1266716  56.83 0.0006512657    2.170    0.539
        78 -11.4530    144.4821     48.4891   8.3955595583e+01   4.3058208144e+01    0.4801611    0.3572504 -85.78  0.002111298    1.799    0.444
        79  -8.8962     25.5470     50.5202   1.2129363259e+02   6.2682192486e+01    0.1170176   0.09124167 -34.39 4.861107e-05    1.016    0.016
        80  -9.7990     45.3366     46.8854   1.1272455055e+02   6.1375615441e+01     0.280273    0.1996235 -57.48  0.001670427    1.829    0.453
        81  -9.5639     53.6367     47.0218   1.0974842318e+02   6.0357701045e+01    0.1890586    0.1786834  76.17  0.001212714    1.591    0.371
        82 -10.3103    125.4630     44.3430   8.7004601747e+01   4.8021575495e+01    0.4204175    0.2277181 -39.41  0.001400707    1.960    0.490
        83 -10.0392    113.1211     44.7305   9.0264060099e+01   5.0627083480e+01    0.3203971     0.219726 -12.94  0.001525232    1.660    0.398
        84 -10.1024     70.2408     45.1096   1.0329117254e+02   5.8360640905e+01    0.3543651    0.1885875  14.99  0.001513614    2.907    0.656
        85  -9.4185    219.1389     44.8254   7.0237359607e+01   2.5175877820e+01    0.1830327    0.1654876  43.14 0.0006985954    1.332    0.249
        86  -8.5543    203.7187     45.4056   7.2496023076e+01   2.8864663024e+01    0.2569165    0.1650415  56.36  0.001253423    1.524    0.344
        87  -9.3097     62.8474     44.1281   1.0547399074e+02   5.9599612475e+01    0.1812782     0.133352  -4.43  0.000993866    1.338    0.252
        88  -8.6477    190.6592     43.0659   7.3838590149e+01   3.2440505087e+01    0.2765798    0.1841662  42.87  0.001329664    1.697    0.411
        89  -9.1618    155.6920     42.6328   7.9833630900e+01   4.1185176360e+01    0.2211655      0.19885 -43.51 0.0003815139    1.185    0.156
        90  -9.7107    130.0471     42.3155   8.5242971437e+01   4.7276731581e+01    0.2437784    0.2006297 -36.13 0.0004352088    1.295    0.228
        91 -10.3233    133.8563     39.1764   8.3343800984e+01   4.6831882737e+01     0.322466    0.1942539  60.23  0.001430765    1.663    0.399
        92  -9.9245     97.0420     42.3898   9.3904663587e+01   5.4176762374e+01    0.3342905    0.2087472  18.35  0.001608783    1.958    0.489
        93 -10.1673    193.7612     30.6736   7.0101688189e+01   3.3299020023e+01    0.5185692    0.4304331 -50.38  0.002626664    1.234    0.190
        94  -9.3719    199.6915     28.3086   6.8685410483e+01   3.2125811311e+01    0.3833444    0.3027684 -81.81  0.002173807    1.211    0.174
        95 -10.1840    199.1167     38.6646   7.1422240693e+01   3.0933529563e+01    0.6526115    0.3738218 -81.69  0.002752373    2.327    0.570
        96  -9.9563    206.1448     36.6184   6.9928830030e+01   2.9470352280e+01    0.4552498    0.3689959  -3.80  0.002484413    1.687    0.407
        97  -9.3256    151.7428     39.3643   7.9619229459e+01   4.2582525613e+01     0.361309    0.1496171  51.39  0.001431091    2.169    0.539
        98  -7.7701    228.3489     38.2933   6.7548442572e+01   2.3882977160e+01    0.1309153    0.1017984  40.38 0.0007030515    1.672    0.402
        99  -9.1339     27.5765     37.8348   1.1645063647e+02   6.4706863468e+01    0.1913715    0.1457622  37.90   0.00111191    1.804    0.446
       100  -8.0313     18.9979     36.4982   1.1944181920e+02   6.5654823102e+01    0.1227572   0.09271023  49.37 0.0004127012    2.227    0.551
       101  -8.3550    100.9743     35.0725   9.0177470197e+01   5.4427296967e+01    0.1590077    0.1418577  10.83 0.0003369502    1.024    0.024
       102  -8.5232    153.2391     32.8239   7.7328103572e+01   4.3056147539e+01    0.2356676     0.139306 -70.55 0.0009463434    2.768    0.639
       103  -8.1738      6.7734     30.0327   1.2236960978e+02   6.7596322382e+01    0.1378546   0.06987032 -48.04 0.0003684671    1.578    0.366
       104  -8.6001     55.9844    220.0063   1.4164055654e+02   2.2549503994e+01    0.2289298    0.1413939 -81.83  0.001382223    1.443    0.307
       105  -9.0683     55.9328    215.6094   1.4123600353e+02   2.3455910997e+01    0.2242353    0.1468034 -71.65 0.0007277603    1.433    0.302
       106  -8.1237    101.0948    214.8908   1.3237655291e+02   1.6927173876e+01    0.1553255    0.1473954  64.78            0    1.255    0.203
       107 -10.1644    124.0008    206.0074   1.2645066834e+02   1.4824545885e+01    0.1949571     0.170228  66.82  0.001155557    1.008    0.008
       108  -8.1107    175.1279    202.8072   1.1528327560e+02   5.8235516199e+00    0.1801511     0.156829  12.93 0.0003664152    1.264    0.209
       109  -8.0316    113.4279     26.0075   8.3684490820e+01   5.2991899489e+01    0.1823158    0.1269253 -22.71 0.0003800222    1.516    0.340
       110  -8.3172    195.5447     21.7249   6.7545948930e+01   3.3936851690e+01    0.1621414    0.1216569 -52.66  0.000279944    1.351    0.260
       111  -9.8581    151.8753     20.8519   7.3924040653e+01   4.4768664527e+01    0.4403666    0.1596302  61.67  0.001723184    2.420    0.587
       112  -7.8984    138.9911    199.0007   1.2218215562e+02   1.3508769881e+01    0.1565516    0.1456302  83.75 0.0009145745    1.072    0.067
       113  -8.4252     56.3098     19.8830   9.8513861372e+01   6.3983965329e+01    0.1810224    0.1364678 -30.72  0.001198035    1.400    0.286
       114  -7.5889     17.9743     20.7514   1.1423113974e+02   6.8223354782e+01    0.1175168   0.08119938   8.95 0.0008361296    1.421    0.296
       115  -8.0818     94.4715     21.4476   8.6967685625e+01   5.7361246438e+01    0.1271095    0.1098298  21.46 5.109195e-05    1.020    0.020
       116  -8.7688    136.0274     16.7281   7.5571579942e+01   4.8947724756e+01    0.1851588    0.1528907  54.17   0.00020678    1.071    0.066
       117  -7.8524     15.0746     17.7581   1.1433314075e+02   6.8903024541e+01    0.1135475   0.07992218  11.84 0.0001928962    1.435    0.303
       118  -8.1756    187.7904     16.2787   6.7144364061e+01   3.6458731480e+01    0.1763063    0.1470204  42.72 0.0006682542    1.347    0.258
       119  -8.3918    133.1114    199.0648   1.2344378393e+02   1.4594206865e+01    0.1811808    0.1719298  54.66            0    1.121    0.108
       120  -8.6408    223.0213    187.9883   1.0293556986e+02  -7.5518648115e-01    0.1989375     0.174429   6.25  0.001160819    1.083    0.076
       121  -9.3413    101.0092    176.0004   1.2676162285e+02   2.5376124980e+01    0.2028091     0.181217  88.00            0    1.014    0.014
       122  -8.4718    184.8707    132.8407   9.8450336276e+01   1.7781459814e+01    0.2410525     0.215666  16.12 0.0008611478    1.252    0.201
       123  -9.7876     40.3839    110.7688   1.3074096346e+02   4.8919069649e+01    0.3965484    0.3267304  -8.13  0.001777885    1.522    0.343
       124  -7.3099    130.2677    106.7560   1.0458687430e+02   3.5642733367e+01    0.1427342    0.1191039  89.22            0    1.433    0.302
       125 -11.6030    225.7772     92.7637   8.0931143190e+01   1.5921575611e+01    0.9659792    0.6543937  66.06  0.004621902    1.595    0.373
       126  -9.1951    218.5098     97.8184   8.3360629787e+01   1.6712760637e+01    0.2531888    0.2078174  61.37 0.0002988063    1.261    0.207
       127  -8.9340    207.0015     96.9513   8.5155330904e+01   1.9592730762e+01    0.1839042    0.1749078  83.71 0.0006266211    1.051    0.049
