#   1 NUMBER                 Running object number                                     
#   2 MAG_AUTO               Kron-like elliptical aperture magnitude                    [mag]
#   3 X_IMAGE                Object position along x                                    [pixel]
#   4 Y_IMAGE                Object position along y                                    [pixel]
#   5 X_WORLD                Barycenter position along world x axis                     [deg]
#   6 Y_WORLD                Barycenter position along world y axis                     [deg]
#   7 A_WORLD                Profile RMS along major axis (world units)                 [deg]
#   8 B_WORLD                Profile RMS along minor axis (world units)                 [deg]
#   9 THETA_WORLD            Position angle (CCW/world-x)                               [deg]
#  10 FWHM_WORLD             FWHM assuming a gaussian core                              [deg]
#  11 ELONGATION             A_IMAGE/B_IMAGE                                           
#  12 ELLIPTICITY            1 - B_IMAGE/A_IMAGE                                       
         1  -7.5600    143.0011      9.4788   5.3681948038e+01   4.8268954957e+01    0.2007139   0.09135168  42.57 0.0004714884    2.199    0.545
         2  -7.4768    179.4228      4.7522   4.6664866905e+01   3.9309512821e+01    0.1784188    0.1335738   5.92 0.0005064789    1.637    0.389
         3  -8.1436    171.5088      4.6493   4.7650424970e+01   4.1380369748e+01    0.2384118     0.183397  62.24  0.000261129    1.186    0.157
         4  -8.7007    138.0566      3.8093   5.2489172107e+01   5.0033422817e+01     0.221994    0.1893312  11.51 0.0002644526    1.221    0.181
         5  -7.2786    162.3247    237.7644   1.0625270498e+02   4.0429866119e+00    0.1403704    0.1095058 -30.51 0.0005846513    1.682    0.406
         6  -8.0626    244.4978    250.4686   9.4014757913e+01  -1.0248536877e+01    0.1120853   0.08030441  21.08  0.000178437    1.006    0.006
         7  -9.9991    238.0671    248.7683   9.4802372569e+01  -9.1641477904e+00    0.3519451     0.217242  -1.86  0.002284965    1.759    0.431
         8 -10.1563    130.0900    237.0401   1.1192491304e+02   9.3635649614e+00    0.2073622    0.1811238  54.71 0.0003225138    1.127    0.113
         9  -7.9311    245.8138    237.1627   9.1736551586e+01  -9.1095865791e+00    0.1654284    0.1057907  14.89  0.001075405    1.359    0.264
        10  -7.1040    207.3348    229.2783   9.7033337376e+01  -2.2432683097e+00    0.1231845   0.07866725  19.33 0.0002108799    1.609    0.379
        11  -7.9601    132.2268    222.6336   1.0981914757e+02   1.1328592828e+01    0.2109678    0.1498936  81.16  0.001010629    1.710    0.415
        12  -7.5826      2.0148    222.1379   1.3262877841e+02   2.8451678266e+01    0.1354025    0.1062753  81.45 0.0004754565    1.279    0.218
        13  -8.3954    240.3034    210.0509   8.8091302256e+01  -5.2263436778e+00    0.2010068    0.1507441  33.76 0.0002264077    1.246    0.198
        14  -6.7227    121.7158    195.6875   1.0828543178e+02   1.7889816477e+01    0.1176271    0.1038901  -0.17  0.000257438    1.575    0.365
        15  -9.0440    238.5835    192.0543   8.5076475256e+01  -2.6565143602e+00    0.2720593    0.2436104 -68.15  0.001238747    1.807    0.446
        16  -7.1574    150.8072    188.9282   1.0128105241e+02   1.3972496286e+01    0.1629213    0.1070183 -48.16 0.0003887811    1.701    0.412
        17  -8.6756    226.6551    187.0042   8.6211465587e+01   1.1630391796e-01    0.2690706     0.171671  42.62 0.0009374545    1.510    0.338
        18  -8.8514    227.5399    182.1730   8.5110219494e+01   6.4849632091e-01    0.2325099    0.1873682  25.23 0.0003021177    1.106    0.096
        19  -6.7965      8.5202    180.4396   1.2936437342e+02   3.5828175451e+01     0.109019   0.08064741  85.26 5.726759e-05    1.059    0.056
        20  -8.0531    227.9326    177.1770   8.4045371802e+01   1.3037607295e+00    0.2026313    0.1732837 -11.95 0.0002552712    1.126    0.112
        21  -8.4263    148.3344    175.9256   9.9558034817e+01   1.6884790450e+01    0.2364381    0.1840121  37.71 0.0002961885    1.252    0.201
        22 -10.0505    100.9994    176.0025   1.0982205343e+02   2.5300040879e+01    0.1894377    0.1649385  74.11  0.001159699    1.007    0.007
        23  -9.9326    195.7343    174.1541   8.9490361225e+01   7.9191987427e+00    0.2434065    0.2269332  30.22 0.0003580631    1.073    0.068
        24  -9.1596     81.6778    174.9046   1.1387835321e+02   2.8517628238e+01    0.2105328    0.1828605  61.22 0.0003230606    1.139    0.122
        25  -8.5886     81.3688    159.2008   1.1176529893e+02   3.2002839030e+01     0.196771     0.190423 -45.79 0.0005014363    1.307    0.235
        26  -8.6088    215.9598    157.2782   8.2087208016e+01   6.6926383300e+00    0.2129331    0.1869646 -17.21 0.0002930571    1.108    0.097
        27  -7.3358    125.8707    156.8128   1.0103225767e+02   2.5047600627e+01    0.1874218    0.1558779  76.68  0.000308163    1.250    0.200
        28  -7.5567    201.7972    155.8307   8.4484656029e+01   9.8198129873e+00    0.1917656    0.1758176  82.04 0.0008086336    1.357    0.263
        29  -7.7535    143.9645    153.0210   9.6153316556e+01   2.2340372336e+01    0.2092012    0.2041454  64.82            0    1.030    0.029
        30  -7.1928    148.8345    148.6400   9.4141187066e+01   2.2262430288e+01    0.2001279    0.1337639  53.70 0.0002857922    1.522    0.343
        31  -6.9302    234.4110    132.4971   7.3171867762e+01   6.9677895910e+00    0.1430566    0.1282972 -12.57 6.917403e-05    1.016    0.016
        32  -8.2050      9.7394    129.2897   1.2507069997e+02   4.6722368288e+01    0.1833403    0.1422277  81.38 0.0006037306    1.158    0.137
        33  -7.3038    172.9686    130.9975   8.4757808825e+01   2.0661777521e+01    0.1832775    0.1710685  41.40 0.0003973232    1.059    0.055
        34  -7.5981      1.9681    118.2515   1.2588391873e+02   4.9715312180e+01    0.1177387   0.09801003  37.75 0.0005362465    1.529    0.346
        35  -8.2779     14.5026    111.2466   1.2183719573e+02   5.0452133154e+01    0.2054304   0.09955603  -0.87 0.0008910779    4.478    0.777
        36  -8.9193    159.9407    107.8022   8.1789581408e+01   2.8294834357e+01    0.2836645    0.2183075 -43.37  0.001328323    1.290    0.225
        37  -9.8912    216.1840    103.0093   6.9118263969e+01   1.5883858858e+01     0.349901    0.2812552 -26.44  0.000294893    1.209    0.173
        38  -9.3104    220.7068     99.0570   6.7319276628e+01   1.5505653018e+01    0.3005501    0.2759095 -30.39 0.0006659768    1.029    0.028
        39  -7.3658    221.6493    104.6953   6.8599621052e+01   1.4339904730e+01    0.1555289    0.1139493  15.14 0.0006941026    1.704    0.413
        40  -7.8022    246.2773    103.6664   6.4374106462e+01   9.0759869153e+00    0.1433575    0.1038216 -55.87 0.0002201016    1.605    0.377
        41  -7.9087    122.8236    105.0188   9.0206858280e+01   3.7058717588e+01    0.2272258    0.1977034 -74.30  0.000352618    1.244    0.196
        42  -9.1676      8.0927     98.2987   1.2193630403e+02   5.3813788529e+01    0.1780655    0.1276471 -43.74 0.0007631908    1.494    0.331
        43  -9.6662      4.6299     94.2882   1.2240006477e+02   5.4921200732e+01    0.2839446    0.1856916  17.36  0.001856615    2.063    0.515
        44  -9.7335      3.8912     90.2706   1.2207197619e+02   5.5860969478e+01    0.3604829    0.1431417 -50.57  0.001868638    2.151    0.535
        45  -8.1640    218.8088     92.5304   6.5946757245e+01   1.7042539982e+01    0.2765234    0.1431743  50.42  0.001122538    1.997    0.499
        46  -7.7706    212.0176     92.3350   6.7057879860e+01   1.8688079416e+01    0.2074939    0.2035343  31.20 0.0006888429    1.058    0.055
        47  -8.3072    151.1650     92.3958   7.9563867694e+01   3.3447964237e+01    0.2216005    0.1516787  62.43 0.0008043339    1.678    0.404
        48  -8.3145    128.0096     91.2926   8.5044278629e+01   3.8910504116e+01    0.2144669    0.2076547  41.37 0.0006141755    1.064    0.060
        49  -8.7470     37.8080     89.0278   1.1139626951e+02   5.3616799723e+01    0.2265929    0.1117386 -43.91  0.001097205    1.981    0.495
        50  -8.1816     29.6715     89.3049   1.1401244409e+02   5.4284443428e+01    0.1218202   0.08736922  78.44 0.0007035919    1.652    0.395
        51  -9.0890    103.8412     86.0870   9.0210726991e+01   4.4920347801e+01    0.3009275    0.2627886 -84.42 0.0003587019    1.344    0.256
        52 -10.3494     12.4680     82.6334   1.1826078737e+02   5.7059050485e+01    0.6963959   0.01246773 -53.89  0.002205355    4.926    0.797
        53  -9.0793     19.8542     83.5573   1.1606201527e+02   5.6353323902e+01    0.3042139   0.07322313 -54.64  0.001231716    2.787    0.641
        54  -8.0622    204.0187     83.6377   6.6115644239e+01   2.2108332502e+01       0.3573    0.1477083  56.82  0.001256662    2.519    0.603
        55  -8.1917    161.1482     81.7839   7.4140337389e+01   3.3097933996e+01    0.2311049    0.2130207 -74.21 0.0003398485    1.174    0.148
        56  -7.9633     25.3354     94.3104   1.1624628513e+02   5.3499592005e+01    0.1271194   0.07659556 -43.30 0.0007043934    1.680    0.405
        57  -8.7582    243.1478     86.1876   6.0538489881e+01   1.2480111238e+01    0.2173566    0.1886622  -3.89 0.0007327503    1.238    0.192
        58  -9.7397    135.8539     69.6851   7.6386659285e+01   4.1427350705e+01    0.3953059    0.2842658  25.13  0.001118172    1.662    0.398
        59  -7.6353     51.4465     71.2298   1.0266256376e+02   5.6166615115e+01    0.1857461    0.1151161 -63.90  0.000724999    1.646    0.392
        60  -8.2714      5.9886     67.5052   1.1772973658e+02   6.0768938655e+01     0.157423   0.07482451 -29.81 0.0008105775    2.577    0.612
        61 -10.2666    118.6641     64.9060   7.9343884487e+01   4.6184238623e+01    0.2912892    0.2663228  35.18 0.0003045322    1.115    0.103
        62  -8.9258    129.8760     62.7827   7.5640055185e+01   4.4070151276e+01    0.2268233    0.2024088   7.26  0.001179141    1.165    0.142
        63  -9.2177    214.5161     54.6344   5.6408370082e+01   2.4089535562e+01    0.3834233    0.2716749 -26.00  0.001135794    1.450    0.310
        64  -7.4224    188.8038     46.1989   5.7938106015e+01   3.1908800255e+01    0.2036728    0.1712223  32.75  0.000315027    1.309    0.236
        65  -7.6290    162.0545     35.3015   5.9156188175e+01   4.0400700726e+01    0.2084091    0.1830968  61.88 0.0003608974    1.107    0.097
        66  -6.9341    135.2837     29.6263   6.2593922482e+01   4.7924847107e+01    0.1492095    0.1097582 -59.20 0.0007015347    1.709    0.415
        67  -7.2529    157.6914     24.2906   5.6252697575e+01   4.2916511061e+01    0.1461903    0.1097883 -67.33 0.0002538545    1.580    0.367
        68  -7.3758    140.8782     15.8617   5.6391904616e+01   4.8155400128e+01    0.1827377    0.1623592 -70.82 0.0002574271    1.282    0.220
        69  -7.0602     56.3709    250.2821   1.2557072165e+02   1.7708651144e+01   0.08653633   0.07898846  40.54 0.0007014625    1.699    0.411
        70  -7.0326     94.3132    243.2975   1.1880862685e+02   1.3776635496e+01   0.09617142   0.08468449  29.23 0.0003487555    1.603    0.376
        71  -6.8246    177.6794    242.3478   1.0414167009e+02   9.1739943250e-01    0.1142408    0.0834824  64.36 0.0007049062    1.737    0.424
