#   1 NUMBER                 Running object number                                     
#   2 MAG_AUTO               Kron-like elliptical aperture magnitude                    [mag]
#   3 X_IMAGE                Object position along x                                    [pixel]
#   4 Y_IMAGE                Object position along y                                    [pixel]
#   5 X_WORLD                Barycenter position along world x axis                     [deg]
#   6 Y_WORLD                Barycenter position along world y axis                     [deg]
#   7 A_WORLD                Profile RMS along major axis (world units)                 [deg]
#   8 B_WORLD                Profile RMS along minor axis (world units)                 [deg]
#   9 THETA_WORLD            Position angle (CCW/world-x)                               [deg]
#  10 FWHM_WORLD             FWHM assuming a gaussian core                              [deg]
#  11 ELONGATION             A_IMAGE/B_IMAGE                                           
#  12 ELLIPTICITY            1 - B_IMAGE/A_IMAGE                                       
         1 -15.9592    244.2142    206.6968   8.6750175195e+01   9.1850281074e-01     4.097475     1.129376 -22.89   0.01667856    4.842    0.793
         2 -16.8646    103.7907    180.2220   1.0863984504e+02   2.5377591752e+01     3.468696      2.86065  62.54   0.01818728    1.165    0.142
         3 -14.0382     37.4973     15.8776   9.0403164690e+01   7.0634908151e+01    0.8541012    0.7012303 -29.88  0.005279102    1.031    0.030
         4 -13.3923     46.9109      8.9285   8.1279707952e+01   7.0469757134e+01    0.8980052    0.4363956  51.41  0.003901639    2.835    0.647
         5 -11.5674    212.4950      8.9974   4.4831268354e+01   3.0110374950e+01    0.2196764    0.1258803 -21.80  0.001045024    1.626    0.385
         6 -10.8750    244.3220      2.3250   4.0800939834e+01   2.3368982167e+01    0.1248812   0.09177361  27.08 0.0007047318    1.683    0.406
         7 -12.0495    102.2827     18.4655   6.5564814991e+01   5.7651447361e+01    0.2930508    0.2623242 -73.29  0.001588092    1.334    0.250
         8 -12.6509     67.4587    249.3650   1.2153073501e+02   1.8934478876e+01    0.2885236    0.1745869  43.35  0.001316842    1.179    0.152
         9 -13.6600     14.8036    179.0253   1.2775885426e+02   3.5887081516e+01     2.480427    0.5578268  48.80    0.0116247    2.957    0.662
        10 -13.3060     15.7034    227.8394   1.2938913038e+02   2.7282289903e+01     1.366946    0.3722974  45.47  0.008131506    2.183    0.542
        11 -11.0396     16.8231    203.8783   1.2837245608e+02   3.1157456129e+01     1.741972    0.3500164  52.63  0.008196641    3.220    0.689
        12  99.0000     50.7478    242.4282   1.2398495668e+02   2.1691523080e+01     1.050019    0.6221001  21.01  0.007076531    2.349    0.574
        13  99.0000     32.3636    245.4260   1.2718443501e+02   2.3083651463e+01    0.5879715    0.1337006  42.99  0.003346043    2.417    0.586
        14 -14.1469     12.7081    141.7830   1.2631632557e+02   4.3692598533e+01     1.468011    0.5491378  65.45  0.006886424    2.621    0.618
        15 -16.2713     13.8165    118.7123   1.2442501792e+02   4.8782408342e+01     5.015338     1.556898 -77.53   0.02154329    2.695    0.629
        16  99.0000     39.1633    227.7702   1.2529672731e+02   2.5084748318e+01     1.855881      1.41331  27.94   0.01505782    1.562    0.360
        17 -14.1412     32.9741    206.4030   1.2541585534e+02   2.9217352185e+01     1.983547    0.5709709  59.28  0.009252971    3.298    0.697
        18 -12.2953     87.2533    226.5711   1.1654438945e+02   1.9937163528e+01     2.776711    0.3853428  38.44   0.01059984    4.208    0.762
        19  99.0000     57.9536    215.4141   1.2118798375e+02   2.5094664995e+01     1.273095    0.8494767  54.00  0.009404146    1.147    0.128
        20 -14.1910     44.4255    196.9108   1.2264426809e+02   2.9731807284e+01      1.68418    0.5152177  64.57  0.006250801    5.062    0.802
        21 -10.9403      6.4944    250.6502   1.3148293399e+02   2.4658016844e+01    0.2108174    0.0394671  37.70  0.001195438    2.798    0.643
        22 -15.0703     51.6804    157.7550   1.1799735111e+02   3.6558263477e+01     4.036608    0.7776518  46.67   0.01395213    4.333    0.769
        23 -14.0633    120.1442    205.1796   1.0827590703e+02   1.8890313818e+01    0.8401377    0.7751052  84.07   0.00478383    1.270    0.213
        24 -12.4790     84.4817    237.0255   1.1782310245e+02   1.8741294775e+01    0.4576156    0.2516818  53.99  0.002506875    1.525    0.344
        25 -11.4502      2.6946    212.0356   1.3122177788e+02   3.0958446611e+01    0.2264195   0.09558996  43.28  0.001531145    1.683    0.406
        26  -8.9895     51.0992    190.6190   1.2086070162e+02   3.0160658321e+01     1.542432    0.4083918  53.96  0.006166346    3.836    0.739
        27 -11.6649     29.7896    168.6568   1.2395209171e+02   3.6581865336e+01    0.3781662    0.2126362  59.72  0.001447479    1.499    0.333
        28 -11.8814     25.8752    164.1420   1.2455002333e+02   3.7861037245e+01    0.3526827    0.2078006  81.73  0.001394879    1.505    0.335
        29 -12.4111    160.6689    162.8707   9.3965786642e+01   1.9262707770e+01    0.6039622    0.3807009 -22.58  0.003089705    2.022    0.505
        30 -14.2672    153.5382    150.1422   9.3095019632e+01   2.2632361849e+01     1.036427    0.6494123 -39.77  0.004094028    1.719    0.418
        31 -15.0558    122.0964    150.2939   1.0011309686e+02   2.8097860182e+01     1.785929     0.775233  40.68  0.007738467    2.116    0.527
        32 -15.1455    127.7899    140.8578   9.7071406363e+01   2.8932464200e+01     1.339714    0.9364186  39.66   0.00636996    1.351    0.260
        33 -12.6077     61.7731    138.4005   1.1328910752e+02   3.9539530849e+01    0.8202689    0.4550489  88.58  0.003930039    2.174    0.540
        34 -14.6245    132.1812    109.9964   8.9332499632e+01   3.4204725145e+01     1.112911    0.7446239 -59.13  0.005146314    1.769    0.435
        35 -15.0631    145.5841    106.6033   8.5257414069e+01   3.2125710932e+01      1.29179    0.9416219 -16.95  0.006161656    1.651    0.394
        36 -14.2692    166.5396    121.7738   8.4304889020e+01   2.5059046335e+01     1.792731    0.7082539 -31.38  0.006346919    3.068    0.674
        37 -15.5251    152.5315    118.3638   8.6546686671e+01   2.8499510604e+01     1.704646     1.487904  10.38  0.007949002    1.185    0.156
        38 -12.5009    101.4922    132.5898   1.0198100640e+02   3.5094689859e+01    0.5498712    0.4249706 -23.36  0.002925755    1.721    0.419
        39 -13.0202     97.0661    130.4757   1.0274182778e+02   3.6261490405e+01    0.6371486    0.4793267  16.02  0.003351392    1.713    0.416
        40 -12.1496     41.6667    132.6678   1.1798272703e+02   4.3115756817e+01    0.7264888    0.2156042  48.89  0.002818445    3.343    0.701
        41 -13.3480    124.6349    115.7497   9.2583090187e+01   3.4515950726e+01    0.5718737    0.3953412 -56.78  0.002787266    1.572    0.364
        42 -12.9380    121.5907    128.6916   9.6156220283e+01   3.2446623634e+01    0.5275543     0.400092  43.31  0.002824287    1.271    0.213
        43 -14.0955    117.5526    120.2305   9.5384226694e+01   3.4915999473e+01     1.294863    0.6241263 -55.42  0.005287833    2.295    0.564
        44 -13.6385     48.9916    126.0094   1.1517162939e+02   4.3846993130e+01    0.9014905    0.4796345  62.66   0.00436348    2.074    0.518
        45 -12.0725     43.6431    120.0991   1.1594383274e+02   4.5798753069e+01    0.4424073    0.3155476  60.16  0.002466288    1.355    0.262
        46 -15.5023     82.5774    198.0679   1.1501195046e+02   2.5100633792e+01      2.30404     1.199801  72.00   0.01191849    2.623    0.619
        47 -15.0439     52.1307    176.6025   1.1956636627e+02   3.2700489955e+01     2.327304    0.5614889  53.35  0.008039943    4.800    0.792
        48 -11.2781     58.1658    119.1025   1.1157995605e+02   4.4370063154e+01    0.2888629    0.1807831  40.99  0.001531292    1.596    0.374
        49 -11.9283     32.4954    113.4726   1.1842292689e+02   4.8463277635e+01    0.3412741    0.2713507  79.39   0.00159276    1.122    0.109
        50 -11.2398     39.8219    114.0771   1.1629503295e+02   4.7608769746e+01    0.2069418    0.1554907  75.72  0.001182186    1.254    0.203
        51 -12.4438    107.8611    112.1456   9.6144995473e+01   3.8386359484e+01    0.5056496    0.2341859  43.35  0.002059025    2.145    0.534
        52 -14.4917     81.3005    179.3775   1.1341902540e+02   2.8627811854e+01    0.9185177     0.627551  71.53  0.004886189    1.519    0.342
        53 -11.9014     43.3762    107.9599   1.1436208915e+02   4.8692195282e+01    0.4957944    0.2846144  77.38  0.002392207    2.029    0.507
        54 -11.9688     36.8286    107.4185   1.1632784722e+02   4.9488305449e+01    0.3573682    0.2600064  47.01  0.001346073    1.403    0.287
        55  99.0000     82.1294    243.5286   1.1868130655e+02   1.8100042041e+01    0.5252986    0.2675459  42.29  0.002473446    1.396    0.284
        56 -14.7856    150.3515     79.2694   7.6551802675e+01   3.6148060022e+01     1.134237    0.7382771 -50.66  0.004985075    1.715    0.417
        57 -13.9908    155.9875     96.8052   8.0304434250e+01   3.1714118558e+01     0.795481    0.5414383 -42.96  0.003746021    1.488    0.328
        58 -14.9181    161.7284     89.9868   7.7167307556e+01   3.1648631519e+01     1.226351     0.865042 -54.56  0.005672548    1.687    0.407
        59 -12.8800    194.1647     94.3096   7.2009626989e+01   2.3702978532e+01    0.4467233    0.2359264 -32.57  0.001942867    1.782    0.439
        60 -12.3279     56.3774     94.3883   1.0784258990e+02   5.0448509460e+01    0.3229924    0.2296893  63.04  0.001713616    1.553    0.356
        61 -13.9311    205.6185     81.3117   6.6588381497e+01   2.3089294567e+01    0.7815877    0.6197091  64.41  0.004160129    1.489    0.328
        62 -14.8477     10.1828    157.1277   1.2775505814e+02   4.0634409177e+01     1.960732    0.5477719  60.84  0.008362458    3.391    0.705
        63 -12.7606     38.4809     67.1407   1.0851547682e+02   5.9087486945e+01    0.3749776    0.2936659  37.15  0.002202673    1.446    0.308
        64 -13.8319     35.8920     61.3177   1.0817475273e+02   6.0754740500e+01    0.8956606    0.4764519  11.31  0.004041824    2.741    0.635
        65 -14.1468     32.6988     56.2600   1.0826880573e+02   6.2281163284e+01    0.7444834     0.567802  23.19  0.004393073    1.544    0.352
        66 -13.5771    211.3828     60.3432   5.9909054280e+01   2.4632267707e+01    0.9899805    0.5338765 -37.59  0.004434444    1.717    0.418
        67 -12.7947    159.4924     59.2435   6.8256925364e+01   3.7337013995e+01    0.3901525    0.3072415 -28.32  0.001917196    1.225    0.184
        68 -12.4807    125.0101     54.2777   7.4425603818e+01   4.6571554797e+01    0.3510962    0.2586199 -85.54  0.001528248    1.996    0.499
        69 -13.8377    167.8442     69.1916   6.9762390414e+01   3.3713205536e+01    0.7419068    0.7100815  52.97  0.004075382    1.109    0.099
        70 -13.1200    137.3329     72.0989   7.7389601426e+01   4.0464739445e+01    0.7706932    0.3820134  54.43  0.002962813    2.172    0.540
        71 -11.9606    216.3333     44.6342   5.4804611489e+01   2.5431920628e+01    0.4407867    0.2982173 -83.95  0.002124219    1.957    0.489
        72 -12.9145    188.4796     67.4975   6.5487249489e+01   2.9019005614e+01    0.4466791    0.3357473   3.52  0.002173968    1.494    0.331
        73 -12.6173    245.2077     35.3091   4.9285235737e+01   2.0029315692e+01    0.3031408    0.1503762 -33.06  0.001461046    1.654    0.395
        74 -12.7071     95.0498     30.8752   7.3516196974e+01   5.7482077895e+01    0.3966523    0.3139234  20.67  0.002017177    1.368    0.269
        75  99.0000      4.8915    240.1080   1.3150965421e+02   2.6331400303e+01    0.4906197    0.1786806  51.48  0.003429457    1.715    0.417
        76 -11.8160     95.2293    240.6671   1.1620844432e+02   1.6953640507e+01    0.5037017     0.176565  38.54  0.002830324    2.044    0.511
        77 -10.9407     14.5162    238.3878   1.2989715730e+02   2.5762896993e+01    0.2022409   0.06532645  41.26  0.001210871    1.970    0.492
        78 -11.1173     71.6320    234.0467   1.1989037931e+02   2.0658128852e+01     0.247993    0.1690129 -56.12  0.001877076    1.999    0.500
