#   1 NUMBER                 Running object number                                     
#   2 MAG_AUTO               Kron-like elliptical aperture magnitude                    [mag]
#   3 X_IMAGE                Object position along x                                    [pixel]
#   4 Y_IMAGE                Object position along y                                    [pixel]
#   5 X_WORLD                Barycenter position along world x axis                     [deg]
#   6 Y_WORLD                Barycenter position along world y axis                     [deg]
#   7 A_WORLD                Profile RMS along major axis (world units)                 [deg]
#   8 B_WORLD                Profile RMS along minor axis (world units)                 [deg]
#   9 THETA_WORLD            Position angle (CCW/world-x)                               [deg]
#  10 FWHM_WORLD             FWHM assuming a gaussian core                              [deg]
#  11 ELONGATION             A_IMAGE/B_IMAGE                                           
#  12 ELLIPTICITY            1 - B_IMAGE/A_IMAGE                                       
         1 -11.6717    157.4023     72.2193   5.3423246113e+01   3.5717372499e+01     1.146785     0.353837 -37.94  0.003757986    3.216    0.689
         2  -9.6276    199.2290     20.4285   3.3909898829e+01   3.3171304499e+01    0.6470132     0.281256 -75.36  0.002566697    3.354    0.702
         3  -9.3457    250.4705     15.9864   2.8840171123e+01   2.3134095605e+01    0.3057672   0.06685984 -40.74  0.001329324    3.181    0.686
         4  -7.9324      2.4133     14.6807   8.7665950138e+01   7.2501054424e+01    0.1974476   0.09821779 -48.72 0.0009056562    2.097    0.523
         5  -8.4542     85.4837     12.9469   5.0587078787e+01   6.0039891404e+01    0.2795977    0.1825019 -59.89   0.00140519    2.568    0.611
         6  -9.1780     37.4063     10.3876   6.6678797493e+01   6.9080376200e+01    0.2661327    0.1961326 -42.97  0.001106414    1.984    0.496
         7  -7.1641    164.4887      9.4304   3.5001298528e+01   4.2253582130e+01    0.1255043    0.1054516  74.04 0.0001995958    1.075    0.069
         8  -9.5718    209.5954      3.1172   2.9202983099e+01   3.2748916507e+01    0.3661574    0.2135332  87.07  0.002197273    1.494    0.331
         9  -8.6208     18.2176      4.0833   7.3137364613e+01   7.2407449151e+01    0.2062995    0.1811367 -58.75  0.001406647    2.376    0.579
        10  -8.7710      9.5883      4.7896   7.8493466925e+01   7.3276994180e+01    0.2502734     0.124715  38.64  0.001373408    2.715    0.632
        11  -7.9545     90.7309      4.6317   4.5962975185e+01   5.9641243147e+01    0.1760772    0.1070769  67.39 0.0008564299    1.667    0.400
        12  -8.4102     63.7881      2.5644   5.2614312472e+01   6.5313652023e+01    0.2658377    0.1642076 -46.24  0.001444923    2.499    0.600
        13  -7.6604     78.8179      2.8461   4.8278412243e+01   6.2297933791e+01    0.1512706    0.1440328  88.78  0.001063207    1.344    0.256
        14  -8.2095    229.5052      2.4645   2.7663751901e+01   2.8694385991e+01    0.1157189   0.08602128 -72.61 8.648466e-05    1.029    0.029
        15  -7.7496    105.3195      1.6846   4.1692382722e+01   5.6650804480e+01    0.1197852   0.09088437 -74.82 0.0007039689    1.655    0.396
        16  -9.3104    191.2421    192.2615   7.4753773598e+01   4.8438200160e+00    0.4477842    0.2692713 -62.21  0.001825636    2.876    0.652
        17  -7.8683    229.1444    250.6581   7.7722025300e+01  -1.0045923231e+01    0.1586262    0.0886871  17.08 0.0009144217    1.622    0.383
        18 -12.7288     39.3802    246.0827   1.1604152536e+02   1.6732243102e+01      2.94802    0.7118871  34.04   0.01173928    3.442    0.709
        19  -9.1956     30.3641    198.0992   1.1415291312e+02   2.8325615342e+01    0.2065268    0.1871257  61.29 0.0003244492    1.149    0.130
        20  -7.6892     17.2217    196.7568   1.1708279546e+02   2.9949093655e+01     0.171525    0.1081089   5.60 0.0008796353    2.480    0.597
        21  -7.3925     96.5128    188.5049   9.6478145220e+01   2.1907112342e+01    0.1424413    0.1413837 -16.33 -7.216621e-05    1.079    0.074
        22  -7.2712     77.7149    188.2924   1.0128199874e+02   2.4811575057e+01    0.1449487    0.1035524  68.49 0.0001825635    1.539    0.350
        23  -8.9684     32.8660    182.3669   1.1202167124e+02   3.1884036723e+01    0.2248546    0.1801855 -63.68 0.0003146199    1.228    0.185
        24 -10.1678    123.9962    205.9973   9.2487758011e+01   1.3408671768e+01    0.2019366    0.1899103  34.42            0    1.006    0.006
        25  -7.8040    128.8418    170.8743   8.4961181890e+01   2.0588851784e+01    0.2046604    0.1782736  69.84 0.0003709664    1.307    0.235
        26  -9.7338    176.4170    149.8753   6.9035902734e+01   1.6134290188e+01    0.2718652    0.2518797 -39.52 0.0002955617    1.058    0.055
        27  -8.2162    134.1497    147.7668   7.8665175886e+01   2.5045118890e+01    0.3536468    0.1124188 -53.51 0.0009830145    3.657    0.727
        28  -8.9185    181.7040    146.9477   6.7236045815e+01   1.5703941327e+01    0.3142773    0.2133546  24.62 0.0009806503    1.787    0.440
        29  -8.7845    119.9524    146.3006   8.2113610079e+01   2.8151934349e+01    0.2613764    0.2140108 -43.46 0.0002581704    1.203    0.169
        30  -7.7451     82.9621    136.5599   9.0668577468e+01   3.7129247382e+01    0.2166658    0.1508399  35.25 0.0003281237    1.499    0.333
        31  -8.2263     60.9814    135.7049   9.7304171076e+01   4.0566952006e+01     0.196733    0.1918484  34.44 0.0004263151    1.111    0.100
        32  -7.6555     88.0129    134.0000   8.8572855218e+01   3.6952929049e+01    0.2477664   0.08887604  34.47 0.0007981851    2.913    0.657
        33  -8.0326    136.0000    131.0133   7.4229001943e+01   2.8579936059e+01    0.2681932   0.08882779 -46.88 0.0008034552    2.950    0.661
        34  -8.0606     83.3063    131.6500   8.9494286497e+01   3.8317828813e+01    0.1577096    0.1200862  79.13 0.0007042444    1.706    0.414
        35  -8.6195     98.8549    128.4590   8.4022846864e+01   3.6452228143e+01    0.5942064    0.3565725  72.90   0.00191792    3.588    0.721
        36  -7.6372    161.3367    128.6883   6.7445507878e+01   2.3766087829e+01    0.1577368    0.1248456 -86.36 0.0006230929    1.687    0.407
        37  -9.2233     71.4773    125.8661   9.1944822917e+01   4.1612140613e+01     0.446142    0.3093096  85.90  0.001416601    2.075    0.518
        38  -9.3553    117.0272    125.3340   7.7965748140e+01   3.3758859846e+01    0.3832653    0.2591613 -74.17  0.001479353    2.142    0.533
        39  -9.3067     58.2465    124.6708   9.5985752548e+01   4.3754767082e+01    0.4684276    0.2913108  72.53  0.001590687    2.562    0.610
        40  -9.2146     41.6302    122.3009   1.0101105606e+02   4.6325261741e+01    0.4106089    0.2111592 -83.91  0.001523334    2.947    0.661
        41  -9.5175     27.1063    122.2388   1.0581242833e+02   4.7745093413e+01    0.4809363    0.2509158  76.54  0.001829427    3.245    0.692
        42  -7.5051     92.0495    123.0129   8.4786743592e+01   3.8998923941e+01    0.1804913    0.1761819 -22.61 0.0003590749    1.028    0.028
        43  -8.6162    135.0000    121.9606   7.2225325199e+01   3.0853181713e+01      0.26861   0.08875643 -45.90 0.0008049601    2.960    0.662
        44  -8.1598    187.3192    118.9987   5.9556155525e+01   2.0247573288e+01     0.244097    0.1194118 -23.15 0.0007041357    4.215    0.763
        45  -8.9690    141.0360    118.5901   6.9809528614e+01   3.0320215492e+01    0.3598188    0.2484181 -73.54  0.001448819    2.120    0.528
        46  -8.8038    108.5200    114.3800   7.7618141355e+01   3.8008642789e+01     0.440567    0.2943491 -72.45  0.001516732    2.179    0.541
        47  -8.8753    245.3999    115.2094   4.9134227358e+01   9.6747400607e+00    0.1931693    0.1025678 -46.96 0.0007685943    1.620    0.383
        48  -8.3307     69.0522    114.4681   9.0139087301e+01   4.4819014718e+01    0.2318742    0.1871183 -51.99 0.0003471586    1.157    0.136
        49  -9.6028     65.6907    110.5082   9.0328770209e+01   4.6280256695e+01     0.334019    0.2624506  75.34  0.001093162    1.682    0.405
        50  -8.9199     78.2482    112.6018   8.6631368817e+01   4.3860045184e+01    0.4300643    0.2641707 -72.10  0.001271546    2.274    0.560
        51  -7.9813     50.9588    113.7614   9.6130134287e+01   4.7420419548e+01    0.1898715    0.1829215 -37.93 0.0003980871    1.073    0.068
        52 -10.6832    133.9615    108.2061   6.8889132909e+01   3.4116991683e+01     0.742898    0.3446469 -45.39  0.002730323    2.128    0.530
        53  -9.5743    121.3896    112.5695   7.3447707404e+01   3.5825268132e+01    0.4076727    0.2868327  55.37  0.001527996    1.603    0.376
        54  -8.8875     14.8064    112.2155   1.0831528142e+02   5.1220792635e+01    0.2254712    0.1193734  63.79 0.0009567557    2.837    0.648
        55  -8.6833     91.6307    112.9630   8.2406906476e+01   4.1505261618e+01    0.3806536    0.2831065  87.47  0.001656698    1.990    0.498
        56 -10.0510     21.6071    102.2513   1.0419377622e+02   5.3179275887e+01    0.7483729    0.3690018  66.46  0.002551598    4.625    0.784
        57  -9.9203    183.0310    103.2929   5.6552736734e+01   2.4221525315e+01    0.4283405    0.2848901 -30.16  0.001962209    1.631    0.387
        58  -9.9578     44.2900    101.6059   9.5780182562e+01   5.1188454295e+01    0.7445434    0.4335546  75.67  0.002642568    3.896    0.743
        59  -9.6686    149.3959    103.0261   6.3660494158e+01   3.1793897590e+01    0.4102502    0.2652735 -56.03  0.001473515    1.731    0.422
        60 -10.8478    139.0434    101.5076   6.5768551510e+01   3.4419033265e+01    0.9859608    0.4729742 -51.53  0.003578506    2.337    0.572
        61  -8.1816    166.0000    102.9430   5.9909278331e+01   2.8078255981e+01    0.2572301   0.08441039 -40.96 0.0008034629    2.950    0.661
        62  -9.1726    107.5279     98.8799   7.3677685124e+01   4.1706697303e+01    0.5910809     0.397276  76.63  0.002253181    2.684    0.627
        63  -8.9913    127.8499    102.0840   6.8828880017e+01   3.6754935094e+01    0.2444914    0.2167948 -82.07 0.0007843385    1.301    0.231
        64  -7.8022     81.3145     99.8813   8.2280849577e+01   4.6365297153e+01    0.2311238    0.1832481 -69.54  0.000651514    1.513    0.339
        65  -8.2404    121.6857     98.7390   6.9568875318e+01   3.8792237014e+01    0.3762583    0.1994263  67.09   0.00107408    4.382    0.772
        66  -8.8425    188.0000     97.9367   5.4296885109e+01   2.4133080130e+01    0.2498276   0.07931925 -39.65  0.000806496    2.971    0.663
        67  -7.7639     94.2514     96.9762   7.7231699454e+01   4.4711495634e+01    0.2098482    0.1935453 -41.77 0.0004705207    1.079    0.073
        68  -9.5528     62.7922     95.6686   8.7577115904e+01   5.0237877899e+01    0.4060771    0.2924734 -83.41   0.00159485    2.078    0.519
        69  -9.3390    164.7016     94.4841   5.7968812257e+01   3.0011826141e+01    0.3986998    0.2482581 -89.52  0.001420401    3.101    0.678
        70  -8.3983     53.5343     94.3592   9.0608858766e+01   5.1801252955e+01    0.3142481    0.2066598 -83.15  0.001341171    2.476    0.596
        71  -9.6739    140.5069     93.1745   6.3094913106e+01   3.5781862308e+01    0.5442969    0.3431596  78.03  0.002001961    2.781    0.640
        72 -10.1688    157.1994     91.6041   5.8802423553e+01   3.2276888886e+01    0.3685468     0.335237  23.29  0.001958571    1.215    0.177
        73  -7.4962     29.5087     93.4405   9.9440316612e+01   5.4643316061e+01    0.1368898    0.1162483 -43.36 0.0006721925    1.012    0.012
        74 -11.3767    148.8521     87.4173   5.9512226551e+01   3.4990700491e+01    0.6856768    0.5492344 -85.50   0.00331847    1.526    0.344
        75  -8.8718    124.1188     91.3243   6.6779967886e+01   3.9804013598e+01    0.3522856    0.2587858 -73.80  0.001187197    1.904    0.475
        76  -9.4740     34.3940     90.4270   9.6870634612e+01   5.4895088342e+01    0.4744253    0.2371042 -78.38  0.001680264    3.729    0.732
        77  -9.4527      4.7384     90.0205   1.0821946163e+02   5.7214212057e+01    0.4447275    0.2416188  84.71  0.002008351    2.746    0.636
        78  -7.6131    249.6551     90.3222   4.3470292321e+01   1.3013316112e+01    0.1339306     0.084181 -64.77 0.0004000563    1.733    0.423
        79  -8.8411     85.3444     86.2387   7.6994141108e+01   4.8683544902e+01    0.3302231    0.2624234 -68.56  0.000860446    1.610    0.379
        80  -9.1664    104.1451     82.8617   6.9960485864e+01   4.5749432962e+01    0.4401681     0.260617 -56.67  0.001083083    2.153    0.536
        81  -9.2243     47.8390     84.2295   9.0058527912e+01   5.4838502615e+01    0.3416632    0.2560709  74.17  0.001628312    2.116    0.527
        82 -10.9655    150.2580     82.8165   5.7907994871e+01   3.5521689826e+01    0.5579996    0.4156964 -66.05  0.002643784    1.589    0.370
        83  -9.4355    184.1525     77.6045   4.9883838037e+01   2.8592417177e+01    0.3949639    0.3005813 -75.47   0.00143933    1.454    0.312
        84  -7.6283    119.0000     79.9590   6.4794449492e+01   4.3159643797e+01    0.2365228   0.08552017 -40.53 0.0003632794    2.801    0.643
        85  -7.7608     74.0122     79.9671   7.8998064639e+01   5.1973637889e+01    0.2470515    0.1594106 -69.30  0.001009131    2.579    0.612
        86  -9.4401    158.1178     83.8615   5.6495023716e+01   3.3506435872e+01    0.2380944    0.2011117 -76.18   0.00102769    1.301    0.231
        87  -9.0564     25.6678     78.1663   9.7345522935e+01   5.8515177512e+01     0.323254    0.2313118  77.66  0.001567601    2.233    0.552
        88  -9.2869    189.2252    238.2106   8.3366682727e+01  -2.9704534899e+00     0.291946    0.2484571  68.19 0.0009796224    1.945    0.486
        89  -8.7836    127.6467     75.0633   6.1023275619e+01   4.2137263027e+01    0.2500069    0.2047982  68.39 0.0008673801    1.352    0.261
        90  -8.8739     81.1758     72.5557   7.4118886857e+01   5.2227930664e+01    0.3832567    0.2988887 -22.74  0.001627311    1.291    0.226
        91  -8.4434    115.0034     72.9660   6.3732730138e+01   4.5336807392e+01    0.2402059    0.1808507   8.88 0.0009516226    1.676    0.403
        92  -9.6292     54.6621     70.6617   8.3350079362e+01   5.6867009614e+01    0.3287416    0.2621334  55.70  0.001017345    1.719    0.418
        93 -11.7735    162.4153     70.4567   5.1944571037e+01   3.4833064987e+01    0.8723612    0.4134981 -40.75  0.003573059    2.079    0.519
        94  -9.9724    147.1213     69.5757   5.4820004569e+01   3.8582067813e+01    0.4093837    0.2709714 -45.53  0.001682392    1.549    0.354
        95  -8.1678     16.1772     70.1969   9.9339338477e+01   6.1034136573e+01     0.162712     0.147777 -81.21 0.0006520393    1.374    0.272
        96  -8.5754     94.9018     68.2159   6.8147247691e+01   5.0428015288e+01    0.3273735    0.2000868 -50.19  0.001038771    1.893    0.472
        97  -8.9758    134.0276     67.4992   5.7163392516e+01   4.1992841143e+01    0.2310889    0.1404476  52.53 0.0009653249    1.589    0.371
        98  -7.8444    121.3161     66.4050   5.9974183454e+01   4.5089291015e+01    0.2544318    0.1339133 -38.61  0.001063052    1.956    0.489
        99  -9.0603    138.3674     66.0405   5.5718063096e+01   4.1225291311e+01    0.2614919    0.2028956  89.71 0.0007706103    1.595    0.373
       100  -8.5178      9.3908     64.8897   1.0098039520e+02   6.2640732585e+01    0.2158199    0.1863553  51.46  0.001039379    1.569    0.363
       101  -9.0232      5.1510     61.0645   1.0193083932e+02   6.3707844359e+01    0.2392472     0.172068  26.23  0.001274727    1.671    0.402
       102  -8.2001    110.0019     63.9302   6.2232204896e+01   4.8020187260e+01    0.2217566    0.2129692  28.38 0.0006212172    1.031    0.030
       103  -9.1484    131.9987     63.0088   5.6272670009e+01   4.3207181425e+01    0.3604971    0.2252342  18.09  0.001419155    2.683    0.627
       104  -8.1198     88.2445     63.0023   6.8536462003e+01   5.2681361223e+01    0.3620458    0.1710791  52.05  0.001404432    2.538    0.606
       105  -8.3987     73.1805     59.2810   7.2443840863e+01   5.6132424700e+01    0.2954263    0.2139762 -62.12  0.001295308    2.041    0.510
       106  -8.9542    146.5147     58.3816   5.1682622699e+01   4.0526090831e+01    0.2952393    0.1841398 -64.58  0.001042988    2.175    0.540
       107 -10.5791    175.3097     52.6580   4.4893128248e+01   3.4551033869e+01    0.6482008    0.5155464 -79.77  0.002950662    1.274    0.215
       108  -8.1998    130.3954     58.1691   5.5152068896e+01   4.4351321850e+01    0.2001819    0.1308125 -47.68 0.0007819194    1.674    0.403
       109  -7.6208     87.4260     58.1669   6.7132312809e+01   5.3680346350e+01     0.188699    0.1327553 -47.92 0.0005104445    1.633    0.388
       110  -8.2203    236.3499     57.2951   3.8144863770e+01   2.0550478337e+01     0.111802   0.09855369  25.16 0.0003013466    1.679    0.404
       111  -9.1424    138.9136     56.5371   5.2735032504e+01   4.2606573198e+01    0.2916542    0.1725602 -52.21 0.0008346524    1.972    0.493
       112 -10.0390     21.8525     53.4135   9.1982418064e+01   6.4083930289e+01    0.5723912     0.377986 -85.61  0.002590848    3.471    0.712
       113  -8.5658    117.5242     55.6071   5.7487666520e+01   4.7704488094e+01    0.3467019    0.2372043  27.67  0.001650581    1.696    0.410
       114  -8.7758     50.2940     54.2440   7.9575876470e+01   6.0664638517e+01    0.2842445    0.2232736  87.77  0.001174406    2.543    0.607
       115  -9.5591    163.5047     53.5159   4.7079952578e+01   3.7214639238e+01    0.2960192    0.1312779  60.56  0.001182826    2.156    0.536
       116  -8.3263     80.0846     50.1792   6.6725633869e+01   5.6411714415e+01     0.308157    0.2119209  65.02   0.00145128    2.229    0.551
       117  -7.7801    213.5416     49.9284   3.9055600707e+01   2.6304033540e+01     0.187744     0.117599 -39.14 0.0007633624    1.536    0.349
       118  -8.5254    194.1115     47.6930   4.0929980218e+01   3.0908606462e+01    0.3998129     0.263253   4.39  0.001724387    3.220    0.689
       119  -8.3015    142.3019     48.8730   4.9715512797e+01   4.2928905722e+01    0.3114894    0.1516317 -44.77  0.001312796    2.216    0.549
       120  -9.1463    122.5222     48.7623   5.4019128207e+01   4.7586316627e+01    0.5044095    0.3094122 -77.72   0.00190065    3.333    0.700
       121  -8.6718    130.0885     48.2898   5.2123931040e+01   4.5895070583e+01     0.245995    0.1979644  11.46  0.001310414    1.493    0.330
       122  -8.9588     85.2633     47.7400   6.4100858757e+01   5.5791026310e+01     0.346838    0.2425652 -53.98  0.001124445    1.934    0.483
       123  -9.9087    139.4640     73.2707   5.7614138152e+01   3.9739909053e+01    0.5068597    0.1410709 -39.12  0.001544598    3.580    0.721
       124  -8.5484    150.2048     48.0281   4.7929659701e+01   4.1165436352e+01    0.2319825    0.1435584 -59.29  0.001062008    1.956    0.489
       125  -7.7448    111.8340     47.7341   5.6339741769e+01   5.0164739350e+01    0.2379325    0.1886067 -10.10  0.001278738    1.422    0.297
       126  -9.2219      5.7568     46.4299   9.7598259613e+01   6.6667593380e+01    0.5534656    0.1181268  18.79  0.002039652    4.714    0.788
       127  -9.3414      4.6321     41.4216   9.6606510288e+01   6.7706979524e+01    0.4098558    0.2874585  85.51  0.002075133    2.958    0.662
       128 -10.5203    155.6588     56.3718   4.9301310851e+01   3.8657978207e+01    0.5556911    0.3365195  84.65   0.00214619    2.312    0.568
       129  -8.3353    222.9976     42.9917   3.6501375698e+01   2.5248953214e+01     0.187677    0.1614045 -70.28 0.0004532548    1.062    0.059
       130  -8.5879     69.4904     42.1351   6.7432670825e+01   5.9615419661e+01    0.2815033    0.2097566 -56.68  0.001057115    1.977    0.494
       131  -8.6651     37.8778     41.9083   8.0403250188e+01   6.4496409946e+01     0.295052    0.2306808  87.30  0.001490005    3.013    0.668
       132  -9.6221     29.9429     42.2396   8.4242178763e+01   6.5375278674e+01    0.4641723    0.2056969  41.93  0.002005152    3.289    0.696
       133  -8.4982    153.6101     41.3081   4.5373762252e+01   4.1261043222e+01    0.2518721    0.1246608 -37.37  0.001123405    2.079    0.519
       134  -8.5453    139.7036     40.8594   4.7808110517e+01   4.4635441022e+01    0.2072352    0.1769329  -1.85  0.001178255    1.395    0.283
       135  -9.0813    119.8529     40.3428   5.1884821863e+01   4.9360262541e+01    0.2395991    0.2244936  38.97 0.0003189555    1.041    0.040
       136  -8.6188    225.0492     38.2917   3.5295137063e+01   2.5441715946e+01    0.1948567    0.1537858 -52.51 0.0005833405    1.156    0.135
       137  -8.5778     80.5502     38.5437   6.2189971904e+01   5.8064505958e+01    0.2963442    0.1909435  61.89  0.001429425    2.102    0.524
       138  -8.2567     76.6569     35.3389   6.2242754027e+01   5.9260369190e+01    0.2099841     0.121713  50.31  0.001031536    1.757    0.431
       139  -8.0191    143.9973     36.7428   4.5753921270e+01   4.4138669591e+01    0.2227432    0.1468077 -82.42 0.0007151578    1.965    0.491
       140  -8.8979     49.2086     36.5993   7.3251434781e+01   6.3797645332e+01    0.2924277    0.2397081  39.61  0.001450988    1.453    0.312
       141  -8.5965    110.4994     34.7122   5.2210946106e+01   5.2213288161e+01    0.4721268    0.1949343 -38.65   0.00195372    2.645    0.622
       142  -7.5990    133.3056     35.6620   4.7468372606e+01   4.6811781625e+01    0.1385579    0.1017432 -71.88  0.000704077    1.675    0.403
       143  -7.5336    104.6715     40.3698   5.5684894292e+01   5.2781764784e+01    0.1383492    0.1076342 -74.53  0.000703234    1.820    0.451
       144  -9.3320     25.0913     33.5672   8.3230052425e+01   6.7390016909e+01     0.257898    0.2321272 -76.45 0.0009799544    1.904    0.475
       145  -9.6548     10.1741     32.1900   9.0457754375e+01   6.9010439890e+01    0.4299468    0.2728255  50.02  0.002239488    3.174    0.685
       146  -8.9227      7.4603     28.1250   9.0375699972e+01   6.9923914475e+01    0.2636124    0.2025216  41.97  0.001310197    2.006    0.502
       147  -8.8343    237.7063     33.3678   3.3133742903e+01   2.3507373288e+01     0.228847    0.1804805 -35.24  0.001139629    1.457    0.314
       148  -7.9438    101.4921     32.9599   5.3885469776e+01   5.4433958642e+01    0.1862738     0.106651 -53.30 0.0008097372    2.598    0.615
       149  -7.3491     60.3063     33.6357   6.7494685157e+01   6.2460359070e+01    0.1171395    0.1062116 -76.38 0.0007037818    1.742    0.426
       150  -8.1061    173.5745     31.7640   3.9679672462e+01   3.7722403898e+01    0.2411974     0.201332 -57.52  0.001080335    1.183    0.155
       151  -8.8044    177.7140     29.6098   3.8575383833e+01   3.7012295250e+01     0.376189    0.2090716  64.88  0.001322149    1.636    0.389
       152  -9.2684    173.1137     26.4654   3.8365448678e+01   3.8453661379e+01    0.3761249     0.247844 -70.10   0.00112641    1.602    0.376
       153  -8.5154     75.9649     31.3952   6.0909691101e+01   5.9915677646e+01    0.2783993    0.1906023  62.10  0.001361827    1.927    0.481
       154  -9.7544    191.1559     28.8219   3.6740553958e+01   3.4011592813e+01    0.5865834    0.2905492 -80.21  0.002125276    2.723    0.633
       155  -8.9369     46.2265     29.5296   7.1567363583e+01   6.5294802488e+01     0.292231    0.2177358 -50.36  0.001128175    1.950    0.487
       156  -9.6210    249.4663     26.8303   3.0932290827e+01   2.2040195246e+01    0.2641024     0.165049 -63.95  0.001699321    1.306    0.235
       157  -8.1531     65.9984     26.7864   6.2494007004e+01   6.2372991851e+01     0.190448    0.1513727  73.03  0.001066263    2.027    0.507
       158  -7.7028    128.4299     25.5352   4.5220541529e+01   4.9138544398e+01    0.1321005    0.1179326  59.58 0.0008053937    1.007    0.007
       159 -10.4276    209.5378    232.5620   7.8404375462e+01  -4.9109072776e+00     0.234589    0.1950098 -12.94  0.001535932    1.125    0.111
       160  -9.2412    177.3825    232.3896   8.4851146149e+01  -2.7312685288e-01    0.2741502    0.2033619  35.85 0.0001640667    1.329    0.247
       161  -7.9711    103.0059     20.7812   4.9084956394e+01   5.5476336983e+01    0.1780901    0.1370665 -51.27 0.0007413616    1.612    0.380
       162  -7.8706     63.5048     21.0158   6.0935017446e+01   6.3526079021e+01    0.1557613    0.1055723 -51.85 0.0008080237    2.379    0.580
       163  -8.1666     73.9192     19.6727   5.6787003643e+01   6.1709376396e+01    0.1797004    0.1458669  37.62 0.0005745951    1.097    0.089
       164  -8.1669    190.0216     15.3114   3.3652032349e+01   3.5791999109e+01    0.2318881    0.1440045 -62.23  0.001309865    1.548    0.354
       165  -9.1602    178.6584    227.9574   8.3853270449e+01   3.0165645781e-01    0.2353524    0.2033514  -4.75 0.0004300691    1.070    0.065
       166  -8.4631    179.3330    223.1740   8.2905281496e+01   1.0402554452e+00    0.2209033    0.1863957  -9.06 0.0003795804    1.104    0.095
       167 -11.9959     48.4688    223.9749   1.1237892551e+02   2.0327177596e+01     1.415863    0.7434679  56.31  0.006009234    1.799    0.444
       168  -7.5079     99.3886    224.7985   1.0099327162e+02   1.3216674823e+01    0.1714155      0.12488 -49.42 0.0003782609    1.532    0.347
       169  -7.5870    206.9518    220.9875   7.6903663944e+01  -2.6941856410e+00    0.1656092    0.1598366  53.21   0.00047816    1.521    0.342
       170 -10.4792    146.2442    216.7721   8.9066623943e+01   7.5018444862e+00    0.2635151    0.2376285 -32.71 0.0004406449    1.167    0.143
       171  -8.4976     98.0499    211.7572   9.9561789879e+01   1.6261195463e+01    0.2127376    0.1914522 -73.34 0.0003062999    1.161    0.139
       172  -8.4599    119.7456     21.3024   4.5561763464e+01   5.1614495934e+01    0.2532944     0.192373 -88.27  0.001422195    1.555    0.357
       173  -8.8354     57.6435    210.7750   1.0901442062e+02   2.2170081005e+01     0.176352    0.1608987  54.88 0.0009689938    1.113    0.101
       174 -11.1532     64.3318    201.6050   1.0638654776e+02   2.3449823462e+01    0.8300212    0.5428177  80.11  0.004141907    1.701    0.412
       175  -8.8479    169.0915    202.7446   8.1500946594e+01   6.5132871006e+00    0.2353865    0.1921946 -29.30 0.0003103359    1.210    0.173
       176  -8.1633    154.5683    199.7760   8.4230946496e+01   9.5754563206e+00    0.2994945    0.1430336 -57.55  0.001128031    2.763    0.638
