#   1 NUMBER                 Running object number                                     
#   2 MAG_AUTO               Kron-like elliptical aperture magnitude                    [mag]
#   3 X_IMAGE                Object position along x                                    [pixel]
#   4 Y_IMAGE                Object position along y                                    [pixel]
#   5 X_WORLD                Barycenter position along world x axis                     [deg]
#   6 Y_WORLD                Barycenter position along world y axis                     [deg]
#   7 A_WORLD                Profile RMS along major axis (world units)                 [deg]
#   8 B_WORLD                Profile RMS along minor axis (world units)                 [deg]
#   9 THETA_WORLD            Position angle (CCW/world-x)                               [deg]
#  10 FWHM_WORLD             FWHM assuming a gaussian core                              [deg]
#  11 ELONGATION             A_IMAGE/B_IMAGE                                           
#  12 ELLIPTICITY            1 - B_IMAGE/A_IMAGE                                       
         1 -13.0967     55.8168     32.1631   2.6478160314e+01   6.5864322820e+01     1.278411    0.6249508  36.65  0.005265689    2.294    0.564
         2 -12.1942     78.8387     22.3000   1.3107549017e+01   6.2100980929e+01    0.7241478    0.4689859  46.44  0.003607026    1.496    0.332
         3 -12.1869     12.4593     19.0915   4.5824473640e+01   7.5350069289e+01    0.4776905    0.3479223  -3.87  0.002127925    1.420    0.296
         4 -11.2286     15.3650     14.7714   4.0839595672e+01   7.5780483906e+01    0.3094639    0.2325459 -36.27  0.001019544    1.290    0.225
         5 -11.2133      3.6062     16.8438   5.2308034075e+01   7.6693676559e+01     0.373416    0.2528454   4.14  0.001925206    1.484    0.326
         6 -10.8235     49.4299     14.1924   1.9449683004e+01   6.9848176812e+01    0.2648551    0.2315528  27.68 0.0007596817    1.092    0.084
         7 -10.1125     45.4891     12.0804   1.9961050185e+01   7.0945735241e+01    0.2362322    0.1740062  48.84  0.000726118    1.256    0.204
         8 -10.3319     35.1789     13.5617   2.6321367498e+01   7.2783197771e+01    0.2228672    0.1821317 -25.93  0.000728499    1.260    0.206
         9 -11.0432    149.7168      9.8406   3.5571457703e+02   4.5456205003e+01    0.4051653    0.2516914  50.94  0.002079286    1.856    0.461
        10 -10.5048     27.8458     11.9647   2.9783900515e+01   7.4330925104e+01    0.2855871    0.1811114 -35.18  0.001560157    1.623    0.384
        11 -10.9690     59.7913      8.5955   1.2000036756e+01   6.8202634137e+01     0.460348    0.2716603  25.13  0.002157225    2.171    0.539
        12 -10.1001     32.5559     10.2484   2.5645882969e+01   7.3735695082e+01    0.1742108    0.1191557 -17.22 0.0009494569    1.626    0.385
        13  -9.7155      2.0291     10.0671   4.9926529669e+01   7.8145592024e+01    0.1767382    0.1462129  56.76  0.001124033    1.677    0.404
        14  -9.4750    218.8470      8.8048   3.5059591786e+02   2.9881609841e+01    0.1669596    0.1020029 -58.07 0.0004374458    1.271    0.213
        15  -9.4417     69.5580      9.2748   9.2413736455e+00   6.5831506790e+01    0.1771897    0.1300796   0.20   0.00094803    1.643    0.391
        16 -10.7560    182.1771      7.8473   3.5249274246e+02   3.7870868212e+01     0.199374    0.1379174 -60.32  0.000393146    1.192    0.161
        17 -10.6380    123.8272      6.6685   3.5750804054e+02   5.2327002324e+01    0.3482051    0.2035973 -79.69  0.001680241    1.735    0.424
        18 -10.9812     53.9407      6.2037   1.2689555587e+01   6.9788016704e+01    0.3211843    0.2705012  12.32  0.001959996    1.258    0.205
        19  -9.8527    132.3563      2.1181   3.5491131831e+02   5.0545635056e+01    0.2952786    0.1763652  28.99 0.0009514663    2.479    0.597
        20 -10.5336    113.7172      1.7270   3.5692905482e+02   5.5357781339e+01    0.2542985    0.1663399  83.66 0.0007075626    1.374    0.272
        21 -11.1129     85.6024      7.3308   4.1537946300e+00   6.2067689147e+01     0.260715    0.2266911 -65.83 0.0005995301    1.207    0.172
        22  -9.6605     95.8880    111.8559   3.9546033810e+01   4.0690940266e+01    0.2278223    0.2094666 -32.00 0.0004977667    1.190    0.160
        23  -9.4243     79.4921    110.5461   4.4529879746e+01   4.4124649160e+01    0.1539001    0.1495335  83.54  0.000342945    1.019    0.019
        24 -10.7490     26.6997    107.9315   6.4068503482e+01   5.2415272058e+01    0.4560471    0.1974545  61.08  0.001541572    3.275    0.695
        25 -10.6153      9.9895    108.0371   7.0975180129e+01   5.3822915411e+01    0.3104723    0.1909673 -44.96  0.001003916    1.724    0.420
        26  -9.6024    103.6614    106.2978   3.5768571011e+01   4.0430258679e+01    0.1610693    0.1216294  80.79 0.0002109354    1.659    0.397
        27 -10.3479      2.2806    104.5074   7.3802429765e+01   5.5273450087e+01    0.2878862    0.1659331 -51.04   0.00093351    1.717    0.417
        28 -10.0292    124.3257    104.6761   2.9649378301e+01   3.6400230396e+01    0.1593149    0.1206081 -87.39  0.000704855    1.689    0.408
        29  -9.5597     77.1621    103.1961   4.3496473627e+01   4.6384410248e+01    0.2078473    0.1749596  72.88 0.0002627746    1.272    0.214
        30 -11.1033     97.1476     99.4972   3.5905286388e+01   4.3354517103e+01    0.2702028    0.2481399 -61.63  0.000273384    1.077    0.072
        31 -11.0846     28.3687     99.7216   6.1972602931e+01   5.4460842203e+01    0.3525911    0.2226816 -29.04  0.001572732    1.990    0.497
        32 -10.4911     36.3252     97.9706   5.8218461901e+01   5.4034491419e+01     0.310048    0.1812364 -15.08  0.001184871    2.770    0.639
        33 -10.7060    102.9532     95.5476   3.3035086210e+01   4.3032539909e+01    0.3464635    0.2221493 -45.74   0.00150057    1.570    0.363
        34 -11.0851     64.2514     95.9674   4.6351111430e+01   5.0481848165e+01    0.4733221    0.2937711  59.04 0.0007702069    1.953    0.488
        35 -11.0358     17.2106     94.3204   6.5971212050e+01   5.6965649014e+01    0.4056859    0.2474611  24.17  0.001949118    1.728    0.421
        36  -9.9163     90.0064     94.0762   3.6657145097e+01   4.6085679540e+01    0.2368796    0.2258127  78.08 0.0004931524    1.026    0.025
        37 -10.0569     53.4897     93.5067   4.9986041559e+01   5.2851282489e+01    0.1500099    0.1445888 -83.47 0.0008105669    1.004    0.004
        38 -10.1545    108.7938     90.7951   2.9965154620e+01   4.2807572727e+01    0.2169218    0.1813567 -87.80 0.0005694115    1.328    0.247
        39 -10.4084     58.9559     87.2956   4.6098747252e+01   5.3544570447e+01    0.3196507     0.258138  83.41 0.0009943749    1.423    0.297
        40  -9.9969     11.9852     85.7346   6.7009260807e+01   5.9667773104e+01    0.1812775    0.1770141 -42.82 0.0003382512    1.087    0.080
        41 -10.5869     98.8377     79.0342   2.9300543549e+01   4.7543293403e+01    0.3560602    0.3269398  47.85  0.001398259    1.110    0.099
        42 -11.6215     54.4649     78.6975   4.5487129052e+01   5.6401453310e+01    0.3374316    0.2832184 -88.67  0.001729123    1.336    0.251
        43  -9.9986      5.9899     80.3263   6.9094605480e+01   6.1500838632e+01    0.1810374    0.1709106   6.54 0.0006363235    1.163    0.140
        44  -9.5385     77.9020     77.8885   3.5911600168e+01   5.2270437435e+01     0.202963    0.1757634  78.22    0.0010215    1.255    0.203
        45  -9.4107    143.7115     77.3446   1.7522231805e+01   3.7420069366e+01    0.1564258    0.1096376 -69.47 0.0007023322    1.652    0.395
        46  -9.5004    114.4880     77.4841   2.4361953098e+01   4.4278655419e+01    0.1527276    0.1469971 -87.33 0.0001169969    1.021    0.020
        47 -10.1733      3.4082     75.2178   6.9620337971e+01   6.2987553529e+01     0.191135     0.119778  89.23 0.0003458876    1.639    0.390
        48  -9.8322     62.4853     74.5052   4.0787442429e+01   5.6011789913e+01    0.2645243    0.1340912  49.04 0.0009104197    2.147    0.534
        49 -11.8452     63.8926     69.5313   3.8545555850e+01   5.6890826144e+01    0.2838069    0.2544638  53.71 0.0001101004    1.129    0.114
        50 -10.2178      7.6126     69.0725   6.6285179120e+01   6.4318212590e+01     0.231461    0.1942403 -15.78 0.0006601026    1.267    0.211
        51  -9.5025     45.3362     67.2964   4.6045275554e+01   6.0587466781e+01    0.1491091    0.1116265 -17.95 0.0004828878    1.650    0.394
        52  -9.6666     15.5026     65.5372   6.1130413173e+01   6.4618319456e+01    0.1382614    0.1245433 -46.31 0.0001594449    1.044    0.042
        53 -10.1454    100.0928     63.4144   2.3686870712e+01   5.0397114518e+01    0.2903814    0.2111154 -51.47  0.000703551    1.405    0.288
        54  -9.2579     75.3153     64.6687   3.2336737669e+01   5.5680515141e+01    0.1544576    0.1190987  89.21 0.0007046022    1.682    0.406
        55 -10.3599      4.6082     63.5792   6.6902021409e+01   6.5904085138e+01    0.2609892    0.1947563 -55.76 0.0008335595    1.199    0.166
        56 -10.3850      3.2557     59.3921   6.6851756229e+01   6.7034929014e+01    0.2726965    0.2376267  53.40  0.001665947    1.273    0.214
        57 -10.5908     67.1238     62.4762   3.4711872021e+01   5.7811640369e+01    0.2661583    0.2110812 -57.69 0.0004181375    1.321    0.243
        58  -9.9836     22.8393     62.9186   5.6344485523e+01   6.4570226465e+01    0.2229482    0.1791957 -31.86  0.001190923    1.259    0.206
        59 -10.8054     50.7781     60.4265   4.1075775216e+01   6.1281068800e+01    0.4984782    0.3025586  60.44  0.002068348    2.317    0.568
        60  -9.5175    114.4993     60.9535   1.8949282255e+01   4.7395857268e+01    0.2147431    0.1474057 -40.82 0.0003620546    1.473    0.321
        61  -9.4792     15.3028     61.3678   6.0198645411e+01   6.5675414422e+01    0.1512755   0.08923338 -37.56 0.0007034143    1.742    0.426
        62 -10.4216    231.3198     60.0222   1.1044425228e+00   2.1401258164e+01    0.1756848    0.1292772 -44.96 0.0005495321    1.069    0.064
        63  -9.9564    124.8843     59.7979   1.6114966177e+01   4.5053310204e+01    0.2099824    0.1997141  49.43 0.0003615624    1.153    0.133
        64  -9.9371     33.0194     58.0404   4.9207740656e+01   6.4528910571e+01    0.2011958    0.1946304 -42.69 0.0003000388    1.030    0.029
        65 -10.5463     22.0782     57.9698   5.5320316876e+01   6.5852901661e+01     0.199743    0.1968904 -53.56 0.0006065666    1.065    0.061
        66 -11.9585     93.5766     48.6084   2.0112517419e+01   5.4615986029e+01    0.4223704    0.2922257  56.06 0.0002196733    1.389    0.280
        67  -9.7732     86.3390     49.3406   2.2629262100e+01   5.6199049910e+01    0.2891931    0.1911385  22.02  0.001192881    2.325    0.570
        68 -10.3895     23.8179     48.3441   5.1069797264e+01   6.7911760666e+01    0.3738611    0.1582773 -54.48   0.00156485    2.172    0.540
        69 -11.2682      7.6070     45.4211   6.0567329480e+01   7.0145033221e+01    0.6467189    0.2205782 -46.69  0.002577723    2.593    0.614
        70 -11.4722     40.4519     44.0603   3.9725449680e+01   6.6501941624e+01    0.5439804     0.382897  18.34  0.002627456    1.617    0.381
        71 -10.0913    181.8557     46.1795   2.7561920459e+00   3.3414220439e+01    0.1741546    0.1622641 -10.42  0.001074869    1.351    0.260
        72 -10.3778     33.3842     42.5992   4.3049923805e+01   6.7900917500e+01      0.33073    0.2102881   4.44  0.001140899    2.221    0.550
        73 -10.5172    185.8211     41.4712   1.0726411163e+00   3.3147177108e+01      0.21935    0.1989417 -33.36 0.0002731311    1.254    0.203
        74  -9.6928    134.4660     41.4718   8.1090694703e+00   4.5525447894e+01    0.1450568    0.1309894 -80.49 0.0002550624    1.004    0.004
        75 -10.5806    158.9947     39.3650   3.6789907432e+00   3.9719693466e+01    0.2403939    0.1905635 -43.48 0.0002185258    1.212    0.175
        76 -11.6229     61.3553     37.1037   2.6484370760e+01   6.3881773129e+01    0.4646282    0.3757173  33.87  0.001998091    1.245    0.197
        77 -11.6160     66.3676     35.8779   2.3879880835e+01   6.3011714565e+01    0.2840069    0.2591901  41.27 0.0003019576    1.052    0.050
        78  -9.2520      1.2638    181.3338   7.9050215753e+01   3.5397362782e+01    0.1197603   0.09140191 -54.19 0.0003275906    1.580    0.367
        79 -10.5279     65.9814     28.1569   2.0297832037e+01   6.4302577411e+01    0.3756297    0.2217103  29.90  0.001254475    2.205    0.546
        80 -10.5059     97.2720     37.4005   1.4613768177e+01   5.5499994059e+01    0.4173881    0.1790546  46.49  0.001563693    2.469    0.595
        81 -11.7192     40.1287     34.7042   3.5553516866e+01   6.8389863415e+01    0.4920452    0.3522071 -40.64  0.002218158    1.410    0.291
        82 -10.0991    119.1179     34.9663   8.6956039521e+00   5.0330611084e+01    0.2113208    0.1934254 -88.58  0.000390655    1.005    0.005
        83 -10.4632     17.9301     32.1353   4.8308268852e+01   7.2122873061e+01    0.3055898    0.1901045 -58.51  0.001281524    1.695    0.410
        84 -11.1148      4.2088     30.5354   5.8004691091e+01   7.3780721342e+01    0.3576166    0.2637274 -70.53  0.001555401    1.470    0.320
        85 -10.2005     92.5135     31.2098   1.3295928490e+01   5.7567363849e+01    0.2493097    0.1867698  65.81 0.0002863104    1.265    0.209
        86  -9.6458     24.4532     29.4756   4.2488870494e+01   7.1826939597e+01     0.189309    0.1200837  41.24 0.0006610101    1.676    0.403
        87  -9.7069    103.9809     28.3112   9.3028966078e+00   5.5073650542e+01    0.2019752    0.1652042  70.25 0.0002798261    1.134    0.118
        88  -8.9273    160.6859     27.2932   3.5988307229e+02   4.0839223363e+01    0.1448747   0.08803982 -64.19  0.000512644    1.596    0.373
        89 -10.7007    137.2634     25.8950   2.4409112401e+00   4.6852910140e+01    0.5162938    0.2805343 -89.39  0.002249039    2.061    0.515
        90 -10.7256     46.9520     26.7910   2.7856786248e+01   6.8519279980e+01    0.2225059    0.1912731 -20.58 0.0003373144    1.202    0.168
        91  -9.5650     49.6908     24.3158   2.5174652706e+01   6.8365361365e+01    0.2142898    0.1343659  52.27 0.0005034083    1.584    0.369
        92  -9.4417    177.4044     24.7631   3.5743594127e+02   3.7148242808e+01    0.1686822    0.1238776 -23.48 0.0008634638    1.568    0.362
        93 -10.4655     21.3684    170.0939   7.2728173471e+01   3.6422202482e+01    0.2569548    0.1748566  40.51 0.0005911693    1.326    0.246
        94 -10.9591    107.1751     21.7599   5.9897555301e+00   5.5062102766e+01    0.4291676    0.3048134  22.85  0.002114071    1.899    0.473
        95 -10.5337     98.3136     22.6283   8.2172037841e+00   5.7221329128e+01     0.251518    0.2451735 -77.23 0.0008734322    1.088    0.081
        96 -10.2981     38.3205     22.9159   3.0264946553e+01   7.0773478419e+01    0.1790599    0.1610985 -11.51 0.0003823839    1.100    0.091
        97  -9.4962     66.4606     20.7539   1.6351023560e+01   6.5224858380e+01    0.1680664    0.1341836  -7.05 0.0003014432    1.449    0.310
        98 -10.5141     23.5309     16.0570   3.5453777558e+01   7.4389484438e+01    0.2219446    0.1964344 -70.62 0.0008668392    1.536    0.349
        99 -11.0974     19.8484     15.8722   3.8034212107e+01   7.4970111946e+01    0.3777782     0.239522  14.79   0.00152009    1.800    0.444
       100  -9.8044      8.7793    165.3844   7.6129346589e+01   3.8725016737e+01    0.1731705    0.1273375   6.05  0.000701724    1.673    0.402
       101  -9.8207      3.0962    156.3048   7.7327368438e+01   4.1476483042e+01    0.1843491    0.1548262  58.07 0.0003979494    1.072    0.067
       102  -9.4114     48.4889     19.5395   2.3046869984e+01   6.9318400851e+01    0.1331796     0.123098  32.10 7.675365e-05    1.013    0.013
       103  -9.6245     35.0235     18.9836   2.9835004717e+01   7.1996906423e+01    0.1589598    0.1453098  -7.91 0.0006575918    1.074    0.069
       104  -9.8556     40.0248    147.7228   6.4751584715e+01   4.0231233129e+01    0.2022813    0.1791258  56.81 0.0004450064    1.057    0.054
       105 -10.5956      6.8055    143.8911   7.5373305180e+01   4.4428955798e+01    0.2578602    0.2107821 -67.94  0.001496805    1.241    0.194
       106 -10.6314     21.5810    141.7521   7.0239888881e+01   4.3759051162e+01    0.2878093    0.2448923 -62.63 0.0008232558    1.223    0.182
       107  -9.5192      2.2757    141.6571   7.6727768219e+01   4.5340134441e+01    0.1469149    0.0837865  61.23 0.0005423838    1.622    0.383
       108 -10.3174     28.6746    138.0563   6.7413891670e+01   4.4053802343e+01    0.2035885    0.1727244 -81.40 0.0004408977    1.114    0.102
       109  -9.6922    111.1386     13.8435   2.0990686200e+00   5.4907465108e+01    0.3133346   0.09966905  76.18  0.001002637    3.554    0.719
       110 -10.0382     94.5127    134.5213   4.5161609852e+01   3.5442330897e+01    0.2881151    0.1289752  47.42  0.001031787    2.332    0.571
       111  -9.4186     11.2943    134.0081   7.3072966312e+01   4.6712464067e+01    0.1717882     0.114577 -81.63 0.0008677864    1.370    0.270
       112 -10.6550     18.9168    132.7393   7.0254907657e+01   4.6417932168e+01     0.392277    0.1698152  43.43 0.0009942404    2.168    0.539
       113  -9.6120     64.0801    122.5221   5.2507645812e+01   4.3648520090e+01    0.2157418    0.1481934  35.76 4.872003e-05    1.452    0.311
       114 -10.3266     54.8827    117.9262   5.4885987789e+01   4.6243611361e+01    0.2587927    0.2052128  54.14  0.000429864    1.262    0.207
       115 -10.3384     91.4328    116.5298   4.2077148786e+01   4.0420814852e+01    0.2585085    0.2498668  59.03 0.0001260475    1.037    0.036
       116  -9.5315     13.4387    117.4884   7.0661127863e+01   5.1002751077e+01    0.1406238    0.1265687 -79.04 0.0001299006    1.055    0.052
       117 -10.3366      1.8182    115.3643   7.4979058885e+01   5.2379909852e+01    0.3383406    0.1624799 -74.54  0.001510815    1.828    0.453
       118  -9.2086     44.2890    116.6675   5.8603218711e+01   4.8029593286e+01    0.1574345    0.1074394  67.59 0.0007017914    1.626    0.385
       119  -9.8147    128.7988     23.9435   3.0322552968e+00   4.9246582616e+01    0.1957811    0.1789272  55.08 0.0003277801    1.208    0.172
       120 -11.0510    138.9655    112.5045   2.8101275847e+01   3.1608995734e+01    0.2761621    0.2067413 -63.06 0.0007267182    1.467    0.318
       121 -10.7277    105.6583    112.7384   3.6844875577e+01   3.8525671346e+01     0.316459    0.2648232 -56.38 0.0002088475    1.190    0.160
