#   1 NUMBER                 Running object number                                     
#   2 MAG_AUTO               Kron-like elliptical aperture magnitude                    [mag]
#   3 X_IMAGE                Object position along x                                    [pixel]
#   4 Y_IMAGE                Object position along y                                    [pixel]
#   5 X_WORLD                Barycenter position along world x axis                     [deg]
#   6 Y_WORLD                Barycenter position along world y axis                     [deg]
#   7 A_WORLD                Profile RMS along major axis (world units)                 [deg]
#   8 B_WORLD                Profile RMS along minor axis (world units)                 [deg]
#   9 THETA_WORLD            Position angle (CCW/world-x)                               [deg]
#  10 FWHM_WORLD             FWHM assuming a gaussian core                              [deg]
#  11 ELONGATION             A_IMAGE/B_IMAGE                                           
#  12 ELLIPTICITY            1 - B_IMAGE/A_IMAGE                                       
         1  99.0000     38.9200     27.4655   6.0414722232e+01   6.5935260500e+01     1.387781    0.7265098  47.46  0.006738281    3.229    0.690
         2 -12.6825     25.8611     39.9491   7.0488381401e+01   6.5043276094e+01     1.293801    0.2871472 -47.59  0.005128613    3.177    0.685
         3 -12.3845     30.1482     20.6577   6.1477394137e+01   6.7981242222e+01    0.7157478    0.2751779 -41.41  0.001829066    2.171    0.539
         4 -14.6451     38.0817     72.3215   7.5021608227e+01   5.7420524529e+01     1.774861     1.284205 -56.00  0.009761244    1.179    0.152
         5 -13.3658      3.9720     54.1689   8.3236550931e+01   6.3743652240e+01     1.083199     0.468852 -64.21  0.005879672    1.871    0.465
         6 -14.4339     12.2931     36.9871   7.5330510193e+01   6.6628687673e+01     1.528118     0.802431 -48.24  0.005891819    1.435    0.303
         7  99.0000     42.4533     20.2100   5.5900188933e+01   6.6654840028e+01     1.504903     0.957112  56.75  0.007446074    3.465    0.711
         8 -12.6507     70.9333      3.2960   3.7283887864e+01   6.4448554874e+01     1.735982    0.5727196  45.92  0.007211323    2.667    0.625
         9 -12.7762    130.2008     44.3010   3.6891904644e+01   4.6925504964e+01     1.243582    0.8241277  53.48  0.005960517    1.460    0.315
        10 -12.9041     96.8112     64.8880   5.3120014939e+01   5.0539897171e+01     1.100577    0.8665486  82.33  0.005501469    1.860    0.463
        11 -14.1358     50.7518     46.5031   6.2710428840e+01   6.1217050316e+01     2.237805     1.185629 -17.28  0.009369078    3.002    0.667
        12 -12.2508     80.9241     22.8997   4.2629912607e+01   6.0340752113e+01    0.6281757    0.3514122  36.61   0.00270727    1.733    0.423
        13 -12.0809     73.4060     14.6034   4.1573891149e+01   6.2745572329e+01     1.032171     0.417686  49.82  0.001759564    2.616    0.618
        14 -13.5408     69.6235     23.3315   4.6657586468e+01   6.2256212417e+01     1.742964     1.313423  57.70  0.009121674    1.851    0.460
        15 -13.2808     75.3937     42.3549   5.2208086098e+01   5.8379560194e+01    0.7780571    0.6438381 -85.69  0.004329918    1.963    0.491
        16 -12.2341    198.5166     37.0631   2.1816506390e+01   3.0696445239e+01     1.295919    0.9968027 -14.65  0.006665307    1.594    0.372
        17 -14.0520    220.3824     72.6242   2.8023044907e+01   1.9888354897e+01     2.560794     1.713583  27.25   0.01119781    2.212    0.548
        18 -12.0957    166.5305     29.1921   2.4487006375e+01   3.9966977468e+01    0.8807622    0.5980474 -43.55  0.002080446    1.540    0.351
        19 -13.6016    231.2390     45.8911   1.9827062994e+01   2.1352113100e+01     1.938001     1.142747 -59.63  0.009088767    1.760    0.432
        20 -13.8579     80.1432     59.9774   5.6810145936e+01   5.4432466089e+01      1.87516      1.11091 -52.71  0.008874931    1.852    0.460
        21 -14.3241     10.0564     68.2145   8.3982758563e+01   6.0485882003e+01       1.2697     1.039101 -85.23  0.005728447    1.345    0.256
        22 -13.1036    187.0356     34.6746   2.2829276435e+01   3.3965799984e+01    0.5639966    0.5263861 -82.60 0.0004429651    1.027    0.027
        23 -14.0316     34.7953     57.7628   7.2352510065e+01   6.0772227693e+01     2.363396     1.146113   9.45   0.01075108    3.201    0.688
        24 -12.6013    218.7614     31.3130   1.7678338223e+01   2.6370482759e+01    0.5757238     0.380272 -56.83  0.001628308    1.465    0.317
        25  -9.8193    155.0708     24.7566   2.5089572771e+01   4.3439951198e+01    0.6093974     0.256228 -23.87  0.002335449    2.755    0.637
        26 -11.5911    139.1673     17.7472   2.5728991376e+01   4.8219400182e+01    0.2871692    0.2298119 -32.77 0.0001836446    1.351    0.260
        27  -9.6726    215.9633      8.4329   1.2240311549e+01   2.9805244575e+01    0.2724055      0.15756 -65.32 0.0007390447    1.749    0.428
        28 -11.2045    220.7552     11.9255   1.2630583726e+01   2.8244858462e+01    0.3330915    0.2316332 -66.81  0.001055566    1.343    0.255
        29 -10.5403    201.9763     19.0860   1.6496352846e+01   3.2087550060e+01    0.4546323     0.252877  42.09  0.002010292    2.284    0.562
        30  -9.9958    160.4827     14.6375   2.0941369744e+01   4.3206946039e+01    0.2929053    0.1060065 -36.84            0    2.778    0.640
        31 -10.4924    151.6410     14.2479   2.2274524941e+01   4.5488698681e+01    0.4549185     0.249762 -66.88   0.00182179    2.797    0.643
        32 -10.6749    146.4744     10.6155   2.1962662463e+01   4.7155695735e+01     0.419219    0.1832779  54.98  0.001793914    1.951    0.487
        33 -10.4859    228.0544     12.5457   1.2081640036e+01   2.6411598261e+01    0.4551779    0.1374072 -46.72  0.001045355    2.991    0.666
        34 -10.2947    126.2776     14.6159   2.7244854405e+01   5.1668142991e+01    0.3596256    0.2229824  88.59  0.001412102    2.453    0.592
        35 -10.3236    133.7595     13.1794   2.5195169687e+01   5.0025105987e+01    0.2669623    0.2259451 -85.63   0.00153002    1.348    0.258
        36  -9.4961    129.7120     11.3242   2.5341039193e+01   5.1189012879e+01    0.2001514    0.1813758 -80.03 0.0006741402    1.255    0.203
        37 -11.2821     88.4342      2.6715   3.1690896757e+01   6.1176872224e+01    0.3133405    0.1935851  18.07 0.0007775502    1.703    0.413
        38 -10.5798     85.2644      1.4112   3.2029885983e+01   6.1926990048e+01    0.2412778    0.1471904  29.27 0.0006471732    1.541    0.351
        39 -11.5033     88.2960     11.6582   3.5597686104e+01   6.0293888092e+01    0.4784217    0.2429312  57.36  0.002020177    2.171    0.539
        40 -11.2471     84.7744      7.9828   3.5055251012e+01   6.1378145196e+01    0.3796777    0.2007515 -28.06  0.001952267    1.919    0.479
        41  -4.7769    233.9650      7.6478   1.0405602942e+01   2.5565815381e+01    0.5748089    0.2194907 -50.41  0.002465527    2.419    0.587
        42 -12.2673    247.1247     10.2469   9.9003758447e+00   2.2233680275e+01    0.4315058     0.229479 -83.62  0.002108294    1.937    0.484
        43 -12.6872    242.1629      7.4390   9.6769933417e+00   2.3685728839e+01    0.4803739    0.2806396 -65.20  0.001095333    1.583    0.368
        44 -10.2840    179.9836     11.8637   1.7266609137e+01   3.8508026279e+01     0.206321    0.2040667 -45.06  0.001221822    1.153    0.132
        45 -11.1930    116.2283     10.0157   2.7729396815e+01   5.4479542694e+01    0.4554474    0.2435817  33.52   0.00116191    1.998    0.500
        46 -10.4981    116.4674      6.5851   2.6366316203e+01   5.4756196899e+01    0.2380643    0.1653801  54.49 0.0001600404    1.285    0.222
        47 -10.2326     26.2871      9.4860   5.8361103393e+01   7.0070852163e+01    0.2416392     0.143416  13.12  0.001214798    1.745    0.427
        48 -10.8290    173.4690      6.4950   1.6565406176e+01   4.0723159141e+01    0.2839827     0.251932  76.15  0.001106386    1.009    0.009
        49  -9.6486     99.3835      6.4643   3.0371396989e+01   5.8549071063e+01    0.4257046    0.1964218  50.97  0.001889365    1.883    0.469
        50 -11.3340     48.4597      8.1998   4.7922021969e+01   6.7511515129e+01    0.2932903    0.2067643  11.49  0.001545634    1.291    0.226
        51 -11.0954    194.1061      7.4754   1.4301462198e+01   3.5366184242e+01    0.2787321    0.1956291  54.58 0.0007378992    1.434    0.302
        52  -9.0448    102.6913      9.6646   3.0832526639e+01   5.7524118196e+01    0.2493921    0.1291354  59.63  0.001173323    1.950    0.487
        53  -9.0563    156.2460      7.3727   1.9304858284e+01   4.5018840513e+01    0.1373946   0.09620628  30.99 0.0006943472    1.628    0.386
        54 -10.3561      3.3633      6.4236   6.8553278274e+01   7.2482587375e+01    0.2204566    0.1453799  -4.70  0.001038032    1.444    0.307
        55  -9.0623    145.4851      6.4692   2.0746042072e+01   4.7803177379e+01    0.1372615    0.1208006  56.68 0.0001099561    1.022    0.022
        56 -10.3070    109.2406      4.6995   2.7258238225e+01   5.6566213833e+01    0.3641861     0.247488  60.93 0.0009503852    1.428    0.300
        57 -10.2445    183.2740      3.7154   1.4529070223e+01   3.8495245209e+01    0.2369531    0.2251851   0.15  0.001490622    1.261    0.207
        58 -10.2671    154.3658      2.7453   1.8114424606e+01   4.5924001347e+01    0.2592952    0.2211091  41.89  0.001219809    1.187    0.158
        59 -11.9819     46.7737      2.1177   4.5647675600e+01   6.8482914421e+01    0.2860862    0.1689445  21.13   0.00169886    1.644    0.392
        60  -9.2675    214.7188      2.7147   1.0948106059e+01   3.0720201683e+01    0.1222153   0.09532554  47.36 0.0002026464    1.519    0.342
        61 -10.7434    126.9403      1.7774   2.2431142907e+01   5.2739661560e+01    0.1946613     0.162183  53.95 0.0003382933    1.056    0.053
        62  -8.9405    179.3329      1.3031   1.4318726632e+01   3.9727518517e+01    0.1396828    0.0914124  44.27 0.0007036374    1.658    0.397
        63 -11.4497    200.2531     96.2814   3.7548442564e+01   2.0678819431e+01    0.3721988    0.2866726 -64.14  0.000898795    1.455    0.313
        64 -11.4861    248.7362    249.7682   6.0282265001e+01  -1.2339868686e+01    0.2890569    0.1504323  30.13  0.001772013    1.538    0.350
        65 -11.0659    228.9212    249.3290   6.3537223886e+01  -9.4440125070e+00    0.2098623    0.1512383 -14.94  0.000595643    1.487    0.327
        66 -11.9428    227.5243    242.7104   6.2761612890e+01  -8.4775598662e+00    0.2623612    0.2282507 -55.93   0.00172589    1.860    0.462
        67 -12.0699     36.0343    248.9951   9.7072350649e+01   1.9650519678e+01    0.2489512    0.1775628  83.87  0.001943423    1.207    0.171
        68 -12.7190    131.3767     96.5253   5.2910346063e+01   3.7023021128e+01    0.5551983    0.4492877  77.50  0.002666447    1.469    0.319
        69 -11.1889     11.8731     97.5778   8.8480965520e+01   5.3940090399e+01    0.2377556     0.154673 -66.23 0.0006011469    1.184    0.155
        70 -11.9012    182.7846     93.1311   4.0100820191e+01   2.5525333858e+01     0.642178    0.4370978 -18.68  0.002707932    1.895    0.472
        71 -11.9439     50.0785     95.3487   7.6375906068e+01   5.1052521529e+01    0.3081638    0.2345989  29.46 0.0003225226    1.536    0.349
        72 -11.2087     43.6909     94.1869   7.8128350675e+01   5.2013486371e+01    0.2077593    0.1534733 -79.40  0.001197898    1.407    0.289
        73 -10.6373     27.7686     95.9905   8.3422956111e+01   5.3104867504e+01    0.1811764    0.1669423 -69.16 0.0003250761    1.135    0.119
        74 -10.9318    213.8734     94.3755   3.4624150894e+01   1.7761328364e+01    0.2975767    0.2527147 -60.25 0.0007815168    1.202    0.168
        75 -10.6902    207.6205     94.4945   3.5747038559e+01   1.9228870752e+01    0.2570072    0.2456479 -47.69 0.0001692126    1.016    0.016
        76 -10.8963    177.6495     94.6618   4.1570173710e+01   2.6495126117e+01     0.264917    0.2616097  83.22 0.0003548827    1.016    0.016
        77  -9.7216    247.6152     94.7100   2.9410506433e+01   1.0086667568e+01    0.1411164    0.1076099  16.92 0.0007013691    1.753    0.430
        78 -12.1477    189.3017     93.5990   3.8929905619e+01   2.3838203830e+01    0.4127917    0.2902471  58.58  0.001065018    1.460    0.315
        79 -10.1842     68.1185     94.5238   7.0573654526e+01   4.8966873668e+01    0.1846343    0.1375017  35.58 0.0006362307    1.499    0.333
        80 -13.5037     52.8612     87.7748   7.3789643671e+01   5.2443992614e+01    0.6389156    0.4921305 -64.47  0.001573824    1.216    0.178
        81 -10.9909     48.5660     85.7004   7.4698091669e+01   5.3399300076e+01    0.2629116    0.1931667 -60.81 0.0007429232    1.210    0.174
        82 -11.5945     96.4872     90.3092   6.0862535002e+01   4.5377810828e+01    0.5695532    0.4050327  73.30  0.002599205    2.027    0.507
        83  -9.7359    155.5324    115.5372   5.2014541061e+01   2.7548708742e+01    0.1571056    0.1510404 -87.55 7.391698e-05    1.044    0.042
        84 -13.6186    177.7083     85.4960   3.9039042074e+01   2.8204891173e+01     2.096876    0.9551923  33.50  0.005890534    4.329    0.769
        85 -13.6457    196.1211     84.2499   3.5132233412e+01   2.3854947505e+01     1.142201    0.9265942 -47.07  0.002932503    1.206    0.171
        86 -11.5181    133.1544    111.9814   5.6572166784e+01   3.3302134543e+01    0.3374609    0.2830145 -84.55  0.001653401    1.358    0.264
        87 -11.4753     65.2247    110.4164   7.4989443751e+01   4.5694872132e+01    0.2727619    0.2087322 -50.04 0.0004838263    1.229    0.186
        88 -11.7159    208.5548     51.7581   2.4343771356e+01   2.6058741017e+01    0.7381384    0.3592152  56.19  0.003065611    2.021    0.505
        89 -12.1035    207.8256     45.2081   2.2704453496e+01   2.7198662740e+01    0.7210603    0.4526649  72.72  0.002454421    1.612    0.380
        90  -9.8560    217.1902    109.5990   3.7846583412e+01   1.4289842015e+01     0.254384    0.1881381 -47.81 0.0005722384    1.341    0.254
        91 -12.9616    191.7598     68.6093   3.1648453182e+01   2.7643187074e+01     1.310432    0.8320389  23.39  0.005097417    2.569    0.611
        92 -13.1069    220.9910     59.2287   2.4511259959e+01   2.1854763737e+01     1.322214    0.9457775  64.56  0.005783401    1.416    0.294
        93 -12.5201    185.0743     46.9926   2.6679600061e+01   3.2750625462e+01    0.9861237    0.6637382 -28.22   0.00464229    1.607    0.378
        94 -13.3210    203.6889     69.3330   2.9803306453e+01   2.4522417094e+01    0.8815669    0.7320414 -54.44  0.003668999    1.175    0.149
        95 -12.5204    191.0480     60.0912   2.9395261377e+01   2.9212953001e+01    0.7260258    0.5215757  51.61 0.0004885826    1.408    0.290
        96 -13.0520    192.8284     50.5566   2.6424470207e+01   3.0229834109e+01     1.062486    0.6645116 -41.75  0.001752844    1.574    0.365
        97 -12.7153    172.1176     53.8317   3.0984645777e+01   3.5051498458e+01     1.221298    0.7327613  75.79  0.001874926    2.020    0.505
        98 -12.9932    174.2515     43.4651   2.7493481458e+01   3.6053884823e+01    0.9083688    0.7079075  18.39  0.003384294    1.627    0.385
        99 -12.9874    162.1432     38.4764   2.8157768010e+01   3.9867984571e+01     1.175254    0.7320684  65.63  0.005380219    1.575    0.365
       100 -11.4198     62.0613     90.3734   7.1467905608e+01   5.0719658752e+01    0.2655692    0.2191955 -52.77   0.00108212    1.065    0.061
       101 -10.0729    166.4942     89.3933   4.2499317001e+01   3.0239519381e+01      0.29711    0.1949282  58.91 0.0006652065    1.585    0.369
       102 -11.6895    162.4895     84.2864   4.1934077778e+01   3.2196405108e+01    0.5604218    0.4100753  62.95  0.001984506    1.440    0.306
       103 -12.1778    169.4644     79.8227   3.9147801260e+01   3.1302625986e+01    0.5793549    0.5082043 -70.42  0.002770313    1.209    0.173
       104  -9.4563     85.8506     89.3526   6.3793658634e+01   4.7425700678e+01    0.1912613    0.1355243  25.57 0.0005088623    1.665    0.399
       105 -10.8667     70.9624     87.9718   6.8050793387e+01   5.0034404253e+01    0.2747713     0.233263 -13.23 0.0003868818    1.339    0.253
       106 -12.9129     67.1035     82.1186   6.7750255154e+01   5.1868052240e+01     0.691703    0.4978371 -66.61  0.002020817    1.511    0.338
       107 -10.2518     38.5075    110.4998   8.2757600593e+01   4.8784354647e+01     0.129145     0.106921 -67.98 -6.964192e-05    1.011    0.011
       108 -12.1196      5.4914     85.2464   8.8544172582e+01   5.7068368772e+01    0.4970836    0.1898321 -57.10  0.002576686    1.887    0.470
       109 -11.6472    186.4481     86.9124   3.7683808577e+01   2.5773432896e+01    0.3954379    0.2366648  59.71  0.001482819    1.740    0.425
       110 -12.2771    106.5188     96.4769   5.9643697336e+01   4.2161885784e+01    0.4476595    0.3207061 -20.76  0.001705565    1.841    0.457
       111 -11.3320    237.6271     86.3317   2.8861502503e+01   1.3636953579e+01    0.3053895    0.2524133  67.22 0.0005521012    1.303    0.233
       112 -12.0546    114.1895     80.8721   5.3029403032e+01   4.3944734845e+01    0.4856484    0.3594843 -43.07  0.001222571    1.316    0.240
       113 -10.7787    231.5222     83.7796   2.9140941994e+01   1.5441666771e+01    0.4792853     0.274238 -65.59  0.001331155    2.502    0.600
       114 -13.4797    204.4450     60.5590   2.7322938891e+01   2.5743922670e+01     1.862297    0.6874033  61.84  0.006506942    2.746    0.636
       115 -12.0332     80.7979     72.3534   6.0520050066e+01   5.1872965451e+01    0.6084154    0.3810919  35.20  0.002993119    1.729    0.422
       116 -11.0451     81.9670     79.3372   6.2208704706e+01   5.0225785606e+01    0.2550433    0.2240909 -46.77 0.0004170942    1.066    0.062
       117 -12.3816     87.1551     74.3180   5.9089920269e+01   5.0408147983e+01    0.7440696    0.3569027 -35.97  0.002943631    2.277    0.561
       118 -10.5087    232.2882     78.6460   2.7765542256e+01   1.6103425559e+01    0.3913611    0.2458549  87.55  0.001691481    2.219    0.549
       119 -10.8683    155.6867     76.4336   4.1168041928e+01   3.5336087402e+01    0.4625301    0.3397101  33.94  0.002109814    1.536    0.349
       120 -12.1073     72.2897     73.3864   6.3606065304e+01   5.2984987613e+01    0.6239079    0.5028438  81.52  0.002582896    1.731    0.422
       121  -9.9525    250.1551     73.9489   2.4201897704e+01   1.2829762868e+01     0.222206    0.1685559 -54.75  0.001211047    1.231    0.188
       122 -12.1024    177.0944     71.0126   3.5064697847e+01   3.0953224519e+01    0.5731587    0.4226681 -77.52 0.0004836917    1.680    0.405
       123 -12.7937    163.0918     67.6414   3.6926816317e+01   3.5071663810e+01    0.9831291    0.7705249  38.77  0.004756785    1.358    0.264
       124 -10.5984    240.5423     68.9926   2.4272799240e+01   1.5740130162e+01    0.3554877    0.1787643 -26.90  0.001463394    2.260    0.557
       125 -10.3761    183.1066     68.2562   3.3125332080e+01   2.9898182996e+01    0.4159289    0.1803728 -43.15  0.001213376    2.294    0.564
       126  -9.6083    250.1954     67.7646   2.2751180750e+01   1.3768343349e+01    0.1795207    0.1638028   2.90  0.001059789    1.348    0.258
       127 -10.1038     75.1479     68.0388   6.1050206726e+01   5.3649125142e+01    0.1980812    0.1645661 -25.59  0.001131915    1.165    0.142
       128 -10.2380     97.2102    109.5827   6.5619692496e+01   4.0925003813e+01    0.1899202     0.144181  26.79 0.0003128834    1.558    0.358
       129 -10.1196    243.4440     64.4776   2.2817732301e+01   1.5774095312e+01    0.4056351    0.2303606 -61.36 0.0009081305    2.020    0.505
       130 -10.6123    241.8530     57.7428   2.1408302246e+01   1.7147404580e+01    0.4279511    0.2838239 -20.93    0.0018001    1.829    0.453
       131 -10.8524     46.9717     60.5468   6.8627232508e+01   5.8943886599e+01     0.260325    0.1849908 -33.26  0.001468751    1.291    0.225
       132 -11.8823    162.3354     58.1288   3.4208353091e+01   3.6860794972e+01     0.859383    0.4116821 -32.94  0.003313163    2.174    0.540
       133 -10.4499    160.1529     51.0873   3.2482595232e+01   3.8530491582e+01     0.393059    0.2645617 -29.58 0.0006700685    1.578    0.366
       134 -10.6987    248.6678     57.1459   2.0453404512e+01   1.5693594281e+01    0.2475958    0.2130096  87.88 0.0006319073    1.177    0.150
       135 -10.2122    108.7773     56.5370   4.6777406900e+01   4.9695383567e+01    0.2784427    0.1952647 -34.18   0.00111563    1.409    0.290
       136  -9.7124     87.6216     55.7862   5.2952024007e+01   5.3926452411e+01    0.2120053    0.1596602 -23.13  0.001124715    1.336    0.251
       137 -10.5917    102.4248     53.4674   4.7572226527e+01   5.1528322257e+01    0.4070117    0.2422554  28.54  0.001293749    2.027    0.507
       138 -10.4375     98.3465     53.6783   4.8869231630e+01   5.2298463287e+01    0.2892031    0.2009969 -52.34 0.0007237315    1.671    0.402
       139  -9.1874    111.4797     52.4026   4.4590128178e+01   4.9837667539e+01     0.144954     0.131807  13.87 0.0002170732    1.081    0.075
       140 -11.6681     90.8766     50.6818   5.0129658622e+01   5.4241781255e+01    0.3912945    0.2653486   2.71 0.0007874118    1.977    0.494
       141 -10.4732    249.7559     49.8654   1.8636295286e+01   1.6503279357e+01    0.2500568     0.226372  35.91 0.0009226405    1.399    0.285
       142 -10.2987    149.1905     45.4951   3.2978812216e+01   4.2136594450e+01    0.3418427    0.2851679  65.00  0.001314302    1.188    0.158
       143 -11.1424    147.8310     39.0828   3.1171964920e+01   4.3402476911e+01    0.6492773    0.4120194 -53.16  0.002308753    1.867    0.465
       144  -9.8391    142.3612     46.4021   3.4766127403e+01   4.3687322743e+01     0.331983    0.1887973  38.54  0.001011973    1.947    0.486
       145 -10.3138     99.8172     46.9008   4.6023870748e+01   5.3158561367e+01    0.2946267    0.2275283  42.47  0.001199035    1.299    0.230
       146 -10.4704    104.6808     43.7800   4.3465677193e+01   5.2671758214e+01    0.3911578    0.2837102   3.40  0.001953448    1.650    0.394
       147 -10.3749    240.1898     43.5122   1.8210025777e+01   1.9581038543e+01    0.4627894    0.2397097 -72.22  0.001614399    2.603    0.616
       148 -10.0294    241.1476     40.1450   1.7306323931e+01   1.9824641384e+01    0.1826393    0.1744836 -82.87 0.0002644685    1.158    0.137
       149 -10.4712     34.0978     43.0980   6.8127309050e+01   6.3697120087e+01    0.3001629    0.2194501  -8.94  0.001918775    1.420    0.296
       150 -11.5637    247.9534     42.4856   1.7123327724e+01   1.7944621955e+01    0.3442474    0.2131466 -54.16  0.001775262    1.475    0.322
       151  -9.7559     96.5248     42.5184   4.5416709349e+01   5.4518828105e+01    0.1362372     0.128611  -2.53 -3.014487e-05    1.062    0.058
       152 -10.1665    112.0000     34.4961   3.8023837861e+01   5.2494640632e+01    0.3710117    0.1969687 -28.72  0.001657734    1.951    0.487
       153  -9.6037    111.6681     40.7403   4.0401034699e+01   5.1658450080e+01    0.2112757     0.172111  27.31 0.0002447748    1.217    0.178
       154 -10.1699    114.2713     38.3580   3.8835026343e+01   5.1442314045e+01    0.2700064    0.1826123  58.68 0.0007129402    1.584    0.369
       155  -9.7711    100.9442     40.5465   4.3366998053e+01   5.3942645287e+01    0.2484343    0.1757168  49.81   0.00128596    1.457    0.313
       156  -9.9860     39.8242     39.7833   6.4667373715e+01   6.3713733989e+01     0.190943    0.1421466 -23.72  0.001215552    1.187    0.158
       157 -10.4005    195.5001    106.9728   4.1213040868e+01   1.9834761039e+01    0.3963232    0.2428661 -53.93  0.001641221    1.836    0.455
       158 -10.8568    181.5255     30.0216   2.2322591072e+01   3.5993608788e+01    0.4296085    0.3139705  28.24  0.001471335    1.731    0.422
       159 -10.3830     15.6454    106.3245   8.8654839213e+01   5.1704279411e+01    0.2795632     0.130224 -84.07  0.001327749    2.302    0.566
       160 -13.6618    117.2718     64.9431   4.7189615682e+01   4.6385877485e+01      1.54559     1.149811  52.20  0.007600316    1.396    0.284
       161 -11.7424    131.9805     33.9883   3.2902550006e+01   4.7978080468e+01     0.244482    0.2243292   7.32 0.0003168024    1.117    0.105
       162 -10.4573    120.0029     35.1250   3.6180288944e+01   5.0618723788e+01    0.1981009    0.1829579  29.78 0.0002636196    1.012    0.012
       163  -9.7641    212.0656     33.8811   1.9154070148e+01   2.7695556352e+01    0.2112483    0.1660717 -66.57 0.0003359169    1.218    0.179
       164 -10.9288    184.0216    105.8075   4.3213090598e+01   2.2802205136e+01    0.2772236    0.2486276 -89.31 0.0004295316    1.207    0.172
       165 -10.8734    219.7172     27.6393   1.6640101171e+01   2.6608453671e+01    0.2739434    0.1998942  70.42 0.0007811122    1.315    0.239
       166 -11.7299    194.8723     26.5197   1.9416218126e+01   3.2998823881e+01    0.6876584    0.4476697  79.79  0.002885138    1.522    0.343
       167 -13.4006     55.9116     69.6396   6.8074246778e+01   5.6011181774e+01     1.032533    0.6013962 -47.65  0.005357119    1.480    0.324
       168 -10.4540    144.2177    103.1291   5.1477688818e+01   3.2754103014e+01     0.313732    0.2700219  27.81  0.001265632    1.284    0.221
       169 -11.3631    147.1443     25.6952   2.6875811167e+01   4.5323787121e+01    0.5117571    0.3373087  -0.59  0.001710724    2.021    0.505
       170 -11.6401    151.0605     22.2729   2.5007817528e+01   4.4746880103e+01    0.3617978      0.26061  44.23  0.001145318    1.359    0.264
       171  -9.4845    140.5187     29.3958   2.9453169788e+01   4.6508297412e+01    0.1412541    0.1314456  70.89 0.0002640697    1.089    0.082
       172 -12.5271    112.9296     28.0980   3.5394621946e+01   5.3153874939e+01    0.4495911    0.2491077  54.66  0.001597906    1.755    0.430
       173 -10.2564    105.0620     28.2876   3.7560846741e+01   5.4839906555e+01    0.3188514     0.233594 -60.37  0.001619961    1.941    0.485
       174 -11.3850     86.7060     28.5782   4.3093885997e+01   5.8492732375e+01    0.2847108    0.2141479  31.01 0.0005721472    1.265    0.210
       175  -9.4114    229.8179     27.4478   1.5485212819e+01   2.4180130730e+01    0.4645277    0.1285018  69.56  0.001563757    3.629    0.724
       176 -11.0068    135.0390     25.3405   2.9207405005e+01   4.8350139468e+01    0.4314771    0.2976261  51.13  0.001991824    1.327    0.246
       177 -11.3764    109.9320    102.9959   6.0415646759e+01   4.0060536125e+01    0.3137771    0.2089564 -48.53  0.001444328    1.444    0.307
       178 -10.5911    124.1207     25.9237   3.1845634107e+01   5.0878928125e+01    0.4091495    0.2234267  39.41 0.0009108906    1.859    0.462
       179 -10.8222    176.3169     24.9722   2.1631741111e+01   3.7965490187e+01    0.4222649    0.2133743 -35.79  0.001841714    2.008    0.502
       180  -9.8908    180.0297     20.6818   1.9819847447e+01   3.7517042394e+01    0.3058805    0.1846474  83.94  0.001396593    1.783    0.439
       181 -10.9330    163.3967     20.6272   2.2349179318e+01   4.1800742514e+01    0.2507155     0.235569 -77.12 0.0006261304    1.090    0.082
       182  -8.5369    243.4805     21.7182   1.2789127655e+01   2.1690897205e+01    0.4962358    0.2629767  58.24  0.002449334    2.012    0.503
       183  -9.7863    237.4884     23.4983   1.3766773732e+01   2.2860421100e+01    0.2069906    0.1777582 -79.37 0.0005708726    1.046    0.044
       184  -9.5298    234.3412     23.7087   1.4125570563e+01   2.3575022077e+01      0.13811    0.1177936 -73.09 0.0008269749    1.007    0.007
       185 -14.1248    120.8484     88.9057   5.3550140402e+01   4.0895619306e+01     1.994377     1.111504 -31.48  0.007838339    2.166    0.538
       186 -13.0185    151.0815     62.2619   3.7897547051e+01   3.8987973429e+01     1.372021    0.8760103  60.06  0.005704379    1.602    0.376
       187 -10.5024    223.0936     16.8453   1.3600825580e+01   2.7106728992e+01    0.2449028    0.1796484 -78.31            0    1.263    0.208
       188  -9.9358    226.3049     18.2836   1.3628009963e+01   2.6158481002e+01    0.1678634    0.1552849 -78.57 0.0004941553    1.119    0.106
       189 -10.4909    209.6987     22.5706   1.6499034595e+01   2.9726575689e+01    0.2561466    0.1706547 -42.35  0.001081654    1.463    0.317
       190 -10.2340    185.4276     23.1452   1.9765307695e+01   3.5836243870e+01    0.2948171    0.1766816  89.27  0.001069344    1.904    0.475
       191 -10.8059    119.1026     22.2146   3.1663554342e+01   5.2490442336e+01    0.3245471    0.1929883  50.11 0.0009859115    1.527    0.345
       192 -10.6334    122.3661     19.0680   2.9738837707e+01   5.2100333514e+01    0.2857195    0.2171687 -13.40  0.001378019    1.415    0.293
       193 -10.8130     97.8084     21.9264   3.7090928251e+01   5.7174452052e+01    0.2899534    0.2355617 -14.04  0.001031141    1.218    0.179
       194  -9.7294    168.4226     22.2579   2.2043415803e+01   4.0322379524e+01    0.1925015    0.1270751 -43.18 0.0009376453    1.588    0.370
       195  -9.6897    112.1625     22.2603   3.3380560309e+01   5.4053986409e+01    0.2360645    0.1235427  24.49 0.0009363617    2.696    0.629
       196 -10.0118     90.2075     21.9707   3.9333298425e+01   5.8699009502e+01    0.2108244    0.1533086  12.83  0.001168156    1.413    0.292
       197 -12.1038     92.0557     33.0042   4.3173943832e+01   5.6837913424e+01    0.6611134    0.4179896  24.25  0.003264845    1.779    0.438
       198  -9.7503    193.4337     19.2271   1.7592060140e+01   3.4244083985e+01    0.3651832     0.127457 -30.42  0.001371182    2.885    0.653
       199 -10.3104    130.1651     19.0929   2.8034835816e+01   5.0254683798e+01    0.2310943    0.1836721  58.62 0.0004381625    1.182    0.154
       200 -10.8312    111.4535     17.1817   3.1608415877e+01   5.4801589423e+01    0.2506431    0.2091314  61.73  0.000854091    1.261    0.207
       201 -11.4479      3.0958    248.4160   1.0208838422e+02   2.3329319569e+01    0.3036849    0.1609168  86.80  0.002245458    1.458    0.314
       202 -14.3353    137.5480     86.0883   4.8359275018e+01   3.7788077580e+01      2.55508     1.002221  38.93  0.007998321    3.239    0.691
       203 -13.0536    138.9638     70.8226   4.3410160178e+01   4.0397825663e+01      1.64159      0.87556  36.92  0.006298054    2.235    0.552
       204 -11.8242    140.0169     97.5183   5.0986744885e+01   3.4885108700e+01    0.4945384    0.2654457  69.22   0.00154927    3.527    0.716
       205 -10.6998    113.4844    245.5061   8.3619748594e+01   9.5512652091e+00    0.1209497   0.09251898  57.06 0.0007024834    1.009    0.009
       206  -9.5744    102.4658     14.9078   3.3002807018e+01   5.7017683228e+01    0.1755269    0.1266393 -17.42 0.0002904809    1.427    0.299
       207  -8.9237    166.6980     14.2940   1.9871157192e+01   4.1656002530e+01    0.1408482    0.1004275 -69.63 0.0002956028    1.573    0.364
       208 -12.5524    243.4606    242.8045   6.0066036348e+01  -1.0847765090e+01    0.3203887    0.1884975  30.25  0.002025753    1.366    0.268
       209 -10.7164    180.4793    242.9808   7.1142705472e+01  -1.0057951348e+00    0.1544153    0.1221032 -40.70 0.0006048742    1.577    0.366
       210 -11.4998    219.3633    240.1267   6.3777900018e+01  -6.9132527064e+00    0.3001883     0.216161  26.03  0.001989477    1.120    0.107
       211 -10.0843    110.2157    240.9417   8.3734496545e+01   1.0820214270e+01    0.1403532   0.09458485 -69.29 0.0008735183    1.708    0.414
       212 -10.9821    235.2159    244.3928   6.1707954547e+01  -9.8210332484e+00    0.1567834   0.09164629  42.11 0.0003922312    1.620    0.383
       213 -13.3538    101.0932     75.4794   5.5177746967e+01   4.7643459236e+01    0.9958037    0.7966912  32.49   0.00246944    1.319    0.242
       214 -12.4901    139.5114     53.8610   3.7871466347e+01   4.3209307891e+01     1.951052     0.671921  49.52  0.005285475    2.743    0.635
       215 -10.7615     15.9315    238.5991   9.9697331813e+01   2.3723702398e+01    0.1690779    0.1124119 -84.59 0.0005616586    1.374    0.272
       216 -10.3760    159.8753    219.8969   7.1694705520e+01   6.0312995366e+00    0.1899745    0.1631308  48.87 0.0004024155    1.045    0.043
       217  -9.2835    220.0340    136.9661   4.3830908847e+01   8.7781276469e+00     0.165184    0.1584514  -0.45 0.0009359785    1.024    0.023
       218  -9.6516    155.7869     12.4696   2.1007690020e+01   4.4626751174e+01    0.2081129    0.1067659  51.98 0.0009275044    1.764    0.433
       219 -11.8968    152.8675    124.2374   5.4811032408e+01   2.6301529984e+01    0.2658434    0.2577378  84.24  0.000258815    1.019    0.019
       220  -9.8430    225.9628    120.9648   3.9048473861e+01   1.0326167339e+01    0.2250277    0.1723863  13.02  0.000523749    1.617    0.381
       221  -9.2151    105.7076     12.2706   3.1114864007e+01   5.6601457634e+01    0.1192492    0.1034795 -73.29 0.0003543483    1.513    0.339
       222  -9.6701    249.1281    118.1158   3.4596378246e+01   5.9521306427e+00    0.2175867    0.1625835 -65.53  0.001111457    1.702    0.412
       223 -12.7314     58.6122     60.4556   6.4387019390e+01   5.7539498695e+01    0.7101201     0.523228 -85.79  0.003643987    2.292    0.564
       224  -9.9106    204.5879    116.4191   4.1833188206e+01   1.5935673786e+01    0.2805786    0.1506485  57.24 0.0009640959    2.055    0.513
       225 -12.8258     82.2944     40.7874   4.9285420242e+01   5.7456299669e+01    0.6497208    0.5236558 -43.00  0.003778674    1.341    0.254
       226 -11.1241    100.9591    101.5267   6.2553701627e+01   4.2081752998e+01    0.2384651    0.1890544 -50.34 0.0003559565    1.197    0.164
       227 -12.1995     87.0167     98.4010   6.5804803533e+01   4.5215250633e+01    0.5322717    0.3825017  12.44  0.002548588    1.929    0.481
       228 -10.2569    218.7573     99.9750   3.5196035600e+01   1.5634538014e+01    0.2123039     0.192284 -39.89 0.0004301795    1.053    0.050
       229 -11.9230    151.6524     96.3797   4.7836389822e+01   3.2428251656e+01     0.686124    0.4088467 -62.54  0.002360568    2.323    0.569
       230 -10.0751     96.5120    100.4862   6.3560158222e+01   4.3117759862e+01    0.1463069    0.1375912 -49.80 0.0001653856    1.025    0.025
       231  -9.6017    194.2018     98.7828   3.9347293361e+01   2.1681145412e+01    0.2156181    0.1855361  14.48  0.001063057    1.367    0.268
       232 -11.1076    169.9661     97.8315   4.4068601955e+01   2.7753718555e+01    0.3963196    0.3491262   1.24  0.001327259    1.322    0.244
       233  -9.7375    166.0292     95.5028   4.4297046749e+01   2.9165166278e+01    0.2320825    0.1549297  52.04 0.0003916633    1.498    0.333
       234 -11.7308    107.9994     88.5171   5.7016206575e+01   4.3597453195e+01    0.3757658     0.268138   9.67  0.001206394    2.048    0.512
       235 -12.2031    227.2008     22.8410   1.4641837136e+01   2.5388014262e+01    0.3595143    0.2415228  83.97 0.0008286152    1.428    0.299
       236 -12.6151    106.0076     92.9894   5.8837702451e+01   4.3021953393e+01    0.6458343    0.4195724  25.47  0.001356827    1.993    0.498
       237 -10.7579    229.8116     97.1816   3.2687991317e+01   1.3588298849e+01    0.5664363    0.3028294  62.06  0.002381493    2.153    0.536
