#   1 NUMBER                 Running object number                                     
#   2 MAG_AUTO               Kron-like elliptical aperture magnitude                    [mag]
#   3 X_IMAGE                Object position along x                                    [pixel]
#   4 Y_IMAGE                Object position along y                                    [pixel]
#   5 X_WORLD                Barycenter position along world x axis                     [deg]
#   6 Y_WORLD                Barycenter position along world y axis                     [deg]
#   7 A_WORLD                Profile RMS along major axis (world units)                 [deg]
#   8 B_WORLD                Profile RMS along minor axis (world units)                 [deg]
#   9 THETA_WORLD            Position angle (CCW/world-x)                               [deg]
#  10 FWHM_WORLD             FWHM assuming a gaussian core                              [deg]
#  11 ELONGATION             A_IMAGE/B_IMAGE                                           
#  12 ELLIPTICITY            1 - B_IMAGE/A_IMAGE                                       
         1 -13.6120    197.9497     26.5626   6.8069124297e+01   3.1919991873e+01     1.693315     1.422742  17.81  0.007272469    1.454    0.312
         2 -13.4966    213.2731      7.6514   6.1275373029e+01   3.0028864298e+01    0.9813763    0.8066451  64.28  0.003612097    1.217    0.178
         3 -14.7820      3.8404    130.2774   1.4570101971e+02   4.7723298357e+01     5.385658    0.5134942 -74.94   0.01395313    7.917    0.874
         4 -11.5003      2.9730      4.0007   1.1976083045e+02   7.3924552441e+01    0.3719873    0.2354365 -41.69  0.002620046    1.276    0.216
         5 -10.9851     46.1124    248.7775   1.4559361743e+02   1.9900698698e+01    0.3870988    0.1069839  50.84   0.00126133    2.506    0.601
         6 -12.7282    153.0930    249.1041   1.2663776344e+02   4.4112198682e+00    0.9376976    0.1685903  42.33  0.003158852    4.111    0.757
         7 -11.4405     99.7099    248.4088   1.3628318822e+02   1.2812325599e+01    0.2791286     0.246334 -20.00  0.002024497    1.866    0.464
         8 -13.1195     32.3618    234.6116   1.4709229618e+02   2.3905788843e+01    0.2711907    0.2318234  73.25 0.0008375677    1.317    0.240
         9 -14.0893     36.8817    228.3672   1.4594924727e+02   2.4509881664e+01    0.7244288    0.4663795  56.29  0.002368143    1.195    0.163
        10 -12.8765     11.8012    238.8176   1.5068383439e+02   2.5332259705e+01    0.8558577    0.5373013  74.49  0.006719071    1.155    0.135
        11 -10.4881      2.9421    249.5081   1.5246488365e+02   2.4404622341e+01     0.193173    0.1138065  53.28  0.001517044    1.289    0.224
        12 -11.2150      2.9662    246.4979   1.5235640076e+02   2.4897536552e+01    0.2481285    0.1275533  55.69  0.001156887    1.357    0.263
        13 -10.4626    198.3801    246.1908   1.1800924008e+02  -2.5259994770e+00    0.1366435    0.1145625 -47.65 0.0005797422    1.730    0.422
        14 -12.3595     20.5440    241.1474   1.4938207471e+02   2.4045244886e+01    0.5230292    0.2368491 -69.66  0.003389134    2.312    0.567
        15  -9.9149    214.5154    249.5043   1.1562572793e+02  -5.4350484248e+00    0.1193293   0.08693165  26.33 -1.126594e-06    1.016    0.015
        16 -12.7056    125.0825    248.2980   1.3167540248e+02   8.9837431952e+00    0.5850942    0.3770485  31.67  0.003582916    1.621    0.383
        17 -12.9719     33.4023    246.9854   1.4758295016e+02   2.1667820935e+01     1.474103     1.046863 -36.78  0.009341571    3.440    0.709
        18  -9.2413     94.3278    238.6577   1.3636397742e+02   1.5192839648e+01    0.1258139    0.0704631  64.32 0.0007051199    1.741    0.426
        19 -12.7583    120.4053    231.9056   1.3074901461e+02   1.2316272397e+01    0.9330213    0.1556316  41.82  0.002960795    4.479    0.777
        20 -12.7244     90.5262    227.2358   1.3598675543e+02   1.7719772787e+01     1.103258    0.1866325  47.69  0.003599881    4.627    0.784
        21  -9.9848     54.0816    229.0312   1.4292993633e+02   2.2346645159e+01    0.1811789    0.1256466  65.36  0.001058988    1.095    0.087
        22  -9.7352     56.1612    223.5366   1.4214255498e+02   2.3085799783e+01    0.2028282    0.1698775 -39.94  0.001158662    1.969    0.492
        23 -10.0245    173.2360    222.3414   1.1920695257e+02   4.8925467952e+00    0.2399849    0.1475981  46.01  0.001316397    1.401    0.286
        24 -13.0161     47.2681    216.4574   1.4326823874e+02   2.5497090618e+01    0.8844707    0.7131828 -78.15   0.00538355    1.361    0.265
        25 -10.9402     42.1011    200.8535   1.4307873964e+02   2.9130455571e+01    0.7537191    0.2090103  62.20  0.002130664    7.466    0.866
        26 -11.4353     57.9962    212.6370   1.4092512785e+02   2.4899683557e+01    0.6050214    0.1538807  54.26  0.002218066    4.119    0.757
        27  -9.0042    152.4955    213.0580   1.2193011876e+02   1.0018974492e+01    0.1606462    0.1334442 -50.56 0.0003230674    1.457    0.313
        28 -12.3509      9.9678    206.9616   1.4952423507e+02   3.1266540999e+01    0.5696017    0.3472944  31.57  0.002861567    1.999    0.500
        29 -10.8058     59.9154    208.4688   1.4019330043e+02   2.5459011849e+01    0.3792364    0.1266661  52.13  0.001702103    2.616    0.618
        30 -11.8380     59.3178    200.3719   1.3958471285e+02   2.7134249047e+01    0.2423634    0.2146443 -83.29 0.0005787143    1.267    0.211
        31 -10.6443     12.8089    196.1445   1.4841844959e+02   3.3097918086e+01    0.3663837    0.1297152  50.63  0.001933981    2.265    0.559
        32  -9.2481    192.4830    193.9720   1.1068579222e+02   5.7574698667e+00    0.1813075    0.1214777 -66.25  0.000809324    2.786    0.641
        33 -12.0925     65.9006    191.7167   1.3736431146e+02   2.8031698281e+01    0.2484818    0.2170278 -81.03 0.0004427271    1.220    0.180
        34 -13.7067     11.1132    157.1770   1.4618800175e+02   4.1308880393e+01     2.786772    0.9861475  84.02   0.01146252    3.504    0.715
        35 -10.6735     96.7488    153.3029   1.2493575251e+02   3.1766459913e+01    0.3136642    0.3045844 -87.25 0.0008787474    1.112    0.101
        36  -9.5414     99.8597    148.9145   1.2337110487e+02   3.2229828797e+01    0.2472342    0.2175157 -33.67 0.0003580867    1.352    0.260
        37 -12.1482     85.3923    152.2755   1.2763182296e+02   3.3820467127e+01    0.2963986    0.2492183 -49.23  0.001012559    1.317    0.241
        38 -12.1491     67.4547    143.5753   1.3086556048e+02   3.8411896947e+01    0.6573294    0.4017535  62.34   0.00282222    1.818    0.450
        39 -10.2779    109.1294    137.7502   1.1881278200e+02   3.3109948650e+01    0.4908374    0.3171113 -23.39  0.001770976    2.611    0.617
        40 -10.8077     29.8306    130.7140   1.3902179398e+02   4.5618431417e+01    0.2656952    0.1803051  59.61 0.0006957836    1.521    0.343
        41 -10.6131     95.9459    135.1926   1.2180096360e+02   3.6017901196e+01    0.2327995    0.2257748 -32.14 0.0003074573    1.155    0.134
        42 -11.8015     21.2921    126.0970   1.4074803708e+02   4.7400778011e+01    0.4935616    0.2155114  50.16  0.001679234    2.527    0.604
        43  -9.0993    106.3090    124.1094   1.1664278365e+02   3.6716963717e+01    0.1918952     0.178802 -69.15 0.0003335241    1.059    0.056
        44  -8.9235     41.1606     96.3536   1.3031785884e+02   5.2474881400e+01    0.1628831    0.1132471  42.86 0.0003849517    1.637    0.389
        45 -10.9416     76.5114    178.4897   1.3351755254e+02   2.9345602414e+01    0.2331083    0.2037921  76.06 0.0001361093    1.042    0.041
        46 -10.7638    158.0776     76.3787   9.0116524022e+01   3.5103876261e+01    0.3040243      0.23489 -44.63 0.0006690985    1.350    0.259
        47  -9.9384     97.8014    174.7128   1.2810193844e+02   2.6895755464e+01    0.2696214    0.1968047  60.67 0.0006758093    1.294    0.227
        48 -13.2091     62.9205    176.7511   1.3638630151e+02   3.1582979021e+01    0.4723603    0.2735143 -47.23  0.001603464    2.266    0.559
        49 -11.9762    237.9120    248.2074   1.1139916097e+02  -8.7906515748e+00    0.3800392      0.20929  26.04  0.002352943    1.430    0.300
        50 -12.1124     84.4117    168.7412   1.3038088338e+02   3.0295056188e+01    0.7228142    0.6768932 -29.99  0.004542538    1.376    0.273
        51 -10.3888     81.2525    248.4814   1.3956631597e+02   1.5428464835e+01     0.217704    0.1201039  88.66  0.001253767    2.168    0.539
        52 -11.0873     50.6455    246.8328   1.4471901976e+02   1.9679297636e+01    0.3502347    0.1870183 -84.78  0.002300028    1.886    0.470
