#   1 NUMBER                 Running object number                                     
#   2 MAG_AUTO               Kron-like elliptical aperture magnitude                    [mag]
#   3 X_IMAGE                Object position along x                                    [pixel]
#   4 Y_IMAGE                Object position along y                                    [pixel]
#   5 X_WORLD                Barycenter position along world x axis                     [deg]
#   6 Y_WORLD                Barycenter position along world y axis                     [deg]
#   7 A_WORLD                Profile RMS along major axis (world units)                 [deg]
#   8 B_WORLD                Profile RMS along minor axis (world units)                 [deg]
#   9 THETA_WORLD            Position angle (CCW/world-x)                               [deg]
#  10 FWHM_WORLD             FWHM assuming a gaussian core                              [deg]
#  11 ELONGATION             A_IMAGE/B_IMAGE                                           
#  12 ELLIPTICITY            1 - B_IMAGE/A_IMAGE                                       
         1 -12.7752    199.7288     33.1568   6.0129460184e+01   3.1005383167e+01      1.12471     0.761173  46.90  0.005308828    1.493    0.330
         2 -13.4885    215.2222     15.1472   5.2728153039e+01   2.8968613888e+01     1.307388     0.928581  24.39  0.006452385    1.656    0.396
         3 -12.4619      2.1042      4.5536   1.1035453000e+02   7.3421500855e+01     0.821716    0.4827664   2.25  0.005421558    2.085    0.520
         4 -11.8736    177.7326    243.2117   1.0916368779e+02   5.5972504868e+00     0.459515    0.1964663  49.94  0.002599416    2.048    0.512
         5 -10.3969    184.5604    250.1693   1.0889109511e+02   3.8643153330e+00    0.2674831    0.1175871  30.40  0.001162433    2.476    0.596
         6 -10.7373    169.5107    249.0278   1.1109513087e+02   6.1816753723e+00    0.2591936    0.1658476  28.08 0.0005918076    1.583    0.368
         7 -11.3178    162.5671    249.9225   1.1226968998e+02   7.0942042142e+00    0.2905451    0.2493719  74.96  0.002472758    1.484    0.326
         8 -11.2893    149.9713    248.0752   1.1404860655e+02   9.1240575766e+00    0.2836967    0.2339176 -74.03  0.002372765    1.665    0.399
         9 -10.7372    142.9114    248.8168   1.1522627059e+02   1.0048038548e+01    0.3137802    0.1532186  57.00  0.001910782    2.048    0.512
        10 -10.5226    132.5112    249.0128   1.1687017440e+02   1.1493325251e+01     0.307389    0.1484011  57.16  0.001808187    1.980    0.495
        11 -10.4727    136.4672    248.4872   1.1620347942e+02   1.1001058530e+01    0.2643836    0.1530014  56.79  0.001841477    1.527    0.345
        12 -10.8765     98.3042    231.2206   1.2079190381e+02   1.8559241227e+01    0.3850885    0.2094066  86.65  0.002348927    2.535    0.605
        13 -12.0338    105.3230    236.9750   1.2013192367e+02   1.6807145511e+01    0.5711098    0.4198943 -24.05  0.003777176    3.042    0.671
        14 -10.9420     97.0389    238.9857   1.2161908927e+02   1.7632724181e+01    0.3130533     0.251732  29.20  0.001684193    1.689    0.408
        15 -11.5812    122.1220    247.0398   1.1832075375e+02   1.3182053151e+01    0.5151058    0.3055825  62.79  0.003304007    1.632    0.387
        16 -12.7661    124.7623    241.0734   1.1737211885e+02   1.3577777450e+01    0.6550932    0.4650887  50.48  0.005103406    1.021    0.020
        17 -10.9930     84.6528    230.5543   1.2296246032e+02   2.0441037134e+01    0.4582923    0.2142415 -77.92   0.00279885    2.690    0.628
        18 -10.6506    114.9589    250.2747   1.1970828408e+02   1.3748671354e+01    0.4217685    0.2022875  40.85  0.001909411    1.666    0.400
        19 -11.4633    109.4066    246.7827   1.2028832022e+02   1.4943198575e+01    0.4027345    0.3246438  62.04  0.002675484    1.165    0.141
        20 -11.1641     99.2533    248.1309   1.2196954660e+02   1.6105702079e+01    0.4540003    0.2258126  60.64  0.002978962    1.794    0.443
        21  -9.8036    102.9526    247.4809   1.2134758451e+02   1.5707965412e+01    0.1772408    0.1241293  57.68 0.0005487467    1.072    0.067
        22 -11.0343     91.8325    241.2661   1.2261563367e+02   1.7993858226e+01    0.2628283    0.2094854  66.83  0.001812316    1.165    0.142
        23 -10.4024     89.9725    238.0551   1.2267088126e+02   1.8681004829e+01    0.2295647     0.181646  78.16  0.001047944    1.253    0.202
        24 -10.4318     84.7439    240.8892   1.2370071549e+02   1.8948246078e+01     0.317679    0.2058213  68.68  0.002482943    1.330    0.248
        25  -9.6470     90.8127    250.4257   1.2342989748e+02   1.6883050147e+01    0.1972346    0.1164562  36.76  0.001031524    1.748    0.428
        26 -11.0436     86.7355    248.3187   1.2390744865e+02   1.7677467547e+01    0.3018613    0.1988712  37.92 0.0003680768    1.591    0.371
        27 -10.1382     81.5115    246.6098   1.2459209321e+02   1.8558806805e+01    0.2171899    0.1481906  84.84  0.001254807    1.489    0.328
        28 -11.0808     59.9746    245.9426   1.2781834933e+02   2.1210652567e+01    0.3707316     0.215127  62.22  0.002528928    1.256    0.204
        29  -9.7219     67.1776    243.8328   1.2660725006e+02   2.0672845574e+01    0.2208907    0.1166253  35.69  0.001239838    2.088    0.521
        30 -11.9307     16.1617    218.4275   1.3318993656e+02   2.9922572634e+01    0.6689569     0.402134  57.29  0.002908645    1.203    0.169
        31 -12.4746      3.8458    190.5568   1.3405423408e+02   3.5642426664e+01     1.302517    0.3292122 -76.92  0.006879348    3.256    0.693
        32 -13.4364      9.8786    209.5843   1.3382542015e+02   3.1919099233e+01     1.741387    0.7801303 -68.40   0.01207291    2.377    0.579
        33 -12.2075     44.0294    208.1272   1.2815455487e+02   2.8787767956e+01     1.141155    0.4459502  67.28  0.006298237    2.573    0.611
        34 -13.0553     40.0853    243.6448   1.3066126571e+02   2.3721326477e+01    0.8685185    0.6400883  78.21   0.00529672    1.240    0.193
        35 -13.1785      4.9087    245.4321   1.3575600849e+02   2.6887568574e+01    0.8853995    0.3761148  69.68            0    1.693    0.409
        36 -12.5807     13.8643    239.2579   1.3430254706e+02   2.6962226313e+01    0.6612787    0.2957423  73.59   0.00104505    1.741    0.426
        37 -11.5962     19.7889    237.0761   1.3336695647e+02   2.6722914543e+01    0.3615529    0.1876493  64.55 0.0009108459    1.329    0.248
        38 -11.5175     50.0689    218.7729   1.2779854033e+02   2.6396124995e+01    0.5325951    0.1437117  43.10  0.002531531    2.664    0.625
        39 -12.5408     29.5567    226.6403   1.3147009096e+02   2.7338793077e+01    0.3746823    0.2080066 -76.96 0.0007422917    1.816    0.449
        40 -13.6759     35.8974    218.5620   1.3008076954e+02   2.7955973976e+01    0.8217888    0.6811851  79.63  0.007422932    1.308    0.236
        41 -10.8564    164.6934    242.3220   1.1112517890e+02   7.6334385694e+00    0.1798372    0.1532245 -66.38  0.001190263    1.655    0.396
        42 -10.8557    142.1065    221.0472   1.1246995916e+02   1.3692835096e+01    0.2684849    0.2630126   7.39  0.001415028    1.340    0.254
        43 -10.7451    136.1340    224.7679   1.1389025029e+02   1.4090516464e+01    0.3048333    0.1862208 -44.51  0.001199058    2.267    0.559
        44 -12.1344    135.8354    241.1394   1.1560709148e+02   1.1996075315e+01    0.4123662    0.2996139  55.42   0.00225472    1.147    0.128
        45 -12.0266    135.3432    236.2121   1.1520312000e+02   1.2693602703e+01     0.433811    0.3548652 -10.03  0.003249327    1.992    0.498
        46 -11.0398    134.8773    231.5819   1.1481272179e+02   1.3364951336e+01    0.2929711     0.216231 -23.23  0.001582082    2.375    0.579
        47 -11.3863    245.1397    241.9747   9.8699181122e+01  -4.1438925908e+00    0.2108502     0.141778 -13.48  0.001631106    1.668    0.401
        48 -10.3194    142.9398    240.7160   1.1442758852e+02   1.1022265255e+01    0.1571491    0.1053182  46.15 0.0007025268    1.089    0.081
        49 -11.1601    116.7517    238.5548   1.1842975200e+02   1.5027594483e+01    0.3303357    0.2491999 -22.92  0.001897713    2.624    0.619
        50  -9.9995    129.9852    235.7897   1.1603265984e+02   1.3522825867e+01    0.1645997     0.160668 -78.27  0.001373228    1.400    0.286
        51 -11.7918    123.6266    233.8273   1.1688136238e+02   1.4693725598e+01    0.5330673    0.1755177  42.25  0.002731903    2.332    0.571
        52  -9.5062     54.1725    240.9333   1.2841926634e+02   2.2580752573e+01    0.1658005   0.09826513  52.02 0.0004821191    1.223    0.182
        53  -8.8975     61.2770    239.0172   1.2722568787e+02   2.2049205285e+01    0.1346394   0.09280279  62.61 0.0007619241    1.025    0.025
        54  -9.1410    172.9832    236.0153   1.0908608639e+02   7.1075175247e+00    0.1266621   0.09870283  40.41 0.0003079503    1.060    0.057
        55  -9.5616     55.0024    235.7928   1.2800803325e+02   2.3237232163e+01    0.2283591    0.1114522  55.21 0.0008562451    1.461    0.316
        56  -8.7372     70.8092    235.1874   1.2550300202e+02   2.1481018436e+01    0.1187154   0.09934621  58.29 0.0005577366    1.295    0.228
        57 -10.1360     92.7195    226.0187   1.2128192111e+02   2.0060303947e+01    0.2199926    0.1262508  45.61  0.001007107    1.381    0.276
        58 -11.4816    113.3924    231.0376   1.1830101087e+02   1.6520846108e+01    0.3104511    0.2602585 -37.80  0.001940062    1.849    0.459
        59 -11.1740     98.2466    223.3114   1.2013050720e+02   1.9721260777e+01    0.3277659    0.3028258 -76.66  0.002780418    1.429    0.300
        60  -9.3588     94.1182    219.1363   1.2046445303e+02   2.0907456658e+01    0.1651072    0.1216527  60.91 0.0003651871    1.051    0.049
        61 -11.6303    105.3323    227.8529   1.1934677931e+02   1.8089580631e+01    0.3766147    0.2579457  71.20  0.002770771    1.411    0.291
        62 -10.2713    156.7314    232.1042   1.1127524818e+02   1.0035496672e+01     0.172868    0.1661956  21.72 0.0006623587    1.319    0.242
        63  -9.5924     93.4898    232.9937   1.2171831884e+02   1.8942824473e+01    0.2564965   0.08024771  51.83  0.001306491    2.562    0.610
        64  -8.0189     57.4307    231.4579   1.2737807568e+02   2.3605763802e+01    0.1005529   0.06798973  63.04 0.0002696951    1.048    0.046
        65 -10.3316     79.2221    225.8694   1.2349792541e+02   2.1827162657e+01    0.3294012    0.1997807 -79.75  0.001480157    1.794    0.443
        66 -12.9748     28.5316    246.9163   1.3247950556e+02   2.4439653394e+01    0.9925994    0.4718271  43.53  0.007531214    1.700    0.412
        67 -10.6052    117.1511    224.5984   1.1706978422e+02   1.6896245920e+01    0.2404114    0.1898903  48.05 0.0005486012    1.136    0.120
        68  -9.2086     64.8558    224.6818   1.2576284986e+02   2.3767940790e+01    0.1489548    0.1245345 -83.06  0.001201658    1.419    0.295
        69  -8.6614    164.4784    224.4534   1.0909974748e+02   9.7909587604e+00    0.1131606    0.0856232  43.87 3.752978e-05    1.018    0.018
        70  -9.3781    132.2069    223.8662   1.1445637340e+02   1.4799777824e+01    0.1631945    0.1244978  60.21  0.001155423    1.177    0.150
        71  -8.8493     87.8124    223.8444   1.2192009624e+02   2.1030299037e+01     0.152673   0.09401253  63.46  0.001072407    1.362    0.266
        72 -10.6558    245.6872    220.5834   9.5530896374e+01  -2.4180610342e+00     0.272715   0.09484325 -27.50  0.001396712    3.341    0.701
        73 -10.1864     70.3899    218.7208   1.2443461676e+02   2.4025310394e+01    0.3252971    0.1976854  86.14  0.002316036    1.638    0.390
        74  -9.4526    169.6433    232.8269   1.0925132110e+02   7.9837991164e+00    0.1184756    0.1026056 -73.80 0.0003667242    1.624    0.384
        75  -8.4218     89.3255    218.6695   1.2123864554e+02   2.1618763576e+01    0.1133914    0.0624398  65.00 0.0004515699    1.705    0.413
        76  -9.1778     77.4961    220.7704   1.2339972962e+02   2.2823002719e+01    0.1679413    0.1093622  59.09 0.0005060026    1.157    0.136
        77  -9.3645     88.1355    212.8267   1.2094152139e+02   2.2687356407e+01    0.1987312    0.1263441  86.81 0.0009727364    1.682    0.406
        78 -11.0972     55.3030    208.3173   1.2625098076e+02   2.7496328227e+01    0.5509079    0.2689982  77.94   0.00228643    2.118    0.528
        79 -10.0353     63.3303    209.5311   1.2496053701e+02   2.6354509259e+01    0.3715838    0.3044358 -49.72  0.002899521    1.890    0.471
        80  -8.8284    131.0115    211.2878   1.1328089142e+02   1.6768534780e+01    0.1574778    0.1159073  50.68 0.0003454336    1.068    0.064
        81  -9.8946    156.1889    208.1461   1.0846964071e+02   1.3246304012e+01    0.1828467    0.1432269  43.98 0.0003026362    1.024    0.023
        82  -8.9566    106.5717    209.9318   1.1744404034e+02   2.0596998224e+01    0.1316548   0.09242932 -34.06 0.0007060032    2.534    0.605
        83  -9.1666    125.7722    207.2768   1.1375101615e+02   1.8166169370e+01    0.1738147    0.1333884 -71.05 0.0006095174    1.546    0.353
        84  -9.4402    112.3443    208.1167   1.1623455065e+02   2.0044014826e+01    0.1482911    0.1234948  68.36 0.0003643317    1.118    0.105
        85  -8.7348     74.3625    208.3037   1.2295584496e+02   2.5199701772e+01    0.1333762    0.0851256  87.43 0.0003898646    1.552    0.356
        86  -9.2486     69.9438    208.0626   1.2370622944e+02   2.5790974639e+01    0.1565792    0.1144012  65.21 0.0003047937    1.040    0.039
        87 -10.2464    167.6897    242.6724   1.1068865738e+02   7.1493726573e+00     0.167564    0.1052129  43.02 0.0005620721    1.153    0.133
        88  -9.4814     91.1383    204.9685   1.1970153099e+02   2.3543689694e+01    0.2931192    0.1170067  45.74  0.001061474    1.984    0.496
        89  -8.1081    121.6856    204.3053   1.1414470111e+02   1.9242422865e+01    0.1167989   0.07458625  65.80 0.0002306685    1.622    0.383
        90  -9.5296     84.1466    201.6615   1.2064851626e+02   2.5028801787e+01    0.2033338    0.1815866 -39.97  0.001552715    1.714    0.416
        91 -10.0830    250.3086    200.6824   9.1659290878e+01  -1.2861505966e+00    0.2174994    0.1148558   0.35  0.001160961    2.375    0.579
        92  -9.4358     43.1935    200.1170   1.2779561569e+02   3.0226445903e+01    0.2299774    0.1346272 -56.63  0.001151307    2.300    0.565
        93 -11.7236    102.8416    196.0102   1.1666601335e+02   2.3373885562e+01    0.2839907    0.1907603  42.08 0.0003840201    1.374    0.272
        94 -11.6415     57.2107    194.4311   1.2490557280e+02   2.9632780237e+01    0.3547091    0.2874905 -43.95  0.001293506    1.972    0.493
        95 -10.8330     27.5623    195.1599   1.3021314050e+02   3.2691803644e+01    0.3471563     0.184707  78.37   0.00027594    1.568    0.362
        96 -10.4599    249.5806    194.0221   9.0645668804e+01  -5.2446085412e-01    0.2950437    0.1944663  16.00   0.00190955    1.322    0.244
        97  -9.1154     21.0668    194.8305   1.3131596914e+02   3.3373413698e+01    0.1788197    0.1045259 -64.65  0.001254047    1.972    0.493
        98  -8.7260    118.9985    193.7778   1.1340335613e+02   2.1324922303e+01    0.1557037   0.08122745  44.22 0.0003559414    1.606    0.377
        99  -9.3965    113.1587    191.5870   1.1423622547e+02   2.2579006957e+01    0.3397211    0.1758125 -37.84  0.001552737    3.820    0.738
       100  -9.2661    191.3036    191.3602   9.9847313250e+01   9.5905464486e+00    0.1780626    0.1636821  22.40 0.0006445675    1.148    0.129
       101  -8.4637     38.5146    192.4315   1.2812381697e+02   3.2056635607e+01    0.1307015    0.0841647 -73.17 0.0001151141    1.563    0.360
       102  -9.2450     40.8208    188.5311   1.2744932758e+02   3.2503575921e+01    0.1896269    0.1272572  88.83 0.0007063251    1.273    0.214
       103 -10.3209     15.5372    191.8726   1.3211872870e+02   3.4397521434e+01    0.1750043    0.1200006  71.35 6.480898e-05    1.031    0.030
       104  -9.1742     32.1853    189.9971   1.2909894756e+02   3.3136469781e+01    0.2825648   0.08118477  45.76  0.001514618    2.570    0.611
       105  -9.9760    250.1619    187.7572   8.9466337846e+01   8.9122454804e-03    0.2766861    0.1375702  -7.62  0.001369252    2.610    0.617
       106  -8.8204     77.0095    188.5147   1.2073342444e+02   2.8224445220e+01     0.155655   0.09248713  47.03 0.0002060337    1.442    0.307
       107 -10.8329     71.9548    186.9149   1.2153724933e+02   2.9159668153e+01    0.2402596    0.2172771 -38.18 0.0004886938    1.687    0.407
       108 -11.3098     64.1495    186.4897   1.2297178995e+02   3.0208404550e+01    0.2099533    0.1869927  88.77 0.0004506083    1.273    0.214
       109  -9.7247     83.4825    186.6603   1.1932271251e+02   2.7693150960e+01    0.1867391    0.1472547  68.38 0.0003392264    1.035    0.034
       110  -9.3151     29.5099    184.2062   1.2922393082e+02   3.4437192510e+01    0.2043363    0.1521201 -47.55  0.001499795    2.119    0.528
       111  -9.1127     24.1256    184.0837   1.3019199558e+02   3.4980012191e+01    0.1435852    0.1189464  84.14 0.0007559014    1.242    0.195
       112  -8.6690    127.6642    182.7843   1.1034676108e+02   2.1767454378e+01    0.1476349     0.109938 -73.91 0.0002657358    1.566    0.361
       113  -8.8344     36.3969    182.7426   1.2786531740e+02   3.4008397934e+01    0.1391891   0.08226284 -69.65 0.0009487796    1.686    0.407
       114  -9.2822     85.7571    179.9423   1.1817547296e+02   2.8585534443e+01    0.2309052    0.1364959  70.64  0.000993665    1.769    0.435
       115  -9.1472     27.0499    180.0188   1.2941453803e+02   3.5436672268e+01    0.1559965    0.1144313  75.39 0.0003412204    1.013    0.012
       116  -8.9146     47.5154    179.7110   1.2555697336e+02   3.3376321716e+01    0.1743882   0.08416384  39.90 0.0007073903    1.960    0.490
       117 -11.6826    248.2550    172.9218   8.7066817315e+01   1.8814546798e+00    0.5077989    0.3439884  -5.26  0.003116886    1.436    0.303
       118 -10.4811     64.9722    167.0129   1.2096549129e+02   3.3723379276e+01    0.3288194    0.2198804 -39.42  0.001913861    2.479    0.597
       119 -11.4135     65.1329    175.5212   1.2177793884e+02   3.2093680631e+01    0.2788334    0.1810497  50.80 0.0003011735    1.343    0.255
       120 -11.2839     60.7419    172.7404   1.2238209549e+02   3.3149954733e+01    0.2735588    0.2065708 -53.60 0.0009103003    1.702    0.412
       121  -9.2218    103.0016    176.0134   1.1430364307e+02   2.6811650049e+01    0.1746123    0.1493778  66.35            0    1.028    0.027
       122 -10.6161     74.8578    174.5352   1.1975142921e+02   3.1042225178e+01    0.2383634    0.1770635  61.17 0.0003978649    1.130    0.115
       123 -10.4515     19.2531    174.1111   1.3050391934e+02   3.7251516332e+01    0.3536198    0.1458862  72.99 0.0007295533    2.288    0.563
       124 -10.3166     12.2295    173.0530   1.3175022528e+02   3.8065286124e+01     0.262574    0.1373716 -73.74  0.001803554    1.716    0.417
       125 -12.1152      2.1967    169.2946   1.3341511130e+02   3.9581701714e+01    0.9568669    0.1981403 -80.35  0.001619804    4.028    0.752
       126 -11.2112     14.2138    167.3652   1.3106087157e+02   3.8954516053e+01    0.4195546    0.2298045  42.65  0.002931457    1.739    0.425
       127 -10.7956      6.2930    166.4085   1.3250949992e+02   3.9792660668e+01    0.2166761    0.2066629 -68.28  0.001612579    1.562    0.360
       128  -9.8940     46.0505    172.6030   1.2526836850e+02   3.4861698860e+01    0.1798512     0.132793 -84.24 0.0003671074    1.219    0.180
       129  -9.2740     28.2299    171.0130   1.2860727184e+02   3.6991902740e+01    0.2654583    0.1326658 -54.50  0.001561595    2.627    0.619
       130 -11.4746     82.9336    165.9597   1.1715176652e+02   3.1575005506e+01    0.5034261    0.4107964  53.21  0.003460981    1.168    0.144
       131 -11.4913    244.7276    156.1318   8.4366973399e+01   4.3942825764e+00    0.6616271    0.4144426  67.97  0.002975936    3.310    0.698
       132 -12.1436    245.3041    161.9673   8.5433005856e+01   3.6152665047e+00    0.5486113    0.2674661 -30.38  0.002786302    2.106    0.525
       133 -10.5707    249.4903    161.0278   8.4586854935e+01   2.9842412973e+00    0.2931246    0.2009953  -7.27  0.001749088    1.400    0.286
       134 -11.3435     43.8450    161.6714   1.2478167716e+02   3.7197103558e+01    0.3578109    0.2000722  85.90  0.002179288    1.678    0.404
       135  -8.3931     60.9513    164.7372   1.2155793284e+02   3.4653373470e+01    0.1317305    0.0897934  44.82     0.000338    1.427    0.299
       136 -12.6372      6.3289    143.7675   1.3121225445e+02   4.4155333462e+01    0.5572195    0.4407605 -86.35  0.004509965    1.168    0.144
       137 -12.2915     10.5127    156.7542   1.3115627416e+02   4.1285794868e+01    0.6927897    0.3106935  72.53   0.00377943    1.980    0.495
       138 -11.8961     17.9824    140.1684   1.2846557917e+02   4.3954648207e+01    0.4006917    0.1856739  58.63  0.002347955    2.010    0.503
       139 -11.0635     12.9707    137.2090   1.2933781368e+02   4.4960995109e+01    0.2107608    0.1276398 -82.49 0.0003056174    1.306    0.234
       140  -8.1363     52.2641    158.3531   1.2272633764e+02   3.6919573429e+01    0.1041508   0.08101986 -53.10 0.0004329611    1.621    0.383
       141 -10.6613     10.5638    150.1332   1.3073736810e+02   4.2570508772e+01    0.1913021     0.153846  40.66 0.0009829771    1.497    0.332
       142  -8.5251    228.3653    155.2536   8.6869263990e+01   7.5157365621e+00    0.1668072    0.1160237 -35.72 0.0004759337    1.618    0.382
       143  -8.7281     84.4967    155.4342   1.1550522058e+02   3.3398028751e+01    0.1199749    0.1052138  74.37 0.0008064324    1.051    0.049
       144 -10.6727     32.2179    153.5887   1.2650016251e+02   3.9974975940e+01    0.3242396    0.1731583 -71.39  0.001597054    1.649    0.393
       145 -10.2593     26.0831    154.6883   1.2786256358e+02   4.0338394836e+01    0.1709969    0.1046208  58.97 0.0004204231    1.416    0.294
       146 -10.9950    249.5830    150.9089   8.2540623026e+01   4.1273820048e+00    0.5051334    0.3124499 -27.81  0.002822139    1.619    0.382
       147 -12.6397    248.5826    133.7859   7.9077455868e+01   6.3598944460e+00     1.133204    0.4865112 -24.94  0.004987231    2.308    0.567
       148 -10.9633    247.7059    141.4059   8.0853681430e+01   5.5991523141e+00    0.7214053    0.2029621  41.72  0.002641646    3.339    0.701
       149  -9.1681     89.9867    153.3072   1.1402615907e+02   3.3030243064e+01    0.1700361    0.1408846  60.20 0.0001819767    1.097    0.088
       150 -10.1112     96.1418    150.5642   1.1228595288e+02   3.2656001836e+01    0.2626896    0.2020033 -65.64  0.001032908    1.311    0.237
       151  -8.6485     99.4500    146.5063   1.1094026570e+02   3.2952062151e+01    0.1808778    0.1591474 -18.75  0.000705983    1.581    0.367
       152  -9.1725     59.6680    150.1972   1.2027647190e+02   3.7684967366e+01    0.4491309    0.1651369  65.56  0.001398019    6.150    0.837
       153 -10.7746     21.9417    149.2348   1.2831203819e+02   4.1792624054e+01    0.2565371    0.1557613  49.34  0.001117997    1.541    0.351
       154  -8.8526     83.0178    149.5371   1.1504040637e+02   3.4778445493e+01    0.1736516    0.1128496  43.11 0.0004096297    1.508    0.337
       155 -11.8353     68.3232    144.2990   1.1763832969e+02   3.7814466747e+01     0.595244    0.3705849  75.82  0.002278773    1.701    0.412
       156  -9.6526    236.0530    145.9218   8.3675829485e+01   7.2406144910e+00    0.2388767    0.1590074  34.41 0.0007240258    1.361    0.266
       157 -10.3439     38.0859    141.2635   1.2411261835e+02   4.1886983625e+01    0.2989845    0.1477257  72.49 0.0009894411    2.188    0.543
       158  -9.3610    133.2617    140.3332   1.0236484846e+02   2.8397768538e+01    0.2498135    0.2189617 -77.60 0.0009848094    1.212    0.175
       159  -9.6320     32.0855    140.1552   1.2534824197e+02   4.2700891252e+01    0.2418644    0.1140585  76.62  0.001249872    2.312    0.567
       160  -9.5234     41.1202    147.2072   1.2402358794e+02   4.0363297058e+01    0.1602439    0.1400852 -83.60 0.0007056323    1.208    0.172
       161 -10.1093    247.5276    144.5169   8.1538304662e+01   5.2584300848e+00    0.2425056    0.1989993  11.12 0.0006256881    1.028    0.028
       162 -11.2555     59.8026    136.3185   1.1857519249e+02   4.0524761958e+01    0.2574894    0.1948977 -88.36 0.0003187731    1.166    0.142
       163  -9.2982    108.7715    135.7489   1.0703944232e+02   3.3603834056e+01    0.3161802    0.2166248 -19.69  0.001455269    2.728    0.633
       164 -10.2822     47.8732    135.8640   1.2130132454e+02   4.1984402151e+01    0.2328917    0.1810517 -65.78 0.0009941949    1.285    0.222
       165 -12.5018      1.8970    131.1316   1.3135301956e+02   4.7008823892e+01     0.662402    0.2507613 -59.34   0.00363628    2.589    0.614
       166  -9.1765     69.3370    132.2754   1.1577167727e+02   4.0184345582e+01    0.1122869   0.09566971 -31.25  0.000699726    1.609    0.378
       167 -10.1417     44.9588    130.4431   1.2135486247e+02   4.3436387069e+01    0.2716537    0.1413127  72.83  0.001137796    2.213    0.548
       168  -9.3503     33.3550    128.6662   1.2391449130e+02   4.4971512444e+01    0.1248903   0.06993624  69.48 0.0007044065    1.792    0.442
       169 -11.5111     13.4053    127.7287   1.2849952577e+02   4.6871713354e+01    0.2411959    0.1831983  83.98  0.001812309    1.042    0.040
       170  -9.2499    209.9709    125.8816   8.3762523893e+01   1.5225421221e+01    0.2116987    0.1908915  12.26 0.0005266139    1.021    0.020
       171  -8.7845     48.1803    126.3857   1.2008329368e+02   4.3953143658e+01    0.1606766   0.09675708  50.80 0.0003569595    1.649    0.393
       172  -9.4753    238.5125    121.9818   7.8026217203e+01   9.8354683811e+00    0.5460124    0.2320664  -9.19  0.001427844    6.515    0.847
       173 -11.0027    243.7664    121.0888   7.6993039157e+01   8.8922666536e+00    0.4340504    0.2226003 -45.74  0.001855878    2.629    0.620
       174  -9.4980     66.6149    127.2070   1.1569194280e+02   4.1607691741e+01    0.1765485    0.1013495 -57.03 0.0004184912    1.675    0.403
       175 -11.6699    247.8061    112.9887   7.4502200967e+01   9.1128193306e+00    0.5328882    0.3759231  29.49  0.002895925    1.392    0.282
       176 -10.2637    249.7137    117.9126   7.5352710908e+01   8.1085994525e+00    0.2581662    0.2279062  -3.26  0.000613058    1.061    0.057
       177  -9.8711    231.8421    116.2248   7.7766695847e+01   1.1977586910e+01    0.2018079     0.188794 -32.52 0.0006630885    1.223    0.182
       178 -12.4767      9.5798    112.5498   1.2810920651e+02   5.0330788982e+01    0.4567508    0.2002963 -56.61  0.002086709    2.186    0.543
       179  -9.7047    167.8989    113.1133   8.8945065344e+01   2.6424129575e+01    0.3053986    0.2536421 -85.06 0.0008492335    1.540    0.351
       180  -8.7505    203.4889    111.5156   8.1539153710e+01   1.8797049899e+01    0.1471376    0.1321044  15.43 3.458296e-05    1.056    0.053
       181 -10.2956     35.3119    107.1678   1.2085442565e+02   4.9404578808e+01    0.1994332    0.1681138  89.64 0.0002861125    1.066    0.062
       182 -12.5787    247.6754    100.4984   7.1555954137e+01   1.0736664560e+01    0.8266183    0.5740752 -18.07  0.004386866    1.348    0.258
       183  -9.7260     20.7793     93.4614   1.2303020193e+02   5.3629763844e+01    0.1345531    0.1120785 -13.49  0.000540166    1.668    0.400
       184 -11.8587      1.8462    109.2037   1.2974864411e+02   5.1544925709e+01    0.7103204   0.06723342 -74.43  0.002220574    6.036    0.834
       185  -8.4125     71.6896     99.7579   1.0964913628e+02   4.6893064181e+01    0.1175845   0.09847996 -26.50 0.0002079702    1.502    0.334
       186 -12.1664    200.9969    246.3125   1.0591094758e+02   1.8374519389e+00     0.579122    0.1924648  40.99  0.003084113    2.152    0.535
       187 -10.9196     17.9749     25.9868   1.0999954944e+02   6.8267823686e+01    0.3434334    0.1613969  44.92  0.001721754    3.290    0.696
       188 -10.2556     73.7850    244.4832   1.2563779837e+02   1.9794932814e+01     0.274936    0.1770677 -68.96  0.002210492    1.885    0.469
