#   1 NUMBER                 Running object number                                     
#   2 MAG_AUTO               Kron-like elliptical aperture magnitude                    [mag]
#   3 X_IMAGE                Object position along x                                    [pixel]
#   4 Y_IMAGE                Object position along y                                    [pixel]
#   5 X_WORLD                Barycenter position along world x axis                     [deg]
#   6 Y_WORLD                Barycenter position along world y axis                     [deg]
#   7 A_WORLD                Profile RMS along major axis (world units)                 [deg]
#   8 B_WORLD                Profile RMS along minor axis (world units)                 [deg]
#   9 THETA_WORLD            Position angle (CCW/world-x)                               [deg]
#  10 FWHM_WORLD             FWHM assuming a gaussian core                              [deg]
#  11 ELONGATION             A_IMAGE/B_IMAGE                                           
#  12 ELLIPTICITY            1 - B_IMAGE/A_IMAGE                                       
         1 -14.1956    227.7894      6.3362   3.4736448641e+01   2.8046694199e+01     1.949238     1.318613  41.66  0.007905042    2.067    0.516
         2 -13.7937    184.4116     49.1279   5.0586618345e+01   3.3107263470e+01     1.116182     1.003398  -2.38 0.0008275096    1.296    0.229
         3 -14.1011    195.6387     40.3138   4.6502191212e+01   3.1566742275e+01     1.348103     1.088141 -36.35   0.00345515    1.262    0.208
         4 -14.2826    204.3499     31.2129   4.2996412421e+01   3.0632163934e+01     1.225549     1.006025 -25.87  0.001364035    1.365    0.268
         5 -12.1750     59.6175      2.9810   6.3273135132e+01   6.6861406703e+01    0.5745389    0.1723914  36.48  0.002213835    3.396    0.706
         6 -10.8611    183.8246    206.1970   8.8454592333e+01   4.2598331369e+00    0.1968729     0.150849   6.20   0.00108803    1.369    0.270
         7 -11.6388    140.2843    249.7927   1.0376996634e+02   4.0897043611e+00     0.462328    0.2191365  41.09   0.00239538    1.704    0.413
         8 -11.8818    140.3970    245.1969   1.0317662410e+02   4.8096874307e+00    0.5246117    0.2484443 -58.16     0.002573    2.810    0.644
         9 -18.8691     25.2172    215.7354   1.2306078032e+02   2.6029817198e+01     10.52917     5.648837 -86.83   0.06277206    1.646    0.393
        10  -9.1462    156.6995    190.0201   9.1327352196e+01   1.2060399257e+01    0.1889572    0.1779463 -26.84 0.0003314669    1.113    0.102
        11 -15.6145     71.4909    149.7062   1.0520195936e+02   3.5644725926e+01     3.858918      2.14259  75.32   0.01218195    2.880    0.653
        12 -10.0035    150.4110    188.1644   9.2394475750e+01   1.3576783731e+01    0.1948025    0.1385127 -63.30 0.0009452791    1.716    0.417
        13 -11.2510     99.0548    180.9700   1.0318538500e+02   2.4049794416e+01    0.3708933    0.2907313   7.38  0.001647372    1.751    0.429
        14 -10.9525    188.4716    176.0818   8.1749254642e+01   8.8469817121e+00    0.7715932    0.3581483 -55.28  0.002677626    3.483    0.713
        15 -10.9646    150.0108    178.0796   9.0611473022e+01   1.5723290080e+01    0.4020564    0.2679724 -71.50  0.001546199    2.194    0.544
        16 -11.6444    144.0715    178.3941   9.2042272843e+01   1.6765251792e+01     0.404884    0.3130274 -58.28  0.001151953    1.411    0.292
        17 -11.5123     51.7598    164.6381   1.1251291625e+02   3.4538354395e+01    0.5382271    0.2780192 -41.70  0.002342428    2.682    0.627
        18 -11.1758    107.9705    211.0122   1.0544588707e+02   1.6150885668e+01    0.3620597     0.185252  38.65  0.001719642    1.778    0.438
        19 -12.4688     46.9445    172.1134   1.1458756183e+02   3.3319537899e+01    0.5983639    0.4209583 -56.31  0.002540037    1.468    0.319
        20 -10.6607     84.4702    173.9739   1.0567144658e+02   2.7925941828e+01    0.2249838    0.1967484  13.37 4.181802e-05    1.418    0.295
        21 -11.0867    138.7166    170.5675   9.1808531818e+01   1.9448323600e+01    0.3916526     0.345311  65.60   0.00170559    1.212    0.175
        22 -11.1170    230.2813    166.8567   7.1663235969e+01   2.8623323909e+00    0.4120918    0.1722483 -47.70   0.00154356    3.072    0.674
        23  -9.5006     92.8505    185.0755   1.0528115095e+02   2.4092500270e+01    0.2135885    0.1693658  69.29 0.0003991864    1.249    0.199
        24  -9.9157    133.8817    196.1360   9.7492607147e+01   1.4897739489e+01     0.209451    0.1789682  61.77 0.0004033697    1.206    0.171
        25 -12.3892     91.8149    152.8791   1.0030210488e+02   3.1831847393e+01    0.7277195    0.5448622 -11.99  0.003449378    1.958    0.489
        26 -10.4736    187.3457    152.0302   7.6825197823e+01   1.3700177547e+01    0.2594048    0.2060833  24.04  0.001107743    1.316    0.240
        27 -11.5464    133.8161    145.0668   8.7718791228e+01   2.6113605210e+01     1.212057     0.332016 -54.59  0.002994708    5.119    0.805
        28  -9.7324    112.6198    150.9086   9.4429730720e+01   2.8764094524e+01    0.2619119     0.200868  69.19 0.0006068241    1.520    0.342
        29 -10.6072    174.3064    148.7244   7.8903305020e+01   1.7036962964e+01    0.3514429    0.2841042 -71.48  0.001249832    1.588    0.370
        30 -10.7143    143.9982    146.4618   8.5488176381e+01   2.3759536246e+01    0.4069201    0.2293318 -62.16  0.001526012    2.381    0.580
        31 -11.1141    104.4685    138.6533   9.4066821307e+01   3.3146733560e+01    0.5791678     0.338043 -31.53  0.002251839    2.401    0.583
        32 -12.4214     92.1149    138.5302   9.7459745187e+01   3.5277078981e+01    0.2866261    0.2614043 -42.20 0.0004327619    1.133    0.118
        33 -11.2619    113.1720    205.9182   1.0361049369e+02   1.6362807141e+01    0.3112183    0.2439805  68.75  0.001004004    1.326    0.246
        34 -11.3508    135.7096    128.1221   8.3273086202e+01   2.9592684311e+01    0.5882391    0.2181555 -52.20  0.001835248    3.013    0.668
        35 -11.1714    135.1065    120.3752   8.1489877413e+01   3.1465348603e+01    0.7816311    0.1924122 -49.31  0.001973286    4.486    0.777
        36 -10.7672    112.9785    129.4808   8.9676194350e+01   3.3787510002e+01    0.4473132    0.3463975  13.91 0.0009004969    1.609    0.378
        37 -11.9181    118.7464    124.4768   8.6895804754e+01   3.3856739936e+01    0.6845036    0.4616263 -23.43  0.002808114    1.994    0.499
        38 -10.9609    105.8944    130.7427   9.1932417601e+01   3.4793315332e+01    0.3856829    0.3195773 -64.09   0.00111622    1.217    0.178
        39 -10.3974    160.6372    128.1163   7.7122622283e+01   2.4271182792e+01    0.3878368    0.2711309 -55.27  0.001535631    1.569    0.363
        40  -9.2843     95.4991    127.5427   9.4158639230e+01   3.7388190624e+01    0.1501029    0.1418792 -75.23 0.0001799841    1.052    0.049
        41 -12.9549    109.5741    201.2815   1.0375530765e+02   1.7906221501e+01      0.81018    0.5909495 -20.61  0.002421926    2.114    0.527
        42 -11.1346    100.3108    125.5196   9.2317852568e+01   3.7043576278e+01    0.2926969    0.2462178 -14.98 0.0005406051    1.401    0.286
        43 -10.1969    108.8230    118.7492   8.8262080493e+01   3.7104025945e+01    0.2428801    0.2272495 -36.40 0.0004407066    1.056    0.053
        44 -12.2760     22.4702    112.0075   1.1335412928e+02   5.0254819304e+01    0.4181023     0.302714  87.69  0.002453148    1.424    0.298
        45 -12.3994     17.6850    111.0538   1.1469133746e+02   5.0837415677e+01    0.6185408    0.2803484 -66.57  0.003024378    1.731    0.422
        46  -9.8224    168.0371    113.0106   7.1556645992e+01   2.5779032717e+01    0.3790407    0.2613117 -80.57  0.001471842    2.419    0.587
        47  -9.8131    134.6821    111.9935   7.9412104999e+01   3.3420125270e+01     0.375644     0.142715 -44.88  0.001230976    2.577    0.612
        48 -12.3022    117.9285    108.6443   8.3070057407e+01   3.7661534879e+01    0.8038083    0.6460477 -65.00   0.00351832    1.389    0.280
        49 -10.2835    205.5295    110.2500   6.3213601017e+01   1.7866667418e+01    0.2949109    0.2389819  40.27 0.0008480867    1.326    0.246
        50 -10.0670    134.6271    106.0766   7.7824535427e+01   3.4725364724e+01    0.3625712    0.1480763 -44.00  0.001233069    2.398    0.583
        51 -10.2785     66.2615    104.4337   9.7799903595e+01   4.7481456277e+01    0.2533286    0.1450522  26.01  0.001137252    2.038    0.509
        52 -10.1654     60.4413     97.6124   9.8100306200e+01   4.9876461072e+01    0.2319389    0.2154915  44.00 0.0005897167    1.220    0.180
        53 -11.3005     39.9667     96.7750   1.0487981906e+02   5.2399986392e+01    0.3002492    0.2211679  68.61  0.001627263    1.759    0.431
        54 -11.5071     53.0903     91.3161   9.9086979073e+01   5.2265015420e+01    0.4076693    0.1830776 -58.16  0.001053955    2.022    0.506
        55 -10.0319     82.3087    194.6653   1.0903323302e+02   2.3519471776e+01    0.3442242     0.274702 -19.00  0.001551741    1.870    0.465
        56 -10.1046     79.6892    192.3623   1.0933982988e+02   2.4408558544e+01    0.3581156    0.2278672 -56.30   0.00188137    1.640    0.390
        57 -10.1872    157.0190     81.9663   6.5412926063e+01   3.4449644301e+01    0.2364984    0.2292706  -1.91 0.0005202311    1.052    0.050
        58  -9.3927    184.7015     77.0133   5.8333460835e+01   2.8646222474e+01    0.2134277    0.1907655 -37.35 0.0004133494    1.102    0.093
        59 -10.1944     61.6877     68.9196   8.9694094510e+01   5.6138805933e+01    0.2428167    0.1987563  39.30 0.0007031735    1.411    0.291
        60 -12.1685    171.5233     60.2307   5.6007884244e+01   3.4633095647e+01     1.015021    0.3087692 -40.22  0.003287197    3.136    0.681
        61  -8.8611    168.4491    248.4821   9.8162545354e+01  -1.5300097255e-02     0.122492   0.09975832  31.83 5.804035e-06    1.036    0.035
        62  -9.6482    150.4714    195.4762   9.3676028717e+01   1.2105143388e+01    0.1401484    0.1294024  29.87 3.166431e-06    1.016    0.016
        63  -9.6831    169.0649    235.3232   9.6164901273e+01   1.8947887562e+00    0.1908739    0.1607794 -13.40 0.0004606366    1.306    0.234
        64  -9.9404    158.1496    235.8954   9.8416273956e+01   3.5378130173e+00    0.1717654     0.139101   9.48  0.001008504    1.323    0.244
        65 -11.6019    149.0685     52.9009   5.8246799095e+01   4.1314135618e+01    0.5008724    0.3316499 -79.38  0.001908335    2.333    0.571
        66 -10.0958    120.1471    193.9678   1.0026365959e+02   1.7706663818e+01    0.2096236    0.1778057  71.74 0.0005020558    1.227    0.185
        67  -9.7826    164.3128    210.3081   9.3211849468e+01   6.8888908495e+00    0.1358462    0.1007105   3.72  0.000238624    1.624    0.384
        68 -10.0754    189.6353     14.9079   4.0448009231e+01   3.6061314145e+01    0.2195146    0.1696007  64.39 0.0006615053    1.234    0.190
