#   1 NUMBER                 Running object number                                     
#   2 MAG_AUTO               Kron-like elliptical aperture magnitude                    [mag]
#   3 X_IMAGE                Object position along x                                    [pixel]
#   4 Y_IMAGE                Object position along y                                    [pixel]
#   5 X_WORLD                Barycenter position along world x axis                     [deg]
#   6 Y_WORLD                Barycenter position along world y axis                     [deg]
#   7 A_WORLD                Profile RMS along major axis (world units)                 [deg]
#   8 B_WORLD                Profile RMS along minor axis (world units)                 [deg]
#   9 THETA_WORLD            Position angle (CCW/world-x)                               [deg]
#  10 FWHM_WORLD             FWHM assuming a gaussian core                              [deg]
#  11 ELONGATION             A_IMAGE/B_IMAGE                                           
#  12 ELLIPTICITY            1 - B_IMAGE/A_IMAGE                                       
         1 -18.7857    191.8947    123.3277   8.3425737242e+01   1.8253547018e+01     8.863731     6.060739  88.21   0.03795186    2.127    0.530
         2 -16.5915    199.0180     72.3521   7.0261382738e+01   2.6110063549e+01     3.020841     2.274275  61.56    0.0165646    1.330    0.248
         3 -16.4166    171.2861     89.8966   7.9361868852e+01   2.9437211254e+01     2.379588     1.673685 -41.24   0.01157905    1.438    0.304
         4 -16.6032    163.5527    114.6199   8.7175004903e+01   2.6343549266e+01     2.676863     1.440471 -43.78   0.01086563    1.821    0.451
         5 -18.0443    172.7017    137.8813   9.0761163781e+01   1.9351451055e+01     5.002416      4.24084   6.13   0.02386598    1.478    0.324
         6 -16.7443    115.1345    160.7008   1.0977844654e+02   2.5885789534e+01     5.681985     2.658132 -52.89   0.01981513    2.070    0.517
         7 -17.1836    213.9479     97.8018   7.3726946355e+01   1.8395712201e+01      3.98476     2.803125 -70.31   0.02016249    1.522    0.343
         8 -12.1129     13.8318     13.8841   1.0195188014e+02   6.9567837874e+01    0.2402361     0.165503 -14.71  0.000464628    1.140    0.123
         9 -11.2888    128.8284     13.2548   6.6530039833e+01   4.9922966072e+01     0.213866    0.1855723  18.94 0.0001803474    1.323    0.244
        10 -11.3874    205.9631     12.6964   5.6215825217e+01   3.2666541199e+01    0.2064826    0.1497732 -62.77 0.0004551218    1.261    0.207
        11 -11.1061     89.0361      7.2229   7.2889340002e+01   5.8777873429e+01    0.2757327    0.1597975 -31.40 0.0008824297    2.016    0.504
        12 -11.1756    100.9974      9.1577   7.0775688609e+01   5.6220703901e+01    0.1776034    0.1580476  28.43 0.0003152287    1.129    0.114
        13 -10.7460     90.2545     12.0170   7.4263506223e+01   5.8130769485e+01    0.2072335    0.1478939  11.72 0.0007296695    1.513    0.339
        14 -11.8842    228.1822      6.4585   5.3052094955e+01   2.8635556241e+01      0.25586    0.1260593 -67.63  0.001004476    1.889    0.471
        15 -12.1044    248.6183      4.6577   5.1238190189e+01   2.4741732797e+01    0.2893313    0.2064693 -68.11  0.001481491    1.101    0.092
        16 -10.4703    214.2994      5.8506   5.4076875454e+01   3.1607432741e+01    0.1850423    0.1159133 -63.55 0.0006297317    1.417    0.294
        17 -10.7084    178.7533      5.0991   5.7383131545e+01   3.9462453643e+01    0.2431642    0.1405748 -49.21  0.001152603    1.797    0.444
        18 -12.2342    239.7047      2.6873   5.1510896080e+01   2.6712938069e+01     0.301886     0.207943  39.65  0.001817005    2.805    0.644
        19 -10.5599    204.2885      5.3571   5.4866848225e+01   3.3807003484e+01    0.1086257   0.08416299  48.69 0.0007025166    1.681    0.405
        20  -9.8300     53.8288      5.6294   8.2381401600e+01   6.5211876037e+01    0.1413193   0.09415922  48.19 0.0002575793    1.553    0.356
        21 -10.8511    208.0174      1.6592   5.3789091403e+01   3.3379514202e+01    0.1687342    0.1187578  84.29 0.0004397609    1.136    0.120
        22 -13.0465    140.3371    181.3178   1.0769371130e+02   1.6110495660e+01    0.8408613    0.4588735  54.74  0.002102632    2.166    0.538
        23 -12.9721    234.6562    243.6509   9.9495629630e+01  -1.1926598583e+01     0.425101    0.2555316   5.49  0.002300674    1.909    0.476
        24 -12.8179    243.2799    246.5350   9.8428499946e+01  -1.3479810810e+01    0.4150703     0.340691 -12.08   0.00291364    1.105    0.095
        25 -12.7363    249.0275    243.5999   9.6905210852e+01  -1.3790824386e+01    0.4521502    0.3990256  77.28  0.001556657    2.238    0.553
        26 -12.9880    232.6769    250.3184   1.0099064395e+02  -1.2639234592e+01    0.8132887    0.1861242  35.93  0.002844096    4.180    0.761
        27 -12.1463    222.8606    250.1437   1.0278140990e+02  -1.1281516561e+01    0.3138342    0.1592378  37.11  0.001650694    1.917    0.478
        28 -10.9682    212.4982    249.5194   1.0464045171e+02  -9.7225891634e+00     0.235363     0.116107 -39.58  0.001188701    2.089    0.521
        29  -9.8347    125.3283    250.2822   1.2237220122e+02   3.9419213821e+00    0.1246505    0.1011462   6.97  0.000380007    1.603    0.376
        30 -11.4781    178.3602    231.9189   1.0848918907e+02  -1.4389520612e+00    0.2797784    0.2064908  37.39 0.0004366803    1.273    0.214
        31 -10.9843    176.5775    228.4904   1.0827616290e+02  -5.0565596914e-01    0.2366881    0.2180106  10.05 3.411492e-05    1.028    0.027
        32 -10.2887    224.5082    231.5213   9.9264683677e+01  -8.6278916428e+00    0.1265649    0.1091566  -3.23 0.0003584807    1.033    0.032
        33 -11.2467    144.4889    230.7878   1.1548421041e+02   4.5487379818e+00    0.2621017    0.2040371  58.73 0.0002782145    1.359    0.264
        34  -9.9796      7.3076    231.6153   1.4398899178e+02   2.4162916223e+01    0.1303786   0.06449556  70.30 0.0003294825    1.802    0.445
        35 -10.0970    183.8534    229.8245   1.0699634296e+02  -1.9704935248e+00    0.1785582    0.1613569  58.25  0.001070924    1.313    0.239
        36 -10.6969     81.8997    230.1300   1.2894482719e+02   1.5001008172e+01    0.2063893    0.1563374  67.13 0.0002640686    1.209    0.173
        37 -10.6482     69.5332    229.9689   1.3154574471e+02   1.6865418285e+01    0.2535045    0.2076642   5.15  0.001444776    1.890    0.471
        38 -11.9136    196.9436    225.9336   1.0364690895e+02  -3.4219375602e+00    0.3363158    0.2775933 -66.85 0.0009547656    1.659    0.397
        39 -11.7556    218.9225    225.8994   9.9321319414e+01  -6.8736197137e+00    0.2685326    0.2283533 -43.58 0.0009601255    1.351    0.260
        40 -10.9341    148.8706    226.9881   1.1392917459e+02   4.5529637163e+00    0.2653008     0.201909  51.81   0.00142103    1.316    0.240
        41 -11.3106    202.9138    225.2905   1.0233661912e+02  -4.2721750480e+00    0.2842673    0.2003504  31.58  0.000750917    1.363    0.266
        42 -12.8277    177.4476    222.0381   1.0697366102e+02   5.6515661730e-01    0.7668608    0.3821369  47.01  0.003304338    2.144    0.534
        43 -10.3947    171.0396    217.8331   1.0758983154e+02   2.4964047555e+00    0.2512017    0.1912827  40.00 0.0009747578    1.265    0.210
        44 -11.4693    247.0602    220.9581   9.3252714043e+01  -1.0126450106e+01     0.307281    0.2046201  -7.14  0.001263603    1.578    0.366
        45 -10.1187     97.9902    222.2133   1.2442291243e+02   1.4229256200e+01    0.1851725    0.1651533  59.64 0.0002356087    1.052    0.049
        46 -10.2786     30.4820    222.0146   1.3880211111e+02   2.3739902903e+01    0.1805896    0.1048764 -76.99 0.0003707243    1.502    0.334
        47 -14.1408    234.8852    215.5458   9.4445377045e+01  -7.5237208080e+00      0.48023    0.3123671 -25.81  0.001489548    1.447    0.309
        48 -11.2672    130.5102    218.5174   1.1660741905e+02   9.5323819182e+00    0.2814241    0.1403814 -54.06 0.0008278792    2.111    0.526
        49 -12.3602    123.8541    216.0406   1.1770901099e+02   1.1236711662e+01    0.5698391    0.3542927  28.08  0.002218445    1.856    0.461
        50 -11.6491     58.6265    216.3487   1.3234510861e+02   2.1473733198e+01     0.406536    0.3228553 -17.45  0.001512689    2.063    0.515
        51 -12.2734    142.7590    215.6283   1.1339449536e+02   7.9811872538e+00    0.5011859    0.3540322  81.91 0.0006566458    2.049    0.512
        52  -9.7270     17.4160    217.1708   1.4100494789e+02   2.6274594690e+01    0.1673016   0.09384613  88.86 0.0004186808    1.556    0.357
        53 -14.6735    248.2209    114.1345   7.2135419420e+01   8.5719398285e+00    0.9907452     0.379142 -43.96   0.00413656    2.197    0.545
        54 -15.8688    195.8819    203.2877   9.9685638405e+01   9.8025469861e-01      3.05794     1.348238 -50.17   0.01107062    2.498    0.600
        55 -12.9858    154.9363    196.0291   1.0714269913e+02   9.9881150278e+00    0.5332302    0.4950796 -28.44 0.0004650937    1.120    0.107
        56  -9.8828    232.2369    200.9183   9.2180235890e+01  -4.6132186127e+00    0.1806775    0.1515332 -28.97 0.0004511098    1.079    0.073
        57 -11.3627    162.0397    201.2491   1.0653115062e+02   7.5301329542e+00    0.2052603    0.1828913  39.74 0.0003750084    1.101    0.092
        58 -16.1658    211.9119    135.1205   8.2353331372e+01   1.1668389860e+01     1.417654     1.077288  67.43  0.007235736    1.537    0.349
        59  -9.8063      6.6895    201.6736   1.4191956671e+02   3.0855727596e+01    0.1166277   0.08061703 -54.45 0.0003359713    1.660    0.397
        60  -9.7749    128.4614    200.4489   1.1405472151e+02   1.3915110103e+01    0.1455071    0.1405185  62.81 0.0001577927    1.024    0.024
        61 -10.5065    227.1982    198.8533   9.2711679158e+01  -3.4504576680e+00    0.1904819    0.1817299 -43.84 0.0006975391    1.234    0.190
        62 -10.0863     34.1711    198.1657   1.3572229911e+02   2.8826830893e+01    0.1779329    0.1273188  73.58 0.0002885274    1.282    0.220
        63  -9.9086     16.5100    197.9897   1.3955166064e+02   3.0760213660e+01    0.1825631    0.1020152 -75.93 0.0003288794    1.475    0.322
        64 -11.2149    233.2457    195.4016   9.0936181444e+01  -3.7923891973e+00    0.3842372    0.2538037 -41.14  0.001438241    1.394    0.283
        65  -9.3798    234.3990    190.4445   8.9765885342e+01  -3.0859437724e+00    0.1336753    0.1149856 -25.68 9.533627e-05    1.015    0.015
        66 -10.8810    212.2305    196.7620   9.5153834030e+01  -5.9379005735e-01    0.3974749    0.2356341 -50.70  0.001869988    1.830    0.453
        67 -11.2212    215.4931    193.9575   9.3972890740e+01  -6.1902971305e-01    0.3245962    0.2499074 -40.81  0.001209254    1.237    0.192
        68 -10.5996    172.8153    197.3640   1.0342187359e+02   6.3489571162e+00    0.2270599    0.1960457   4.14 0.0004116916    1.257    0.204
        69 -11.1867    176.0033    195.5041   1.0236963104e+02   6.1452325220e+00     0.369216    0.1972336  50.08  0.001233958    2.108    0.526
        70 -10.8579    132.8302    246.6773   1.2032208006e+02   3.4025839392e+00    0.2488271    0.1640193  38.17 0.0004471807    1.365    0.268
        71 -10.4800    206.9435    192.9949   9.5453598937e+01   1.0389798600e+00    0.2157587    0.1951417 -22.74 0.0005581035    1.024    0.023
        72 -12.9904    118.2485    190.7792   1.1477357228e+02   1.8022274527e+01    0.5582742    0.4148435 -56.80  0.002333847    1.344    0.256
        73 -10.0599     84.0462    192.8057   1.2339005861e+02   2.3342108274e+01    0.2425382    0.1415415  61.88 0.0008021715    1.989    0.497
        74 -11.0091    227.2500    191.3948   9.1252979001e+01  -2.1032448821e+00    0.2733494    0.2208607 -35.52  0.001240378    1.129    0.114
        75 -10.0674     49.6752    192.3030   1.3151286068e+02   2.8363338815e+01     0.142687   0.09110092  70.90 0.0003685587    1.639    0.390
        76 -11.0483     51.0362    245.3429   1.3681747856e+02   1.6112454358e+01    0.3209683    0.1624359  50.25  0.001458121    1.694    0.410
        77 -12.2983    111.8360    184.8573   1.1527445853e+02   2.0594353136e+01    0.5382361    0.2806958 -51.11  0.002209686    1.906    0.475
        78 -12.1616    213.5402    243.1622   1.0337300371e+02  -8.8837591505e+00    0.2288512    0.2024788  52.00  0.001479779    1.523    0.343
        79 -10.4217     88.0280    191.2821   1.2218955630e+02   2.3080473758e+01    0.1967126    0.1788269  68.42 0.0002584023    1.061    0.057
        80 -12.1908    135.4777    196.7150   1.1175155412e+02   1.3479290677e+01    0.6131956    0.3564972 -37.53  0.002007498    2.094    0.522
        81 -14.3187    246.4504    185.4184   8.6680157503e+01  -4.0774140301e+00    0.4371245     0.340702   6.44  0.001751102    1.428    0.300
        82  -9.5699     59.5870    186.5210   1.2839577115e+02   2.8475002385e+01    0.1398705    0.1211126 -84.10 0.0001186777    1.019    0.018
        83  -9.4397     17.2921    184.6840   1.3810902969e+02   3.3824509368e+01    0.1310874   0.08065189  73.79  0.000339651    1.598    0.374
        84 -11.4230     85.2853    181.3398   1.2126503500e+02   2.5963539793e+01    0.3199665    0.2533531 -72.31 0.0005706914    1.202    0.168
        85 -12.5477     87.5276    174.9900   1.1962392140e+02   2.7181254784e+01    0.4957786    0.2832216 -55.97  0.001441885    1.657    0.397
        86 -16.9878    198.5675    161.8585   9.0716141644e+01   8.8721027178e+00     4.091455     2.927416  -7.43   0.01839145    2.009    0.502
        87 -16.7060    235.7400    124.4741   7.6089987469e+01   9.0314256503e+00     2.451094     1.905167  78.66    0.0135994    1.529    0.346
        88 -11.4439     22.2524    176.0374   1.3604533704e+02   3.5419900361e+01    0.2043875    0.1788395  62.87 0.0002401408    1.220    0.180
        89 -15.7585    181.6891     93.8127   7.8337117896e+01   2.6317061357e+01     1.305175     1.033714  58.65  0.005556788    1.270    0.213
        90 -10.5063     62.2847    173.3243   1.2580273387e+02   3.1383673342e+01    0.2170885    0.1961313 -56.30 0.0003468891    1.171    0.146
        91 -10.7552    233.5702    171.7603   8.6207929646e+01   4.8937151430e-01    0.2269509    0.1760076  63.95 0.0007088133    1.732    0.423
        92 -11.3670     78.8131    171.7232   1.2130104234e+02   2.9375043982e+01    0.2758144    0.2262725 -60.47 0.0004956887    1.156    0.135
        93 -11.6383     31.8491    180.2763   1.3425707708e+02   3.3397350412e+01    0.2323222    0.1838751 -77.38 0.0002595063    1.065    0.061
        94 -10.2420    156.9321    216.1073   1.1034148413e+02   5.3464977581e+00    0.2068114    0.1873799  84.49 0.0006001947    1.258    0.205
        95 -10.4172     71.5229    167.4918   1.2247928059e+02   3.1533165330e+01    0.1457216     0.131887 -75.08 -6.70245e-05    1.020    0.020
        96 -10.3637     38.0890    165.8622   1.3088672117e+02   3.6256774351e+01    0.2018101    0.1621283  81.91  0.000282228    1.203    0.169
        97 -10.7839    247.9045    165.2139   8.2471414525e+01  -6.8580258750e-01    0.1765211    0.1565657 -40.54 0.0002123641    1.078    0.072
        98 -10.3223     65.4912    163.5195   1.2339867725e+02   3.3397015207e+01    0.1447725    0.1294977 -77.17 4.820195e-06    1.005    0.005
        99 -10.6906    250.6533    159.7233   8.0939674537e+01  -1.3743473786e-01    0.2181274    0.1081257 -40.05 0.0003069233    1.720    0.419
       100 -11.5980     86.0637    158.9608   1.1709605783e+02   3.1428605984e+01    0.3312209    0.2256115  25.21 0.0009120086    1.778    0.438
       101 -10.4047     66.4598    159.5084   1.2245905250e+02   3.4268391760e+01    0.1458001    0.1296805 -79.79 6.718397e-05    1.040    0.039
       102 -11.8527     92.0915    214.3099   1.2464945876e+02   1.6967029262e+01    0.3803932    0.2916701  22.95  0.002001648    1.630    0.386
       103 -10.4689     56.1332    157.7841   1.2494033581e+02   3.6100102805e+01    0.2075049    0.1748977  88.48 0.0007015958    1.167    0.143
       104 -10.4714     42.1538    158.1962   1.2873210489e+02   3.7701494118e+01    0.1955266    0.1494512  80.65  0.001078928    1.352    0.260
       105  -9.8671     23.1598    157.8239   1.3363044319e+02   3.9769203645e+01    0.1824783    0.1307856 -54.46 0.0008066715    1.320    0.242
       106 -10.8759    176.8237    244.6150   1.1089789416e+02  -3.4531077933e+00    0.1914865    0.1106711  44.67 0.0009501885    1.710    0.415
       107 -11.1034     78.1387    155.9382   1.1866274905e+02   3.3440249022e+01    0.2244059    0.1879309  88.18 0.0003527273    1.241    0.194
       108 -12.8821     96.6586    152.8168   1.1303065947e+02   3.1180943871e+01    0.4543841    0.2772167  38.14  0.001433013    1.721    0.419
       109 -10.9009     89.6941    152.6880   1.1489105345e+02   3.2398981552e+01    0.2205327    0.2002718  56.38 0.0006146344    1.141    0.124
       110 -12.1257     90.8570    149.1762   1.1386100646e+02   3.3077584696e+01    0.3349863    0.2649919 -56.09 0.0009831768    1.190    0.160
       111 -12.8449     80.2287    148.9952   1.1675346697e+02   3.4852070213e+01    0.4399516    0.2644791 -56.81  0.001978572    1.537    0.349
       112 -11.6602     11.4077    150.0128   1.3566873814e+02   4.2686146501e+01    0.3403813    0.1916436 -51.09  0.000391093    1.658    0.397
       113 -10.8880     12.1627    143.1724   1.3459881100e+02   4.4269553803e+01    0.2999664    0.1414249 -57.40  0.001090215    1.709    0.415
       114  -9.7023     66.4716    149.4570   1.2065920323e+02   3.6786695660e+01    0.1457715    0.1305309 -80.23 4.728734e-05    1.073    0.068
       115 -10.8040    121.6831    243.6198   1.2223525486e+02   5.8332805522e+00    0.2574834    0.2036105  72.82  0.000818353    1.355    0.262
       116 -10.1685     45.6608    145.2949   1.2572693841e+02   4.0501284922e+01    0.1399025   0.09970205  72.53 0.0005500045    1.654    0.395
       117  -9.6999     20.5994    145.3006   1.3262237680e+02   4.3053235116e+01    0.1353776   0.08723755  68.21 9.508911e-05    1.827    0.453
       118 -14.1184    142.1041    192.4415   1.0941658478e+02   1.3212541990e+01     1.018916    0.9367706 -44.60  0.003388155    1.119    0.106
       119 -12.1518     92.5693    141.6908   1.1181091799e+02   3.4635300398e+01    0.4198665    0.2598029 -24.58  0.001616774    2.561    0.609
       120 -13.3057    150.4244    196.2971   1.0821994582e+02   1.0778530860e+01    0.4756472    0.3725833 -36.13 0.0004980414    1.375    0.272
       121 -11.8267     71.0446    137.6868   1.1707361964e+02   3.9050408624e+01    0.3678796    0.2202738  57.96  0.001573529    2.181    0.542
       122  -9.5279     32.6845    136.2645   1.2788902138e+02   4.4117806063e+01    0.1278341   0.09574471  72.62 0.0002066146    1.546    0.353
       123 -10.8532     18.9980    133.3651   1.3133130829e+02   4.6068042045e+01    0.2123981    0.1502667 -64.99  0.001218117    1.154    0.133
       124 -11.8671     87.2728    129.1797   1.1053355685e+02   3.8571455080e+01    0.4005318     0.229188 -39.29  0.001002522    1.888    0.470
       125 -12.6048     92.3370    127.0123   1.0857097812e+02   3.8225410214e+01    0.5180231    0.2674443 -54.33  0.002084361    1.874    0.467
       126 -11.1804     78.0124    127.5594   1.1286922493e+02   4.0458665508e+01    0.2119711    0.1463758  34.25 0.0004096614    1.563    0.360
       127 -10.3851     48.2525    123.9410   1.2103230036e+02   4.5407059113e+01    0.2382241    0.1302787 -38.91   0.00107173    1.949    0.487
       128 -10.1509     24.0047    123.6773   1.2831342297e+02   4.7948220910e+01    0.1713939    0.1502764 -57.88 0.0005778006    1.057    0.054
       129 -10.2216     63.2967    121.9650   1.1603336533e+02   4.3958339177e+01    0.1984913    0.1683937 -53.27 0.0003881999    1.068    0.064
       130 -12.3208     91.7287    117.0308   1.0634065674e+02   4.0665655490e+01    0.3507714      0.25938  51.13  0.001707025    1.497    0.332
       131 -11.4889     68.3760    116.3262   1.1320046998e+02   4.4567918134e+01    0.3277428    0.2400676  54.12   0.00117088    1.638    0.389
       132 -10.3771     81.6175    119.2217   1.0986770453e+02   4.1860469884e+01    0.2119316    0.1266119 -43.47 0.0002809698    1.618    0.382
       133 -11.6833     35.3723    118.1709   1.2384566636e+02   4.8180997629e+01    0.2789246    0.2314531 -75.63  0.001676914    1.228    0.186
       134 -11.8399     90.5827    107.9145   1.0436750175e+02   4.2925190084e+01    0.3598937    0.1965762 -31.61 0.0009557839    2.324    0.570
       135  -9.9585     77.8251    111.8653   1.0922669429e+02   4.4164505089e+01    0.1870521    0.1694381  75.94 0.0005376139    1.282    0.220
       136 -10.9960    241.2934    104.0859   7.1043906838e+01   1.1672893363e+01    0.2535884    0.1758038 -46.47 0.0006674048    1.254    0.203
       137 -12.0557     86.1228    103.6608   1.0459655450e+02   4.4631545047e+01    0.3469484    0.2850905 -57.51  0.001256118    1.263    0.208
       138 -11.7513     78.8925    103.3501   1.0673565526e+02   4.5898425508e+01     0.249716    0.2450857  -4.22 0.0006244612    1.074    0.069
       139 -11.6926     70.6078    101.1580   1.0877003015e+02   4.7667637101e+01    0.3598925     0.138558 -39.23  0.001266282    2.920    0.658
       140 -11.2401     89.0855    209.5860   1.2467041982e+02   1.8540079013e+01    0.3838048    0.2265625  74.81  0.001642549    2.244    0.554
       141 -10.2926     12.4809     95.4398   1.2676549604e+02   5.5285559220e+01    0.1255107   0.09806123 -46.37 0.0001435367    1.047    0.045
       142 -11.3572    178.2324    212.9647   1.0518161977e+02   2.1907332401e+00    0.2943807    0.2500645 -88.30  0.001270015    1.563    0.360
       143 -11.3110    242.2556     88.0970   6.7646405285e+01   1.4251640739e+01    0.3884192    0.2373527 -40.22  0.002035823    1.568    0.362
       144 -11.7732     87.8646     88.8391   9.9995948476e+01   4.7434636376e+01      0.35638    0.2884998   0.10  0.001022539    1.375    0.273
       145 -10.6761    110.5543     88.0146   9.3143691932e+01   4.3288926346e+01    0.2260758     0.141707 -43.46  0.001030002    1.604    0.377
       146 -12.1173    105.0950     87.3380   9.4478597523e+01   4.4510815433e+01    0.3391172    0.2426887  53.59  0.001192012    1.523    0.343
       147 -10.0106     40.7753     90.6049   1.1598390144e+02   5.3811882322e+01     0.168779    0.1183926  38.62  0.000937452    1.675    0.403
       148 -10.7465    107.2910     82.9688   9.2598244253e+01   4.4909775043e+01    0.1979709    0.1801142 -29.42 0.0003408004    1.100    0.091
       149 -10.5943     52.1839     81.1966   1.0952768066e+02   5.4404668595e+01    0.1977985    0.1575272 -21.68 0.0004582293    1.178    0.151
       150  -9.6531    245.6377     79.7649   6.5552837062e+01   1.4968184355e+01    0.1118034    0.1004304  37.43 0.0004341322    1.590    0.371
       151 -12.5417    107.8517     70.5065   8.8748307441e+01   4.7033079905e+01    0.4061782    0.2732127 -57.72  0.001932069    1.919    0.479
       152 -11.2291    107.5229     74.5120   9.0041298633e+01   4.6404505576e+01    0.2439409    0.2284499  79.53 0.0007889218    1.221    0.181
       153 -12.0701     95.1505     77.3098   9.4421332204e+01   4.8319652622e+01    0.4813266    0.2166619  42.17  0.001731043    2.201    0.546
       154 -12.1367     97.8729     74.1347   9.2665398797e+01   4.8375721578e+01     0.447631    0.2829518  13.79  0.001570561    2.362    0.577
       155 -10.5298    240.7011     72.5988   6.4703790070e+01   1.7108189623e+01    0.2066436    0.1492373  74.79 0.0007300034    1.409    0.291
       156  -9.7909     50.9426     71.9990   1.0731175602e+02   5.6349385130e+01     0.154718    0.1318905 -23.44 0.0003135165    1.023    0.022
       157 -10.7114    236.8339     56.8408   6.1986898274e+01   2.0328188764e+01    0.2589076    0.2098713  60.25 0.0006932499    1.469    0.319
       158 -10.3645    241.1013     56.5486   6.1467390464e+01   1.9500331251e+01    0.2087984    0.1437678 -64.24  0.001245265    1.231    0.187
       159 -12.2407    249.2375     65.2756   6.2298555458e+01   1.6557566896e+01    0.2173871    0.1878229 -64.26 0.0003453093    1.160    0.138
       160 -12.7110    242.4706     65.3663   6.3057190637e+01   1.7887752774e+01    0.8744063    0.4046434  89.71  0.003242159    3.988    0.749
       161 -10.8802     10.9255     65.8747   1.2061467358e+02   6.1475061851e+01    0.1812606     0.123248 -32.24  0.001170075    1.216    0.177
       162 -12.6871    110.0949     77.1710   9.0124052253e+01   4.5408011385e+01    0.4692239    0.3360864  22.88  0.001728461    1.638    0.389
       163  -9.9429    163.5137    214.4653   1.0861573578e+02   4.5062459127e+00    0.1407553    0.1338942  27.13 6.316926e-05    1.007    0.007
       164  -9.9240      1.5316    214.4910   1.4390394113e+02   2.8451207580e+01    0.1188687   0.09043255  88.56 0.0008091954    1.053    0.051
       165 -11.3465    100.5055     61.8699   8.8131200180e+01   4.9935136388e+01    0.2739366    0.1788507  30.25  0.001091245    1.624    0.384
       166 -10.7808     97.6595     58.8666   8.7989282804e+01   5.0968810019e+01    0.3151875    0.1798282  47.57  0.001342854    1.699    0.411
       167 -11.1974    220.1435     59.4384   6.4470476358e+01   2.3460224303e+01    0.2654211    0.2254532 -63.44  0.001068246    1.103    0.093
       168 -10.3079     54.3651     59.6726   1.0225366600e+02   5.8109758410e+01    0.1178848    0.1035155  76.58 0.0007037882    1.803    0.445
       169 -10.7257     32.3728     58.8039   1.1022782054e+02   6.0920989734e+01    0.1699702    0.0935597 -37.30  0.000221558    1.570    0.363
       170 -10.3540     11.3545     58.1194   1.1836084777e+02   6.2900651839e+01    0.1593836    0.1215891 -39.62 0.0005623142    1.106    0.096
       171 -12.1220    128.9192     55.3405   7.8916812402e+01   4.4927031321e+01     0.301306    0.2254714   5.92  0.001544871    1.779    0.438
       172 -11.5421    230.5323     46.9925   6.0697583852e+01   2.3067888842e+01    0.2638894    0.2040203 -49.20 0.0003602366    1.291    0.225
       173 -11.9538    226.1563     54.1680   6.2646131674e+01   2.2957469095e+01    0.5684456    0.2932649 -71.81  0.002581031    2.362    0.577
       174 -11.5706    226.7226     50.3988   6.1806257189e+01   2.3385799586e+01    0.3901699    0.2330551  89.57  0.002059576    1.742    0.426
       175 -11.4193     90.8275     54.5246   8.8570749281e+01   5.2947675556e+01    0.3155405     0.195847  16.31  0.001095337    2.159    0.537
       176 -11.7771    249.5314     53.2770   5.9969196806e+01   1.8296943457e+01    0.2269279    0.1674176 -70.37 0.0004037279    1.100    0.091
       177 -11.2201    217.8173    210.7820   9.6755314285e+01  -4.0875211552e+00    0.2332184    0.1625811 -29.29 0.0006328105    1.366    0.268
       178 -12.4796    121.3974     53.5572   8.0137453928e+01   4.6842770200e+01    0.4206407    0.2801169  77.28   0.00159406    2.103    0.525
       179  -9.7676     51.7063     54.6958   1.0158553051e+02   5.9306348902e+01    0.1276891   0.08605555  -8.77 0.0001908469    1.577    0.366
       180  -9.7036     61.5593     53.5789   9.7684538851e+01   5.8077876515e+01    0.1260391    0.1094491  -0.48 6.097296e-05    1.022    0.022
       181 -10.1563     57.1866     52.8298   9.8977093875e+01   5.8841830778e+01    0.1717591    0.1288885   3.48 0.0004428876    1.290    0.225
       182  -9.7584     25.7150     52.3219   1.1083219137e+02   6.2720026216e+01   0.09983977   0.09496521 -79.48 0.0002595069    1.596    0.373
       183 -10.9146    225.7856    210.0295   9.5101658176e+01  -5.2090096829e+00    0.3228269    0.2151281  48.86  0.001700797    1.884    0.469
       184 -10.5960     30.8551     50.3886   1.0814659932e+02   6.2529552979e+01    0.2029862    0.1405283 -50.67   0.00124446    1.649    0.394
       185 -11.7856    116.2001     55.2451   8.1915691109e+01   4.7717395903e+01    0.3263884    0.1988705 -26.05  0.001164687    1.900    0.474
       186 -11.5227    161.4970     48.2841   7.0449168728e+01   3.8454439734e+01    0.2777584    0.1992273  49.56  0.001499188    1.394    0.283
       187 -10.1588    242.6938     48.3008   5.9697912885e+01   2.0378069074e+01     0.155847    0.1436366  75.95 0.0005855844    1.384    0.277
       188 -10.5396    246.2490     46.5380   5.9011797936e+01   1.9914752912e+01    0.2462812    0.1459291  56.99  0.001062594    1.992    0.498
       189 -11.8299    213.7957     45.3422   6.2236705170e+01   2.6894023402e+01    0.3738848    0.2919092   7.82  0.001334371    2.370    0.578
       190 -11.1185    220.7299    207.0841   9.5501069153e+01  -3.8928846495e+00    0.2974949    0.2240306 -28.02 0.0008167355    1.232    0.188
       191 -11.1640    236.6541     46.2106   5.9901936607e+01   2.1905749177e+01    0.3046234    0.2031281 -47.85  0.001826611    1.392    0.282
       192 -10.9011    233.5399     42.5477   5.9498933686e+01   2.3060857016e+01    0.2057816    0.1605319  80.82 0.0007082035    1.214    0.176
       193 -11.9504    156.1540     44.1552   7.0292853863e+01   4.0255682289e+01    0.3772569    0.2240502 -36.87  0.001895566    1.822    0.451
       194 -12.2125    150.5685     44.7197   7.1451662099e+01   4.1475702744e+01    0.2718203    0.2346848  33.35 0.0005699867    1.305    0.234
       195  -9.5310     76.2571     46.7066   9.0423221403e+01   5.6735422443e+01    0.1098299    0.1026077 -74.84            0    1.493    0.330
       196 -11.4389     99.6499     44.4684   8.2795781776e+01   5.2663412980e+01    0.2229161     0.212493  42.33 0.0002625518    1.129    0.114
       197 -11.3552     90.4283     44.6338   8.5420175095e+01   5.4444623991e+01    0.2186274    0.1916444  25.84 0.0002897702    1.016    0.016
       198 -12.2067    124.7297     42.4810   7.6033203858e+01   4.7626256581e+01    0.3709743    0.2284975 -23.39  0.001602239    1.943    0.485
       199 -11.4656    201.3692    243.0255   1.0571589946e+02  -7.0421840582e+00    0.2262586    0.1615662  17.03  0.001302606    1.352    0.261
       200 -11.4591    165.6853    209.0378   1.0716638856e+02   5.2280834730e+00    0.2530617    0.1965301  50.61  0.001145728    1.343    0.255
       201 -10.8845    196.8085     37.9014   6.2677301217e+01   3.1687558061e+01     0.215235    0.1592376  62.24 0.0006685848    1.333    0.250
       202 -12.4955    183.8368     39.1400   6.4682572705e+01   3.4487822479e+01    0.4471581    0.2943799 -68.33  0.001647233    1.600    0.375
       203 -12.6837    191.6910     39.1088   6.3611316926e+01   3.2691945754e+01    0.3652235    0.2920006  46.77 0.0003422711    1.504    0.335
       204 -11.0307    146.1552    208.1018   1.1133576584e+02   8.9829270676e+00    0.3761369    0.2423936 -72.65  0.001628278    2.165    0.538
       205  -9.8159    231.2945     40.3014   5.9283126331e+01   2.3836839477e+01    0.1066217    0.0963059  48.53 0.0002730698    1.573    0.364
       206 -12.6642    219.2905     34.1229   5.9277866346e+01   2.7208880770e+01    0.4164833    0.2345928 -42.88  0.002298188    1.737    0.424
       207 -12.2501    211.5794     39.4777   6.1244606683e+01   2.8181689908e+01    0.3864136    0.2660589 -86.32 0.0001075767    1.339    0.253
       208 -12.0182    214.0288     33.0540   5.9616970358e+01   2.8487459387e+01    0.3465811    0.1965574 -36.01  0.001362162    1.957    0.489
       209 -11.4029     25.7899     39.1304   1.0638582013e+02   6.4860743433e+01    0.1888643    0.1455917  -6.52 0.0002821016    1.074    0.069
       210 -10.9715    155.7851     38.6844   6.8900115646e+01   4.1047286842e+01    0.2322548    0.1432075  59.92 0.0006068154    1.437    0.304
       211 -11.7161    147.4714     28.9527   6.7700519864e+01   4.4124121615e+01    0.2883415    0.2012866  70.70  0.001116298    1.311    0.237
       212 -11.9185    131.4364     37.0586   7.2996708761e+01   4.6813687468e+01    0.2388615    0.2140938  38.64 0.0002919752    1.123    0.110
       213 -10.3363     92.5360     37.0168   8.2263127270e+01   5.5030917221e+01    0.1764465    0.1237268 -26.49 0.0004224227    1.527    0.345
       214 -10.6285    123.2271     35.2350   7.4175238244e+01   4.8855189096e+01    0.1696147    0.1476392 -88.80 0.0004280723    1.307    0.235
       215 -12.0679    199.6306     33.0964   6.1259752842e+01   3.1668931949e+01    0.2857177    0.2119733 -68.61 0.0007507862    1.238    0.193
       216 -10.5466    170.8595     33.6159   6.5200653965e+01   3.8181117832e+01    0.2545493    0.1604636  82.85 0.0009427668    1.618    0.382
       217 -11.3344    167.0251     32.9977   6.5618364341e+01   3.9143337786e+01    0.2392648    0.2055551 -83.70 0.0006807361    1.107    0.096
       218 -11.0952    188.1116     32.8515   6.2634568370e+01   3.4307172304e+01    0.1985504    0.1526077 -80.96 0.0007028538    1.195    0.163
       219 -10.4296    158.4552     32.4958   6.6825556238e+01   4.1185929065e+01    0.2559251    0.1512623  48.34 0.0007658189    1.698    0.411
       220 -11.2128    233.1948     35.6430   5.8179252651e+01   2.4067016224e+01    0.2214792    0.1794466 -71.34 0.0004008648    1.075    0.070
       221 -10.3173     11.9394    207.9866   1.4136049805e+02   2.8910041445e+01    0.1480381    0.1155689  84.37 0.0004213366    1.025    0.024
       222 -15.7447    174.4736    121.0829   8.6408107841e+01   2.2551156047e+01    0.9675307    0.6703088 -47.81  0.002643538    1.390    0.281
       223 -11.3542    128.9618     30.4732   7.1559152408e+01   4.8138629662e+01    0.2911857    0.1557138 -40.45 0.0009727565    2.100    0.524
       224 -11.8670    182.8876     28.5875   6.2318761049e+01   3.6018824123e+01    0.3662247    0.1907532 -66.43  0.001244644    2.367    0.578
       225 -12.1997    202.6702     27.9904   5.9792214734e+01   3.1624216838e+01    0.3613472    0.1987882 -62.62  0.001466345    1.848    0.459
       226 -11.8028    201.8371     21.9897   5.8592480587e+01   3.2524848401e+01    0.2300153     0.211099 -78.40 0.0006442451    1.220    0.180
       227 -10.1385    114.7588    204.7033   1.1797375384e+02   1.5382326992e+01    0.1925037    0.1557297  72.40 0.0003080816    1.292    0.226
       228 -11.6104    188.5199     27.5555   6.1364695888e+01   3.4858210304e+01    0.2529311    0.1932671  60.97 0.0005461856    1.303    0.232
       229 -11.0019    161.9958     27.0896   6.4876795280e+01   4.0995987842e+01    0.1959382    0.1661349  78.94 0.0004117509    1.028    0.027
       230 -11.2172    210.8906     25.3736   5.8348981311e+01   3.0131103789e+01    0.2539395    0.1549174  68.44  0.000904652    1.486    0.327
       231 -10.7198     86.4916    203.5122   1.2440146791e+02   2.0381067457e+01    0.3705543    0.1167186  41.56   0.00126991    2.939    0.660
       232 -12.4482    145.2967     33.1503   6.9233324342e+01   4.4137811949e+01    0.5325099    0.2633113 -52.70  0.001761058    2.595    0.615
       233 -11.8645    226.5663     23.7282   5.6482590547e+01   2.6972208847e+01    0.3767485     0.115244  63.57  0.001646428    2.910    0.656
       234 -10.4205    239.6322     22.2916   5.5061689835e+01   2.4454030155e+01    0.1280555   0.06897356 -72.22 0.0007026176    1.714    0.417
       235 -10.1730    175.7638     22.6593   6.1844792174e+01   3.8330686396e+01    0.1798484    0.1031758  77.86 0.0005823823    1.622    0.383
       236 -10.4610    168.3144     21.6027   6.2588808926e+01   4.0152281526e+01    0.2062547    0.1393951 -55.06 0.0006722609    1.564    0.361
       237 -10.1250    194.0388     19.7049   5.8952248840e+01   3.4522959055e+01    0.1713016    0.1322049  79.90 0.0001699664    1.097    0.088
       238 -10.3039    159.3850     19.7833   6.3395573914e+01   4.2391261563e+01    0.1521205    0.1241403  -7.81 0.0003796807    1.641    0.391
       239 -11.1926     19.1151     16.4141   1.0059875019e+02   6.8715950651e+01    0.1843147     0.154014 -24.36 0.0003431663    1.439    0.305
       240 -10.8951     32.5131    242.6427   1.4011703553e+02   1.9018531707e+01    0.1994752    0.1859438 -22.38 0.0008344163    1.719    0.418
       241 -12.0181     76.0704    201.1398   1.2650010099e+02   2.2553952512e+01    0.4047818    0.3628721 -58.46  0.001729542    1.226    0.184
       242 -10.7544     21.7746    243.0572   1.4213345158e+02   2.0187405426e+01    0.1846703    0.1370395  63.89 0.0002992852    1.137    0.121
       243 -10.2521    228.6906     15.6514   5.4739485765e+01   2.7493085363e+01    0.1051764   0.08743542  50.32 0.0007044575    1.710    0.415
       244 -10.1130      2.2315    242.7430   1.4558902522e+02   2.2349721010e+01     0.142808    0.1112143 -79.35 0.0009821069    1.329    0.247
       245 -10.0509     63.6919     15.5998   8.3110633773e+01   6.2656111322e+01    0.2323152   0.09025511  42.92  0.001138231    2.169    0.539
       246 -10.9044    191.7110     13.8437   5.7919728992e+01   3.5685522406e+01    0.1679547    0.1517084  36.00 0.0007727017    1.514    0.339
       247 -11.1419    208.8199    240.7822   1.0387976836e+02  -7.8039704908e+00    0.1982594    0.1553397   2.70 0.0009185875    1.204    0.170
       248 -12.1233    190.2323    241.1209   1.0761182214e+02  -4.9941041288e+00    0.3100483    0.2258694  44.83  0.001323107    1.451    0.311
       249 -10.7087    186.1684    237.1304   1.0776571123e+02  -3.6550921869e+00    0.1707516    0.1595071  62.86  0.001068314    1.321    0.243
       250  -9.8234     56.7275    241.6476   1.3536421536e+02   1.6128621193e+01    0.1135187   0.09466007 -47.82  0.000699966    1.636    0.389
       251 -12.1063    198.9246    238.2035   1.0538387883e+02  -5.8652405535e+00    0.2295019    0.2067044  13.31 0.0002685914    1.069    0.065
       252 -11.9755    234.6865    235.1263   9.8010233270e+01  -1.0640289255e+01    0.2681122    0.2295481  35.53  0.001782858    1.416    0.294
       253 -10.1560    162.6130    235.7355   1.1241117122e+02   4.9641007218e-01     0.239972    0.1541944  54.41 0.0005869484    1.795    0.443
       254 -10.6458     52.9463    236.0578   1.3558236938e+02   1.7834046334e+01    0.1884911    0.1525777  73.70            0    1.009    0.009
       255 -10.5160     32.4734    234.6440   1.3948247367e+02   2.0727181318e+01      0.30287    0.1219207  62.56  0.001336225    2.647    0.622
       256 -11.2810    249.8149    232.3841   9.4812939154e+01  -1.2250976500e+01     0.231381    0.1952738  17.13 0.0006267941    1.250    0.200
       257 -11.8685    192.8806    232.2638   1.0557567278e+02  -3.8847914843e+00    0.2814309     0.247764 -53.77 0.0008483151    1.371    0.270
       258 -11.2365    173.9594    232.0066   1.0941909402e+02  -7.1855525526e-01     0.326356    0.2635566 -40.82  0.001537845    1.315    0.239
