#   1 NUMBER                 Running object number                                     
#   2 MAG_AUTO               Kron-like elliptical aperture magnitude                    [mag]
#   3 X_IMAGE                Object position along x                                    [pixel]
#   4 Y_IMAGE                Object position along y                                    [pixel]
#   5 X_WORLD                Barycenter position along world x axis                     [deg]
#   6 Y_WORLD                Barycenter position along world y axis                     [deg]
#   7 A_WORLD                Profile RMS along major axis (world units)                 [deg]
#   8 B_WORLD                Profile RMS along minor axis (world units)                 [deg]
#   9 THETA_WORLD            Position angle (CCW/world-x)                               [deg]
#  10 FWHM_WORLD             FWHM assuming a gaussian core                              [deg]
#  11 ELONGATION             A_IMAGE/B_IMAGE                                           
#  12 ELLIPTICITY            1 - B_IMAGE/A_IMAGE                                       
         1 -13.1685     84.2684     24.0332   4.4723293063e+01   6.1054233161e+01    0.6395067    0.3629688 -60.54  0.002491687    2.734    0.634
         2 -11.3417    211.5133     11.9950   2.1814836073e+01   3.1165765315e+01    0.3668405    0.1424898  56.87  0.001617638    2.966    0.663
         3 -11.3167    210.6079      7.7721   2.0744999266e+01   3.1749233193e+01    0.3048408   0.07490087 -40.77  0.001196274    2.797    0.642
         4 -12.7438     85.1298     10.4072   3.7357228524e+01   6.2520986783e+01     0.365577    0.2423482 -44.34 0.0008932944    1.616    0.381
         5 -11.0424     53.9576     11.0428   4.8232621492e+01   6.9655518394e+01    0.2330017     0.155268  19.73  0.001138395    1.767    0.434
         6 -11.8080     92.7423      8.6030   3.4586044214e+01   6.0804829389e+01    0.1950832    0.1337233  81.90 0.0009472463    1.621    0.383
         7 -10.8553     67.8382      1.6152   3.7020153324e+01   6.7593365464e+01    0.1843004    0.1294091  79.14 0.0004536112    1.657    0.396
         8 -13.2024    102.2082    241.1525   9.0249589235e+01   1.4551477173e+01    0.6727038    0.3821375 -89.01   0.00357968    3.590    0.721
         9 -11.6518    237.8185    249.1191   6.7784657785e+01  -1.4301768894e+00    0.1893682    0.1213212   3.29 0.0009546241    1.094    0.086
        10 -10.8074    208.4941    249.9935   7.2340785537e+01   1.4327666824e+00    0.1255038   0.08538842 -21.00 0.0004312236    1.488    0.328
        11 -12.1433     93.1712    249.0522   9.2663719318e+01   1.4403083642e+01    0.1819884    0.1586798 -65.45 0.0008337201    1.488    0.328
        12 -11.2640     97.0217    246.6571   9.1730114983e+01   1.4326407275e+01    0.1517875    0.1212414  19.98 0.0006817436    1.199    0.166
        13 -10.4069     88.9894    251.0000   9.3613407147e+01   1.4575865234e+01    0.1562408   0.04686581  30.85 0.0007410044    2.533    0.605
        14 -17.0670     98.2417    164.3565   8.2064181298e+01   2.8819338192e+01     2.085231     1.870563  69.86   0.01006874    1.174    0.148
        15 -16.4644    123.2850    205.6194   8.2118071582e+01   1.7544778328e+01     2.225706     1.314905 -54.55   0.01276362    2.021    0.505
        16 -15.1215     41.4857    228.7928   1.0156945655e+02   2.3080607486e+01     1.664013     1.128655 -84.54   0.01178162    1.640    0.390
        17 -15.1668     55.0173    223.2856   9.8421126626e+01   2.2681283623e+01    0.8877718    0.7593377 -73.96  0.006765522    1.383    0.277
        18 -14.2119     39.8158    211.0040   1.0091591966e+02   2.6475322661e+01    0.9152268    0.6312746   2.40  0.005624025    2.038    0.509
        19 -15.2856     87.9758    183.0205   8.7185692606e+01   2.6423086260e+01    0.9454445    0.7387788  71.93  0.005564213    1.426    0.299
        20 -15.7806     57.7734    203.4728   9.6364765553e+01   2.6043293880e+01     1.547463    0.5327929  44.51  0.007134312    2.378    0.579
        21 -15.9674     78.0058    212.1724   9.2601225423e+01   2.2116682802e+01     2.230204    0.4297329  38.23  0.008466628    3.451    0.710
        22 -15.2712     88.4310    206.8415   8.9789774963e+01   2.1824304199e+01      1.21826    0.4309803  43.44  0.005466479    2.480    0.597
        23 -12.6413    179.8707    244.5541   7.6346228828e+01   5.1192375204e+00    0.2041402    0.1558308   4.81 0.0005427247    1.114    0.102
        24  99.0000     78.2411    243.2863   9.5109397704e+01   1.6895107161e+01    0.6406614    0.1339264  45.86  0.002434317    4.441    0.775
        25 -11.1934     84.6197    238.8070   9.3507754818e+01   1.6892040473e+01    0.2233779    0.1683661 -67.74  0.001389684    1.664    0.399
        26 -12.4025     85.6013    243.7770   9.3707820618e+01   1.6018635598e+01    0.2934121     0.181855 -51.63  0.001433655    2.059    0.514
        27 -11.4764     82.3089    241.6223   9.4185543700e+01   1.6709765074e+01    0.2695228    0.1630113  64.80  0.001058323    2.006    0.502
        28 -11.5770     52.7706    245.5307   1.0022802327e+02   1.9185377303e+01    0.2007407   0.09564645  45.96  0.001256245    1.606    0.377
        29 -11.0616    197.9884    242.9512   7.3120965748e+01   3.2848389694e+00    0.1540356     0.110274  14.60  0.000354183    1.054    0.052
        30 -10.6448    174.5766    243.4957   7.7123470041e+01   5.8402735842e+00      0.10557   0.07910022  15.21 0.0001202078    1.017    0.017
        31 -12.5607    116.0782    240.3027   8.7484385497e+01   1.3073488452e+01    0.2322577    0.1537539  29.36 0.0004273816    1.186    0.157
        32 -11.1620    170.5013    239.3283   7.7319457646e+01   6.8042456513e+00    0.2006331    0.1605437  69.65   0.00119666    2.603    0.616
        33 -11.0248    142.0368    239.5660   8.2493844344e+01   1.0119381144e+01    0.1466674    0.1305182 -10.72 4.081192e-05    1.270    0.213
        34 -11.0952     95.4415    239.1857   9.1400231216e+01   1.5617842218e+01    0.1690232    0.1053585 -55.35  0.001124923    2.000    0.500
        35 -11.7583    118.9974    235.2074   8.6404787250e+01   1.3467837733e+01     0.334044    0.2388441  52.66  0.002301368    1.576    0.366
        36 -13.1349    109.1683    236.5938   8.8463883633e+01   1.4424132515e+01    0.4706841    0.2365683  17.24  0.002438257    2.389    0.581
        37 -13.2897    113.2580    228.1512   8.6801583767e+01   1.5215099984e+01    0.4159304    0.3455664  23.22  0.002172983    1.075    0.070
        38 -11.9480    118.6644    224.7391   8.5350245038e+01   1.5078662575e+01    0.1925728    0.1419713 -10.49 0.0007858031    1.656    0.396
        39 -10.9026    176.5717    238.2838   7.6129140910e+01   6.2256637663e+00    0.1297711   0.08874317 -15.88 0.0006064116    1.489    0.328
        40 -11.4154    207.8157    237.6300   7.0827415623e+01   2.7779657649e+00    0.1372779   0.07803231  32.84 0.0004938368    1.647    0.393
        41 -11.4331    127.9434    235.3360   8.4688880081e+01   1.2380896167e+01    0.1732198    0.1499172  -5.96 0.0004142514    1.255    0.203
        42 -12.1428    131.8814    232.4568   8.3614414382e+01   1.2316400255e+01    0.3458573    0.1925209  20.40  0.001817425    1.719    0.418
        43 -10.8224    157.3049    234.0360   7.9030027923e+01   9.0272057882e+00    0.1510114    0.1226678  12.01  0.001149816    1.076    0.070
        44 -10.9182    214.4540    233.4903   6.9205008452e+01   2.4905656680e+00    0.1050239   0.07486045   6.64 6.033043e-05    1.007    0.007
        45 -10.8530     77.4693    232.4870   9.4441585463e+01   1.8694287292e+01    0.1801983     0.150003 -24.57 0.0006430242    1.579    0.367
        46 -11.0802     77.5425    228.5267   9.4110188372e+01   1.9338813495e+01    0.2165584    0.1364641 -87.14 0.0007761005    2.088    0.521
        47 -10.5133     96.5409    230.5256   9.0402392302e+01   1.6836143364e+01    0.1546443    0.1124564 -62.20  0.000743689    1.710    0.415
        48 -10.7101     94.6894    227.6884   9.0514423955e+01   1.7506867852e+01    0.1360369    0.1078438 -88.78 0.0009542843    1.605    0.377
        49 -11.1905    222.2151    230.6250   6.7590378094e+01   1.9472629904e+00    0.1424441   0.07393654  20.06 0.0004306331    1.606    0.377
        50 -10.9203    178.1147    229.1224   7.4668635419e+01   7.1532908630e+00    0.1348452    0.1125493  24.48 0.0003820178    1.286    0.222
        51 -11.8313    103.9940    227.9221   8.8643330466e+01   1.6366396451e+01    0.3221687    0.1880953  16.62  0.001855562    1.896    0.472
        52 -12.5770    186.3284    226.8334   7.2928645119e+01   6.4523883924e+00    0.2902164    0.1694584 -27.53  0.001616499    1.776    0.437
        53 -13.7408    125.3877    222.2163   8.3717307434e+01   1.4628890256e+01    0.4347115    0.3440867 -52.89  0.003077654    1.566    0.361
        54 -13.9596     88.0142    232.0734   9.2267219342e+01   1.7574644801e+01     1.228273    0.7101482  71.69  0.006935898    2.584    0.613
        55 -10.9594    215.0531    226.4852   6.8122211605e+01   3.1713902250e+00    0.1472438   0.08331645  26.86 0.0003700742    1.491    0.329
        56 -11.7797    138.2582    225.7635   8.1605414196e+01   1.2492751758e+01    0.2065815    0.1571722   8.61 0.0006911336    1.261    0.207
        57 -11.2796    144.4687    224.5412   8.0259642660e+01   1.1892453975e+01    0.1758901   0.09738741 -32.55  0.000658777    2.180    0.541
        58  -9.8892     28.4394    219.2182   1.0380786777e+02   2.6027949125e+01    0.1903508    0.1213839   0.32  0.001113544    2.441    0.590
        59 -10.6289     22.9543    214.7275   1.0477211535e+02   2.7356491987e+01    0.3499103    0.1422257  38.81  0.001955042    1.813    0.448
        60  -8.0623     24.3409    223.2163   1.0484294547e+02   2.5672792580e+01    0.2935036    0.2340047  43.55  0.002250463    1.107    0.096
        61 -10.7760     21.3013    218.8308   1.0529608611e+02   2.6741208806e+01    0.2077826     0.124298  31.93   0.00136155    1.444    0.307
        62 -12.3326    247.7664    223.5038   6.2756584982e+01  -2.8893057061e-02    0.2083766    0.1990508  25.23  0.001764407    2.262    0.558
        63 -11.6027    243.9835    219.9796   6.2775791749e+01   7.0727922194e-01    0.1426094   0.09957333   2.75 0.0003067917    1.031    0.030
        64 -12.7353    158.7509    221.9238   7.7219789992e+01   1.0465357793e+01    0.3490396    0.2050622  43.84  0.001582227    1.873    0.466
        65 -17.3799     68.5007    187.7053   9.2414604857e+01   2.7938739917e+01      2.52265     2.034507 -88.48   0.01619988    1.319    0.242
        66 -12.6243    173.0911    219.8003   7.4295024517e+01   8.9518100227e+00    0.2743727    0.1842082 -40.76  0.001838141    1.767    0.434
        67 -12.8548    139.1427    218.9293   8.0591262096e+01   1.3381405173e+01    0.3034069    0.2110007  20.52  0.001552336    1.260    0.206
        68 -11.2257    107.0000    219.9353   8.7203775207e+01   1.7280259095e+01    0.1628603   0.06723219 -57.87 0.0008028142    2.945    0.660
        69 -10.6625    193.3156    219.6711   7.0720389218e+01   6.4805834516e+00   0.09482071   0.08420748  40.29  0.000594372    1.677    0.404
        70 -12.1668    184.1555    213.8251   7.1462480627e+01   8.3402449190e+00    0.2103618    0.1120437  24.79 0.0003671584    1.647    0.393
        71 -12.3281    154.9663    213.0000   7.6732099378e+01   1.2204233007e+01    0.2692457    0.1643578  33.64  0.001651264    1.414    0.293
        72 -12.6742    153.4830    210.5019   7.6672145384e+01   1.2762374100e+01    0.4177491    0.2181189  13.70  0.002034703    2.525    0.604
        73 -14.2879    137.2722    207.1905   7.9434795847e+01   1.5421967674e+01    0.8578643    0.5324546  66.57  0.002529687    3.539    0.717
        74 -13.8407    133.6001    193.2336   7.8240533676e+01   1.8206646423e+01    0.4895498    0.2802194  39.27  0.002660048    1.594    0.373
        75 -14.2232    147.1774    202.6998   7.6811657882e+01   1.4785816612e+01    0.6498433    0.3815151  43.75  0.003660944    1.761    0.432
        76 -13.1920    134.4162    198.3375   7.8801218393e+01   1.7239149790e+01    0.2966045    0.2477925  20.47 0.0004669435    1.046    0.044
        77 -13.3364    139.3123    196.3763   7.7500664554e+01   1.6880690237e+01    0.3238887    0.2493254  31.77  0.001119653    1.154    0.133
        78 -10.7417     14.0213    211.7236   1.0656723402e+02   2.8696292008e+01    0.1577628    0.1058277  46.36  0.001089133    1.158    0.137
        79 -10.5089     25.7080    211.3054   1.0402207423e+02   2.7754727495e+01    0.1195696   0.06262732  55.01 0.0006993614    1.576    0.366
        80 -12.4148    229.5614    207.7088   6.3037465908e+01   3.5737314560e+00    0.2608321    0.1546841 -28.16  0.001783591    1.591    0.372
        81 -11.7555    160.4272    207.1837   7.4862910213e+01   1.2325902085e+01    0.1409164    0.1138878 -52.89 0.0009403657    1.679    0.404
        82 -11.3537    247.4908    205.9864   6.0116525682e+01   1.7475875596e+00    0.1621058    0.1012533  33.45   0.00115513    1.791    0.442
        83 -12.3908     33.6215    205.1863   1.0195273491e+02   2.8195313553e+01    0.3170378     0.238129  16.18  0.002119577    1.536    0.349
        84  99.0000     17.4226    204.7321   1.0554962711e+02   2.9754985541e+01    0.5318065     0.101737  54.21  0.001946395    4.354    0.770
        85 -11.3338     11.2689    201.4706   1.0679031825e+02   3.0913577689e+01    0.2673648   0.08180104  29.61  0.001276215    2.584    0.613
        86 -11.5704    169.5322    205.5259   7.2895472632e+01   1.1351390189e+01    0.1171803   0.09599026  12.76 4.021581e-05    1.022    0.022
        87 -11.6141    212.7762    201.0398   6.4623450512e+01   6.3493043658e+00     0.198826    0.1820107 -35.18  0.001207949    1.702    0.412
        88 -10.4900     21.9482    201.5670   1.0439432590e+02   2.9983791122e+01    0.1651659    0.1491354  34.78  0.001238226    1.243    0.196
        89 -11.9372     25.8053    196.3375   1.0324701775e+02   3.0686045646e+01    0.4150597    0.1755017 -56.45  0.002048692    2.866    0.651
        90 -13.3361    225.3633    198.9711   6.2286940697e+01   5.0526219671e+00    0.3707192    0.2370347 -35.81  0.002305221    1.779    0.438
        91 -10.8238     27.4211    201.0982   1.0312954630e+02   2.9582294509e+01    0.2560049    0.1415723   0.64  0.001231251    3.236    0.691
        92 -10.2280     34.3127    200.3104   1.0151022119e+02   2.9089160961e+01    0.1051946   0.08813918 -29.92 0.0002039429    1.629    0.386
        93 -11.4632    192.3641    197.7026   6.7536367223e+01   9.3903703012e+00    0.1758017    0.1458158  33.46 0.0005116769    1.417    0.294
        94 -12.8469    189.4641    195.3313   6.7664965472e+01   1.0095025589e+01    0.4713131    0.2492618  15.57  0.002444867    2.190    0.543
        95 -11.9247    152.3311    197.2674   7.4982730734e+01   1.4919886854e+01      0.25404    0.1656176  58.27 0.0008811417    2.487    0.598
        96 -10.5296     17.6854    198.2359   1.0520889430e+02   3.1021247137e+01    0.1187637   0.06330861  51.23 0.0004774067    1.501    0.334
        97 -11.1683    245.1458    195.7186   5.8796388665e+01   3.0914449880e+00    0.1357119    0.1149475 -55.84 0.0006528625    2.673    0.626
        98 -13.4066    148.7805    193.4311   7.5116839932e+01   1.6024808920e+01    0.4481349    0.2031369 -33.37  0.002052506    2.758    0.637
        99 -11.2325    213.0226    194.6974   6.3548950156e+01   7.0915683040e+00    0.1796053    0.1512102 -37.19 0.0008049582    1.648    0.393
       100 -12.0161     35.1161    194.2479   1.0094727026e+02   3.0233405688e+01    0.3302989    0.1713413 -83.06  0.001534555    2.020    0.505
       101 -11.1201     11.6225    196.2816   1.0651163226e+02   3.1923869169e+01    0.1717614    0.1046963  61.86  0.001082152    1.357    0.263
       102 -11.4917    164.3075    192.5624   7.1895038784e+01   1.3963161248e+01      0.17324    0.1022933  23.28 0.0009500404    1.620    0.383
       103 -12.3641    159.5169    191.5043   7.2665138242e+01   1.4803861384e+01    0.2495598    0.1902879  71.88  0.001387808    2.416    0.586
       104 -10.7741     22.5929    191.4140   1.0373797514e+02   3.1984222555e+01    0.1953119    0.1284347  29.87  0.001216996    1.449    0.310
       105  -9.0407      1.4849    190.5632   1.0864060925e+02   3.3884025454e+01    0.1101301   0.09360949  62.57 0.0008049707    1.104    0.095
       106 -12.5702    173.5737    188.9512   6.9533913878e+01   1.3193645707e+01    0.2748707    0.1581788  38.30  0.001535274    1.688    0.407
       107 -11.8399    167.0681    187.6893   7.0571822746e+01   1.4311493736e+01    0.1725562    0.1389879  17.30 0.0003451758    1.078    0.073
       108 -13.3952    136.2089    186.4930   7.6675604539e+01   1.8983634808e+01    0.3842076     0.276728 -69.72  0.001824522    2.048    0.512
       109 -14.3707    127.0868    185.3291   7.8477683745e+01   2.0512270188e+01    0.7175363      0.43193  12.32  0.002831513    2.191    0.544
       110 -10.4372     24.5832    188.4214   1.0310157499e+02   3.2428846505e+01    0.1167165   0.09743775  59.10  0.000129463    1.027    0.026
       111 -10.7553    143.4729    187.4331   7.5285014100e+01   1.7768228420e+01    0.1249711    0.1083102  17.50 3.284149e-05    1.008    0.008
       112 -11.3522    248.3870    186.1867   5.6740118302e+01   3.7529322466e+00    0.2042135    0.1140278   9.78  0.001155607    1.792    0.442
       113 -12.0807    187.0564    185.8280   6.6516493679e+01   1.1742498673e+01    0.3351953    0.1332973  43.57  0.001236705    2.882    0.653
       114 -11.8784    148.9309    184.5269   7.3688491619e+01   1.7454146622e+01    0.1785888    0.1615247  -6.82 0.0004003874    1.098    0.089
       115 -12.3806     29.8163    184.4055   1.0159116078e+02   3.2794029718e+01    0.3219716    0.2332653  42.87  0.001173964    1.198    0.165
       116 -11.0319     18.3134    184.2841   1.0439405535e+02   3.3854606343e+01    0.1733509    0.1297794  87.53 0.0007099595    1.264    0.209
       117 -10.5183    234.7397    184.6765   5.8461601355e+01   5.5651159052e+00     0.113164   0.06817938  -3.54 0.0002941283    1.554    0.357
       118  -9.2562     51.9892    251.0000   1.0067356667e+02   1.8405909686e+01    0.3119005   0.04595902  28.73  0.001085834    5.252    0.810
       119 -12.0663    178.5358    181.5700   6.7354266723e+01   1.3577479503e+01    0.3118098    0.1744092   1.58   0.00141595    2.766    0.638
       120 -13.0464    144.4222    180.4931   7.3975495967e+01   1.8801800816e+01    0.2885561    0.2502424 -41.22   0.00119965    1.276    0.217
       121 -12.9165     33.5651    167.7460   9.9446318092e+01   3.6094606739e+01    0.3107905    0.2615949 -12.51  0.001740976    1.558    0.358
       122 -12.0987     40.7596    167.4473   9.7507030536e+01   3.5436869433e+01    0.3009755    0.2779053  -2.52  0.001988514    1.331    0.249
       123 -13.2332     47.0805    168.2891   9.5904649283e+01   3.4573531081e+01    0.6145164    0.2905213 -82.37  0.001928882    2.369    0.578
       124 -13.2165     45.9890    175.6019   9.6862211626e+01   3.3069396980e+01    0.6115023    0.3036868 -87.17  0.002910425    2.302    0.566
       125 -12.8436     38.7333    176.0351   9.8757576360e+01   3.3731547063e+01    0.4041947    0.2061108  39.41  0.001555709    1.678    0.404
       126 -12.1181     24.2218    180.7273   1.0274509042e+02   3.4098062976e+01    0.1971992    0.1809132 -84.08 0.0008557774    1.215    0.177
       127 -13.1012    136.9398    178.0200   7.5176187004e+01   2.0355937174e+01    0.3193994    0.2580913 -59.88  0.001929072    1.516    0.340
       128 -13.5760    142.3667    172.3406   7.3048085501e+01   2.0533346340e+01    0.3172571    0.2602435 -66.57  0.001106343    1.603    0.376
       129 -13.5399    124.4016    168.1467   7.6355815357e+01   2.4092652775e+01    0.3971756    0.2829077  75.54  0.001970985    2.228    0.551
       130 -14.2619    136.9041    171.3155   7.4066114818e+01   2.1563243378e+01    0.7157037    0.4080319   3.74  0.002772096    3.506    0.715
       131 -15.4204    130.8595    169.6835   7.5138425629e+01   2.2800956793e+01    0.9971406    0.6455228 -22.73  0.004985867    1.998    0.499
       132 -12.0308    192.2227    177.2976   6.4103545662e+01   1.2219140566e+01    0.2439076    0.1333567  21.01  0.001263126    1.980    0.495
       133 -12.5762    155.1101    176.6189   7.1097345539e+01   1.7843484982e+01     0.289648    0.1813052  17.00  0.001508239    1.775    0.437
       134 -12.3835     27.2322    172.5228   1.0145876566e+02   3.5623136695e+01    0.4643955    0.2467525  69.92  0.002413002    1.855    0.461
       135 -10.4099     14.7156    176.2660   1.0487490187e+02   3.5888287768e+01    0.1237357   0.07021022  56.18 0.0002309437    1.492    0.330
       136 -11.1149    228.0058    175.0253   5.7781625221e+01   7.5788833821e+00    0.1761966     0.132695  -5.71 0.0003347444    1.035    0.034
       137 -10.1707      6.3057    175.2478   1.0693596481e+02   3.6775460910e+01    0.1013487   0.08828087 -40.96 0.0006882034    1.502    0.334
       138 -11.1967    176.3261    174.6714   6.6559360366e+01   1.4946358966e+01    0.1126017    0.1022141  77.94 0.0006664935    1.702    0.412
       139 -14.0865    153.2287    167.7863   6.9931764101e+01   1.9630215255e+01    0.6704808    0.2435829 -38.77  0.002660741    2.980    0.664
       140 -13.7705    115.5803    165.4064   7.7974808471e+01   2.5990153908e+01    0.4599448     0.287291 -69.60  0.002194758    2.210    0.548
       141 -10.9122      4.7474    170.8908   1.0715042579e+02   3.7851834167e+01    0.1718517   0.08543197  83.03 0.0009048564    1.835    0.455
       142 -11.3402    197.4782    170.5058   6.1945595306e+01   1.2421910466e+01    0.1255518    0.1001478  -1.33 0.0002873985    1.066    0.062
       143 -12.2155    172.8040    169.0935   6.6224244866e+01   1.6352364745e+01    0.2413276     0.153066 -58.93    0.0011639    2.640    0.621
       144 -12.2286    160.0343    169.1853   6.8778518016e+01   1.8323361986e+01    0.1939524    0.1661566  74.54  0.001150067    1.734    0.423
       145 -11.1364     17.8242    167.3020   1.0358309245e+02   3.7626209144e+01    0.2834328    0.1442352 -62.48   0.00147128    2.047    0.511
       146 -16.4873     95.7775    196.8648   8.7042037043e+01   2.2722953850e+01     1.706897     1.163426  36.68   0.01024589    1.266    0.210
       147 -11.6783    205.1633    164.6434   5.9532254828e+01   1.2119439642e+01     0.171232    0.1007306  25.90 0.0005549045    1.716    0.417
       148 -11.3428    235.6142    163.1908   5.4477509745e+01   8.0257109929e+00    0.1641836    0.1399899   8.81 0.0003923567    1.249    0.199
       149 -12.8626     28.3860    159.7814   1.0021885500e+02   3.8418283639e+01    0.3699932    0.2848943  38.43  0.001852227    1.249    0.200
       150 -15.9755     81.1013    146.2405   8.3738423795e+01   3.5311799122e+01     1.587577     1.157851  89.45  0.006978253    1.614    0.381
       151 -13.9033     44.6906    158.6535   9.5601374868e+01   3.7037262435e+01    0.8663009    0.4483418  17.05    0.0039509    2.418    0.586
       152 -14.9549     47.0473    147.1538   9.3669259008e+01   3.9497639023e+01     1.641231     1.009271  -2.20  0.007411379    2.626    0.619
       153 -13.2932     70.8874    142.7027   8.6083730145e+01   3.7579416216e+01    0.5097229    0.3337645 -89.08  0.000616315    1.843    0.457
       154 -13.1948     54.1848    110.5576   8.5877407289e+01   4.7754641105e+01    0.6696308    0.4530638 -44.06  0.003267925    1.590    0.371
       155 -14.6820     50.0988    136.7929   9.1440929175e+01   4.1668114517e+01     1.369219     0.448113  22.84  0.004550484    3.922    0.745
       156 -14.9512     64.5590    134.0697   8.6596830693e+01   4.0510767918e+01     1.340338    0.4835422  31.08  0.004987244    2.780    0.640
       157 -15.6141     15.8481    129.1913   1.0145657840e+02   4.6928677306e+01     2.274513    0.8753418  61.34  0.008937323    2.887    0.654
       158 -14.2589      6.9574    133.6810   1.0461554905e+02   4.6454098285e+01    0.9194953    0.6438931  27.73  0.005419153    1.519    0.342
       159 -14.6931     20.3909    117.5243   9.8811529342e+01   4.9539207037e+01     1.182747    0.7422445  59.54  0.004944052    1.578    0.366
       160 -14.4871     35.1821    131.0078   9.5398641904e+01   4.4743688605e+01     1.203507     0.762225 -80.39  0.006186977    1.498    0.332
       161 -12.9110    170.7654    160.3906   6.4985636793e+01   1.8074663831e+01    0.3317722    0.2237263  14.98  0.001782972    1.619    0.382
       162 -12.1570    147.5749    161.1686   6.9920451781e+01   2.1699977478e+01    0.2191886    0.1710273  11.30 0.0006370178    1.323    0.244
       163 -12.6845    114.9637    149.9628   7.5413145135e+01   2.9228340248e+01    0.2035083    0.1998705  -5.76   0.00039829    1.034    0.033
       164 -14.0156    111.9523    157.3914   7.7497508238e+01   2.8176201439e+01    0.5550107    0.4039239  40.66  0.003004525    1.312    0.238
       165 -14.8684    109.3587    149.3052   7.6706671157e+01   3.0278715699e+01    0.6759909    0.6221521   9.33  0.004013642    1.126    0.112
       166 -11.0405     32.0699    177.9725   1.0059820563e+02   3.3965865442e+01    0.1683363    0.1392218 -31.79 0.0004303232    1.596    0.373
       167 -13.2734    118.8003    170.5388   7.8053134722e+01   2.4491773873e+01    0.2626071    0.2406984  22.94  0.000924124    1.021    0.021
       168 -12.8994    126.8267    156.4129   7.3726779967e+01   2.5982804495e+01    0.2506904    0.1823159  46.43 0.0009476818    1.408    0.290
       169 -13.4615    126.8110    151.7480   7.2858247220e+01   2.6906910646e+01    0.4445664    0.2868558   9.86  0.002005056    2.223    0.550
       170 -12.9290    121.1644    155.5516   7.4919577170e+01   2.7075707106e+01    0.2479779    0.2295409 -54.71 0.0004510035    1.158    0.137
       171 -13.1657     79.9547    155.9373   8.5557018723e+01   3.3273449588e+01    0.4803491    0.2265963  26.18  0.001752883    2.364    0.577
       172 -11.9087      3.0638    153.3781   1.0683792330e+02   4.1968929415e+01    0.3390817    0.1591781 -84.47  0.001232833    1.913    0.477
       173 -12.4821    212.1200    153.9519   5.6315490112e+01   1.2571656526e+01    0.2050489     0.193718   1.66 0.0003769734    1.318    0.241
       174 -11.3647    141.2979    154.6659   7.0069893073e+01   2.3925701797e+01    0.1296373    0.1090105  81.31 0.0005133444    1.649    0.394
       175 -12.1998    180.4693    150.7155   6.1200984298e+01   1.8060027685e+01    0.2590724    0.1600837  52.69   0.00128771    2.139    0.532
       176 -13.1089    146.3786    149.0785   6.7840548558e+01   2.4107477072e+01    0.3774076    0.2259408  41.04 0.0003947763    1.657    0.397
       177 -11.6132    224.1353    148.1947   5.3291661244e+01   1.1560024863e+01    0.2434504    0.1741268 -41.21 0.0009148251    1.598    0.374
       178 -13.7199    133.6988    147.7595   7.0457552523e+01   2.6530563337e+01    0.4672732    0.3120951 -30.83  0.002326478    1.658    0.397
       179 -11.9324     65.6881    148.8376   8.8489431834e+01   3.6830934206e+01    0.2747407    0.1817489  42.65  0.001420325    1.429    0.300
       180 -12.5864    170.1621    146.3058   6.2287716668e+01   2.0517517830e+01    0.2320909    0.1710358 -23.49 0.0006475972    1.323    0.244
       181 -11.4744    128.5099    147.4604   7.1623535073e+01   2.7474426377e+01    0.1367244    0.1306612  15.22 3.353423e-05    1.012    0.011
       182 -12.2002    141.1020    144.3190   6.8054886828e+01   2.5916728382e+01    0.2217338    0.1685755  16.40  0.000696543    1.435    0.303
       183 -12.6352    105.8038    142.8116   7.6414721986e+01   3.2250880461e+01    0.3022577    0.2139333 -51.90   0.00154218    1.440    0.306
       184 -13.3907    101.0826    141.7093   7.7459366348e+01   3.3262267060e+01    0.3624377    0.3145772  64.65   0.00124254    1.227    0.185
       185 -10.7864    202.6679    143.6640   5.5792287736e+01   1.5513784577e+01    0.1351417   0.08902406   0.92 0.0007052149    1.736    0.424
       186 -13.7139     15.6062    105.7943   9.9243040407e+01   5.2956490961e+01     1.089181    0.4973666   5.26  0.004448711    3.144    0.682
       187 -11.0665    151.0698    142.0059   6.5353726620e+01   2.4600179566e+01    0.2170909    0.1597546  -0.27 0.0004907929    1.634    0.388
       188 -13.8508    112.0661    140.7671   7.4385460456e+01   3.1648991894e+01    0.4761943    0.3546346 -76.35  0.002381403    1.715    0.417
       189 -11.8130    159.5300    136.9996   6.2471224067e+01   2.4002401465e+01    0.3337021    0.2065583 -25.21 0.0009914738    1.797    0.444
       190 -13.2386     95.8990    135.8207   7.7748934452e+01   3.5419747803e+01     0.380135    0.2916085  86.25  0.001570604    1.618    0.382
       191 -14.0693     91.6724    130.1729   7.7831920841e+01   3.7398290002e+01     0.508957    0.3535358 -65.35  0.002489133    1.530    0.347
       192 -13.6692     84.6277    134.4737   8.0691590347e+01   3.7513285321e+01    0.4926313    0.3298311 -43.38  0.002395893    1.620    0.383
       193 -14.0901     83.7291    127.9913   7.9721401231e+01   3.9177038629e+01    0.5395194    0.3715082 -51.02  0.002664299    1.453    0.312
       194 -11.2206    196.6683    135.3049   5.5040344841e+01   1.7758360581e+01     0.120936    0.1035493 -64.31 0.0007037616    1.659    0.397
       195 -14.5598    103.1863    133.2310   7.5227643810e+01   3.4794415245e+01    0.7736557    0.3665344  44.76   0.00315011    2.145    0.534
       196 -10.6280    235.0000    133.9495   4.8825239568e+01   1.1811051984e+01    0.1947096   0.05736677 -31.81 0.0003522786    2.816    0.645
       197 -12.3006    138.4065    131.4794   6.5923419802e+01   2.8892878838e+01    0.3556856    0.2560379 -64.93 0.0005816463    1.814    0.449
       198 -10.3580    144.3066    132.3047   6.4750233198e+01   2.7646239319e+01    0.1430155    0.1081013  -2.46 0.0007014986    1.604    0.377
       199 -12.8380    156.9646    127.7851   6.0946427302e+01   2.6141092345e+01    0.5751272    0.4623387 -44.98  0.003157181    1.276    0.216
       200 -11.8650    126.3041    131.6659   6.8876501646e+01   3.1068122737e+01    0.2127781    0.1258879  61.50 0.0003326109    2.572    0.611
       201 -11.2937    145.9681    127.7808   6.3350280567e+01   2.8204582650e+01    0.2854356    0.1743485 -30.87  0.001301768    1.760    0.432
       202 -10.2468    134.2352    127.3525   6.5977601046e+01   3.0486393661e+01    0.1432024    0.1077578 -16.78 0.0002753687    1.571    0.363
       203 -12.6503     99.4999    124.9561   7.4514890942e+01   3.7284947978e+01    0.2563426    0.2024291  53.94 0.0008243856    1.331    0.249
       204 -11.5955    178.7108    125.1755   5.6000505547e+01   2.2549730069e+01    0.2532153    0.1993295 -55.86  0.001072367    1.564    0.361
       205 -12.4154    189.7767    122.1941   5.3307944017e+01   2.1008899537e+01    0.3676486    0.2715295  47.80  0.001619451    1.532    0.347
       206 -12.9554    107.6864    122.7680   7.1749072568e+01   3.6337893255e+01    0.3114876    0.2596196  72.43 0.0009852841    1.399    0.285
       207 -13.6256    101.3330    119.9756   7.2892458638e+01   3.8095875795e+01    0.5130625    0.3352294  58.21   0.00153735    1.842    0.457
       208 -11.3400    121.2836    124.3617   6.8502644976e+01   3.3512535583e+01    0.1495597    0.1126703 -13.95 0.0007018576    1.680    0.405
       209 -12.6498    105.3370    115.0103   7.0601065717e+01   3.8493584859e+01    0.2740867    0.2493213   6.14 0.0007578874    1.204    0.169
       210 -13.7684     83.6633    114.6565   7.6959814701e+01   4.2362146600e+01    0.6175622    0.3487025  63.85  0.002330417    2.740    0.635
       211 -10.9327    247.5335    115.0187   4.3235835108e+01   1.2320763411e+01    0.1786454   0.09483129 -28.46 0.0001498035    1.483    0.326
       212 -12.4316    116.1940    114.0145   6.7376029602e+01   3.6678798044e+01    0.3524408    0.2505361 -86.44  0.001517575    2.206    0.547
       213 -11.9264    114.8255    109.8699   6.6708539231e+01   3.7836499853e+01    0.2683344    0.2214202  41.61  0.001058321    1.238    0.192
       214 -15.8959     64.5405    116.7722   8.3548338506e+01   4.4778902643e+01     1.594452     1.321768  75.03  0.008614654    1.259    0.206
       215 -11.7265    165.4939    111.5896   5.5299052438e+01   2.7403438782e+01    0.3131018    0.1318163 -38.58  0.001225006    2.221    0.550
       216 -10.9582    139.9687    107.8085   5.9843394308e+01   3.3249953568e+01    0.2391734    0.1760183  77.83  0.001082323    2.008    0.502
       217 -15.5595     21.6830    148.0350   1.0119958872e+02   4.1803221790e+01        1.871     1.707754  23.29    0.0114405    1.266    0.210
       218 -11.2825    217.3835    106.0302   4.5194474421e+01   1.8454770298e+01    0.2170954    0.1423749 -15.20  0.001171608    1.512    0.339
       219 -12.3961     72.7708    105.6209   7.8443950756e+01   4.6312001956e+01    0.2066374    0.1838394 -53.08  0.001093163    1.101    0.091
       220 -13.2244      2.2738    103.0682   1.0399928643e+02   5.4525815354e+01    0.5057004    0.2109172 -89.11  0.002164607    2.213    0.548
       221 -11.1098    118.1945    104.6234   6.4442612799e+01   3.8299415271e+01    0.3262359    0.1362549  51.65  0.001116417    2.873    0.652
       222 -10.7764    109.4456    103.4680   6.6534181817e+01   4.0276173212e+01    0.1484923    0.1441303 -51.58  3.31477e-05    1.013    0.013
       223 -14.3859     76.3519     99.1735   7.5683701693e+01   4.7306752299e+01     0.859011    0.4200611  48.07  0.003363768    2.273    0.560
       224 -12.6261     91.9965     99.6862   7.0712450047e+01   4.4443255249e+01    0.4153623    0.1885904  39.61   0.00157713    2.276    0.561
       225 -12.7157     58.4320     99.9076   8.2171042179e+01   4.9883258651e+01    0.3776617    0.2986929 -52.65 0.0006374564    1.220    0.180
       226 -11.5926     59.8655     95.6438   8.0666685243e+01   5.0753479850e+01    0.3463967    0.1789921  45.05  0.001101888    2.063    0.515
       227 -12.8777     60.7377     92.4333   7.9566093156e+01   5.1430785744e+01    0.3498386     0.311001  46.50  0.001586525    1.177    0.150
       228 -11.1930    246.1741     99.3917   4.0030001959e+01   1.4474431902e+01    0.1417923    0.1198626  81.32 0.0009506156    1.730    0.422
       229 -11.9079    191.8613     99.1680   4.7405900384e+01   2.4228828423e+01    0.1961126    0.1767406 -44.06 0.0003465474    1.167    0.143
       230 -13.5677    125.0100    161.1180   7.5002997411e+01   2.5355140265e+01     0.386789    0.2095219  37.87  0.001042085    1.741    0.426
       231 -16.3994     49.8520    120.9126   8.9170968237e+01   4.5668007465e+01     2.343813      1.13177  33.19  0.008114523    2.059    0.514
       232 -12.0499    173.1788     98.3041   5.0420964279e+01   2.8129375672e+01    0.2256363    0.1784694  23.05  0.001192298    1.419    0.295
       233 -11.5575     22.6991     97.0337   9.5359065125e+01   5.4687232157e+01    0.1936318    0.1606634 -75.33 0.0003813995    1.069    0.064
       234 -11.6081    150.1651     96.2932   5.4467755295e+01   3.3310840829e+01    0.3373534    0.1902595  69.85  0.001212024    3.192    0.687
       235 -12.1626     39.2512     95.7341   8.8569965293e+01   5.3393040697e+01    0.2962624    0.1938412  25.93   0.00109908    1.684    0.406
       236 -12.1088     34.9587     94.0020   8.9944036929e+01   5.4312876647e+01    0.2194439    0.1999516 -78.82 0.0005347963    1.012    0.012
       237 -11.7316     30.8339     99.2930   9.2505119607e+01   5.3349777557e+01    0.3312464    0.2014507 -54.25  0.001519652    1.558    0.358
       238 -10.9815    214.2024     92.5807   4.2447615000e+01   2.0911940609e+01    0.1638578    0.1200181  34.65 0.0004107396    1.568    0.362
       239 -11.9016    183.0896     91.6728   4.6931208431e+01   2.7165167514e+01    0.1897506    0.1816604  13.66 0.0008229629    1.115    0.103
       240 -13.6521     73.2315     89.1126   7.4126820479e+01   5.0263615616e+01    0.6011999    0.3800794  88.65  0.002285007    2.757    0.637
       241 -12.5540     66.5930     87.3385   7.6059478748e+01   5.1787853575e+01    0.3129247    0.1836953  52.57  0.001323542    2.000    0.500
       242 -12.8675      2.9147     90.7762   1.0263114878e+02   5.7693976262e+01    0.3210972    0.2326625 -69.99 0.0004195136    1.201    0.168
       243 -10.9583     79.6773     91.7034   7.2588350491e+01   4.8533156960e+01    0.1502793    0.1177733 -16.55 0.0002072068    1.621    0.383
       244 -12.8924     26.4012     89.6193   9.2652417120e+01   5.6306958424e+01    0.5229424    0.2791871  55.68  0.001668797    2.176    0.540
       245 -13.3739     31.5356     89.0730   9.0409143191e+01   5.5954417433e+01    0.3646305    0.3205793  72.31  0.001065897    1.157    0.135
       246 -10.8249     21.7514     91.3833   9.4882457213e+01   5.6252203625e+01    0.1709925    0.1342394  -1.07 0.0004944709    1.551    0.355
       247 -11.3953    153.3946     89.7695   5.1964114521e+01   3.3796399584e+01    0.2106746     0.135674 -26.45 0.0005330635    1.631    0.387
       248 -12.0835     11.5022     88.1303   9.8717880562e+01   5.7877676121e+01    0.3675985    0.1763348 -63.38  0.001248186    1.762    0.432
       249 -12.0204    171.2541     88.0416   4.8020257454e+01   3.0235327805e+01     0.206467    0.1776815 -33.31 0.0004394275    1.065    0.061
       250 -13.6210     53.7159     84.5382   8.0283231145e+01   5.4429564963e+01    0.7592955    0.5161476  89.10   0.00308013    1.909    0.476
       251 -10.8914    115.3638     85.5846   5.9797402127e+01   4.2877110410e+01    0.3033152    0.1393851  60.78 0.0009430765    3.582    0.721
       252 -11.1989    164.2948     83.6664   4.8080582226e+01   3.2467130818e+01    0.1486392    0.1089378 -61.70 0.0005779025    1.641    0.391
       253 -13.0091    212.4862     81.1005   3.9848244634e+01   2.2824295566e+01    0.3981154     0.267783  14.06  0.001102442    2.009    0.502
       254 -12.5577    206.5291     80.9002   4.0586574585e+01   2.4019176340e+01    0.3177299    0.2178026 -24.07  0.001092802    1.323    0.244
       255 -11.1969    171.7718     81.9865   4.6248055425e+01   3.1108717104e+01    0.1940322    0.1110197 -33.28 0.0003471193    1.602    0.376
       256 -12.4118     62.4988     82.2148   7.6193969863e+01   5.3692484157e+01    0.2375191    0.2050406 -19.11  0.001252126    1.318    0.242
       257 -12.7429    183.2981     78.2435   4.3282853325e+01   2.9202455238e+01    0.4799243    0.2581982 -20.58  0.002033097    2.109    0.526
       258 -12.1048    153.1475     80.1598   4.9231841351e+01   3.5536974295e+01    0.2364641    0.2261169 -23.59 0.0003264793    1.030    0.029
       259 -12.8985     29.0063     79.8731   8.9651653339e+01   5.8606595226e+01    0.3653119    0.2110794  36.31  0.001737243    1.834    0.455
       260 -11.6137     87.4852     78.9688   6.6165705284e+01   5.0029604035e+01    0.3055445    0.2375051  40.69  0.001107246    1.346    0.257
       261 -12.4670    112.0280     75.9104   5.7663072415e+01   4.5566284450e+01    0.3438723    0.2821327 -26.85 0.0006034698    1.275    0.216
       262 -11.5376    115.6756     74.7058   5.6271230820e+01   4.4999237423e+01    0.2848578     0.219272 -18.92 0.0009597183    1.503    0.335
       263 -12.0139      7.2485     78.2539   9.9258665121e+01   6.0736472671e+01    0.2126559    0.1715244   5.60 0.0006984182    1.469    0.319
       264 -11.2922    190.3388     77.3001   4.1942885051e+01   2.7846679349e+01    0.1395462    0.1041856  13.51 0.0007035722    1.665    0.399
       265 -11.8524     70.6983     77.2995   7.1602643915e+01   5.3515067997e+01    0.2311925    0.1797113 -67.20 0.0002789265    1.362    0.266
       266 -12.8344     75.2607     75.6012   6.9372323343e+01   5.3099675667e+01    0.4148106    0.3166072  21.18  0.001117709    1.562    0.360
       267 -10.5725    120.4203     78.7961   5.6335624189e+01   4.3141997052e+01    0.2009683    0.1433022 -29.05 0.0002466592    1.485    0.327
       268 -10.8262    177.8194     75.1649   4.3304587909e+01   3.0858763116e+01    0.1903941    0.1630671   6.56 0.0005061314    1.298    0.229
       269 -12.1275     32.1741     74.4713   8.7003444528e+01   5.9678472087e+01    0.4048164     0.249137  -4.07  0.001798998    2.339    0.573
       270 -11.8701    210.7218     74.0057   3.8280086050e+01   2.4134009335e+01     0.188477    0.1528083 -30.86 0.0003331717    1.048    0.046
       271 -11.7663    177.9816     86.9992   4.6551107817e+01   2.8973179804e+01    0.1694339    0.1590659 -24.32 0.0003961837    1.039    0.038
       272 -11.8727    219.9284     72.5138   3.6789213045e+01   2.2531595393e+01    0.2568217    0.1462202 -41.17 0.0008016493    1.540    0.350
       273 -10.1183     94.3248     72.6917   6.1865684715e+01   5.0020394591e+01    0.1536355    0.1211359 -85.87 0.0001914249    1.651    0.394
       274 -12.4449      2.0411     68.5983   1.0040051424e+02   6.3535162845e+01    0.3227547    0.1680791 -70.96  0.001040758    1.585    0.369
       275 -13.0423    198.0033     66.1328   3.7846187009e+01   2.7812386601e+01    0.4074128    0.2623377 -21.74  0.002066501    1.510    0.338
       276 -11.2662     60.3873     67.7371   7.2598215111e+01   5.7510474909e+01    0.2123944    0.1286755 -44.47 0.0006412889    1.590    0.371
       277 -10.7206    176.1086     64.8716   4.0619457645e+01   3.2784607903e+01    0.1815728    0.1591401   1.32            0    1.250    0.200
       278 -11.5604    160.8094     75.9806   4.6506392041e+01   3.4515852761e+01    0.2630475    0.1579572 -57.21     0.001105    2.084    0.520
       279 -13.3838    188.3082     66.1776   3.9182147039e+01   2.9888460987e+01    0.4222193    0.2829532 -45.31  0.001194632    1.408    0.290
       280 -11.6889    113.8745     63.1151   5.2791247292e+01   4.7622423226e+01    0.2273479    0.1986875 -68.51 0.0003074438    1.246    0.198
       281 -12.0179    101.7135     63.0146   5.6179846404e+01   5.0400566390e+01    0.2690862    0.2129292  19.20 0.0006692812    1.537    0.349
       282 -12.1330     45.0676     61.8685   7.7407725792e+01   6.1243464605e+01    0.3644399    0.2732011 -37.29  0.001581123    1.348    0.258
       283 -11.9574     40.7434     60.3978   7.8986959118e+01   6.2186877627e+01    0.2521808      0.15125  22.87  0.001151439    1.945    0.486
       284 -12.3574     13.8317     61.8574   9.3144432148e+01   6.4576347112e+01    0.2139196    0.1626511 -49.91 0.0004853974    1.211    0.174
       285 -11.4845    208.3863     61.2493   3.5254712869e+01   2.6293557660e+01    0.1990804    0.1030952 -37.11  0.000892878    1.613    0.380
       286 -11.7035    109.6808     60.1044   5.2838902746e+01   4.9146462566e+01    0.2707386    0.2132945  68.08  0.001317153    1.431    0.301
       287 -11.5040      3.1632     59.3987   9.8385407662e+01   6.5862702557e+01    0.2792176    0.1946655 -17.77  0.001549138    1.657    0.397
       288 -12.5091    192.6680     57.3283   3.6114255279e+01   3.0152137463e+01    0.3132792    0.1983984 -58.37  0.001529232    1.779    0.438
       289 -11.4591    153.6322     57.5717   4.2130644934e+01   3.9109875300e+01    0.2492077    0.2131919 -24.51 0.0006217213    1.154    0.133
       290 -11.3679    224.7600     56.9789   3.2390310698e+01   2.3544624599e+01     0.215484    0.1609861 -76.60  0.001277343    1.627    0.386
       291 -11.4653    140.5685     57.3047   4.4536671183e+01   4.2288923384e+01    0.3053983    0.1882501  74.97  0.001284571    2.086    0.521
       292 -11.5466     99.2116     57.0939   5.4720803024e+01   5.2096269206e+01    0.2725003    0.2345664  78.66  0.001393566    1.331    0.248
       293 -12.5532     30.3488     50.7840   8.1107968876e+01   6.5799299252e+01    0.2726596    0.2093706  11.49  0.001478716    1.485    0.326
       294 -10.5156    121.2783     55.6587   4.8224827203e+01   4.7205734352e+01    0.1558473    0.1135215 -63.21 0.0002793651    1.623    0.384
       295 -11.4035    109.2893     55.3558   5.1180280881e+01   5.0099346581e+01    0.1547173     0.119158   6.27 0.0007026165    1.680    0.405
       296 -10.7803     37.2872     54.6542   7.8778389439e+01   6.4021664255e+01    0.1404793    0.1087501  81.48 0.0007021969    1.652    0.395
       297 -11.8302    182.0430     51.7940   3.5916520788e+01   3.3269766209e+01    0.3359097     0.204721 -74.78  0.001487422    2.272    0.560
       298 -11.6354    124.0648     51.8316   4.6167090339e+01   4.7171379418e+01    0.2273739    0.1978447 -65.08 0.0004512676    1.219    0.180
       299 -11.5864    171.9661     50.6889   3.6988474304e+01   3.5753472898e+01    0.1937041    0.1820249  82.98 0.0005618251    1.137    0.121
       300 -11.6271    159.0027     50.3684   3.8878555185e+01   3.8882278952e+01    0.3744138    0.2044026  41.51  0.001564567    2.216    0.549
       301 -13.4737     27.6646     55.4670   8.4086192871e+01   6.4956223355e+01    0.5371013    0.3223685  51.00  0.002273852    2.062    0.515
       302 -12.0573     43.3488     50.0144   7.3990197961e+01   6.4275786422e+01    0.3661095    0.2372159 -42.93  0.001550792    1.452    0.311
       303 -10.8492    152.9659     50.7489   4.0014822445e+01   4.0286708573e+01    0.1797254    0.1257319  61.67 0.0003141393    1.502    0.334
       304 -12.0470     37.9950     50.2644   7.6832536184e+01   6.4967252365e+01    0.1941268    0.1872799 -20.14  0.001010672    1.080    0.074
       305 -12.6295     19.3808     47.5039   8.6258116043e+01   6.7734721944e+01    0.4895121    0.1936624 -45.90 0.0007878472    2.326    0.570
       306 -11.5069    133.1382     48.2263   4.2876873400e+01   4.5519535457e+01    0.2151369    0.1987739  27.70 0.0004127438    1.164    0.141
       307 -11.2897    198.0000     46.0379   3.2313933854e+01   3.0430093095e+01     0.189153    0.1098486 -29.91 0.0009277866    1.502    0.334
       308 -10.5669    195.6387     44.2929   3.2086146745e+01   3.1165386567e+01    0.1445804   0.09031167 -57.98 0.0007029425    1.701    0.412
       309 -11.7296    157.1371     46.0958   3.7783201630e+01   3.9932565003e+01    0.2130369    0.1957926 -41.14 0.0003538473    1.018    0.017
       310 -10.8066    190.4978     43.5485   3.2456076682e+01   3.2407374277e+01    0.1392841    0.1191773 -45.91 -2.360576e-06    1.057    0.054
       311 -11.2607     95.4653     42.0291   4.9736563082e+01   5.5645337735e+01    0.2259424    0.1442039 -32.51  0.000592298    1.550    0.355
       312 -13.2917     32.8433     40.2286   7.5655702113e+01   6.7952213086e+01    0.5883268    0.2873952  19.60  0.002384432    2.771    0.639
       313 -11.2190    104.2003     40.1458   4.6483224566e+01   5.3872082780e+01     0.227169    0.1987556  16.46 0.0006275093    1.252    0.202
       314 -10.8843    246.9920     39.5368   2.6291547079e+01   2.1333245346e+01    0.1487469    0.1185978  79.78 0.0004439416    1.535    0.348
       315 -11.4526    146.1300     39.2161   3.7240529795e+01   4.3583481593e+01    0.2034248    0.1936644  16.05  0.000316186    1.135    0.119
       316 -12.1147     57.6345     36.8121   6.1264512055e+01   6.4675454551e+01    0.4622024    0.2076624  42.36  0.001752493    2.332    0.571
       317 -10.8368    136.4172     38.4866   3.8682154422e+01   4.6114713196e+01    0.1447463     0.138805 -38.48 9.146953e-05    1.024    0.023
       318 -13.1758     10.0468     36.9085   8.8726937415e+01   7.1080309696e+01    0.3355688    0.2609137 -17.64 0.0006242197    1.368    0.269
       319 -12.1528     43.7635     33.8010   6.6595473340e+01   6.7715345487e+01    0.2621605    0.2301666  24.20 0.0008108289    1.190    0.160
       320 -13.2344     31.3357     33.1449   7.3352567349e+01   6.9712274805e+01    0.4202455     0.320587  -6.83  0.001737883    1.493    0.330
       321 -11.4134    223.2508     32.1434   2.6244313257e+01   2.6682667123e+01    0.2384548    0.1346915 -24.35  0.001262554    1.573    0.364
       322 -11.9434    169.6108     31.9950   3.1431675244e+01   3.8700076551e+01    0.2749573    0.1747872  -9.57  0.001284259    1.861    0.463
       323 -12.0625    106.5476     31.8416   4.2334470989e+01   5.4536227608e+01    0.3055215    0.2456551 -31.21  0.001044019    1.225    0.184
       324 -10.6655    110.3019     37.6886   4.3903203594e+01   5.2758450698e+01    0.1523229    0.1118662 -64.13  0.000241941    1.608    0.378
       325 -11.7325    213.6413     31.1056   2.6740389694e+01   2.8781903550e+01    0.2094679    0.1628223 -68.08 0.0004949957    1.315    0.240
       326 -11.1045    140.5359     30.2396   3.4928059827e+01   4.6148631181e+01    0.3241489   0.05959791  54.53 0.0008926273    4.509    0.778
       327 -11.5191     74.9953     30.2398   5.0930439529e+01   6.2257212520e+01    0.1883017    0.1211562  52.02 0.0003571613    1.588    0.370
       328 -12.6146     39.0314     29.3705   6.6917603976e+01   6.9364745643e+01    0.3139571    0.2612558  -6.12   0.00114502    1.261    0.207
       329 -10.7499    156.2705     29.3226   3.2269302860e+01   4.2296132542e+01    0.1391047    0.1073669  23.17 0.0002193809    1.570    0.363
       330 -10.6402    145.5684     28.2272   3.3409889645e+01   4.5116555810e+01    0.1883367    0.1380075  -9.52 0.0004602481    1.533    0.348
       331 -12.3301     47.3178     26.4429   6.0833064878e+01   6.8517546379e+01    0.3000731    0.2617002 -77.68  0.001689778    1.497    0.332
       332 -11.0226    118.9708     26.0050   3.7120651190e+01   5.2174929224e+01     0.171072    0.1672388  86.38 0.0003738349    1.023    0.022
       333 -10.7082    177.4621    249.4740   7.7353322187e+01   4.8310734819e+00    0.1041592   0.07663907  16.73 2.534403e-05    1.034    0.033
       334 -11.3534    250.0175     22.0609   2.2056134020e+01   2.2558726534e+01    0.1781074    0.1373456 -38.91 0.0003734757    1.008    0.008
       335 -10.4928    134.4927     18.5362   3.1436490450e+01   4.9044657039e+01    0.1392139    0.1361835 -72.99 0.0002738819    1.024    0.023
       336 -12.3303    102.8839     16.3695   3.6178228142e+01   5.7416332462e+01    0.3563531    0.2077967  47.35  0.001185004    1.720    0.419
       337 -11.4238     66.7512     16.7739   4.6647777020e+01   6.6097440385e+01    0.1845815    0.1636906 -65.34 0.0004785572    1.329    0.247
       338 -11.1187     30.3403     16.8760   6.4939962871e+01   7.3107647109e+01    0.1904439    0.1513996 -33.95 0.0006623366    1.152    0.132
       339 -10.7601     41.3190     13.6999   5.6216318585e+01   7.1780493820e+01    0.1265417    0.1081636 -73.05 0.0004058341    1.620    0.383
       340 -10.5130    139.4634    247.4702   8.3830524780e+01   9.3816662755e+00    0.1075163   0.08152502  23.91  4.27028e-05    1.007    0.007
       341 -15.9635     64.7920    236.0442   9.7267573276e+01   1.9484440099e+01     1.903804    0.9200324 -68.25   0.01144212    2.488    0.598
       342 -10.9779    104.3751    232.5237   8.9017885527e+01   1.5604128316e+01    0.1887364    0.1371779   6.40  0.000110557    1.569    0.362
       343 -11.1802    108.4635    242.9847   8.9206190416e+01   1.3567317904e+01     0.216026    0.1159682  40.62  0.001354913    1.534    0.348
       344 -11.5242    107.2497    247.1781   8.9819910141e+01   1.3104294490e+01    0.2391114    0.1422194  -7.46  0.001229009    2.972    0.664
