#   1 NUMBER                 Running object number                                     
#   2 MAG_AUTO               Kron-like elliptical aperture magnitude                    [mag]
#   3 X_IMAGE                Object position along x                                    [pixel]
#   4 Y_IMAGE                Object position along y                                    [pixel]
#   5 X_WORLD                Barycenter position along world x axis                     [deg]
#   6 Y_WORLD                Barycenter position along world y axis                     [deg]
#   7 A_WORLD                Profile RMS along major axis (world units)                 [deg]
#   8 B_WORLD                Profile RMS along minor axis (world units)                 [deg]
#   9 THETA_WORLD            Position angle (CCW/world-x)                               [deg]
#  10 FWHM_WORLD             FWHM assuming a gaussian core                              [deg]
#  11 ELONGATION             A_IMAGE/B_IMAGE                                           
#  12 ELLIPTICITY            1 - B_IMAGE/A_IMAGE                                       
         1 -13.9384    160.6777     52.8125   8.0040973204e+01   3.8521528784e+01     1.683595     1.222979  17.01  0.005992213    1.896    0.473
         2 -13.7568    172.8508     37.0439   7.3352433605e+01   3.7710679856e+01    0.9045867    0.8560402 -52.51  0.003177366    1.141    0.124
         3 -12.6544    176.9767     29.5442   7.0636467565e+01   3.7632234226e+01     0.461845    0.3965582   8.77  0.001421953    1.482    0.325
         4 -11.6990    189.7791     14.5584   6.4945644359e+01   3.6205709594e+01    0.3214467    0.2541249 -42.15  0.001283278    1.374    0.272
         5 -13.4938    190.2645      5.0175   6.2510636869e+01   3.7068786336e+01    0.9417899    0.5950096  68.71  0.004129874    1.344    0.256
         6  -0.3732     18.2024    231.2048   1.4792252544e+02   2.4654649824e+01   0.08547239   0.06825635 -86.44 0.0003776687    1.299    0.230
         7 -18.5140     65.3859    245.0248   1.4082969679e+02   1.6099887663e+01     5.983531     4.766873  45.59   0.03997828    1.439    0.305
         8 -10.7018    163.4947    204.2582   1.1596468642e+02   7.5542689875e+00    0.2693833    0.2507333  22.44 0.0005280705    1.133    0.117
         9 -10.7953    158.5486    204.5509   1.1705801432e+02   8.4468470092e+00    0.3721065    0.2203235  65.26  0.001488454    2.361    0.576
        10 -13.1106    138.4211    199.1423   1.2044535646e+02   1.3386947464e+01    0.6650902     0.398508  64.76  0.002894873    2.068    0.517
        11 -10.5936    160.9555    198.0661   1.1540079430e+02   9.2687136263e+00    0.2217788    0.2061446  51.55 0.0005540823    1.004    0.004
        12 -11.4509    155.1091    196.9514   1.1645433655e+02   1.0633618969e+01    0.4070347    0.2775869  83.87  0.001793372    2.214    0.548
        13 -11.0526    208.5154    196.9917   1.0541409661e+02   2.7122979642e-01    0.2181882    0.1797529  35.15  0.000564156    1.155    0.134
        14  -9.5155    180.1726    192.3842   1.1027545167e+02   6.6056269448e+00    0.2046952    0.1288849  52.94 0.0004518536    1.658    0.397
        15 -10.7287    167.8117    190.3069   1.1249844040e+02   9.4753505898e+00    0.3557319    0.2576034 -21.16   0.00116034    1.853    0.460
        16  -9.9804    176.5353    187.9947   1.1019398085e+02   8.1922642495e+00    0.2187631    0.1446347 -45.07  0.001029906    1.589    0.371
        17 -19.0597     49.4930     95.3597   1.2312118899e+02   5.1656033087e+01     18.74779     1.525614 -57.03   0.03389397   12.480    0.920
        18 -11.5516     36.2070    184.0116   1.4064744539e+02   3.2660366423e+01    0.2066051    0.1581133  65.81 0.0002911564    1.218    0.179
        19 -11.0295      9.3650    211.0262   1.4811657153e+02   2.9633711060e+01    0.1736292   0.09719865  86.14 0.0004775623    1.400    0.286
        20 -12.6723    193.3709    192.5518   1.0758084822e+02   3.9764631707e+00    0.8811749    0.5190507 -53.51  0.002744371    2.028    0.507
        21 -11.7227    207.0211    179.7473   1.0226333293e+02   3.6837674085e+00    0.7329069    0.4028462  28.69  0.003007669    2.284    0.562
        22 -11.3528     11.5767    206.0693   1.4737844685e+02   3.0445221891e+01    0.2559966    0.2080399  53.28  0.001226696    1.413    0.292
        23 -12.0562    195.9910    171.6388   1.0280024782e+02   7.4620068193e+00    0.7628759    0.4208799 -52.78  0.002464309    2.092    0.522
        24  -9.7424      6.5054    207.7038   1.4840043141e+02   3.0595669972e+01    0.1295396   0.07921207  83.06 0.0002142747    1.239    0.193
        25 -10.5339    122.6170    165.7648   1.1803327368e+02   2.3799374705e+01     0.274415    0.2164149  65.75 0.0003799183    1.301    0.232
        26  -9.0543     24.6574    165.7016   1.4119980023e+02   3.8028683065e+01    0.1174755   0.08286364 -48.54 0.0007035027    1.669    0.401
        27 -10.1309    223.8744    163.9145   9.5671425362e+01   3.2816961182e+00    0.2187721    0.1761963 -74.51  0.001008163    1.676    0.403
        28 -10.2391    194.4592    165.9581   1.0190531967e+02   8.9033404542e+00    0.3178629     0.201896 -65.39 0.0009600159    2.303    0.566
        29  -9.9458     31.7730    161.7133   1.3914347471e+02   3.8235048275e+01     0.186032    0.1496625  34.73  0.001206881    1.536    0.349
        30 -10.7432    237.4249    159.2081   9.2193515601e+01   1.4956697459e+00    0.2009437      0.12455 -47.53 0.0009464893    1.655    0.396
        31 -11.9585     24.7599    156.9509   1.4019839502e+02   4.0023973499e+01    0.4502113    0.2766311  51.48  0.002204509    1.727    0.421
        32 -11.5370    110.9246    157.9919   1.1936428149e+02   2.7807948374e+01    0.3811459    0.2116169  47.54  0.001131145    1.815    0.449
        33 -10.7955    139.7103    156.3275   1.1203249676e+02   2.2569862207e+01    0.2556325    0.2489495  59.86 0.0003243455    1.062    0.058
        34 -11.8453    134.3945    148.1942   1.1156024719e+02   2.5525721337e+01    0.6465817    0.2637792 -56.88  0.002130504    2.859    0.650
        35 -12.1896    133.7682    143.5132   1.1067629721e+02   2.6731652628e+01    0.8780783    0.2962219 -56.61  0.002466746    3.923    0.745
        36  -9.9448      8.7244    152.9466   1.4342199540e+02   4.2324566796e+01    0.1930294    0.1416956 -45.48  0.000733825    1.629    0.386
        37 -11.6743     28.1837    151.0254   1.3868209310e+02   4.1065327876e+01    0.4104047    0.1865105  52.37  0.001973296    2.511    0.602
        38 -10.2719    174.8631    149.1118   1.0235246599e+02   1.6610940841e+01    0.2423607    0.2137069 -89.40 0.0005788804    1.256    0.204
        39 -11.8287    144.5159    146.1470   1.0865730364e+02   2.3877344566e+01    0.4534234    0.2895508 -75.43  0.001746216    2.334    0.572
        40 -13.6397      3.1691    127.5529   1.4193433723e+02   4.8430821611e+01     1.361483    0.8896253 -85.88  0.008742108    1.348    0.258
        41 -11.5750     13.4068    142.1056   1.4114199535e+02   4.4409496817e+01    0.2480225     0.175227  31.64 0.0005342923    1.765    0.433
        42 -10.8201      1.5000    145.5571   1.4431341579e+02   4.4520008975e+01     0.182156    0.1139676 -78.57 7.581183e-05    1.216    0.177
        43 -12.5324      5.7724    143.3323   1.4309216176e+02   4.4712942466e+01    0.6192524    0.5640646  68.04  0.002065752    1.294    0.227
        44 -12.3196    103.8825    138.5451   1.1718275404e+02   3.3690675102e+01    0.4019979    0.3097419  66.82  0.000655165    1.440    0.306
        45 -10.3688    152.4252    139.1984   1.0517784082e+02   2.3729720522e+01    0.2263822    0.1475253 -59.06 0.0009450581    1.687    0.407
        46 -12.9752      4.9095    112.2377   1.3949465944e+02   5.1722933553e+01    0.8703206    0.4511631  49.95  0.004837736    2.474    0.596
        47 -11.9366    106.0587    130.9062   1.1492808183e+02   3.5094215291e+01    0.4364365    0.3489545 -64.51  0.001184208    1.234    0.190
        48 -11.0229    107.6228    125.4339   1.1325051628e+02   3.6080098424e+01    0.2874797    0.2547445 -29.11 0.0008092725    1.239    0.193
        49 -11.8329    118.8493    129.3887   1.1121141559e+02   3.3010807221e+01    0.3918457    0.3454194 -58.05  0.001047479    1.097    0.088
        50 -12.1255    135.4798    122.2143   1.0520491564e+02   3.1211883977e+01    0.7372091    0.2327561 -50.37  0.002175781    3.363    0.703
        51 -10.6594    142.9717    127.7756   1.0471819464e+02   2.8349037113e+01    0.3300831    0.2356511  79.92 0.0007392548    1.922    0.480
        52 -12.0195    123.9195    126.4740   1.0920179521e+02   3.2665119392e+01    0.6030961    0.3926052  89.34  0.002184819    2.677    0.626
        53 -12.6986    113.9168    138.7500   1.1462169871e+02   3.1785809060e+01    0.6792853    0.4982653 -12.87   0.00296537    2.134    0.531
        54 -10.9548    113.2979    118.5896   1.1007827916e+02   3.6571805380e+01    0.2777756    0.2435351  74.88 0.0003666708    1.244    0.196
        55 -10.8059    168.3949    113.2395   9.5091660389e+01   2.5691417044e+01    0.4184998    0.2815779 -88.36  0.001403725    2.364    0.577
        56 -10.3195    205.4623    110.1781   8.6767419873e+01   1.7549920974e+01    0.3282606    0.2206996  45.13 0.0009408228    1.596    0.374
        57 -12.0401     84.5283    109.2310   1.1582497983e+02   4.3799259498e+01    0.4554438     0.226265 -50.58   0.00194466    1.841    0.457
        58 -10.6405    163.1557    210.8202   1.1717000919e+02   6.3565618787e+00    0.2122537    0.1881823  69.93  0.000817119    1.186    0.157
        59 -11.2326     24.8863    108.9040   1.3333532512e+02   5.1028855797e+01     0.191377    0.1397493 -48.13 0.0004491924    1.235    0.190
        60 -10.6984    160.6660    128.0225   1.0056597875e+02   2.4345509395e+01    0.3588806     0.247673 -66.04  0.001516711    1.763    0.433
        61 -10.1532    198.9939    222.3745   1.1194859496e+02  -2.2992282920e+00    0.2136276    0.1772811 -11.89 0.0005091087    1.297    0.229
        62 -10.3858     90.0425     78.6986   1.0590635023e+02   4.9354694582e+01    0.1944683    0.1786621  17.60 0.0006242627    1.105    0.095
        63  99.0000     13.4701    245.4446   1.4954613459e+02   2.2434429553e+01    0.2219036   0.08248042 -76.61  0.001238152    2.287    0.563
        64 -10.1380     29.2769    208.3967   1.4429189730e+02   2.8097041511e+01    0.1153622    0.1120282  39.77 0.0007542497    1.571    0.363
        65 -12.3303    159.0943    235.7364   1.2195138307e+02   2.5823200332e+00    0.3746926    0.2811564  28.37  0.001222651    1.396    0.284
        66  -9.7621     13.5218     59.8610   1.2673382571e+02   6.2131355805e+01    0.1677256   0.09106719 -54.37 0.0004154236    1.484    0.326
        67  -9.8168    127.5810     27.4982   7.9074986400e+01   4.9698647470e+01    0.2440776    0.1274027  70.39   0.00102862    2.438    0.590
        68 -10.6727    168.9273    234.6788   1.1986091357e+02   1.0171722822e+00    0.2124353    0.1921525 -67.17 0.0004033625    1.310    0.236
