#   1 NUMBER                 Running object number                                     
#   2 MAG_AUTO               Kron-like elliptical aperture magnitude                    [mag]
#   3 X_IMAGE                Object position along x                                    [pixel]
#   4 Y_IMAGE                Object position along y                                    [pixel]
#   5 X_WORLD                Barycenter position along world x axis                     [deg]
#   6 Y_WORLD                Barycenter position along world y axis                     [deg]
#   7 A_WORLD                Profile RMS along major axis (world units)                 [deg]
#   8 B_WORLD                Profile RMS along minor axis (world units)                 [deg]
#   9 THETA_WORLD            Position angle (CCW/world-x)                               [deg]
#  10 FWHM_WORLD             FWHM assuming a gaussian core                              [deg]
#  11 ELONGATION             A_IMAGE/B_IMAGE                                           
#  12 ELLIPTICITY            1 - B_IMAGE/A_IMAGE                                       
         1 -15.5242    243.5292     16.1459   5.6432917487e+00   2.2954257008e+01     2.715105    0.9696432 -36.09   0.01334479    2.160    0.537
         2 -13.9996     11.9283     23.7349   7.0442264804e+01   7.2204608764e+01     1.001533    0.3622522 -36.31  0.004166208    2.766    0.638
         3 -12.1029      1.4967     25.8898   7.8490725699e+01   7.2350331185e+01    0.5231425    0.1800767 -72.30  0.002103827    3.253    0.693
         4 -12.3642     13.2220     12.7266   6.4720673546e+01   7.4303243141e+01     0.359848    0.1933032 -37.19  0.001531611    1.647    0.393
         5 -12.8388     15.5868      7.1718   5.9963283826e+01   7.5105688248e+01    0.5175847     0.280275 -27.23  0.002709183    1.850    0.459
         6 -13.4907      6.6893     11.0030   6.9044001636e+01   7.5153545487e+01    0.9015489    0.4607305 -36.43  0.004859854    1.696    0.410
         7 -12.8458     10.3348      2.2039   6.1380983998e+01   7.6501074063e+01     1.015355     0.256997  22.23  0.003657098    4.405    0.773
         8 -11.7598     26.1228     16.0830   5.7140227785e+01   7.2324480233e+01    0.3293087    0.1516033 -37.34  0.001540291    2.090    0.522
         9 -12.6359     19.6964     14.7241   6.0913347656e+01   7.3301096527e+01    0.3954262    0.2185157 -31.43  0.002062549    1.741    0.426
        10 -11.7554     29.4235      9.8795   5.1511102730e+01   7.2969338668e+01    0.2505534    0.1475241  -3.27  0.001191407    2.256    0.557
        11 -12.8064     25.5535      4.0878   5.0648613576e+01   7.4431516825e+01    0.4951325    0.2681856 -25.15  0.002516054    1.961    0.490
        12 -11.3813     41.1145      2.8029   3.9955874168e+01   7.2171073241e+01    0.3214322    0.1737776  18.70   0.00144837    2.405    0.584
        13 -12.0084      4.6920    228.6485   9.5894356359e+01   2.6102978326e+01    0.4375184    0.2081242  64.16  0.002000324    1.736    0.424
        14 -12.6654    247.9931    215.4746   4.5076236788e+01  -2.4347292175e+00    0.4866018    0.2128515 -23.50  0.002778743    2.142    0.533
        15 -12.6548    241.6958    237.6747   4.9467594979e+01  -4.0629123803e+00    0.5992457    0.2649754  -5.93  0.002942823    3.244    0.692
        16 -12.8338    246.9399    226.4208   4.6948226788e+01  -3.4832503384e+00       0.5741    0.2908944 -10.63   0.00349423    1.946    0.486
        17 -11.7830    249.4462    233.1506   4.7572977204e+01  -4.4523604740e+00    0.3226206    0.1696693 -22.02  0.001830494    1.706    0.414
        18 -12.4751    242.3398    247.2993   5.0752957377e+01  -5.0930595999e+00    0.4805084    0.2406084 -15.72  0.003144429    1.895    0.472
        19 -12.3053    246.8709    240.0658   4.8997197103e+01  -4.8662840932e+00    0.4330385    0.2090802 -17.60  0.002202675    1.950    0.487
        20 -11.2830    249.3435    250.1215   5.0051352691e+01  -6.0975142044e+00    0.3257345    0.1476233  23.45    0.0019478    1.726    0.421
        21 -11.1776    248.5185    245.9489   4.9588169832e+01  -5.6150288079e+00    0.2290092    0.1353446  -9.53 0.0009857605    1.398    0.285
        22 -11.9642    225.4090    248.4261   5.3667331591e+01  -3.3486736723e+00     0.317499     0.195399  -3.49  0.002014903    1.406    0.289
        23 -12.6585    225.7638    241.2215   5.2590605991e+01  -2.6344151156e+00    0.3340016    0.1814281 -10.52  0.002110221    1.842    0.457
        24 -13.0455    211.7888    247.4638   5.5847780521e+01  -1.6761673649e+00    0.5671388    0.2638048  14.39  0.003095735    2.233    0.552
        25 -11.8802     36.4868    248.5651   9.0327877238e+01   1.9679256043e+01    0.4641893    0.1677551  48.91  0.002561816    2.019    0.505
        26 -11.9830     29.8170    241.0827   9.1314740398e+01   2.1613595783e+01    0.4079525    0.2181106  64.48  0.002038758    1.693    0.409
        27 -10.2742     26.3332    249.7249   9.2354576587e+01   2.0486071737e+01    0.2119345   0.08070505  40.02  0.001232793    1.752    0.429
        28 -11.8212     20.2078    249.1260   9.3509348664e+01   2.1164912770e+01    0.3548627    0.1564671  43.39  0.001834915    1.544    0.352
        29 -11.9820     12.0231    249.0994   9.5063324024e+01   2.1914288322e+01    0.4239922    0.1277812  40.74  0.002379973    2.031    0.508
        30 -11.4618      3.7757    250.2235   9.6633132885e+01   2.2445013424e+01     0.277349    0.1398929  27.86  0.001829627    1.801    0.445
        31 -12.4770      3.2500    243.5524   9.6569289040e+01   2.3609081224e+01    0.4337121    0.2196704  63.61  0.002088212    1.587    0.370
        32 -11.8204      2.1859    221.0576   9.6186894048e+01   2.7701562030e+01     0.358358    0.1685938  79.00  0.001864933    1.980    0.495
        33 -12.2714    108.1951    241.2345   7.5120580426e+01   1.2504578746e+01     0.328092    0.1540373  44.05  0.001758192    1.803    0.445
        34 -10.7591     38.5583    241.0681   8.9555243256e+01   2.0740068932e+01    0.2605272    0.1286388  58.08  0.001348532    1.766    0.434
        35 -11.4214     45.2830    245.1513   8.8408938199e+01   1.9344278479e+01    0.3437507    0.1652481  47.69  0.001607062    1.558    0.358
        36 -12.4714    167.7493    249.4211   6.4120512717e+01   3.5416275183e+00    0.3980767    0.1648531  24.42  0.001993265    2.191    0.544
        37 -11.5176    128.5296    240.4959   7.0835049080e+01   9.9351563152e+00    0.2343872   0.07741794  40.43  0.001042396    2.438    0.590
        38 -10.5918     64.9799    239.9931   8.4055051161e+01   1.8043634866e+01    0.1957679    0.1022156  53.43  0.001136634    1.710    0.415
        39 -11.7029     65.6418    249.0084   8.4530022756e+01   1.6468129662e+01     0.355262    0.1611382  44.71  0.001904575    1.648    0.393
        40 -11.2601     45.0423    237.4941   8.8039801552e+01   2.0684436628e+01    0.3084484    0.1194899  49.09  0.001637554    2.009    0.502
        41 -12.4934    230.7674    234.7139   5.0810387522e+01  -2.5173629835e+00    0.3279431    0.1899751 -10.33  0.002172382    1.591    0.371
        42 -11.9284     72.9919    240.9667   8.2454153807e+01   1.6941960100e+01    0.3371024    0.1766115  53.18  0.001953133    1.756    0.431
        43 -11.5462     14.0779    232.3603   9.4129553960e+01   2.4623800358e+01    0.3776897    0.1859623  55.31  0.002383952    1.561    0.359
        44 -11.2728     11.1133    226.1219   9.4517388504e+01   2.6015299498e+01    0.3433839    0.1385747  52.63  0.001468647    1.850    0.460
        45 -11.6601     60.7794    231.8844   8.4374852795e+01   1.9934507929e+01    0.2868096    0.1307061  60.44   0.00144746    2.415    0.586
        46 -11.2947     39.6880    231.6134   8.8830747662e+01   2.2288053128e+01    0.2687471    0.1578313  64.47  0.001698921    1.582    0.368
        47 -11.2816    215.9954    231.5053   5.2842745649e+01  -3.9665169563e-01    0.2378098    0.1155047 -15.97   0.00127503    2.439    0.590
        48 -12.2933     26.1084    228.9383   9.1535182753e+01   2.4127898626e+01     0.476953    0.2362212  79.86  0.002789355    2.119    0.528
        49 -12.2744    236.0697    228.0181   4.8935572615e+01  -2.4110675547e+00    0.3734271    0.1646513 -23.83  0.002137348    2.241    0.554
        50 -10.7196     48.5184    230.5065   8.6900756024e+01   2.1550306289e+01    0.2821023    0.1105837  55.67  0.001385665    2.420    0.587
        51 -11.3572     82.2753    236.9784   8.0185052942e+01   1.6489229421e+01    0.2645437   0.09051933  47.87  0.001176987    2.661    0.624
        52 -11.5346     18.6280    222.3721   9.2819161726e+01   2.6039392498e+01    0.3257627    0.1466681  68.52  0.001813583    2.106    0.525
        53 -11.6553    238.2378    218.9504   4.7182478496e+01  -1.6707618582e+00    0.3064604    0.1412953 -29.73  0.001802876    2.081    0.519
        54 -10.6417     32.3184    229.4702   9.0264636492e+01   2.3424081841e+01    0.1982781     0.102994  63.79  0.001176821    1.773    0.436
        55 -10.9781    227.4852    219.4802   4.9045352354e+01  -4.2661219633e-01    0.1958631   0.08875841 -21.59  0.001039727    2.344    0.573
        56 -12.1399     12.2983    217.2734   9.3957666845e+01   2.7563739521e+01    0.4355534    0.2070501  53.73  0.002167096    1.631    0.387
        57 -11.2590     35.2214    217.1065   8.8989643529e+01   2.5437472123e+01    0.2288591    0.1316244  66.29  0.001369245    1.636    0.389
        58 -11.8624      2.4052    212.7266   9.5899620317e+01   2.9257735474e+01    0.3586195    0.1737266  76.63  0.001630675    1.880    0.468
        59 -11.1635      1.4977    206.4972   9.5904610449e+01   3.0538191653e+01    0.2813065    0.1306659 -89.80  0.001394183    2.064    0.516
        60 -11.3736     21.1277    211.9341   9.1828825040e+01   2.7801307857e+01    0.2718793    0.1364916  79.60  0.001533951    2.006    0.502
        61 -10.8510     28.3216    211.8669   9.0232928589e+01   2.7134749514e+01    0.1930961     0.116986  64.88  0.001190693    1.472    0.321
        62 -10.8782    240.0943    207.9811   4.5126028853e+01  -6.5346874262e-01    0.2189654    0.1354774 -39.31  0.001369106    2.115    0.527
        63 -13.1410     12.4913    205.3014   9.3451087999e+01   2.9874339111e+01    0.5287816    0.2596755  58.24   0.00306589    1.684    0.406
        64 -10.8924    250.1455    201.0780   4.2400344637e+01  -1.0888302984e+00     0.258152     0.132944 -27.62  0.001583483    1.736    0.424
        65 -10.7217    242.6755    200.4749   4.3472163941e+01  -1.0202692012e-01    0.1938874   0.08901833 -29.47  0.001086164    2.002    0.501
        66 -12.8414    233.9289    245.8263   5.1897709047e+01  -4.0336837610e+00    0.5651979    0.2766687 -19.71  0.003589559    2.012    0.503
        67 -12.4447      3.5584    197.4107   9.5152606973e+01   3.2190228635e+01    0.4355026    0.2099819  69.54  0.002194079    1.828    0.453
        68 -12.4334      3.7470    188.4789   9.4785831862e+01   3.4015809257e+01     0.530545    0.1924227  58.95  0.002578403    2.364    0.577
        69 -11.5653      5.4940    183.4935   9.4175504629e+01   3.4934553136e+01    0.2503454    0.1375438  73.13  0.001257365    1.623    0.384
        70 -11.8477      1.9585    178.7657   9.4841076567e+01   3.6208950840e+01    0.3858038    0.1953059  81.94   0.00214649    1.806    0.446
        71 -10.9098    246.4294    192.7471   4.1572471988e+01   3.3544999088e-01    0.2092913   0.09426143 -34.19  0.001147866    2.138    0.532
        72 -11.5830     11.3680    191.2594   9.3111361384e+01   3.2830641624e+01    0.2087329    0.1266542  75.86  0.001261344    1.487    0.328
        73 -11.6325     17.1288    190.4157   9.1706184555e+01   3.2520168220e+01    0.2502109    0.1233244  71.41  0.001325483    1.949    0.487
        74 -12.4421     11.7950    184.2285   9.2686634262e+01   3.4280924147e+01    0.3603631    0.1751858  79.60  0.001786604    1.988    0.497
        75 -10.1669    249.4866    184.5112   3.9674156422e+01   9.2619117779e-01    0.1165483   0.08711291  -3.05 1.571369e-06    1.017    0.017
        76 -10.7615     16.6241    180.8229   9.1327128790e+01   3.4613119067e+01    0.1747097   0.09587514  79.95 0.0009516953    1.748    0.428
        77 -10.3644     23.6589    180.3437   8.9536585786e+01   3.4100507816e+01    0.1385466   0.06989755  56.85 0.0007047935    1.781    0.439
        78 -11.9896      8.7487    178.1924   9.3149586501e+01   3.5823874349e+01    0.2653994    0.1617269  72.29  0.001354813    1.454    0.312
        79 -12.5500      6.2457    172.4300   9.3509120816e+01   3.7274300778e+01    0.4207915    0.1529987 -89.87  0.001886431    2.716    0.632
        80 -10.9207      1.5609    170.7102   9.4616963430e+01   3.7989934579e+01    0.2429864    0.1037397 -84.07  0.001219312    2.164    0.538
        81 -12.3406      2.0078    165.6727   9.4289054753e+01   3.9075472417e+01    0.3786483    0.2350459  55.94   0.00230303    1.377    0.274
        82 -10.5832     17.6776    170.3223   9.0456302192e+01   3.6840992568e+01    0.1351689   0.07225399  57.26 0.0006407631    1.678    0.404
        83 -12.4277     10.8207    167.3671   9.2080234369e+01   3.8055026870e+01    0.2839857    0.1420598  63.33  0.001480026    1.839    0.456
        84 -13.1365      9.0870    157.4025   9.1994119943e+01   4.0450133087e+01    0.4240212     0.219031 -66.10  0.002248734    1.891    0.471
        85 -12.4003      3.2567    154.2023   9.3418870419e+01   4.1591255176e+01    0.3367409    0.1949573 -80.41  0.001911293    1.577    0.366
        86 -12.4446      3.1293    145.0421   9.2973699260e+01   4.3727837741e+01    0.5225078    0.1745667  63.02  0.002074638    3.191    0.687
        87 -12.1684      4.0211    136.6945   9.2228601519e+01   4.5647417200e+01    0.2921087    0.1511508  86.00  0.001489929    1.802    0.445
        88 -11.0893    248.0243    129.9874   2.9606843183e+01   8.0773569098e+00    0.1827885    0.1410528 -53.01  0.001138395    1.713    0.416
        89 -11.6347      2.4953    127.4680   9.2118675610e+01   4.7951837617e+01    0.2635695    0.1095729 -82.01  0.001206241    2.153    0.535
        90 -11.6190    248.4823    119.0054   2.7314165880e+01   9.4632658441e+00     0.195746     0.102333 -31.68  0.001041196    1.618    0.382
        91 -10.4892      4.3436    116.3194   9.0728131906e+01   5.0562442939e+01    0.1325341   0.08234801 -45.42 0.0007049543    1.723    0.420
        92 -10.7289      2.0000     94.9820   8.9762274665e+01   5.5935622374e+01     0.216912   0.06378368 -78.06 0.0008076638    2.979    0.664
        93 -12.2693    249.5824     87.0180   2.0476812472e+01   1.3486474491e+01    0.3740388    0.1100553 -28.94  0.001408383    3.301    0.697
        94 -13.1139    248.3675     75.2767   1.8093339984e+01   1.5203871641e+01    0.5501919    0.1633526 -36.81  0.002302954    2.629    0.620
        95 -12.4397    248.9799     65.4757   1.5913891940e+01   1.6318640414e+01    0.3271468    0.1413594 -37.94  0.001627684    1.876    0.467
        96 -11.2748      6.8432     63.1641   8.3618599080e+01   6.3519658562e+01    0.1908844    0.1272151 -46.61   0.00107931    1.338    0.253
        97 -11.9515    250.3955     56.2095   1.3779528725e+01   1.7185025928e+01     0.259524    0.1001607 -32.16  0.001219035    2.149    0.535
        98 -12.5316      3.6322     50.1977   8.2955683013e+01   6.6749236628e+01    0.5213624    0.2617497 -59.28  0.002692383    1.620    0.383
        99 -12.3213    127.5675    248.2335   7.1867979890e+01   8.9263608683e+00    0.3821632    0.1381504  43.66  0.001780664    2.537    0.606
       100 -11.2553     50.5161    250.1256   8.7632069359e+01   1.7959127402e+01    0.3975536    0.1088033  33.90  0.001894705    2.467    0.595
       101 -13.1342    143.1173    246.7547   6.8594271443e+01   7.0996614859e+00    0.4703761    0.1900359  26.62  0.002280337    2.195    0.544
       102 -12.1871     18.6135     30.8093   6.8624911774e+01   7.0188740135e+01    0.3982777    0.1656941 -37.91   0.00174149    2.335    0.572
       103 -11.7706      8.0442     44.0027   7.9115199419e+01   6.7983661018e+01    0.2703182    0.1583539 -64.08  0.001403754    1.517    0.341
       104 -11.6648     22.0388     22.9775   6.3200325132e+01   7.1472232809e+01    0.2920354    0.1752252 -22.81  0.001518471    1.741    0.426
       105 -12.6095     97.9336    244.8367   7.7588456679e+01   1.3252176982e+01    0.4020042     0.144221  40.04  0.001976395    2.052    0.513
       106 -11.5850     74.8922    250.2200   8.2741652721e+01   1.5203231968e+01    0.5011842   0.06227653  35.15  0.001806775    3.966    0.748
       107 -12.3393    192.8216    245.1170   5.8895088644e+01   8.9126742262e-01    0.3606925    0.2117374  -0.69  0.002203587    1.842    0.457
       108 -12.3767    116.1418    244.4855   7.3802776411e+01   1.0969387568e+01    0.2964918    0.1394627  46.05  0.001570847    1.977    0.494
       109 -12.4850     84.8020    244.3420   8.0262836716e+01   1.4962827468e+01    0.3666139    0.1315644  40.67  0.001827802    2.021    0.505
       110 -11.8710     57.0561    242.3617   8.5852341382e+01   1.8539815377e+01    0.4624295    0.1608228  47.85  0.002315942    2.258    0.557
       111 -12.3896      2.2262     40.5245   8.1760159078e+01   6.9049916897e+01    0.5075102    0.1997859 -72.29  0.002261393    2.410    0.585
       112 -12.3525     15.8292    240.6661   9.4066019650e+01   2.3004727503e+01    0.6411997    0.1738849  42.08  0.002791932    2.229    0.551
       113 -12.0046      6.3002    236.5071   9.5798534332e+01   2.4567544849e+01    0.4381312    0.1976575  46.15  0.002784848    1.540    0.351
