#   1 NUMBER                 Running object number                                     
#   2 MAG_AUTO               Kron-like elliptical aperture magnitude                    [mag]
#   3 X_IMAGE                Object position along x                                    [pixel]
#   4 Y_IMAGE                Object position along y                                    [pixel]
#   5 X_WORLD                Barycenter position along world x axis                     [deg]
#   6 Y_WORLD                Barycenter position along world y axis                     [deg]
#   7 A_WORLD                Profile RMS along major axis (world units)                 [deg]
#   8 B_WORLD                Profile RMS along minor axis (world units)                 [deg]
#   9 THETA_WORLD            Position angle (CCW/world-x)                               [deg]
#  10 FWHM_WORLD             FWHM assuming a gaussian core                              [deg]
#  11 ELONGATION             A_IMAGE/B_IMAGE                                           
#  12 ELLIPTICITY            1 - B_IMAGE/A_IMAGE                                       
         1 -12.3071     96.7313     44.8512   1.3270896923e+01   5.4603854675e+01    0.4237708    0.3246036 -28.02  0.002186249    1.454    0.312
         2  -9.3911    218.3223      7.3312   3.4630475530e+02   3.1760051847e+01   0.09614369   0.08645319  33.28 0.0007049695    1.699    0.411
         3  -9.3979    163.5051    227.5231   3.9602584158e+01   6.1116296128e+00    0.1196008    0.0983202   2.70 0.0001630666    1.034    0.033
         4  -9.3803    100.7861    223.4230   5.2679327638e+01   1.4348074111e+01    0.1853489    0.1122466  15.97 0.0009533296    1.651    0.394
         5  -9.7985     79.0007    214.7563   5.6970343177e+01   1.8726128088e+01    0.1839154     0.100035  27.59 0.0008921718    1.627    0.385
         6 -10.6166    102.4945    206.8687   5.0243858967e+01   1.7458350682e+01    0.2856321    0.2192916  31.94  0.001638502    1.181    0.153
         7 -10.2380    169.6441    201.8107   3.4503476433e+01   9.6146483836e+00    0.3282878    0.1250634 -35.13  0.001368811    2.820    0.645
         8 -10.4954     90.2936    199.9623   5.2404344366e+01   2.0510725708e+01    0.1887615    0.1849721  -0.76  0.001181736    1.080    0.074
         9  -9.4191    173.3088    198.3305   3.3213869725e+01   9.7405504074e+00    0.1316332   0.08522973 -12.00 0.0007040746    1.665    0.399
        10 -11.2550    117.8797    197.5247   4.5213832157e+01   1.7343893195e+01    0.3392482    0.2216194  -9.86  0.001626343    1.996    0.499
        11 -12.4340    163.9984    193.0467   3.4205638513e+01   1.1888441967e+01    0.7701464    0.4491851   9.59  0.003745931    2.127    0.530
        12  -9.9836    106.0200    194.2417   4.7646028234e+01   1.9659132557e+01    0.1854872     0.108805  28.65 0.0006882716    1.591    0.372
        13  -9.8737     46.8284    192.9879   6.3219565465e+01   2.7346000981e+01    0.2448487    0.1356766  65.17  0.001104145    2.025    0.506
        14  -9.9792    134.7585    196.4083   4.1087541322e+01   1.5250120638e+01    0.1932526    0.1196879  17.80 0.0007183746    1.678    0.404
        15 -10.0552    146.3531    191.3045   3.7665859675e+01   1.4632785062e+01    0.1400071   0.09523194  -9.22  0.000396952    1.709    0.415
        16 -12.1191    133.7333    187.9354   3.9966883542e+01   1.7081974547e+01    0.4638784    0.2820017 -14.24  0.002058584    2.336    0.572
        17 -12.5759    123.7697    184.6005   4.1784942782e+01   1.9208767717e+01    0.4853638    0.2950828 -58.11  0.002330249    1.842    0.457
        18 -11.9756    113.3098    186.2785   4.4627745483e+01   2.0359277836e+01    0.4779535    0.2274958  32.01  0.002055855    1.973    0.493
        19 -11.3866    178.8428    182.7188   2.9481015186e+01   1.1705733451e+01    0.3805137    0.2112174 -23.77  0.001852782    2.033    0.508
        20 -10.0443     75.5223    183.5150   5.4218877283e+01   2.6203741904e+01     0.140432    0.1322998  40.32 0.0002909564    1.005    0.005
        21 -12.6088    142.2708    179.3241   3.6545430273e+01   1.7574834636e+01    0.4120472    0.3081591 -24.18  0.002242181    1.374    0.272
        22 -10.6913    196.0573    177.7209   2.5417686929e+01   1.0243064979e+01      0.17758      0.14823  -5.10  0.001172173    1.099    0.090
        23 -11.6784    132.4349    177.3763   3.8489353635e+01   1.9444429153e+01    0.2643076    0.2223454  13.82  0.001499227    1.164    0.141
        24 -10.1268     38.4937    178.0241   6.4204850426e+01   3.1924315584e+01    0.2132078    0.1336247 -75.67  0.001037633    1.604    0.377
        25 -11.3088    187.3672    175.3551   2.6559094659e+01   1.1814348140e+01    0.3848518    0.2177051  -4.29  0.001680302    2.892    0.654
        26 -12.8219    129.4477    167.4454   3.7434784617e+01   2.2015032213e+01    0.5308011    0.3412018  17.87   0.00247328    1.806    0.446
        27 -12.5092    153.5800    168.7294   3.2109549642e+01   1.7978954455e+01    0.3756688    0.3021828   5.07   0.00212495    1.288    0.224
        28 -13.4622    143.8775    164.0701   3.3395243501e+01   2.0440100096e+01    0.6649449    0.4741336 -14.45  0.003321844    1.669    0.401
        29 -11.8941    163.6861    163.0856   2.8891519395e+01   1.7516486294e+01     0.356889    0.2426465 -16.59  0.001805761    1.711    0.415
        30  -9.6334    196.3215    162.6542   2.2604084884e+01   1.2735544972e+01    0.1190246   0.09895279 -67.75  0.000704971    1.734    0.423
        31 -11.9806    156.3300    161.3402   3.0106820441e+01   1.9011745279e+01    0.3590453    0.2372023  -6.92  0.001214203    2.074    0.518
        32 -11.5504    182.7527    159.9738   2.4537502153e+01   1.5181864366e+01    0.3320596    0.1624744 -39.77  0.001566669    1.825    0.452
        33 -14.1306    123.6301    153.6339   3.6256974502e+01   2.6006904595e+01      1.20425     0.753654 -27.33  0.005208031    2.031    0.508
        34 -12.1889    162.0803    154.3630   2.7512500561e+01   1.9462663940e+01    0.6044706    0.2049535 -35.51  0.001926809    3.839    0.740
        35 -12.5147    139.3595    152.8121   3.2238850856e+01   2.3542811380e+01    0.5864903    0.2408464 -40.08  0.002174044    2.574    0.611
        36 -13.2419    111.8908    157.0258   3.9974981725e+01   2.7168908133e+01    0.7956322    0.5934297   9.99  0.003865711    1.577    0.366
        37 -12.5878    157.4000    143.0051   2.6160723937e+01   2.2495060789e+01    0.4529535    0.3210336  28.29  0.002321316    1.566    0.361
        38 -11.1282    178.8449    144.3595   2.2155413227e+01   1.8638005729e+01    0.1966882    0.1630159 -43.14  0.001158009    1.147    0.128
        39 -12.6682    115.2328    145.8152   3.6879162738e+01   2.9221692580e+01    0.5414398    0.4037531 -21.49  0.002573152    1.617    0.382
        40  -9.7156     87.4939    144.4813   4.4547677853e+01   3.4160002909e+01    0.1489325    0.1479469 -35.47 9.548174e-05    1.026    0.026
        41 -11.8362    173.5857    156.6071   2.5633679900e+01   1.7201576473e+01    0.3054067    0.2249465 -41.65  0.001712566    1.257    0.204
        42 -11.0245    183.7659    133.1404   1.8905295260e+01   1.9877570114e+01    0.2508456    0.1736051   7.59  0.001245365    2.073    0.518
        43 -12.6539    147.5954    130.0045   2.5457276838e+01   2.6899871334e+01    0.4948727    0.3657915 -33.53   0.00250378    1.354    0.261
        44 -11.9180    106.6493    131.2464   3.6150343106e+01   3.4177334483e+01     0.296404    0.2696853  24.04  0.001562289    1.147    0.128
        45 -11.7687    139.0794    128.1766   2.6997497981e+01   2.8870761355e+01    0.6256077     0.167465 -50.45  0.001772606    4.056    0.753
        46 -11.0066    172.9004    129.7268   2.0169035377e+01   2.2377607480e+01    0.2411515     0.188791  49.46  0.001339755    1.459    0.314
        47 -11.3135    106.6137    124.8436   3.4707989782e+01   3.5715286092e+01    0.3208682    0.2302751 -79.70   0.00140265    1.838    0.456
        48 -11.8087     85.1743    127.8852   4.1918681382e+01   3.8755377542e+01    0.5256011    0.3137722  80.83  0.001780358    3.209    0.688
        49 -11.9083    115.2151    133.3928   3.4239853001e+01   3.2123078693e+01    0.3411627    0.2482835  47.17  0.001571763    1.436    0.304
        50 -11.9239     99.8073    124.2912   3.6578589936e+01   3.7093715321e+01    0.4810201    0.2177309 -63.72  0.001577109    2.985    0.665
        51 -11.4380    149.9190    115.4045   2.1533553233e+01   2.9451388167e+01    0.5455218    0.2047392 -54.62  0.001675111    3.743    0.733
        52  -9.9314    163.4287    108.7807   1.7170867766e+01   2.8108366090e+01     0.207916    0.1274148 -32.92 0.0009555352    1.680    0.405
        53 -11.7071    111.6621    108.3225   2.9209735381e+01   3.8606006713e+01    0.4073665    0.2309169  64.15  0.001461823    2.756    0.637
        54 -13.3994     93.2458    106.9198   3.4365440124e+01   4.2529253650e+01    0.6498883    0.5284638 -86.81  0.003127898    1.444    0.307
        55 -12.7205     81.4968    106.3816   3.8114850931e+01   4.4828994243e+01    0.7069675    0.3631057  21.28  0.002373404    3.063    0.673
        56 -12.2691    133.4856     99.1812   2.1140510461e+01   3.6098661125e+01    0.5424591    0.4915386 -62.17  0.002957079    1.077    0.071
        57 -12.0307    166.2784     98.5203   1.4128789961e+01   2.9456149837e+01    0.4937243    0.3347534  46.80  0.002511211    1.649    0.394
        58 -12.2672     82.1672     95.0051   3.4850193664e+01   4.7493118727e+01    0.4210283    0.2995363 -33.09  0.001830822    1.622    0.383
        59 -13.0259    111.5171     92.0762   2.4820466641e+01   4.2244194775e+01    0.6117213    0.4831921  14.27  0.002893244    1.678    0.404
        60 -12.3167     95.8061     92.7236   2.9672219247e+01   4.5361005210e+01    0.4079251    0.3017554 -35.33  0.001897447    1.475    0.322
        61 -13.1472    131.3972     86.7658   1.8220131517e+01   3.9044742461e+01    0.9263545    0.4781968  54.01  0.003810104    2.048    0.512
        62 -14.1913     88.3238     81.2886   2.8674390949e+01   4.9454299774e+01     0.953642     0.815177  30.78  0.004880798    1.255    0.203
        63 -10.1467     35.8719     83.2525   5.0673566755e+01   5.7762627793e+01    0.3141291    0.1615285 -39.58  0.001248346    2.159    0.537
        64 -10.2675    161.8740     81.9895   1.0703440689e+01   3.3322507219e+01    0.2505507    0.2130349  68.10  0.001419982    1.257    0.205
        65 -12.6224     68.5476     86.6708   3.7476943836e+01   5.1992572510e+01    0.7241501     0.318138  28.99  0.002472567    2.839    0.648
        66 -10.6069     46.6697     80.1521   4.4819934565e+01   5.7127143132e+01    0.3060832    0.1425378 -67.31  0.001096378    2.611    0.617
        67 -12.4857    105.5256     78.4892   2.2451682259e+01   4.6398339472e+01    0.4708028    0.3418703 -62.20  0.002204803    1.515    0.340
        68 -12.4417    111.7272     77.0195   2.0265832980e+01   4.5326788483e+01    0.4375451    0.3334185  56.71  0.002155124    1.335    0.251
        69 -11.0555    122.1349     76.7414   1.7499640253e+01   4.3051395548e+01    0.2896026    0.2150194  34.36  0.001382783    1.613    0.380
        70 -10.5781     50.5062     77.4918   4.2306933791e+01   5.7216560149e+01    0.1466968    0.1438728 -45.57 0.0001935138    1.013    0.013
        71 -12.2403     84.3202     65.3148   2.4722503099e+01   5.3679017157e+01    0.4193706     0.329586 -71.82  0.002055908    1.505    0.336
        72 -11.1729     99.1024     64.8457   1.9854016232e+01   5.0533289124e+01    0.2390027    0.2051703 -85.35  0.001140658    1.272    0.214
        73 -11.4637     65.3074     62.7929   3.0977019289e+01   5.8048150180e+01    0.4073654    0.2052922  28.60  0.001498913    2.649    0.623
        74 -10.0593    117.6714     61.3255   1.3716727613e+01   4.6912602150e+01    0.1546056    0.1107972 -75.78 0.0007050198    1.700    0.412
        75  -9.4894     26.2012     55.6187   4.7821066105e+01   6.5762999384e+01    0.1959168    0.1302143   7.53 0.0007381559    1.686    0.407
        76 -11.4950     75.0962     51.6331   2.2882236712e+01   5.8304098326e+01     0.294683    0.2247502 -34.59  0.001494578    1.388    0.279
        77  -9.5411    100.7635    235.0062   5.3972275835e+01   1.2160648198e+01    0.1473562    0.1060453 -58.49 0.0008867267    1.642    0.391
        78 -11.7070     70.8517     36.3824   1.8008438113e+01   6.1868728412e+01    0.3398777    0.2523858 -26.79  0.001766061    1.493    0.330
        79 -10.2634     28.0160     44.2572   4.2565767023e+01   6.8110403733e+01    0.1965131    0.1801603  -2.62  0.001178263    1.037    0.036
        80 -10.7487     83.0334     32.5171   1.2218312798e+01   5.9697087605e+01    0.2233551    0.1312992  57.56  0.001037297    1.605    0.377
        81 -10.2072     62.8794     28.8592   1.7527307198e+01   6.4769130500e+01    0.2217215    0.1856185  23.78  0.001251532    1.256    0.204
        82 -10.3852     82.1645     23.5130   8.4811844898e+00   6.1124394799e+01    0.2521982    0.1664708   4.87  0.001158668    2.286    0.563
        83 -11.8032     83.4887     40.7380   1.5562533944e+01   5.8338048031e+01    0.3265248    0.2277852  38.47  0.001605731    1.531    0.347
        84 -10.4051     74.9859     16.4862   7.2606503910e+00   6.3671916460e+01    0.2861666    0.1442928 -61.42   0.00105065    3.554    0.719
        85  -9.5513     39.4739     15.4983   2.1036225066e+01   7.1487366863e+01    0.1309245     0.116889  23.86 7.192011e-05    1.010    0.010
