#   1 NUMBER                 Running object number                                     
#   2 MAG_AUTO               Kron-like elliptical aperture magnitude                    [mag]
#   3 X_IMAGE                Object position along x                                    [pixel]
#   4 Y_IMAGE                Object position along y                                    [pixel]
#   5 X_WORLD                Barycenter position along world x axis                     [deg]
#   6 Y_WORLD                Barycenter position along world y axis                     [deg]
#   7 A_WORLD                Profile RMS along major axis (world units)                 [deg]
#   8 B_WORLD                Profile RMS along minor axis (world units)                 [deg]
#   9 THETA_WORLD            Position angle (CCW/world-x)                               [deg]
#  10 FWHM_WORLD             FWHM assuming a gaussian core                              [deg]
#  11 ELONGATION             A_IMAGE/B_IMAGE                                           
#  12 ELLIPTICITY            1 - B_IMAGE/A_IMAGE                                       
         1 -10.8522    110.3112     39.5136   3.5419368101e+01   5.0343233217e+01    0.7164899    0.5203685  27.06  0.002982017    1.970    0.492
         2 -11.2588     78.9845     33.7304   4.1033706110e+01   5.7826823515e+01     0.573903    0.3281313  40.84  0.002970152    1.754    0.430
         3 -12.2913    104.8494     13.5895   2.8893344486e+01   5.4410069489e+01    0.4989226    0.4104615 -83.21  0.002059964    1.187    0.157
         4 -12.9256    105.3897     20.3524   3.0797432517e+01   5.3623117880e+01    0.3141443    0.2499934  86.20 0.0004121117    1.157    0.136
         5 -11.8891    160.0650     29.6888   2.5348986845e+01   4.0915805432e+01    0.3024024    0.2582444 -82.31 0.0004273224    1.115    0.103
         6 -12.1995    164.3223     27.6660   2.4436605112e+01   4.0285692394e+01    0.3832602    0.2859874  49.10  0.001440944    1.784    0.439
         7 -11.2744      6.3463     10.5992   6.2669826447e+01   7.3605837664e+01    0.5246622    0.3636125  31.11  0.002866422    1.299    0.230
         8 -10.2791     12.8499      8.6100   5.7559347775e+01   7.2969425398e+01    0.3692779    0.2224472 -44.19  0.001364005    2.264    0.558
         9 -11.8973     26.2544     28.3449   5.9227465414e+01   6.8392270506e+01    0.4968948    0.4078225   3.68  0.002326062    1.149    0.130
        10 -12.0054     20.2123     22.0021   5.9701966613e+01   7.0180432266e+01    0.6760437    0.4389932  -6.22  0.003843458    1.814    0.449
        11 -10.2435     25.9802      3.7547   4.7981113309e+01   7.1415127355e+01     0.156564    0.1172873  36.43 0.0001973317    1.042    0.040
        12 -10.6097     22.1875      3.2737   4.9621292878e+01   7.2104933613e+01    0.2237912    0.1846828   4.98 0.0006704397    1.246    0.197
        13 -11.8573     15.3444     14.9342   5.9200959178e+01   7.1823753369e+01    0.6958887    0.3913922  -8.95  0.003566846    2.557    0.609
        14 -11.9601     22.5587     11.1625   5.3363691868e+01   7.1189159263e+01    0.5329295    0.3380901  21.94  0.002347206    1.497    0.332
        15 -10.8485    122.3368      5.3074   2.3976076872e+01   5.1365590587e+01     0.512046    0.2196127 -54.78 0.0004781788    2.621    0.619
        16 -10.6614    135.6226     21.4565   2.6400121663e+01   4.6945555993e+01    0.4520481    0.3291644 -55.05  0.002998427    1.381    0.276
        17 -11.1133    127.1191     16.7710   2.6353695034e+01   4.9255990925e+01    0.3274608    0.2644903  66.36 0.0009640413    1.199    0.166
        18 -10.7559    178.9522     20.8148   2.1585987115e+01   3.8164373564e+01     0.355684     0.210592  47.39  0.002080603    2.632    0.620
        19 -12.2287     47.7704     12.6954   4.2973407170e+01   6.6527855475e+01    0.6833512    0.4192343  52.78  0.004071639    1.363    0.267
        20 -11.7982     35.4989     18.2826   5.0378066665e+01   6.8185606150e+01    0.5883268    0.3048926 -22.52   0.00301408    2.579    0.612
        21 -12.7519    164.1927     18.6481   2.2497792130e+01   4.1307984266e+01    0.3951937    0.2430749  49.75  0.002402959    2.173    0.540
        22 -10.7660    134.8019     15.0167   2.4897912804e+01   4.7783705061e+01    0.6934355    0.3042879  76.17  0.003539898    2.043    0.511
        23 -10.3168     75.3200     19.1362   3.6970839342e+01   6.0258913079e+01     0.389945    0.2029094  35.08  0.001899022    2.405    0.584
        24 -11.4070     67.5695     18.4213   3.8836241110e+01   6.1959674366e+01    0.5022383    0.3664547  80.98  0.002292473    1.621    0.383
        25 -11.6606    238.5930     16.7746   1.6806888111e+01   2.8185846706e+01    0.2399363    0.1495088 -70.42  0.001820241    1.154    0.134
        26 -12.2174    227.7404     15.2154   1.7147009486e+01   3.0085002689e+01    0.4191975    0.2078011 -75.30  0.001439813    1.707    0.414
        27 -11.0843     85.6684     14.5590   3.2919122074e+01   5.8495689471e+01    0.3466067     0.280612   5.82  0.001598058    1.656    0.396
        28  -9.8603    219.1253     12.8328   1.7243647153e+01   3.1765468663e+01    0.1891816    0.1624311  88.88  0.001652042    1.440    0.306
        29 -10.9595    192.1969      8.6774   1.8201548245e+01   3.6944751446e+01    0.4529845    0.2830569 -18.64  0.002746755    3.093    0.677
        30 -10.6937    206.5614      2.8094   1.6249066614e+01   3.4951626441e+01    0.3618633    0.1763677 -89.65   0.00187012    1.747    0.427
        31 -11.4406    223.8535      2.7348   1.5321272460e+01   3.2020007594e+01    0.3516611    0.1679794 -84.12 0.0002385854    1.777    0.437
        32 -11.5661    212.2122      9.0486   1.7003417992e+01   3.3338522977e+01    0.4181012    0.2888775 -26.54  0.003016145    2.279    0.561
        33 -10.7590    218.5567      3.8325   1.5771112422e+01   3.2791154713e+01    0.2556578    0.1837759 -66.88  0.001114083    1.099    0.090
        34  -9.6661    120.7427     11.7788   2.5917925998e+01   5.1120535878e+01    0.2919529    0.1304831  74.47 0.0008658274    1.956    0.489
        35 -10.3420    169.2074      9.4741   2.0100338211e+01   4.1253048445e+01    0.3582571    0.1404729  63.42  0.001943694    2.366    0.577
        36  -9.6191    163.4753      6.4684   1.9953463654e+01   4.2684925507e+01    0.1811027    0.1065464 -33.05  0.001069977    2.040    0.510
        37 -10.3763    145.5301      9.3609   2.2300324032e+01   4.6072940518e+01    0.1886547     0.159813  73.61 0.0002849982    1.250    0.200
        38 -11.7738    246.9318      6.1356   1.4775130233e+01   2.8029344018e+01    0.3141246    0.2293141 -64.29  0.002023689    1.191    0.161
        39 -11.4741    243.5033      4.0045   1.4605059331e+01   2.8768832462e+01    0.2866271    0.1213355 -62.59  0.002006475    1.697    0.411
        40 -10.0906    245.9207      1.4094   1.4112321056e+01   2.8662794362e+01     0.153967   0.09729348  87.28 0.0003392765    1.465    0.317
        41 -10.0619      1.1532      7.4381   6.4605228498e+01   7.4660285119e+01    0.2270806   0.09655716 -37.48   0.00120706    2.554    0.609
        42 -10.8195      2.1632      2.1326   6.1063747519e+01   7.5201831433e+01    0.3711905    0.1971665  18.29  0.002146973    1.788    0.441
        43 -10.7390    232.4884      7.5086   1.5659314269e+01   3.0132413401e+01    0.2204449     0.120203 -72.80  0.001061456    1.385    0.278
        44 -11.6798    233.7029      2.8270   1.4864784622e+01   3.0416831240e+01    0.4381281    0.1612385 -65.47  0.002707828    2.194    0.544
        45 -10.2474    184.7770      6.2951   1.8264547214e+01   3.8565898448e+01    0.3123567    0.1535348 -70.97 0.0009611211    1.782    0.439
        46  -9.6663     78.0057      7.4908   3.2208853588e+01   6.0789230414e+01    0.2203677    0.1246677  68.53 0.0007643555    1.525    0.344
        47 -11.1415     74.1039      3.0531   3.1514898687e+01   6.1993913529e+01    0.6563717    0.2747321  54.78  0.003415075    1.830    0.454
        48 -10.1076     61.9476      6.7341   3.5980562049e+01   6.4242056666e+01    0.3002433    0.1508723  50.77  0.001041783    1.568    0.362
        49 -10.2771    177.2529      6.0036   1.8754851980e+01   4.0027108220e+01    0.2017063    0.1182855 -86.13 0.0005520015    1.393    0.282
        50  -9.0440    153.6725      6.7093   2.0884186639e+01   4.4643857567e+01     0.103812   0.07512217  56.40  0.000460556    1.619    0.382
        51 -11.0892    105.9545      2.4804   2.5450702068e+01   5.5150681222e+01    0.4821626    0.2733788 -78.47  0.002703727    1.994    0.498
        52 -11.2023    113.3346      3.0409   2.4553348073e+01   5.3503558251e+01    0.3067471    0.2113384  72.92  0.002045944    1.152    0.132
        53 -10.6582     41.1258      4.2448   4.1732834958e+01   6.8615315850e+01    0.3614458     0.203758  35.27  0.001947945    1.649    0.393
        54 -11.5017    133.8722      2.7925   2.1968707927e+01   4.9123554790e+01      0.39226    0.2134197  73.46   0.00239747    1.476    0.322
        55  -9.0777    128.5206      1.4090   2.2218141124e+01   5.0378502253e+01    0.1629539   0.08280656  67.69 0.0005428822    1.592    0.372
        56 -10.4286    153.9913      1.9533   1.9795610451e+01   4.5019244981e+01    0.4779405    0.1670577 -88.76  0.001982894    3.680    0.728
        57 -10.1984     12.9586      2.0437   5.4055412208e+01   7.3701115059e+01    0.2473102    0.1410763  31.83  0.000723258    1.395    0.283
        58  -9.8128    141.5778      3.7338   2.1382912203e+01   4.7419783812e+01    0.2230783    0.1596503  68.95  0.001561483    1.289    0.224
        59  -9.1136     33.7397      1.6293   4.3448448233e+01   7.0234555381e+01     0.151579    0.1164952  34.28 0.0005693873    1.092    0.084
        60 -10.1086     32.0891    137.8192   8.6452918431e+01   4.3774662064e+01    0.4117461    0.2572342  26.35 0.0008955313    1.605    0.377
        61  -9.2980    188.5159    250.4973   6.2740061055e+01  -2.3369456638e+00    0.1197717   0.09286278 -14.96 0.0008104022    1.019    0.018
        62  -9.8640     50.9917    250.2368   9.4163449533e+01   1.2607402847e+01    0.1852126    0.1003545  24.54 0.0008870398    1.641    0.391
        63 -11.5712     23.7700    136.7647   8.9395805006e+01   4.4892056597e+01    0.6275959    0.4246574  39.46 0.0006441369    1.551    0.355
        64 -10.6084     30.1469    132.8603   8.6355278807e+01   4.5316293471e+01    0.4499354    0.3330652 -19.42 0.0008859314    1.464    0.317
        65  -9.5210     47.4688    134.6501   8.0220576288e+01   4.2821304824e+01    0.3174644    0.1456674 -60.82  0.001194625    2.123    0.529
        66  -9.8233     73.6847    132.4272   7.0595694033e+01   3.9596225758e+01    0.3749153    0.2096095 -27.45  0.001341164    2.675    0.626
        67  -9.6029     39.3583    133.4361   8.2986989445e+01   4.4141511993e+01    0.2607854    0.1501948  16.63 0.0006762997    1.861    0.463
        68  -8.8584    103.7319    131.0095   6.1005979424e+01   3.4778373103e+01    0.2061799    0.1851791 -55.07 0.0005355657    1.109    0.098
        69  -9.2337     62.4287    131.3819   7.4217313260e+01   4.1600531715e+01    0.2815262    0.1834564 -25.64  0.001174513    1.911    0.477
        70 -10.3277      2.2102    126.0336   9.6189059999e+01   4.9464831555e+01    0.5676134    0.2518459  53.14  0.002097884    3.031    0.670
        71 -10.7362     10.6834    126.4842   9.2906245941e+01   4.8769906851e+01    0.6396137    0.2919201 -59.74  0.001849134    1.913    0.477
        72  -9.5729     13.3541    121.5101   9.1088430574e+01   4.9890032611e+01    0.4892592    0.1732129 -48.18  0.001777085    2.531    0.605
        73  -9.0164     92.8124    129.5806   6.3885961706e+01   3.7068578837e+01    0.2229603    0.1380031  47.55 0.0009473095    1.708    0.415
        74  -8.8934     26.5442    127.4948   8.6829394246e+01   4.7119415504e+01    0.1472147    0.1393786 -38.98 4.646353e-05    1.005    0.005
        75 -10.1367     22.8412    127.0305   8.8199650476e+01   4.7601165366e+01    0.2219077    0.2066869  -1.09 0.0003273952    1.084    0.078
        76 -11.9498      4.5897    142.7342   9.7314213365e+01   4.4793680826e+01    0.8427444    0.4846798  56.31  0.002287456    2.024    0.506
        77  -9.7979     32.6807    125.4961   8.4082827141e+01   4.7008145510e+01    0.2546123    0.1791049  83.59 0.0008828492    1.824    0.452
        78  -9.3132     81.6971    125.3347   6.6399586141e+01   4.0024450242e+01    0.4197682    0.2406869  59.51  0.001560676    2.557    0.609
        79  -8.7523     84.3670    123.3153   6.5081612139e+01   4.0050244703e+01    0.2253546     0.160482  14.28 0.0005661091    1.706    0.414
        80 -11.5105    104.3633    122.2749   5.8837476918e+01   3.6676495279e+01    0.3797696    0.3343501  58.73 0.0007894894    1.184    0.155
        81  -9.3880     17.6837    123.3472   8.9639380187e+01   4.9045491522e+01    0.3437411    0.1975486  51.59  0.000834316    2.124    0.529
        82  -9.9016     49.7554    123.1570   7.7085713148e+01   4.5518680376e+01    0.3072624    0.2150097   5.47  0.001394973    1.632    0.387
        83  -9.1662     56.2266    122.2020   7.4484160938e+01   4.4852658804e+01    0.2093991     0.174531  56.66 0.0006646532    1.341    0.254
        84  -9.9418     48.7289    112.1844   7.5086817085e+01   4.8426441578e+01     0.468634    0.2914113 -42.71  0.002099723    1.624    0.384
        85  -9.9255     44.8443    119.8659   7.8260562726e+01   4.7015087089e+01    0.2874768    0.2592207  80.56 0.0006145538    1.261    0.207
        86 -10.0564     43.5112    116.4817   7.8062048047e+01   4.8050127402e+01    0.3131135    0.2507416  28.66 0.0009041846    1.244    0.196
        87 -10.2502     36.4707    116.9151   8.0929231559e+01   4.8811379838e+01    0.5376237    0.2743835 -20.07  0.001861256    3.082    0.676
        88 -12.0233      9.6402     97.1018   8.8452967296e+01   5.6439414576e+01    0.6424219    0.4895571  -1.33  0.003508253    1.300    0.231
        89 -11.6254     42.5310     93.2875   7.3032501337e+01   5.3803044659e+01     1.182193    0.7766618 -38.70  0.002632783    1.556    0.357
        90 -11.7293     43.1699     84.9573   7.0555325834e+01   5.5582872003e+01    0.9622517    0.3662774  23.65  0.002750008    3.145    0.682
        91 -11.1344     26.8085     85.9336   7.8064251416e+01   5.7476500359e+01     1.272214    0.7142648  40.94  0.005799428    1.960    0.490
        92 -12.6772     17.7298    100.5102   8.5479746293e+01   5.4919967235e+01    0.3723496    0.3258637   9.29 0.0004360703    1.136    0.120
        93 -11.9767     21.2808     93.5540   8.2402672235e+01   5.6279420039e+01     1.160544    0.6220043  50.59  0.004261171    2.575    0.612
        94 -11.9000     25.3614    107.3533   8.3552859642e+01   5.2471337744e+01     1.377905    0.7237683 -10.65  0.005295103    2.628    0.620
        95 -12.4811      2.5439    112.0490   9.4113701113e+01   5.3132904412e+01    0.6598862    0.4615612  52.89   0.00230585    1.690    0.408
        96 -11.5082      5.3666    105.4762   9.1862292914e+01   5.4642934106e+01    0.5721238    0.3710876   1.75  0.002853769    1.602    0.376
        97 -11.2990     21.5295    114.7732   8.6593307748e+01   5.0950412489e+01    0.5955147    0.2922952   6.01  0.002102452    2.427    0.588
        98 -11.5557     28.7608    112.3563   8.3137248429e+01   5.0846399328e+01    0.4918442    0.3353466 -30.49  0.002350491    1.520    0.342
        99  -9.1184     58.1350    115.3035   7.2241316180e+01   4.6291840408e+01    0.3213874    0.1877523 -86.36  0.001090651    3.386    0.705
       100  -8.7386    113.5237    115.5627   5.4765624647e+01   3.6428180635e+01    0.1451279    0.1403815  85.76 0.0001083968    1.027    0.027
       101  -9.6249     79.1054    114.6512   6.4747012856e+01   4.3021393994e+01    0.2933855     0.216922 -42.52  0.001204987    1.387    0.279
       102  -8.9642     67.4793    114.9483   6.8786858755e+01   4.4912989377e+01     0.203532    0.1363118 -88.83 0.0007937673    2.386    0.581
       103  -9.7466    104.6637    112.7506   5.6497501604e+01   3.8741918003e+01    0.2885469    0.2069951  41.84  0.001077371    1.389    0.280
       104  -9.5514    120.2831    109.1843   5.1522067751e+01   3.6460560852e+01    0.2722861    0.2197294 -20.32  0.001019934    1.552    0.356
       105  -9.2369    105.1921    107.3460   5.5031938735e+01   3.9805183018e+01    0.2078586    0.1912442 -35.54 0.0008616216    1.143    0.125
       106 -11.1483     79.6355    108.2819   6.3011386042e+01   4.4399456953e+01    0.6035621    0.3285766  35.94   0.00181137    1.812    0.448
       107 -10.9757     16.4724    109.5264   8.7760746948e+01   5.2757544940e+01    0.3535629    0.2589107  38.13 0.0005387093    1.476    0.322
       108  -9.9879    181.7868    104.7971   3.8400547132e+01   2.5585777743e+01    0.3130988    0.2676407  -2.38  0.001687082    1.718    0.418
       109  -9.5290    143.0750    105.8413   4.5564131607e+01   3.2644255882e+01    0.2241297    0.1810511 -85.59  0.001225568    1.357    0.263
       110 -10.7289     87.9635    104.6007   5.9409461244e+01   4.3697480119e+01    0.4695716    0.2285557  49.75 0.0009847298    2.244    0.554
       111  -8.8340     45.5006    105.5494   7.4825950658e+01   5.0497496677e+01    0.1479906    0.1380691  -9.52 2.797407e-05    1.026    0.026
       112  -9.5907     50.7564    101.9561   7.1874913835e+01   5.0609614140e+01    0.3538553    0.2219606 -57.29  0.001599845    1.663    0.399
       113 -10.0374     52.8142     97.7880   7.0018339205e+01   5.1272559037e+01    0.4667113    0.2039915 -50.96 0.0009517139    2.269    0.559
       114  -8.7984    120.4468    101.4727   4.9622446106e+01   3.7992968179e+01    0.1399218    0.1359802 -86.77 6.512813e-05    1.031    0.030
       115 -11.3718     68.1240     96.2801   6.3878102828e+01   4.9114401114e+01    0.6560946    0.4688154   4.24  0.002650004    1.827    0.453
       116  -8.9946    158.7826     99.6684   4.1154191529e+01   3.0749102610e+01    0.1743465    0.1193511  65.64 0.0002171736    1.584    0.369
       117 -10.2110     79.8211     84.0053   5.6495187894e+01   4.9541710366e+01    0.7873791     0.387228 -42.50  0.003288224    2.197    0.545
       118 -10.2038     76.7445     79.6358   5.6260973906e+01   5.0984354766e+01    0.3826888    0.3165176  -2.17  0.001976327    1.449    0.310
       119 -10.5216     73.8541     77.6578   5.6658129421e+01   5.1914763941e+01    0.4973615    0.3809474  -1.44  0.002515441    1.705    0.414
       120 -11.2406     89.6032     89.1202   5.4831866383e+01   4.6626868011e+01    0.9844515    0.5985665 -21.23  0.002758615    2.861    0.650
       121  -9.9503     77.6634     96.7297   6.0695088877e+01   4.7316091119e+01    0.3517153     0.210789  46.30  0.000861363    1.669    0.401
       122 -10.9550     81.3369     93.3521   5.8578998963e+01   4.7351603482e+01    0.9411452    0.2946357  42.41  0.003101338    3.044    0.671
       123 -12.2257    125.2466     94.4374   4.6764344520e+01   3.8390031626e+01    0.5277941    0.3552008  72.74  0.002512934    1.833    0.455
       124  -8.8651    141.4513     95.5260   4.3525435073e+01   3.4908129965e+01    0.1349456     0.126463 -76.49 0.0008078236    1.035    0.034
       125 -10.4703    120.0554     85.0798   4.5626853080e+01   4.1195384064e+01    0.4217717    0.3595631 -57.16  0.002083385    1.180    0.153
       126 -11.3440     98.9463     91.2045   5.2653756939e+01   4.4358101887e+01    0.4508924    0.2415195  52.49  0.001925606    1.920    0.479
       127 -10.2549     48.9061     91.1403   6.9842944769e+01   5.3371331064e+01     0.343039    0.2591951  29.78  0.001770493    1.269    0.212
       128 -11.6768      6.9965     88.8480   8.8061527224e+01   5.8646366411e+01    0.6600413    0.3894934  13.40  0.002390352    1.686    0.407
       129  -8.9438    155.9798     89.9627   3.9508498044e+01   3.3012743307e+01    0.1615022    0.1407012 -64.93 0.0005223791    1.051    0.048
       130  -9.5386     66.2301     88.7470   6.2516779138e+01   5.1068640693e+01     0.362036    0.2245568  17.22  0.001226607    2.109    0.526
       131  -9.1743    103.9093     87.4427   5.0287482650e+01   4.4085369078e+01    0.2306139    0.1744535 -39.12  0.001192988    1.432    0.302
       132  -8.5937    183.9780     87.6584   3.4618744726e+01   2.8081275041e+01    0.1955931   0.09601025  81.83  0.000704978    4.377    0.772
       133 -10.4302    143.2666     84.4896   4.0583760275e+01   3.6509755707e+01    0.2371312    0.2126032 -73.43 0.0003786063    1.035    0.034
       134  -9.3641    133.4552     84.9395   4.2644518994e+01   3.8444283718e+01    0.2670745    0.1562318  89.87 0.0009651103    3.253    0.693
       135 -10.5531    113.1325     83.3620   4.6839208874e+01   4.2945898672e+01    0.4094723    0.2698627  69.70  0.001946924    1.799    0.444
       136  -9.3485     46.8574     75.6538   6.6334755027e+01   5.6999697164e+01    0.2535808     0.224509   0.57  0.001093205    1.091    0.084
       137 -11.7756     53.1610     74.5731   6.3414412522e+01   5.6205353138e+01    0.6142478    0.3279774 -51.87 0.0008850248    2.071    0.517
       138 -12.8058      6.6166     61.3347   8.1735516177e+01   6.4862059692e+01    0.8240116    0.5486293 -15.87  0.002920943    1.433    0.302
       139  -9.5557      1.3427     78.9982   8.8809229784e+01   6.1358104261e+01    0.4059197    0.1211689 -65.74  0.001462038    3.287    0.696
       140 -10.8507      1.9816     71.6616   8.6857778697e+01   6.2984111596e+01    0.3762224    0.2028319 -54.68  0.001470127    1.698    0.411
       141  -9.9945     67.1766     81.6137   6.0153357759e+01   5.2371261347e+01    0.3478608    0.2721793  16.26  0.001814256    1.398    0.285
       142  -9.4511    103.5031     80.0005   4.8397172774e+01   4.5555725929e+01    0.2017611    0.1384081 -45.92 0.0003881168    1.531    0.347
       143  -9.0475     88.5784     73.4569   5.0740461921e+01   4.9800000688e+01    0.2013285    0.1817582 -25.44 0.0002233522    1.242    0.195
       144  -9.9403     92.8614     72.5689   4.9239684872e+01   4.9082900248e+01    0.3124522    0.2376924 -84.19 0.0009398899    1.712    0.416
       145 -10.5076     88.2518     77.5787   5.2023718348e+01   4.9115683371e+01    0.4736084    0.3071344  58.17  0.002270988    1.646    0.392
       146 -10.0751     93.9089     76.6635   5.0107173207e+01   4.8136498853e+01    0.5282081    0.2199293  48.69  0.002089761    2.267    0.559
       147 -11.6966     13.5666     74.4282   8.1536807715e+01   6.1433603374e+01    0.4670006    0.4044093 -71.98  0.001960159    1.387    0.279
       148  -9.8441     14.8529     67.5131   7.9039733037e+01   6.2808312288e+01    0.4729038    0.2423439  10.29  0.002155757    2.047    0.511
       149  -8.9043    134.5309     77.4740   4.0599254261e+01   3.9507461943e+01    0.1347322    0.1206589 -88.08 0.0001830543    1.028    0.028
       150  -9.3509    181.8030     76.3635   3.2619020485e+01   3.0272611158e+01    0.1570493     0.108033  54.72 0.0005262429    1.657    0.396
       151  -9.5640    159.0158     76.2227   3.5924469663e+01   3.4702511434e+01    0.1754353    0.1688346  74.28 0.0005079701    1.232    0.188
       152  -9.1928    112.2496     75.4024   4.4948567331e+01   4.4543064913e+01    0.1889742    0.1241977  63.44 0.0004613989    1.563    0.360
       153  -9.7677    103.5582     75.0175   4.7018608726e+01   4.6433865604e+01    0.2824801    0.1854045  64.57  0.001373614    1.652    0.395
       154 -10.1201     24.6997     73.9811   7.5900644151e+01   6.0370231114e+01    0.6402951    0.3215857  -4.20  0.002365682    3.227    0.690
       155 -11.7721     40.9608     70.0620   6.7192876440e+01   5.9024427531e+01    0.4601206    0.3617745 -42.71  0.001496423    1.330    0.248
       156 -10.8069     32.9239     74.1334   7.2049217758e+01   5.9318955147e+01    0.3668468    0.2922867 -80.40   0.00107001    1.741    0.425
       157 -10.5877     35.7657     71.9648   7.0105683285e+01   5.9385583921e+01    0.3014679    0.2711017  52.00 0.0008431773    1.317    0.241
       158 -10.5502    186.7498     72.4496   3.1186228576e+01   2.9951223970e+01    0.3619447    0.2184575 -51.51  0.002128855    1.435    0.303
       159 -10.2324    153.2258     73.0132   3.6141042294e+01   3.6380528511e+01    0.4164959    0.2019176  44.76  0.001774877    2.668    0.625
       160  -9.3141     80.9682     73.5327   5.3100499196e+01   5.1310506587e+01    0.2309326    0.1931142 -24.60 0.0006566224    1.369    0.270
       161 -10.5568     79.0877     67.8696   5.2004690276e+01   5.2696123929e+01    0.5053554     0.339196  71.52  0.002356022    2.098    0.523
       162  -9.4384     65.8346     74.5919   5.8568184943e+01   5.3993188984e+01    0.2031226    0.1236789  49.60 0.0004113374    1.691    0.409
       163  -8.9983     19.4235     71.8393   7.7904824907e+01   6.1416287056e+01    0.1866676    0.1093477 -39.61 0.0005665515    1.652    0.395
       164  -9.1246    162.1275     71.1742   3.4314797106e+01   3.4876561602e+01    0.1803412    0.1322361 -79.12 0.0007410127    1.349    0.259
       165 -11.4377    123.3427     68.8808   4.0723023997e+01   4.3281970075e+01    0.4796589    0.2502357  52.19  0.001874626    1.826    0.452
       166  -9.1982     46.2903     70.2013   6.4922657370e+01   5.8179919513e+01    0.2208205     0.154654  64.68  0.001039889    2.167    0.538
       167  -9.9705    171.2448     66.2409   3.1927662433e+01   3.3825180202e+01    0.3222931    0.1740513 -48.04  0.001737578    1.689    0.408
       168  -9.5934    130.9722     67.9365   3.8928285489e+01   4.1813259281e+01    0.2115959    0.1861735  83.36  0.001265695    1.032    0.031
       169  -9.5556    217.4753     66.6449   2.6720771249e+01   2.5422190206e+01    0.1656524   0.09768169  68.97 0.0008196961    1.841    0.457
       170  -9.1712    192.4808     65.9261   2.9204140509e+01   2.9861891634e+01    0.1714383    0.0991705 -47.63 0.0006417973    1.513    0.339
       171 -10.4133     88.1297     56.1776   4.5711246550e+01   5.2776424945e+01    0.5034729     0.229442 -35.75  0.001631413    2.622    0.619
       172  -9.6148     91.6380     57.3214   4.5088658289e+01   5.1863269756e+01    0.2499686    0.1908443  65.62 0.0005683655    1.298    0.230
       173  -9.7667     96.3559     65.0957   4.6114315021e+01   4.9629052714e+01    0.2365101    0.2012933  31.45  0.000779275    1.291    0.225
       174 -10.6855     91.8696     62.5539   4.6592152057e+01   5.0984014291e+01    0.3780907    0.2525478  66.05  0.001217928    1.641    0.391
       175 -10.5901     58.2478     77.7428   6.2355163985e+01   5.4716490287e+01    0.4509685    0.3164426 -66.67 0.0006030058    1.900    0.474
       176 -10.2836    200.9254     64.4852   2.7992749528e+01   2.8553307891e+01    0.3267637    0.1795737  87.63  0.001808534    2.168    0.539
       177 -10.9724    157.6189     63.2890   3.3230463702e+01   3.6979071215e+01    0.4025785    0.2611471  53.61  0.001336765    1.658    0.397
       178  -9.2661    105.8417     63.7305   4.3299035590e+01   4.7842066723e+01    0.2245779    0.1581662  42.09  0.001188087    1.480    0.324
       179  -9.6008     58.5723     62.9071   5.7632624209e+01   5.7468489920e+01    0.3407761    0.2867126  69.05   0.00193642    1.470    0.320
       180 -10.1114     64.8560     61.1728   5.4734770593e+01   5.6615208278e+01    0.3378765     0.304124  49.95  0.001364307    1.117    0.105
       181  -8.8141     51.1083     56.6255   5.8506073698e+01   5.9886984595e+01    0.3276459    0.2540242  20.84  0.001108701    1.262    0.208
       182 -11.1912     51.9442     48.2159   5.5248099611e+01   6.1130471915e+01     1.067638    0.2910672  37.34   0.00313138    3.956    0.747
       183 -11.2460     60.7914     48.0904   5.1821377825e+01   5.9512834550e+01    0.6874998    0.3335423 -35.90  0.003073404    2.417    0.586
       184  -9.7500     55.8134     50.5206   5.4536471171e+01   6.0062296739e+01    0.2283122    0.1664445  36.83 0.0003853202    1.217    0.178
       185 -11.5327     40.2700     56.9707   6.3279621097e+01   6.1613546431e+01    0.4750021    0.3213547   9.10 0.0005312548    1.696    0.410
       186 -11.1939     43.0668     62.2283   6.3783684961e+01   6.0212958202e+01    0.3023144    0.2569733 -32.84 0.0007669349    1.236    0.191
       187 -10.2920     50.7946     61.5642   6.0282022629e+01   5.9069530427e+01    0.2979613     0.220645  38.82  0.001175104    1.249    0.199
       188 -10.8361     46.3890     59.2699   6.1367787616e+01   6.0219166528e+01    0.3367125    0.2761655  57.59 0.0009891525    1.473    0.321
       189 -11.3672     44.0527     43.9717   5.6993024681e+01   6.3180214548e+01    0.3505389    0.2743038 -40.74 0.0003344142    1.462    0.316
       190 -11.6451     40.0245     43.9959   5.8781082423e+01   6.3851638199e+01    0.5306699    0.4105513  34.24 0.0003580658    1.144    0.126
       191  -9.5300    113.8922     61.1649   4.0714414344e+01   4.6521164446e+01    0.2618785    0.1761809 -48.82  0.001402504    1.568    0.362
       192 -10.0488    124.8316     56.2053   3.7108930111e+01   4.4911074808e+01    0.2474411    0.2379074 -34.84 0.0007712814    1.264    0.209
       193 -11.2174    117.8573     55.7660   3.8392800802e+01   4.6479013448e+01     1.019192    0.4975012 -64.05  0.003894329    3.504    0.715
       194  -9.6546    213.7491    248.2104   5.7851546369e+01  -4.2156870459e+00    0.1676953    0.1149001 -26.50  0.001163971    1.107    0.097
       195 -10.8568    116.0229     48.9982   3.6921450271e+01   4.7840655113e+01    0.3130749    0.2333909  46.37 0.0007493609    1.421    0.297
       196 -11.2628    117.9471     44.7980   3.5387377854e+01   4.7992336859e+01    0.5790289    0.3616728  88.17  0.002287945    1.936    0.483
       197 -11.8355    120.2666     41.0053   3.3916560486e+01   4.7982723015e+01    0.4415663    0.3404568  88.44 0.0007836673    1.244    0.196
       198 -11.8238    119.4982     37.4822   3.3098481657e+01   4.8593859374e+01    0.3764639    0.2969922 -61.53  0.001567109    1.307    0.235
       199  99.0000     25.3794     59.7642   7.1322434780e+01   6.3198145736e+01    0.7953589    0.3010359  33.67  0.003302805    2.418    0.586
       200 -10.8678     25.3583     55.7479   7.0024567346e+01   6.3969066923e+01    0.5756301    0.3200857  20.72  0.002052653    1.733    0.423
       201  -9.6340     30.5248     53.5166   6.6686671863e+01   6.3684418693e+01    0.2555612    0.2343921 -59.93 0.0006683166    1.393    0.282
       202 -10.2735     33.5330     51.9711   6.4690413141e+01   6.3527159675e+01    0.3173179    0.2193981   6.93    0.0011836    1.564    0.361
       203 -12.5256     74.2759     51.4777   4.8367174288e+01   5.6347742088e+01    0.7726474    0.3793335 -53.50  0.002675738    2.854    0.650
       204 -11.3180     83.2104     47.0993   4.4252300622e+01   5.5155698378e+01    0.3142377    0.2622488  28.03  0.001896618    1.320    0.243
       205 -10.4506    104.3728     57.2717   4.1820320043e+01   4.9160939145e+01    0.4906564    0.2449595  71.43  0.001907945    2.993    0.666
       206 -10.8790    157.7927     54.8636   3.1296671128e+01   3.8158467629e+01    0.5399837    0.3333086  88.87  0.002557906    1.754    0.430
       207  -9.7547    154.4451     51.0700   3.0906420651e+01   3.9370681530e+01    0.2616849    0.1773128 -15.78  0.001347977    2.695    0.629
       208  -9.3280    219.9559     56.2245   2.4652693390e+01   2.6435179626e+01    0.1440539    0.1105589 -69.49 0.0001998572    1.050    0.048
       209  -9.1069    135.3174     59.3782   3.5963321253e+01   4.2201594205e+01    0.1861576     0.151739  30.27 0.0009491749    1.688    0.408
       210  -8.6149     67.2458     55.3565   5.1987185271e+01   5.7129025694e+01    0.1297722    0.1012178   3.98 0.0006937833    1.595    0.373
       211  -9.6475    201.2635     53.3071   2.5845277008e+01   3.0033314125e+01    0.1735157    0.1533301 -63.19 0.0005016345    1.274    0.215
       212  -9.6117    212.7732     53.4347   2.4791042567e+01   2.8010470162e+01    0.1354839   0.09548843  64.58 0.0009483749    1.648    0.393
       213 -10.3576    145.6158     49.2544   3.1779829347e+01   4.1456942395e+01    0.4361168    0.2572334 -21.34   0.00206488    2.994    0.666
       214 -10.0873    240.2610     50.6123   2.2100032194e+01   2.3942444692e+01    0.1812842    0.1393761 -51.08 0.0007319463    1.316    0.240
       215  -9.4625     11.4476     50.5401   7.5782550627e+01   6.6568401078e+01    0.2542672    0.1200255 -52.82 0.0008701123    2.203    0.546
       216  -9.3848     13.7874     46.1957   7.2993314351e+01   6.7128999377e+01    0.2252924    0.1324957 -28.64 0.0009083453    1.760    0.432
       217 -10.1193     26.2596     49.0395   6.7262806369e+01   6.5075870029e+01    0.2710629    0.1763083 -22.99 0.0006803575    1.697    0.411
       218  -9.9891    173.5670     48.1606   2.7789163440e+01   3.5910394118e+01    0.4373983    0.2216158 -68.04  0.002221766    2.217    0.549
       219 -10.9365    137.1194     45.2438   3.2126832723e+01   4.3794369408e+01    0.6742218    0.2951477  44.89  0.002633016    3.222    0.690
       220 -10.1253     20.1601     46.2839   6.9492992203e+01   6.6360064310e+01    0.4779235    0.3012193  -8.70  0.002493677    1.828    0.453
       221 -10.3733    200.3290     45.1749   2.4403389309e+01   3.1265566210e+01    0.3439167    0.1714175  82.27  0.001764468    2.121    0.528
       222 -10.2105     23.0240     37.2653   6.4570709512e+01   6.7508247394e+01    0.4658596    0.1925084  43.71   0.00199371    2.787    0.641
       223  -9.3282    161.9513     44.2118   2.8349661709e+01   3.8747518909e+01    0.2490917    0.1234405  89.04  0.001155412    2.598    0.615
       224 -10.4528    155.8022     42.5339   2.8764411549e+01   4.0221682131e+01    0.2703601    0.2361529  59.50  0.001545594    1.358    0.264
       225 -10.5702    112.4816     50.5307   3.8081396166e+01   4.8395047881e+01    0.2583833    0.2331159 -76.47  0.000711964    1.124    0.110
       226  -9.7257      4.6689     43.2601   7.7342208623e+01   6.8595558118e+01    0.3715265    0.1700901 -37.49  0.001157992    2.124    0.529
       227 -11.2163      4.2599     35.9859   7.5029912631e+01   6.9944152808e+01    0.4448556    0.3104801  -6.90  0.001610823    1.288    0.224
       228 -10.1828     12.1632     29.5811   6.7643949572e+01   7.0144089045e+01    0.4071693     0.238123 -25.06  0.002250351    1.860    0.462
       229 -10.1236      7.8302     30.2140   7.0561221933e+01   7.0547172050e+01    0.3396538    0.2034742   3.60  0.001883783    1.692    0.409
       230  -9.4346    234.2397     41.4353   2.1030115693e+01   2.6020322348e+01     0.139068   0.07849853 -84.82 0.0009523216    1.701    0.412
       231  -9.2721    231.4064     37.8006   2.0627083029e+01   2.6911828894e+01    0.2481463    0.0784839 -42.67  0.001328787    2.532    0.605
       232  -9.0549     91.1501     41.2033   4.0253120582e+01   5.4281279716e+01    0.1752444    0.1414725  85.67 0.0006600434    1.338    0.253
       233 -10.5621     26.3035     42.6222   6.4899972005e+01   6.6173677652e+01    0.3000437    0.2819445  23.63  0.001338317    1.239    0.193
       234  -9.3942    188.7425     39.4734   2.4399808761e+01   3.4113187662e+01    0.2101856    0.1044755 -51.97 0.0006804439    1.715    0.417
       235 -10.6555     80.2716     39.2936   4.2537044802e+01   5.6844141738e+01    0.4155388    0.2655255  77.23  0.002064948    2.093    0.522
       236  -8.7941    113.3386    249.3092   7.8718544519e+01   5.8286438744e+00    0.1404929   0.09147489 -15.03 0.0007043885    1.685    0.407
       237 -10.2851    234.8421     61.7847   2.4350183342e+01   2.3317228131e+01    0.2454145    0.1414733  64.13  0.001682455    2.032    0.508
       238 -10.1330     59.8055     23.8102   4.3271674406e+01   6.2957474446e+01    0.3298349    0.1749707 -35.66   0.00120865    2.231    0.552
       239 -11.2063     61.2774     35.9268   4.7308269768e+01   6.1162879401e+01    0.4393515    0.3053522  11.15  0.001715366    1.956    0.489
       240 -10.3848     69.4311     33.4261   4.3730043047e+01   5.9850348741e+01    0.4953594    0.2714681  65.46  0.002360092    2.151    0.535
       241 -10.4631     43.0794     28.1263   5.1254039334e+01   6.5619790321e+01    0.1961215     0.151059  36.33            0    1.080    0.074
       242 -11.1143     56.9353     31.0230   4.7012426747e+01   6.2651679461e+01    0.3528956    0.2994127   4.96  0.001042399    1.320    0.242
       243 -11.2987     48.7292     30.6359   4.9951446272e+01   6.4261307505e+01    0.8620928    0.2576964  42.66   0.00334246    2.889    0.654
       244  -9.4792     12.9736     37.3197   7.0233263211e+01   6.8782916242e+01    0.2054154    0.1592317  88.86  0.001109759    2.535    0.605
       245  -9.0279    206.4521     37.4830   2.2445612785e+01   3.1139165047e+01    0.1090214   0.08224653 -70.23 0.0001074406    1.021    0.020
       246 -11.0828    176.1985     34.5500   2.4653911742e+01   3.7118080221e+01    0.5310032    0.2489756 -55.25  0.002144507    1.935    0.483
       247  -9.7623    170.2286     30.3745   2.4395819981e+01   3.8790183857e+01    0.2665909    0.1549785 -62.40 0.0009527138    1.557    0.358
       248 -10.7078    153.1027     36.1624   2.7652920239e+01   4.1577573771e+01    0.2067312    0.1655717 -75.88            0    1.081    0.075
       249  -9.4072    132.6448     36.9996   3.0757587317e+01   4.5804637716e+01    0.3093982    0.1473422 -88.23  0.001180479    3.711    0.731
       250  -8.7516     94.5967     36.2779   3.7877295528e+01   5.4170378570e+01    0.1322147    0.0912726  89.59 0.0006984429    1.770    0.435
       251 -10.0591    174.3247    246.6846   6.4951671866e+01  -3.1579316831e-01    0.2868947    0.1643282   1.72  0.001546528    1.827    0.453
       252  -9.3672    150.5027    247.5266   7.0031432912e+01   2.0204336369e+00    0.1285035    0.1068122  -6.26 0.0003676148    1.017    0.016
       253 -11.5513    106.3692     32.6039   3.4214595232e+01   5.2052547216e+01    0.5448819    0.3254475  26.72  0.002506208    3.072    0.674
       254 -12.3180    114.2625     25.1096   3.0597117857e+01   5.1177817054e+01    0.6595514    0.2567482  59.38  0.002045098    2.117    0.528
       255 -10.2667    240.5455     32.3867   1.9158751663e+01   2.6121659932e+01    0.1934632    0.1504483  87.62  0.001270992    1.382    0.276
       256 -11.9659    125.7056    241.5842   7.4781149384e+01   5.9574306025e+00    0.4945048    0.3414432  39.00  0.002554066    1.578    0.366
       257 -11.2301     69.2364    239.8546   8.8527526315e+01   1.2940672129e+01    0.6030561    0.3271819  -7.30  0.002407202    2.802    0.643
       258 -10.1869    134.9785     31.4906   2.9007115162e+01   4.5963873340e+01    0.5184657    0.1196775  68.40  0.001657968    4.815    0.792
       259 -10.8314    188.7865     28.7921   2.2306182522e+01   3.5390854104e+01    0.3918568    0.2798138 -14.20  0.002399658    2.739    0.635
       260 -10.7490     32.5148     30.9694   5.7191916986e+01   6.7036589446e+01    0.2269161    0.2046968 -13.47 0.0003726049    1.223    0.183
       261 -11.4164    147.1382    237.8683   6.9380072915e+01   4.2179171734e+00    0.4507738    0.3484137  23.85  0.002711892    1.287    0.223
       262 -10.8021    167.1616    237.7472   6.5090649221e+01   2.0212130813e+00    0.2428548    0.1596907 -36.66 0.0009240941    1.360    0.265
       263  -9.2912    205.2678    233.6169   5.7177558128e+01  -1.1195440593e+00    0.1570772   0.09719021   5.31 0.0009508798    1.661    0.398
       264  -9.0738     15.4104    233.7442   1.0188928661e+02   1.9901395567e+01    0.1806568    0.1152565 -62.16 0.0009425163    1.647    0.393
       265  -8.6867    189.7277    229.6919   5.9416920422e+01   1.0837409638e+00    0.1252868   0.07633723 -21.11 0.0003194286    1.545    0.353
       266  -8.7722    181.3051    228.3438   6.0824941380e+01   2.2085427781e+00    0.1338518   0.07945158 -20.34 0.0007041505    1.688    0.408
       267  -9.7568    197.2134    227.6411   5.7714055902e+01   6.7666240363e-01    0.1587642    0.1010575   7.40 0.0006496593    1.628    0.386
       268  -9.9333    233.9810    223.4962   5.0912903123e+01  -2.0963957922e+00     0.177822    0.1133869 -34.97 0.0004483363    1.172    0.147
       269 -11.8852    126.0874     28.4326   2.9563393587e+01   4.8233360998e+01    0.4642775    0.3117855  80.32  0.002805852    1.334    0.250
       270  -9.6040      1.9076     49.1621   8.0904097114e+01   6.7710194151e+01    0.1836275    0.1592944  18.62 0.0007325741    1.245    0.197
       271  -9.8122    198.4312     28.7376   2.1486283273e+01   3.3617493883e+01    0.2705281    0.1478643  64.20  0.001731573    1.936    0.484
       272  -9.0586     75.4943    224.4646   8.5122664173e+01   1.5779277201e+01    0.1418008    0.1316418  15.20 0.0001228245    1.009    0.009
       273  -9.9340    148.0853     28.3432   2.6466169475e+01   4.3547745261e+01     0.295471    0.1670248  63.80   0.00103883    1.605    0.377
       274 -11.1734    144.9200     24.1478   2.5866395178e+01   4.4682445661e+01    0.6122741    0.2732252  66.57  0.003228567    1.922    0.480
       275 -10.7674    131.5685    240.7365   7.3303288178e+01   5.4458365101e+00    0.2478629    0.1511588   9.26  0.001184096    1.655    0.396
       276  -9.4923     49.6594    222.6806   9.1892469150e+01   1.9193039711e+01    0.1478314    0.1028229 -26.74 0.0004637862    1.715    0.417
       277 -10.7871    183.5681     26.0136   2.2219306681e+01   3.6697522780e+01    0.3023371    0.1957596 -52.33  0.001521142    1.373    0.272
       278  -9.4412    187.4998     22.9806   2.1285242870e+01   3.6295202903e+01    0.1675141    0.1306065  80.33 0.0004818707    1.274    0.215
       279  -8.8313     66.0000     28.0276   4.2854209541e+01   6.1213323970e+01    0.1782013    0.0731111 -33.78 0.0007957858    2.897    0.655
       280  -9.7510    230.6704     27.0188   1.8901986954e+01   2.8298640041e+01     0.145012   0.09785248 -62.16 0.0007390478    1.074    0.068
       281  -8.8635     97.3906     25.8497   3.4024337300e+01   5.4786128206e+01    0.1476023    0.1221517  -9.99 0.0005396727    1.620    0.383
       282  -8.7408    206.3428     25.7164   2.0322822224e+01   3.2549825809e+01    0.1128024    0.0593464 -69.69 0.0007015329    1.638    0.389
       283  -9.9139     90.7634     23.0887   3.4585420757e+01   5.6527887034e+01    0.2584702    0.1911085  49.79  0.001257194    1.260    0.206
       284  -8.9195    153.2854    219.3264   6.5209451259e+01   7.1455014765e+00    0.1397391   0.09040653 -20.67 0.0002898543    1.606    0.377
       285  -9.3241    164.5143    211.9427   6.1619554412e+01   7.2373895984e+00    0.1899326    0.1631585  -2.69 0.0005261913    1.098    0.090
       286 -10.4642     38.6398     22.1897   5.0684262761e+01   6.7161813768e+01    0.2165615    0.1787068  25.15 0.0005605784    1.080    0.074
       287  -9.6463     60.5602    207.1194   8.7095504696e+01   2.1844089894e+01    0.4323676     0.228582  -6.70  0.001523168    3.120    0.680
       288  -9.4705    223.6082     22.1392   1.8533910324e+01   3.0003177723e+01    0.1684344    0.1032777 -80.79 0.0005768572    1.337    0.252
       289  -9.1863      5.3133     22.0599   6.8739916695e+01   7.2110372889e+01    0.1570507    0.1300131   1.28 0.0005125054    1.086    0.080
       290  -9.4464    216.7189     20.3809   1.8671760514e+01   3.1353662802e+01    0.1621355    0.1145075 -58.60 0.0006293276    1.172    0.147
       291  -8.9711     40.6693    208.3030   9.2904716892e+01   2.3784947956e+01    0.1547724    0.0989114  54.74 0.0004374053    1.653    0.395
       292  -9.4669     18.3043    207.6826   9.9197264928e+01   2.6130183608e+01    0.1502061   0.09338093  56.60 0.0004140544    1.626    0.385
       293 -10.8331      6.0158    198.9536   1.0200596534e+02   2.9431493756e+01    0.4286378    0.1307492 -61.42  0.001551037    2.886    0.654
       294  -9.2813     80.2520     19.0266   3.5685973219e+01   5.9219535645e+01    0.2283976    0.1481271  65.72  0.000764836    1.347    0.257
       295  -9.7013     78.4954    203.9221   8.1603841988e+01   2.0417176357e+01    0.2763515    0.1876275  41.56 0.0004902829    1.481    0.325
       296 -10.7334    236.2451     20.0050   1.7443540870e+01   2.8200318668e+01    0.2069521    0.1131156 -46.65 0.0003395056    1.533    0.348
       297  -8.7883      1.3247    200.2996   1.0343280272e+02   2.9435273589e+01    0.1397348   0.09687962 -39.84 0.0003693615    1.632    0.387
       298  -8.9199      1.4706     20.5241   7.0634052982e+01   7.2763138984e+01    0.1208651   0.09227954   1.26 0.0004993412    1.052    0.049
       299  -9.7386    233.9225    196.8024   4.6833258866e+01   2.1849366578e+00    0.2129934    0.1274809 -41.45 0.0009688059    1.279    0.218
       300  -9.8561    146.3206     17.3298   2.4084735848e+01   4.5115036213e+01    0.1912824    0.1614432  44.77 0.0008836491    1.596    0.373
       301  -9.4850    149.3357     15.3130   2.3279475088e+01   4.4693296414e+01    0.1740635    0.1405896  70.07 0.0007612146    1.267    0.211
       302  -9.1271     79.4977    190.4823   7.9344660147e+01   2.3688763486e+01    0.1492293    0.1451055   9.04 0.0001605975    1.012    0.011
       303  -9.5119    120.2342     15.9029   2.7104264721e+01   5.0832439580e+01    0.2261548    0.1228751  48.27  0.000963069    2.046    0.511
       304  -9.6071    186.9630     15.0128   1.9784245877e+01   3.7262475633e+01     0.164544    0.1255809 -78.35 0.0005770664    1.048    0.046
       305  -8.7568     53.3029    190.3130   8.7075461518e+01   2.7083235367e+01    0.1556635    0.1095535 -30.39 0.0004998752    1.614    0.380
       306 -12.1146      4.5951    184.0157   1.0127525282e+02   3.3511841040e+01    0.7204435    0.5231041 -88.41   0.00319574    1.334    0.250
       307 -10.9456    246.7444     19.4573   1.6797992481e+01   2.6641321872e+01    0.1767649    0.1074474 -34.97   0.00128992    2.126    0.530
       308  -9.5904    250.3266    177.1445   4.1502323685e+01   3.7066928637e+00    0.2350294   0.06975121 -40.55   0.00108978    2.587    0.613
       309  -9.5343     28.1956    175.8387   9.3089797304e+01   3.3729851287e+01    0.2257237    0.1978303  67.13 0.0006900202    1.165    0.142
       310  -9.3098     50.7654    170.3861   8.5083470400e+01   3.2750711753e+01    0.2463031    0.1665758  82.78  0.001057524    1.855    0.461
       311  -9.7570     39.2670    173.4310   8.9225358689e+01   3.3246749829e+01    0.2156482    0.1323306  35.81 0.0009467949    1.601    0.375
       312 -10.1280     14.0020    159.2723   9.5877508017e+01   3.9556612317e+01    0.3298445    0.2657628 -65.76 0.0007589935    1.170    0.145
       313 -11.8766      8.8410    166.9502   9.8413839666e+01   3.7843096791e+01    0.5356573    0.3411061  28.50  0.001793073    1.590    0.371
       314 -10.4789     19.0673    164.9009   9.4809355090e+01   3.7580304842e+01    0.4195681    0.2934929  -6.50  0.002004035    1.643    0.392
       315 -11.2929     11.0146    162.4688   9.7236151180e+01   3.8910437830e+01    0.4307247    0.3072975  78.67  0.001722857    1.491    0.329
       316  -9.5134     65.9208     10.4271   3.6299031676e+01   6.3085476756e+01    0.2504399    0.0965239  59.00 0.0008457041    2.086    0.521
       317  -9.7679    205.0109    163.2206   4.5714303921e+01   1.1358660612e+01     0.217087    0.1495564 -41.07 0.0006761482    1.193    0.162
       318 -10.7929     28.0691    161.6264   9.1377601340e+01   3.7653854460e+01     0.476109    0.3196685 -54.35  0.001975716    1.423    0.297
       319  -9.3563     38.0060    160.3161   8.7826536876e+01   3.6983877469e+01    0.2166693    0.1998906  13.76  0.001159352    1.108    0.098
       320 -12.6217     22.6096    149.5108   9.1662608012e+01   4.1511629000e+01    0.8512709    0.4518144 -37.91  0.001417343    2.052    0.513
       321 -10.4880     16.4939    147.8915   9.3635962510e+01   4.2490332539e+01    0.2971151    0.2717018 -59.48 0.0004051522    1.035    0.034
       322 -10.6581      9.3621    155.5105   9.7050814809e+01   4.0951745390e+01    0.2930934    0.2546684 -70.68  0.001156905    1.084    0.078
       323  -9.6661    104.3319    154.9333   6.5896150179e+01   2.8926864171e+01    0.2722397    0.2462146 -38.41  0.001361871    1.088    0.080
       324 -10.3826      4.1525    153.7540   9.8663696454e+01   4.1802923586e+01    0.2963435    0.1783759  33.28  0.001026413    1.704    0.413
       325  -9.1573    205.8018     17.3671   1.8864190287e+01   3.3575282270e+01    0.1339499   0.08060222  71.58 0.0007787687    1.665    0.399
       326 -11.3781     47.7299    146.8910   8.2341573552e+01   3.9509866447e+01    0.7925993    0.4535609 -36.19   0.00320811    1.980    0.495
       327 -10.4693     30.5093    152.1425   8.9233563551e+01   4.0025125072e+01     0.352851    0.2361684 -39.07  0.001620195    1.546    0.353
       328  -9.7838     61.8774    151.7645   7.8368130888e+01   3.6331176959e+01    0.3346872    0.2346876 -10.57  0.001456275    1.772    0.436
       329 -11.5341     12.7440    136.7038   9.3540921583e+01   4.5853651046e+01    0.7140539    0.5741671 -67.76  0.003797815    1.183    0.155
       330 -10.4198      2.9613    147.6645   9.8443543036e+01   4.3551479572e+01    0.3320191    0.2429694 -67.20 0.0009816329    1.254    0.203
       331  -8.6946     71.0076    151.5032   7.5317983535e+01   3.5089238254e+01    0.2258476    0.1354805  -3.84 0.0008105839    2.605    0.616
       332  -9.1478    104.4741    147.4808   6.4340598914e+01   3.0718915069e+01    0.1499511    0.1479597 -77.52 -5.162916e-05    1.047    0.045
       333  -8.6425    239.5025    146.5168   3.7988391370e+01   9.8426286398e+00    0.1145314   0.08592904 -45.34 7.172958e-05    1.001    0.001
       334 -10.9725     33.2297    144.3242   8.7083264591e+01   4.1885299398e+01    0.4083564    0.3231959  39.15 0.0009645587    1.306    0.234
       335  -8.6116    227.6820    140.2794   3.8452065333e+01   1.2367337416e+01    0.1102877   0.07965984 -67.92 0.0003481538    1.577    0.366
       336  -8.9810    217.4873    138.9386   3.9590157368e+01   1.3971610249e+01    0.1816014   0.09608918 -46.41 0.0004757709    1.502    0.334
       337 -10.3907     80.2173    138.2605   6.9703104178e+01   3.7071400597e+01    0.3473667    0.2812467  57.81 0.0007623218    1.378    0.274
       338 -10.3653     40.4783    138.1005   8.3405486868e+01   4.2760211343e+01    0.3312629    0.2949512  53.29 0.0009021789    1.202    0.168
