#   1 NUMBER                 Running object number                                     
#   2 MAG_AUTO               Kron-like elliptical aperture magnitude                    [mag]
#   3 X_IMAGE                Object position along x                                    [pixel]
#   4 Y_IMAGE                Object position along y                                    [pixel]
#   5 X_WORLD                Barycenter position along world x axis                     [deg]
#   6 Y_WORLD                Barycenter position along world y axis                     [deg]
#   7 A_WORLD                Profile RMS along major axis (world units)                 [deg]
#   8 B_WORLD                Profile RMS along minor axis (world units)                 [deg]
#   9 THETA_WORLD            Position angle (CCW/world-x)                               [deg]
#  10 FWHM_WORLD             FWHM assuming a gaussian core                              [deg]
#  11 ELONGATION             A_IMAGE/B_IMAGE                                           
#  12 ELLIPTICITY            1 - B_IMAGE/A_IMAGE                                       
         1 -10.8750     17.1908     41.6854   9.0169706085e+01   6.9428113203e+01    0.6314348    0.1247729 -58.04  0.002107898    3.358    0.702
         2 -10.7485     69.2043     38.9805   5.9668169194e+01   6.2463405724e+01    0.5597212     0.237396 -38.29   0.00206839    2.469    0.595
         3 -11.1048     27.7199     29.6813   7.8563517507e+01   7.1266424886e+01    0.7029304    0.1842545 -44.72  0.002256392    3.763    0.734
         4 -11.2140     12.8881     25.9186   8.8145396478e+01   7.3536888687e+01    0.9060836     0.227093 -67.57  0.002902703    4.161    0.760
         5 -11.1566      3.7261     24.9068   9.5297372946e+01   7.4305297084e+01    0.4987863     0.121669 -62.48   0.00189333    2.871    0.652
         6  -9.4943     40.8388     21.2012   6.5353356598e+01   7.1180956914e+01    0.1873266    0.1496091  -9.10   0.00039139    1.328    0.247
         7 -10.5085     99.0166    225.0812   8.9633874244e+01   1.7295503482e+01    0.3040888    0.1361999  31.11  0.001458039    1.740    0.425
         8  -9.7971     40.0261    225.3405   1.0247758527e+02   2.3884629378e+01    0.2062247          nan  42.35 0.0007047476    4.342    0.770
         9 -10.1321     61.4570    223.5193   9.7692796703e+01   2.1967426969e+01    0.2307036   0.06283902  38.36  0.001034519    2.408    0.585
        10 -11.0149    126.1430    220.5367   8.3388667099e+01   1.4555423128e+01    0.2035406    0.1774929  35.55 0.0006698341    1.179    0.152
        11  -9.5590     75.4691    219.5115   9.4296463716e+01   2.1077743052e+01    0.1207798   0.09279358  40.65 0.0001731615    1.022    0.022
        12 -10.3112     57.3822    205.6092   9.7365406573e+01   2.5698795328e+01     0.256711   0.04690494  39.55 0.0009560527    3.225    0.690
        13  -9.3584    185.3332    203.6689   6.9303457613e+01   9.0153945368e+00     0.105527   0.09016186  49.41 0.0004061146    1.726    0.421
        14 -13.3605    249.1158    195.2094   5.7417172491e+01   1.9977988588e+00     0.878419    0.2319607 -32.78  0.004110695    3.449    0.710
        15 -10.4617     89.3874    199.1420   8.9199930283e+01   2.3046604024e+01    0.2710702    0.1264206  44.58   0.00116502    1.866    0.464
        16  -9.9369    126.3582    197.2872   8.0439370132e+01   1.8293559417e+01      0.20456    0.1424575  -2.48   0.00112728    1.814    0.449
        17 -11.1318    173.0658    195.5021   7.0373585438e+01   1.1844088625e+01     0.181913    0.1593657  32.43  0.001194414    1.313    0.239
        18 -10.2973     67.2522    194.9022   9.4124093837e+01   2.6643640535e+01    0.3046261    0.1382688  50.91  0.001448207    2.073    0.518
        19 -10.6363     78.8774    193.4022   9.1132470059e+01   2.5501914282e+01    0.3014556    0.1484292  47.86  0.001408216    1.844    0.458
        20 -10.3678     44.3209    193.4228   9.9658128100e+01   2.9523756599e+01     0.325279    0.1473599  61.56    0.0015604    2.276    0.561
        21 -11.4109     88.5094    189.5929   8.8360722321e+01   2.4989613260e+01      0.31425    0.1759475  35.11  0.001636365    1.481    0.325
        22 -12.2130     97.8948    187.6355   8.5832393145e+01   2.4087000930e+01    0.5855541    0.2041145  36.28  0.002429943    2.303    0.566
        23 -12.1192     92.9497    182.7265   8.6444131596e+01   2.5738199846e+01    0.3430113    0.2714679 -48.69  0.001389523    1.473    0.321
        24 -11.5383    110.9860    185.6634   8.2415415544e+01   2.2596153876e+01    0.4019403    0.2980167  43.22 0.0008508388    1.223    0.182
        25 -10.1435     34.7308    187.1754   1.0165461708e+02   3.1791037677e+01    0.2096948    0.1249274  62.10  0.001190516    1.522    0.343
        26 -10.8724     75.6157    184.4540   9.1015090839e+01   2.7711519032e+01    0.3101479    0.1587735  52.73  0.001482285    1.957    0.489
        27  -9.8784     66.4936    184.9804   9.3391777304e+01   2.8746182690e+01    0.1812409   0.09497575  71.64  0.000810276    2.542    0.607
        28  -9.3102      6.3010    184.6571   1.0865338359e+02   3.4794239137e+01    0.1312184   0.06169143  54.75 0.0004220765    1.676    0.403
        29 -10.3126     45.0524    182.2747   9.8682857185e+01   3.1772543029e+01    0.2582032    0.1358635  44.78  0.001347097    1.559    0.359
        30  -9.4336     27.3422    182.6594   1.0327554041e+02   3.3451528826e+01    0.1399194   0.06705153  54.35  0.000704883    1.776    0.437
        31 -11.7870    243.8757    180.4500   5.5722146224e+01   4.2168367792e+00    0.2447865    0.1317254 -28.54  0.001536928    1.654    0.395
        32 -11.0066     55.8055    187.2049   9.6313780263e+01   2.9547159512e+01    0.3873124    0.1704973  55.15  0.001770969    2.276    0.561
        33 -12.1014     79.4243    176.4668   8.9141767287e+01   2.8868268292e+01    0.4777845    0.1852328  45.23  0.001979026    2.338    0.572
        34 -10.8723     60.8846    177.0900   9.4086855588e+01   3.1091334613e+01    0.3446955    0.1351646  39.86   0.00152129    2.050    0.512
        35 -10.9336    107.2318    175.6573   8.1933736993e+01   2.5076414188e+01    0.4059349    0.1775879  46.73  0.001700402    2.308    0.567
        36  -9.8320     34.9877    173.5035   1.0071124459e+02   3.4714252391e+01    0.1983524   0.06261853  45.79 0.0008100478    2.517    0.603
        37 -10.0920     45.0064    171.9632   9.7887529857e+01   3.4022854486e+01     0.226921    0.1221309  56.22  0.001134946    1.737    0.424
        38 -12.0957    248.5296    169.1771   5.3084402980e+01   4.9029987724e+00    0.2703877    0.1728723 -44.60  0.001644879    2.372    0.578
        39 -11.7659    123.7519    170.3357   7.7070653199e+01   2.3560170533e+01    0.5300768    0.2147759  44.65  0.002128043    2.442    0.591
        40 -11.1646     55.7465    169.6375   9.4747182950e+01   3.3332042323e+01    0.3271536    0.1780257  51.05  0.001359195    1.681    0.405
        41  -9.5052    206.4872    169.4886   5.9745479578e+01   1.0629444945e+01    0.1213684    0.1014569   1.71 2.449668e-07    1.065    0.061
        42 -10.8529     89.4846    168.9819   8.5552252072e+01   2.9050846704e+01    0.3143321    0.1277965  46.39  0.001249844    2.390    0.582
        43 -10.3679    113.0034    168.0073   7.9344845657e+01   2.5709865352e+01    0.2259369    0.1555187  59.98  0.001138611    1.752    0.429
        44 -11.5521    100.5542    166.3764   8.2277292427e+01   2.7962092958e+01    0.6289724    0.1897043  43.54  0.002173379    3.122    0.680
        45 -10.4614    140.9419    165.8782   7.2266780056e+01   2.1608154702e+01    0.3877529    0.1900918  53.21  0.001517532    2.973    0.664
        46 -11.8581     80.6889    164.1584   8.7271257898e+01   3.1336101624e+01    0.5759612    0.2971998  67.98  0.002231496    3.105    0.678
        47 -11.1006     70.4693    163.1649   8.9966567369e+01   3.2943712537e+01    0.2860003    0.1811136  54.49  0.001030072    1.542    0.352
        48 -10.0957     47.7578    163.8989   9.6424780034e+01   3.5538357746e+01    0.2563137    0.1616355  70.59  0.001218844    1.626    0.385
        49 -10.1085     38.1599    164.1865   9.9154097973e+01   3.6493845058e+01    0.1943905    0.1284846  58.32 0.0008446939    1.360    0.265
        50 -13.7697    247.3407    148.6815   4.9492881305e+01   7.4374114770e+00    0.7583054    0.5082359 -27.29  0.005052235    1.298    0.230
        51 -10.1097    152.7706    160.8116   6.8684669210e+01   2.0543312905e+01    0.1799805    0.1590283  55.47  0.001067257    1.357    0.263
        52 -11.8053     94.3791    160.5751   8.3046285745e+01   3.0123434658e+01    0.5605235    0.2132422  39.75  0.002211046    2.279    0.561
        53 -10.7905     62.6731    160.6950   9.1868040331e+01   3.4505206083e+01    0.2944368    0.1564542  58.55  0.001235191    2.035    0.509
        54 -10.4908    213.5186    162.9893   5.7348470641e+01   1.0466790309e+01    0.1829213    0.1066381 -30.18  0.001034539    1.598    0.374
        55 -11.9911    107.7635    158.6646   7.9188951374e+01   2.8444750979e+01    0.6360675    0.1974753  41.30  0.002229759    2.877    0.652
        56 -11.5178    121.1132    156.2127   7.5338528733e+01   2.6760220206e+01    0.3609109    0.2592618  58.65   0.00182951    1.643    0.391
        57 -12.6157     82.2998    154.8769   8.5539595533e+01   3.3168078639e+01    0.7372721    0.3080985  38.49   0.00279648    2.079    0.519
        58 -12.2184     69.9433    153.6258   8.8908626146e+01   3.5181883607e+01    0.6481894    0.2636568  37.96  0.002677039    2.110    0.526
        59 -11.5127     50.0975    154.8210   9.4862333162e+01   3.7377511572e+01    0.4843965    0.2252336  56.07  0.001893961    2.244    0.554
        60 -10.8795    135.3895    153.8395   7.1389652612e+01   2.4796630083e+01    0.4372926    0.2010982  50.11  0.001698738    2.628    0.620
        61 -11.4317     99.4894    151.1476   8.0160356892e+01   3.1372945570e+01    0.3015911    0.2277568  41.87  0.001285048    1.213    0.176
        62 -11.3629     92.0674    151.6991   8.2307541946e+01   3.2417133131e+01    0.3392447    0.2324794  59.89  0.001547723    1.618    0.382
        63  -9.9078    189.4077    149.1673   5.8927879050e+01   1.6258810949e+01    0.2886281    0.1119848 -45.09  0.001132545    3.109    0.678
        64 -10.2842     28.8762    149.2503   1.0069485048e+02   4.0898132657e+01    0.3466308     0.138962  77.36  0.001328258    3.064    0.674
        65 -11.2075     39.7142    146.9047   9.7190129294e+01   4.0401222916e+01    0.5954411    0.2906233  69.49  0.002446982    2.362    0.577
        66 -13.2632    109.2824    146.0711   7.6603082128e+01   3.0862043574e+01    0.8619907    0.4136754  53.58  0.003243531    2.699    0.630
        67  -9.7967    205.2446    161.2408   5.8428801641e+01   1.1949960567e+01    0.1885715   0.09214526 -43.68 0.0008948107    2.457    0.593
        68 -11.8472     78.7315    146.5434   8.5331831708e+01   3.5591052688e+01    0.3717068    0.2523879  58.60  0.001592679    1.548    0.354
        69 -10.9120    150.1838    145.6413   6.6324268116e+01   2.3728092233e+01    0.4922758    0.2797813  60.84  0.001903978    3.098    0.677
        70 -12.8393     89.1066    143.8653   8.1869638589e+01   3.4641547762e+01     0.559566     0.381121  55.64  0.002238416    1.540    0.350
        71 -12.3451    126.8295    143.8566   7.1584032414e+01   2.8272475206e+01    0.6236033    0.3383019  55.45  0.002512567    2.441    0.590
        72  -9.4906     13.3239    145.6797   1.0516970147e+02   4.3049152367e+01    0.1421154   0.07469651  55.88 0.0003100789    1.676    0.404
        73 -12.6756     69.5430    138.9419   8.6954225708e+01   3.8697858306e+01    0.7331847    0.3917118  85.63  0.002772928    2.981    0.665
        74 -12.3511     56.5814    145.1628   9.1813589671e+01   3.8903773008e+01    0.7436206    0.4126371  73.92  0.003236429    2.252    0.556
        75 -12.6225    249.5082    136.9447   4.6943328606e+01   8.5357690099e+00    0.6046767    0.1236801 -36.70  0.002184666    4.293    0.767
        76 -12.6086    248.0133    129.2111   4.5612978645e+01   9.6846798071e+00    0.3103977    0.2427505 -18.72  0.002165558    1.055    0.052
        77 -11.9512     81.8290    139.4205   8.3276607587e+01   3.6792243812e+01    0.3731812    0.2716551  59.01  0.001611067    1.431    0.301
        78 -10.0915     49.2999    138.4822   9.3273050624e+01   4.1401837642e+01    0.2544288    0.1540074  76.27   0.00118598    1.854    0.461
        79 -10.8250     23.2057    137.2163   1.0153341687e+02   4.4330092859e+01    0.5741488    0.2237622  67.31  0.002202593    2.951    0.661
        80 -11.2944     39.1832    134.7755   9.6118489817e+01   4.3434837850e+01    0.4014575    0.2198974 -79.17  0.001755895    1.829    0.453
        81 -12.5189    114.5631    133.9327   7.2816265332e+01   3.2555733259e+01    0.6058401    0.2935485  50.20  0.002348402    2.307    0.566
        82 -14.2884     84.8833    129.3909   8.0576496445e+01   3.8683519393e+01     1.197785    0.7558483 -77.71  0.004595907    2.002    0.501
        83 -12.4455    249.0573    118.3036   4.3273387424e+01   1.0857838582e+01     0.456251    0.2077562 -19.47  0.002212729    2.266    0.559
        84 -12.0014    133.4434    132.1932   6.7503134907e+01   2.9419941532e+01    0.4567629    0.3051672  58.24  0.002091998    1.835    0.455
        85 -10.4745    144.2739    132.2738   6.4879318667e+01   2.7345611143e+01    0.2966973    0.1717789  59.97  0.001178806    2.568    0.611
        86 -14.0413    100.4526    127.4399   7.5483374414e+01   3.6517109976e+01    0.9613694    0.6900618  71.51  0.003684242    1.797    0.444
        87 -13.1565     67.2489    109.7440   8.2624184623e+01   4.6237143652e+01    0.8926495    0.5157527 -81.08  0.003159896    2.259    0.557
        88 -12.6620     73.7083    128.7626   8.3989615360e+01   4.0561544173e+01    0.5775734    0.3878074  77.77  0.002122656    1.858    0.462
        89 -12.8934     71.7100    119.6366   8.3001081969e+01   4.3100514637e+01    0.6201849    0.4294369 -87.18  0.002111074    1.713    0.416
        90 -14.1043     63.9729     93.7882   8.0376342332e+01   5.0755276757e+01     1.329553    0.7213802 -68.42  0.004928984    2.039    0.510
        91 -11.0549     57.9898     92.0173   8.2323745473e+01   5.2087843432e+01    0.2806747    0.2077727  44.22 0.0003199703    1.357    0.263
        92 -10.3549     12.5536    128.1124   1.0438099978e+02   4.7414867939e+01    0.4011256    0.1567233  76.37  0.001596002    2.722    0.633
        93 -12.8685    119.9998    126.1050   6.9671190373e+01   3.3232824804e+01    0.7572691    0.3873362  56.26    0.0027883    2.679    0.627
        94 -13.1960     59.8449    122.5365   8.7530432355e+01   4.4061583387e+01     1.081857    0.5603889 -89.23  0.004067211    2.817    0.645
        95 -12.3707     44.0661    121.1098   9.2792611061e+01   4.6361864886e+01     1.214486    0.5506657  81.35  0.004190372    3.432    0.709
        96 -11.5085     28.2701    121.4221   9.8409906026e+01   4.7869798991e+01    0.8904272    0.3143087  66.10  0.002749985    4.374    0.771
        97 -11.4382    143.2056    119.7579   6.2280100886e+01   2.9985520681e+01    0.4678516    0.3285753  62.03  0.001951842    1.789    0.441
        98 -11.7925    132.3690    119.3433   6.4866827979e+01   3.2239939051e+01    0.5529048    0.3122194  59.66  0.002139369    2.483    0.597
        99 -13.6285    110.0751    114.1673   6.9721715630e+01   3.7740006405e+01    0.8632812    0.5944838 -76.45  0.003381641    2.053    0.513
       100 -14.6056     94.3622    111.3661   7.3837651241e+01   4.1331749933e+01     1.219869    0.9076631 -73.74  0.004798099    1.572    0.364
       101 -10.0716      2.8556    116.5819   1.0704548585e+02   5.0913197090e+01    0.4173833    0.1079457  74.36  0.001242094    4.852    0.794
       102 -13.4666     83.0782     70.5791   6.6411533136e+01   5.2982667318e+01     1.169157    0.5275508 -52.35  0.004280261    2.325    0.570
       103 -14.0000     79.9005    111.4937   7.8601207020e+01   4.3813006871e+01     1.279139    0.7549438 -86.86  0.004775126    2.782    0.641
       104 -13.9728     96.2200     95.9589   6.9395279643e+01   4.4574083659e+01    0.9540692    0.6879382 -69.80  0.004333276    1.653    0.395
       105 -13.5760     82.6701     98.9560   7.4746563700e+01   4.6390641549e+01    0.8900718    0.5571126 -65.00  0.003339584    1.773    0.436
       106 -14.4559     87.0230     85.9603   6.9736732818e+01   4.8679645769e+01     1.072758    0.9707384  55.42  0.004409779    1.112    0.101
       107 -12.2725    123.5748    112.8961   6.5626169070e+01   3.5347065227e+01    0.5035939    0.3082371  52.80   0.00174372    1.768    0.434
       108 -10.5544     14.1945    109.4712   1.0241925166e+02   5.2053342228e+01    0.4747661    0.2169005 -89.79   0.00205986    2.135    0.532
       109 -10.9931    134.1890    109.7229   6.2052148809e+01   3.3826878946e+01    0.2934321    0.2353808  73.39  0.001302619    1.556    0.357
       110 -11.9764     59.6662    108.6904   8.5154877617e+01   4.7593943375e+01    0.4710084    0.2672679 -60.19  0.001962565    1.716    0.417
       111 -12.3591    249.3838    104.3464   4.0332803101e+01   1.2510184847e+01    0.4823519    0.1538278 -28.03  0.002044265    2.704    0.630
       112 -12.9128     45.7703    100.2574   8.8881638562e+01   5.1557501406e+01     1.294192    0.6641088 -89.68  0.004917084    2.670    0.625
       113 -14.2917    111.1694     99.0352   6.5576983577e+01   4.0873788216e+01     1.347078    0.8916521  78.39  0.005192661    2.564    0.610
       114 -10.9732    140.4997    105.1926   5.9320431438e+01   3.3400643813e+01    0.3558136    0.2118297  64.99  0.001376713    2.479    0.597
       115 -11.6551     22.2206     99.7169   9.8283317097e+01   5.4016587798e+01     1.122392    0.4636721  82.95  0.004068373    3.079    0.675
       116 -12.4804    129.6127    102.5043   6.1366873624e+01   3.6260648946e+01    0.5391626    0.3445517  61.90  0.002269841    1.966    0.491
       117 -10.3025    150.4085    103.2128   5.6469102235e+01   3.1658742140e+01    0.2175305    0.1363801 -50.13 0.0009537534    1.741    0.426
       118  -9.6313      6.5012    102.0157   1.0479254687e+02   5.4448205066e+01    0.2100933    0.1172198 -86.10  0.001034602    1.610    0.379
       119 -11.0147    140.0673     92.7057   5.6057875031e+01   3.5923701954e+01    0.3924296    0.2400696  71.86  0.001476212    2.647    0.622
       120 -12.7674    125.7940     91.3968   5.9325102245e+01   3.9360998933e+01    0.5931653     0.408421  72.14  0.002176095    2.009    0.502
       121 -11.3801     35.1619     87.1155   9.0906493738e+01   5.6169837707e+01    0.9040661    0.3132263 -67.75  0.003277164    2.648    0.622
       122 -10.1914      4.8599     89.3074   1.0448891310e+02   5.7834761434e+01    0.4839664    0.1567784 -76.72  0.001873006    2.618    0.618
       123 -13.6911    105.8891     82.7515   6.2517549110e+01   4.5538109942e+01    0.8942767    0.6423733 -71.55  0.003417955    1.819    0.450
       124 -13.0200     74.8888     79.3353   7.2293802941e+01   5.2504553578e+01    0.7746031    0.3936594 -59.22  0.003002461    2.136    0.532
       125 -11.6695     25.8570     75.9713   9.3129551161e+01   5.9969980173e+01     1.263155    0.3768966 -54.83   0.00451832    2.832    0.647
       126 -12.0872    119.9045     80.4886   5.7695167038e+01   4.2897443610e+01    0.4001966    0.3069546 -83.13  0.001807621    1.737    0.424
       127 -12.5373     49.2364     82.4866   8.3760571729e+01   5.5729016395e+01    0.9860188    0.5420245 -73.04   0.00412315    2.016    0.504
       128 -12.6070     63.2581     71.1692   7.4579437741e+01   5.6476446345e+01     1.489253    0.3525634 -52.46  0.004261284    3.868    0.741
       129 -11.9280    128.9509     76.0846   5.3902514107e+01   4.1667587661e+01    0.4251844    0.3171648 -87.46  0.001883299    1.839    0.456
       130 -13.2115     95.5698     69.8972   6.1731719334e+01   5.0529960625e+01     1.001786    0.3503135 -49.94  0.003126998    3.157    0.683
       131 -11.4868    116.0246     72.8121   5.6347816516e+01   4.5326647580e+01    0.2857348    0.2333077 -43.29 0.0009081173    1.233    0.189
       132 -12.5288    106.4490     70.9375   5.8565826188e+01   4.7900787589e+01     0.629196    0.3505687 -53.40  0.002475213    2.032    0.508
       133 -10.7035     42.9684     71.1421   8.3805333336e+01   5.9429799404e+01    0.4610905    0.2035906 -59.95  0.001838639    2.086    0.521
       134 -11.9655     51.4531     67.1338   7.8659927060e+01   5.9295118340e+01     0.953565    0.3727359 -63.76  0.003272476    2.912    0.657
       135  -9.5735      5.6735     70.4907   1.0228847414e+02   6.2711934908e+01    0.2464353    0.1103352 -78.63  0.001081753    1.976    0.494
       136 -10.2371     16.3961     69.2170   9.6652141920e+01   6.2456908731e+01    0.3271974     0.155413 -79.40  0.001408367    2.040    0.510
       137 -10.6184     17.5118     63.9715   9.5143670254e+01   6.3747693648e+01     0.512807    0.1183524 -60.80  0.001752807    3.101    0.678
       138 -11.2698    121.9839     66.4481   5.2588862523e+01   4.5146802119e+01    0.3166894    0.2137823 -55.68  0.001379058    1.674    0.403
       139 -11.2531     37.7902     61.7140   8.3833548466e+01   6.2438865058e+01     0.695141     0.260759 -55.29  0.002648133    2.339    0.573
       140 -11.5687    110.5033     63.7621   5.4879869553e+01   4.8393289579e+01    0.3839691    0.2775741  86.52  0.001639877    1.950    0.487
       141 -11.6185    100.8619     60.5311   5.6685115051e+01   5.1273224432e+01    0.4345481    0.2712862 -64.68  0.001695018    2.291    0.563
       142 -10.8955    100.3441     55.1008   5.4824959977e+01   5.2448102219e+01    0.3566533      0.21615 -18.25  0.001335146    2.530    0.605
       143 -11.1114     89.3007     59.1842   6.0103625187e+01   5.4140838617e+01    0.3587421    0.1869539 -47.23  0.001414009    1.963    0.491
       144 -12.0873     73.6597     56.4304   6.5085713968e+01   5.7979093359e+01    0.9546495    0.3621084 -44.75  0.003308021    2.639    0.621
       145 -10.5131     25.2704     57.3594   8.9439212985e+01   6.4836045391e+01    0.4470511    0.2096696 -59.58  0.001954219    1.856    0.461
       146 -10.9421    119.8521     56.7068   4.9761174855e+01   4.7442614778e+01    0.3154656    0.1941295 -60.98  0.001246378    2.156    0.536
       147 -11.1681      7.8167     53.3380   9.8706484053e+01   6.7056181280e+01    0.8198444    0.1473638 -66.51  0.002683517    3.580    0.721
       148 -11.0226     63.1846     51.6708   6.7808892229e+01   6.1006114655e+01    0.8908352    0.2379632 -47.89  0.002666372    3.636    0.725
       149 -10.4883     44.0000     54.5083   7.8346694576e+01   6.3423128390e+01    0.4056575    0.2013188 -59.76  0.001686107    1.995    0.499
       150 -11.0235     45.2290     49.3162   7.5850203282e+01   6.4481679277e+01    0.3971238    0.2562125 -36.54 0.0004437928    1.644    0.392
       151 -11.1054     54.0024     51.1252   7.1991117543e+01   6.2714404027e+01    0.8341456    0.2200727 -54.78  0.002397038    4.111    0.757
       152 -10.2011    105.8113     52.5452   5.2157479066e+01   5.1623876553e+01    0.3021586    0.2006216 -71.48  0.001203773    2.252    0.556
       153 -11.6003     92.4705     49.3728   5.5175631594e+01   5.5367820784e+01    0.6437324    0.2555132 -46.07  0.002208114    2.687    0.628
       154 -11.1039     31.1333     48.5193   8.3533898328e+01   6.6461992791e+01    0.7280828    0.2319843 -62.37  0.002544273    2.977    0.664
       155 -10.0390     20.6538     50.0375   9.0260534425e+01   6.7079298463e+01    0.5364075    0.2453592 -49.35   0.00234801    1.967    0.492
       156 -10.9577     82.1199     45.5444   5.7316299599e+01   5.8436953643e+01    0.4975268    0.2245573 -39.16  0.001708818    2.269    0.559
       157 -11.0876    237.4152    229.3138   6.4355071798e+01  -1.5037786215e-01    0.1947805    0.1213767  12.46  0.001044928    1.176    0.149
       158 -10.5408     57.9524     40.9449   6.5805937353e+01   6.4258510205e+01    0.4994183    0.2127635 -55.21  0.001757711    2.928    0.658
       159 -11.2628      5.2160     38.8875   9.7620368608e+01   7.0825473754e+01    0.7171223    0.1832702 -71.58  0.002547688    3.224    0.690
       160  -9.6513    113.9716     41.3019   4.5464815122e+01   5.1514024167e+01    0.2107813    0.1911736  54.47 0.0002710884    1.079    0.073
       161 -11.2401    162.4831    225.1460   7.6658033445e+01   9.1710609398e+00    0.3968143    0.2058691  22.23  0.002001398    1.696    0.410
       162 -10.9579     86.1272    227.5050   9.2622898224e+01   1.8461478773e+01    0.2462686   0.09450661  29.01  0.001187588    2.124    0.529
       163 -10.5733     45.4286     42.4830   7.3057809960e+01   6.6017311759e+01    0.5666035    0.1932463 -44.19  0.001946513    2.982    0.665
       164 -10.1102     60.6618     30.7227   5.9584937920e+01   6.5761139865e+01    0.4120513    0.1330561 -39.96  0.001368533    3.158    0.683
       165 -10.2638     50.1479     29.8845   6.4586464803e+01   6.7903520717e+01    0.5732912     0.206608 -34.86  0.001789359    3.889    0.743
       166 -10.3236    192.1950    225.8079   7.1278315435e+01   5.3721922891e+00    0.1932893     0.141702  12.67 0.0009016106    1.008    0.008
       167 -10.5821     36.9949     38.9826   7.6512410966e+01   6.8008360051e+01    0.4932053    0.1754693 -51.88  0.001849469    2.542    0.607
       168  -9.5601    171.4014    225.5318   7.5019929653e+01   7.9870069211e+00    0.1133042   0.08646867  16.96 0.0001002218    1.024    0.024
       169  -9.5023     48.0000     19.9895   6.0327039746e+01   7.0147424545e+01    0.2321052   0.07715643 -41.27 0.0008100881    2.996    0.666
       170  -9.8342     19.7483     19.4830   7.9746219492e+01   7.4392052724e+01    0.3050109    0.1239644 -46.00  0.001303138    2.197    0.545
       171 -10.1464     40.9208     14.0217   6.0887533879e+01   7.2473783539e+01    0.2034391    0.1826331   1.36 0.0003207288    1.037    0.036
