#   1 NUMBER                 Running object number                                     
#   2 MAG_AUTO               Kron-like elliptical aperture magnitude                    [mag]
#   3 X_IMAGE                Object position along x                                    [pixel]
#   4 Y_IMAGE                Object position along y                                    [pixel]
#   5 X_WORLD                Barycenter position along world x axis                     [deg]
#   6 Y_WORLD                Barycenter position along world y axis                     [deg]
#   7 A_WORLD                Profile RMS along major axis (world units)                 [deg]
#   8 B_WORLD                Profile RMS along minor axis (world units)                 [deg]
#   9 THETA_WORLD            Position angle (CCW/world-x)                               [deg]
#  10 FWHM_WORLD             FWHM assuming a gaussian core                              [deg]
#  11 ELONGATION             A_IMAGE/B_IMAGE                                           
#  12 ELLIPTICITY            1 - B_IMAGE/A_IMAGE                                       
         1 -13.4205    198.7194     30.0778   6.5849313544e+01   3.1765648515e+01     1.329437      1.31022  65.48  0.007060351    1.244    0.196
         2 -13.5639    215.3675     10.6615   5.9466271593e+01   3.0043901385e+01     1.027318    0.8342973  56.50  0.003347487    1.411    0.291
         3 -11.6978      3.2253      9.7224   1.1398702213e+02   7.1142414429e+01    0.4335656    0.1739879 -27.42  0.002457096    2.190    0.543
         4 -11.4060      5.6503    241.3858   1.5000214983e+02   2.3724661369e+01    0.3050602     0.210124  75.07  0.001082953    1.018    0.018
         5 -12.4635    247.9850    235.0926   1.0288232991e+02  -1.2668711975e+01    0.7283584    0.3306059 -42.28   0.00354409    2.661    0.624
         6 -12.8960    141.3409    248.7389   1.2576250396e+02   2.9665563393e+00     1.276169    0.4179178  35.82  0.004612157    3.296    0.697
         7 -15.2207      8.0559    138.1844   1.4130511381e+02   4.5647446752e+01     10.27713     2.957833 -80.43   0.03252763    5.112    0.804
         8 -10.5994    100.0067    244.9881   1.3341306484e+02   1.0559682374e+01    0.2098742     0.128195  68.00 0.0006288034    1.670    0.401
         9 -10.9233     51.9080    236.2949   1.4166898245e+02   1.9324248314e+01    0.4323244    0.2142003  76.21  0.001696599    2.148    0.534
        10 -11.1084    230.5196    231.9943   1.0555077294e+02  -9.5848398371e+00    0.2767204    0.2226355 -75.73  0.001412654    2.490    0.598
        11 -12.2136      9.4608    230.0919   1.4872980725e+02   2.5528740747e+01    0.5488414    0.1946759 -83.75  0.002754604    2.536    0.606
        12 -10.8276      4.5134    228.5205   1.4947109390e+02   2.6336025040e+01    0.2023563    0.1374428  68.34 0.0008639243    1.145    0.127
        13 -11.9413    102.8404    229.6805   1.3104948139e+02   1.3074540024e+01    0.7055674    0.1179683  43.96   0.00209135    4.574    0.781
        14 -11.6449     86.6708    225.8270   1.3388270543e+02   1.6454495165e+01    0.5209646    0.1659688  52.58   0.00190917    3.223    0.690
        15 -10.3205     65.5629    249.2012   1.4028930300e+02   1.4946449312e+01    0.2484141    0.1692586  75.60 0.0007280777    1.251    0.201
        16 -13.0015    240.8386    247.3621   1.0630852004e+02  -1.3238537189e+01    0.9992182     0.526794  31.46  0.005587039    1.637    0.389
        17 -10.6893    171.1288    222.7392   1.1576110433e+02   2.2224410332e+00     0.337642    0.1792423  39.25  0.001553451    1.674    0.403
        18  -8.3824     87.6503    218.2966   1.3278703394e+02   1.7875017751e+01    0.1424845    0.0868188  67.59 0.0007034274    1.682    0.406
        19 -10.1379     75.7025    216.6969   1.3507965912e+02   2.0046171398e+01    0.3561013    0.1553252  56.91  0.001545968    2.345    0.574
        20  -8.5695    152.4760    213.0042   1.1809014072e+02   7.5487815714e+00    0.1869219    0.1427279 -52.71 0.0004091057    1.459    0.315
        21 -12.5115      9.7984    206.9904   1.4716601728e+02   3.0217141496e+01    0.6285039    0.4420727  33.85  0.002832861    1.807    0.446
        22 -12.9539     29.4399    231.1456   1.4533080623e+02   2.3141777861e+01    0.3031453      0.25545 -85.29 0.0007440192    1.312    0.238
        23 -11.7618     57.3232    197.7973   1.3679555478e+02   2.6805999038e+01     0.303147    0.2338045 -75.30 0.0005234308    1.196    0.164
        24 -10.1844    192.3074    193.9620   1.0603934182e+02   3.5099097563e+00    0.8389226    0.4009826 -62.24  0.002268947    6.081    0.836
        25 -10.9128      8.2420    193.1698   1.4644952351e+02   3.3314498913e+01    0.2476776    0.1766462  70.06 0.0005033838    1.209    0.173
        26 -12.0167     63.9671    189.4142   1.3432737388e+02   2.7814538094e+01    0.2812423    0.2421517 -70.16 0.0004175298    1.196    0.164
        27 -13.1629     44.6252    213.6094   1.4104147825e+02   2.4962232295e+01     1.098871    0.9691266  74.27  0.006596815    1.214    0.177
        28 -13.2905     61.2976    174.5077   1.3297414603e+02   3.1659805088e+01    0.5456007    0.2825657 -46.66  0.002377476    2.319    0.569
        29 -10.8283     74.7551    176.5976   1.3006531106e+02   2.9265090469e+01    0.2448488    0.2176908 -79.48 0.0003042232    1.073    0.068
        30 -10.0222     94.4165    171.4436   1.2445913879e+02   2.7382729752e+01    0.3360272    0.2220987  53.78  0.001076513    1.523    0.343
        31 -11.8237     82.2307    167.5341   1.2682280936e+02   3.0288507766e+01    0.6641725    0.4681593 -53.82  0.003412467    1.416    0.294
        32 -13.9366     34.5241    224.6440   1.4391616589e+02   2.3869279891e+01    0.7488989    0.5449166  66.34  0.002364858    1.125    0.111
        33 -10.2524     95.8393    152.0722   1.2056071989e+02   3.1784828494e+01    0.3128303    0.3016331 -41.15 0.0008418124    1.142    0.124
        34  -9.2582     98.9357    147.8280   1.1890002027e+02   3.2268912758e+01    0.2167178    0.1976713 -28.82 0.0003546044    1.243    0.195
        35 -12.0550     84.2893    150.8613   1.2337096881e+02   3.3981798932e+01    0.3092058    0.2509682 -45.16  0.000619886    1.299    0.230
        36 -12.2087     67.8359    142.8325   1.2629464361e+02   3.8365322419e+01    0.6525463    0.4438315 -84.71  0.002143955    1.677    0.404
        37 -11.2199     64.6888    141.6685   1.2693795100e+02   3.9075341638e+01    0.3550669    0.2507001 -46.13 0.0009173002    1.435    0.303
        38  -9.8842    108.3748    137.1613   1.1409776177e+02   3.3103228155e+01    0.4516557    0.2755631 -26.12  0.001703805    2.617    0.618
        39 -10.5881     95.2889    134.2895   1.1704160823e+02   3.6145314000e+01    0.2626018    0.2400221 -36.28  0.000421523    1.151    0.131
        40 -10.9797     25.8766    128.4550   1.3535605235e+02   4.6484429039e+01    0.2714171    0.2130576  67.52 0.0008972873    1.421    0.296
        41  -8.8474     73.8505    127.5852   1.2165029460e+02   4.1161581665e+01    0.1933841    0.1280764  50.15 0.0008324424    1.694    0.410
        42  -9.0524    105.9212    123.6707   1.1164762197e+02   3.6727622004e+01    0.1970087    0.1834219  43.68 0.0003239153    1.106    0.096
        43  -9.8701     78.2565    122.0301   1.1918185417e+02   4.1816422465e+01     0.244005    0.2022976  54.59 0.0004712117    1.328    0.247
        44  -9.8142     65.3902    120.9922   1.2272474309e+02   4.3903552867e+01    0.2350544     0.194708  52.95 0.0005077654    1.348    0.258
        45  -9.7349    167.6439    112.7079   9.3031622436e+01   2.5699861987e+01     0.292073    0.2574083 -88.86 0.0006887944    1.240    0.194
        46  -9.6649     47.0983     99.6201   1.2368980055e+02   5.1017257385e+01    0.2345467    0.1939801  62.72   0.00140268    1.520    0.342
        47 -11.6683    242.7297     93.6816   7.4580048759e+01   1.1806253865e+01    0.4464011     0.170411 -41.46  0.001739225    2.337    0.572
        48  -8.8354     64.7061     80.5759   1.1304554547e+02   5.2908171402e+01    0.1667801    0.1265215  41.71 0.0005477492    1.517    0.341
        49  -9.1259    158.6741     77.3104   8.5468369917e+01   3.4693727992e+01    0.1564025    0.1191182 -81.14 0.0003148059    1.658    0.397
        50 -12.2632      4.6056    248.2451   1.5052802471e+02   2.2540091100e+01     1.026949    0.3144736  45.52  0.005667934    2.519    0.603
        51 -12.7462     14.3969    241.1346   1.4856398096e+02   2.2856181052e+01    0.5898378    0.3972199  65.87  0.004198545    1.141    0.123
        52 -12.3980      3.8074     50.3988   1.2718384481e+02   6.4501261545e+01    0.4299015    0.3647142  44.10  0.001740265    1.718    0.418
        53  -9.6445     81.2433    248.9899   1.3739398497e+02   1.2711371162e+01    0.1496566   0.09645005 -73.58  0.000890417    1.623    0.384
        54 -11.4212     47.2019    247.1766   1.4339155952e+02   1.7809641763e+01    0.4002861    0.3322619 -53.54  0.002823314    1.808    0.447
