#   1 NUMBER                 Running object number                                     
#   2 MAG_AUTO               Kron-like elliptical aperture magnitude                    [mag]
#   3 X_IMAGE                Object position along x                                    [pixel]
#   4 Y_IMAGE                Object position along y                                    [pixel]
#   5 X_WORLD                Barycenter position along world x axis                     [deg]
#   6 Y_WORLD                Barycenter position along world y axis                     [deg]
#   7 A_WORLD                Profile RMS along major axis (world units)                 [deg]
#   8 B_WORLD                Profile RMS along minor axis (world units)                 [deg]
#   9 THETA_WORLD            Position angle (CCW/world-x)                               [deg]
#  10 FWHM_WORLD             FWHM assuming a gaussian core                              [deg]
#  11 ELONGATION             A_IMAGE/B_IMAGE                                           
#  12 ELLIPTICITY            1 - B_IMAGE/A_IMAGE                                       
         1 -13.5478    221.2397     26.6421   3.4794055954e+02   2.9353158863e+01    0.8021125    0.6091045 -44.83  0.004144547    1.174    0.148
         2 -12.3353     59.7575      4.0301   2.1466770570e+00   6.8454388174e+01    0.5027979    0.2607765  36.69  0.002363086    2.141    0.533
         3  -9.2893     23.8423    245.8282   7.0059418307e+01   1.7735537090e+01    0.1592443    0.1348069  22.05  0.001099886    1.204    0.169
         4 -13.2260    245.5857    244.2269   2.4968947414e+01  -3.9429885703e+00    0.9225988    0.5643991 -21.19   0.00727533    1.169    0.144
         5 -13.4031    248.1420    220.3747   2.1173413438e+01  -1.2679148651e+00     1.286819    0.2590702 -37.38  0.005610474    3.782    0.736
         6 -10.1451     88.6985    193.8599   4.9212818847e+01   2.1997393594e+01    0.3736477    0.2277147 -84.19  0.001635856    2.383    0.580
         7  -9.6245     42.7543    194.7728   6.1995062434e+01   2.7245020896e+01    0.1198086    0.1020174 -23.48            0    1.379    0.275
         8  -9.9336     35.9933    192.2054   6.3688219554e+01   2.8563729903e+01    0.2165069    0.1752651  55.35 0.0003716114    1.136    0.120
         9  -9.8604     33.4933    189.5948   6.4190398200e+01   2.9458589167e+01    0.4656735    0.3049276 -63.15  0.001453245    1.591    0.371
        10  -9.4781     54.0994    190.2704   5.8350358677e+01   2.7115051267e+01    0.1730343    0.1453996  42.06 0.0001890221    1.093    0.085
        11 -10.7460    174.5282    180.5091   2.6913106303e+01   1.2795633609e+01    0.3012413    0.2177748 -28.03 0.0008556732    1.243    0.196
        12 -11.5242    172.9860    177.1784   2.6618420555e+01   1.3611508803e+01     0.570377    0.3180944 -34.74  0.002885743    1.670    0.401
        13 -11.0959     54.8518    181.1699   5.7142436896e+01   2.9296557422e+01    0.3853186    0.2420505 -30.18  0.001717099    2.083    0.520
        14 -10.2712     37.9494    181.4977   6.2188979742e+01   3.1062203493e+01     0.188415    0.1712637  56.01 -0.0003379494    1.009    0.009
        15 -12.1591     95.5911    178.0912   4.5062612623e+01   2.4721872607e+01    0.6751754    0.4167726  83.61  0.002235393    2.831    0.647
        16  -9.2255     82.6941    171.3246   4.7647675336e+01   2.8185612668e+01    0.2197816    0.1841969  26.61 0.0005376562    1.163    0.141
        17 -11.3423     89.1489    170.5315   4.5668092911e+01   2.7461894434e+01    0.4245387    0.3151357 -29.66  0.001013519    1.537    0.349
        18 -19.4730     14.3056    134.7624   6.5609593359e+01   4.5859280897e+01     19.85894     3.489221 -79.61   0.04418842    6.825    0.853
        19 -10.0765     88.3365    221.1038   5.2634709718e+01   1.6122477014e+01    0.3704409    0.2259994   8.74  0.001842548    1.819    0.450
        20  -9.1431     41.7190    179.1815   6.0841107085e+01   3.1264755131e+01    0.1862931    0.1606266  89.12 0.0009618191    1.159    0.137
        21  -8.7991     46.1443    176.7184   5.9253722388e+01   3.1421724136e+01    0.3923699    0.2132771  45.09  0.001736115    1.743    0.426
        22 -13.4498    118.6585    224.7155   4.5864276408e+01   1.1793741429e+01      6.98701     5.304726 -84.70   0.03993247    2.011    0.503
        23 -11.8136     58.5701    233.1525   6.1070994419e+01   1.6957455089e+01    0.2086785    0.1883772   6.12  0.000568081    1.184    0.155
        24 -15.2693     70.0425    143.7049   4.7000599165e+01   3.7109736737e+01     2.377929     1.705459  49.89   0.01110114    1.441    0.306
        25 -11.4146    179.5995    169.5130   2.3933400579e+01   1.4071233828e+01    0.5598759    0.3651257 -43.44  0.002560923    1.427    0.299
        26  -9.0223     47.8962    172.3828   5.8241859867e+01   3.2351843121e+01    0.1886139    0.1355349   2.76 0.0004097012    1.645    0.392
        27 -10.6704     85.5359    169.5072   4.6542411951e+01   2.8232506055e+01    0.2776113    0.2690319  26.58 0.0006690248    1.007    0.007
        28  -9.6587     41.7776    167.3233   5.9585068396e+01   3.4358959412e+01    0.2731334    0.1522531  45.55 0.0008759485    1.720    0.419
        29 -10.0744     60.3907    164.4517   5.3366133968e+01   3.2932079567e+01    0.2839499    0.1817273 -73.32  0.001259167    1.645    0.392
        30 -11.5688    235.3714    161.0078   1.3316464760e+01   8.1753297688e+00    0.2790125   0.08571227 -39.49  0.001263723    2.519    0.603
        31 -11.0465    133.7509    145.8214   2.9092026541e+01   2.6077641355e+01     1.099393    0.2579307 -54.13  0.002532016    6.494    0.846
        32 -10.0759     86.2007    240.7157   5.5170256421e+01   1.2502138542e+01    0.1820614   0.09604418 -58.38 0.0009491147    2.180    0.541
        33 -11.0072     88.2380    149.8002   4.2359369581e+01   3.2766900143e+01    0.2894613    0.2624222 -49.78 0.0003809598    1.108    0.097
        34 -12.4230     93.8498    144.3670   3.9624240128e+01   3.3234542658e+01    0.7418672    0.5790398 -44.21  0.002086205    1.298    0.230
        35  -7.9409     53.5428    240.0436   6.2794379619e+01   1.6081661375e+01    0.1420792    0.1210251 -64.49 0.0004693974    1.386    0.278
        36 -10.8728    106.1554    132.9090   3.3598374542e+01   3.3940429339e+01    0.4518341    0.3411174 -12.10  0.002060492    1.731    0.422
        37 -11.7847     94.4425    131.7659   3.6823945054e+01   3.6288707420e+01    0.3358498    0.2856725 -51.94  0.001030525    1.160    0.138
        38 -10.1546    135.6159    131.4241   2.5499023531e+01   2.8890731241e+01    0.4401526    0.2029401 -55.73  0.001623867    2.491    0.599
        39 -10.6927    114.0092    126.1059   2.9837851803e+01   3.4116419591e+01    0.3371325    0.2566974 -22.97 0.0008813045    1.580    0.367
        40 -10.4391    101.3936    121.0962   3.2278122534e+01   3.7663065658e+01    0.2741478    0.2413662  -0.60 0.0006641828    1.300    0.231
        41  -9.9314    162.1113    119.9817   1.7074580773e+01   2.6318099304e+01    0.2120549    0.1881172 -47.67 0.0003843544    1.049    0.046
        42 -10.5170    158.3956    114.5472   1.6545345908e+01   2.8074589676e+01    0.4587302    0.2708284 -67.90  0.001373941    2.746    0.636
        43  -9.5085    109.6340    116.0661   2.8646232503e+01   3.7291990446e+01    0.2144228    0.1870138 -48.37 0.0003535496    1.119    0.106
        44  -9.4484    135.0000    111.9431   2.1009837407e+01   3.3189671389e+01    0.2515119   0.08106034 -45.47 0.0008016136    2.937    0.659
        45 -10.5194     81.9476    110.0409   3.5801597164e+01   4.3958550953e+01     0.311635    0.2661301  38.52    0.0007742    1.185    0.156
        46 -10.7482     77.4845    107.4065   3.6693806698e+01   4.5416926562e+01    0.3044902    0.2557223  67.76 0.0005040508    1.312    0.238
        47 -10.1462    134.5518    105.3028   1.9431711099e+01   3.4669923815e+01    0.3005943    0.1375552 -48.79  0.001148673    2.123    0.529
        48 -11.4566    119.6230    103.8067   2.2752198255e+01   3.8059297391e+01    0.2896257    0.2063701 -57.67  0.001345702    1.444    0.307
        49 -10.5684     81.4371    102.4156   3.4010463706e+01   4.5948295454e+01    0.3300141    0.2563619  64.55 0.0001115823    1.474    0.322
        50 -10.1582     70.4413     99.0328   3.7094809778e+01   4.8765035946e+01    0.2946539     0.205194  52.65 0.0006718544    1.562    0.360
        51 -11.5177     47.2041    234.2739   6.3906777379e+01   1.7885903097e+01    0.1690444    0.1571971 -53.25 0.0005028429    1.279    0.218
        52 -10.4101     59.1603    216.5990   5.9528217284e+01   2.0411579004e+01    0.2844842    0.1688634 -61.45   0.00146332    1.841    0.457
        53  -9.0108    153.5727     86.8085   1.0556706566e+01   3.4289822116e+01    0.2008297    0.1214338 -51.97 0.0005849891    1.599    0.375
        54 -10.4146     82.4285    195.3289   5.1083670704e+01   2.2471553097e+01     0.337125    0.2230577  28.61 0.0002530522    1.391    0.281
        55  -8.6145     95.2953     73.6830   2.0815380231e+01   4.9655834439e+01    0.1526435    0.1181432 -84.99 0.0003725078    1.606    0.377
        56 -10.4212     71.2840    223.0744   5.7061325585e+01   1.7674922587e+01    0.1580974    0.1525161  74.70 0.0002750282    1.156    0.135
        57 -12.6013    177.6205     65.7470   1.2208726943e+00   3.2739637085e+01    0.4749127    0.3643478 -49.85 0.0008570227    1.122    0.109
        58 -13.8092    193.6277     53.3734   3.5625783775e+02   3.1277025036e+01    0.9304985     0.869337  37.39  0.003526466    1.440    0.306
        59 -12.6653    200.2266     47.3883   3.5418593513e+02   3.0780919537e+01    0.4798633    0.4356734 -50.37  0.001707861    1.209    0.173
        60  -9.7912     63.8278     54.0510   2.5012638231e+01   6.0243903363e+01    0.2169497    0.1940401  76.48  0.000467739    1.255    0.203
        61 -10.4339     59.3928    246.7913   6.1910583239e+01   1.4173576940e+01    0.1314507   0.09663994 -27.87 0.0006542212    1.709    0.415
        62 -10.6405     60.5960     21.4701   1.1371599233e+01   6.6318341875e+01    0.2471744    0.2089263  54.16 0.0008447044    1.091    0.083
