#   1 NUMBER                 Running object number                                     
#   2 MAG_AUTO               Kron-like elliptical aperture magnitude                    [mag]
#   3 X_IMAGE                Object position along x                                    [pixel]
#   4 Y_IMAGE                Object position along y                                    [pixel]
#   5 X_WORLD                Barycenter position along world x axis                     [deg]
#   6 Y_WORLD                Barycenter position along world y axis                     [deg]
#   7 A_WORLD                Profile RMS along major axis (world units)                 [deg]
#   8 B_WORLD                Profile RMS along minor axis (world units)                 [deg]
#   9 THETA_WORLD            Position angle (CCW/world-x)                               [deg]
#  10 FWHM_WORLD             FWHM assuming a gaussian core                              [deg]
#  11 ELONGATION             A_IMAGE/B_IMAGE                                           
#  12 ELLIPTICITY            1 - B_IMAGE/A_IMAGE                                       
         1 -15.0089     68.5977    144.2616   1.0468948121e+02   3.7215341995e+01     5.559062     2.910585  72.59  0.003963063    3.510    0.715
         2 -14.3058    198.1779     39.1299   4.5871550370e+01   3.0855913185e+01     1.517593     1.303201 -17.86  0.003695555    1.350    0.259
         3 -14.5317    208.5848     28.4749   4.1845062596e+01   2.9719135928e+01     1.534379     1.073598  -8.01  0.002104394    2.008    0.502
         4 -12.0797    224.3144     12.7817   3.6518354060e+01   2.7904085336e+01    0.4255032    0.2811145 -89.73  0.002454581    1.417    0.294
         5 -12.7911    235.5513      3.9571   3.3673575361e+01   2.6369416648e+01    0.6132013    0.4335934  55.78  0.003034772    1.689    0.408
         6 -12.5368    229.8895      3.5758   3.3998414351e+01   2.7646306581e+01    0.4249495     0.326981 -76.95  0.002163596    1.094    0.086
         7 -10.5452     61.0327      7.6984   6.4345552935e+01   6.5861769920e+01    0.1748437    0.1373264  25.04 0.0003983069    1.101    0.092
         8  -9.3699    164.3895    209.7486   9.3161978774e+01   6.6864524081e+00    0.1782336    0.1248316 -32.08 0.0005422066    1.615    0.381
         9 -12.3476    138.9408    248.0432   1.0380946119e+02   4.3300550310e+00    0.5366535    0.4833618  38.13  0.003818196    1.101    0.092
        10 -15.0158     50.1585    220.0540   1.1821305027e+02   2.2221219311e+01     5.058268     1.387607  39.28   0.02165231    3.010    0.668
        11 -15.2364     51.3125    196.7096   1.1584502636e+02   2.7044481260e+01     3.363367     2.764579  50.47   0.02197533    1.236    0.191
        12 -10.1691    128.6611    195.2657   9.8456790990e+01   1.5718285896e+01     0.283549    0.1714463 -67.51 0.0007662171    2.075    0.518
        13 -16.9392      6.4514    208.0477   1.2574740469e+02   2.9380533755e+01     12.33351     1.135155 -75.07   0.02786468    7.094    0.859
        14 -11.2294    111.8700    197.2545   1.0251890075e+02   1.8144765659e+01    0.4414137    0.3015475  -7.30  0.001909873    2.873    0.652
        15  -9.5922     70.9858    185.3945   1.1018117789e+02   2.7029591792e+01    0.2090317    0.1626685  84.93 0.0004151561    1.201    0.167
        16  -9.3042     92.6901    184.6050   1.0503135130e+02   2.4010259750e+01    0.1845647    0.1198706  49.45 0.0003092841    1.474    0.321
        17 -10.7905     99.0849    180.9606   1.0297644281e+02   2.3821980700e+01    0.3582235    0.2568741  23.35  0.001478951    1.730    0.422
        18 -10.9311    150.7877    179.4189   9.0684916938e+01   1.5007706994e+01    0.4326096     0.286303 -74.15  0.001851132    2.334    0.571
        19 -11.3375    144.8217    179.9341   9.2131609969e+01   1.6015646235e+01    0.3863122    0.3188768 -66.28  0.001517298    1.355    0.262
        20 -10.4161    188.3049    175.0112   8.1684963153e+01   8.7579460925e+00    0.5758879    0.2347616 -53.53  0.001845223    3.924    0.745
        21 -12.2718     70.3895    174.6257   1.0890070158e+02   2.9613691037e+01    0.4327806    0.2959664 -36.01  0.002164579    2.037    0.509
        22 -12.1029     74.3632    170.0078   1.0728194180e+02   3.0148018162e+01    0.3370713    0.2812124 -33.43  0.000867868    1.523    0.343
        23  -9.9632    204.1845    175.6781   7.8622870516e+01   5.6772084765e+00    0.2425684    0.1845228 -42.43 0.0007421811    1.374    0.272
        24 -10.0823    196.6541    175.0259   7.9985662435e+01   7.1871253936e+00    0.3477469    0.2786074 -85.36  0.001730395    2.004    0.501
        25 -13.2968     54.4744    146.6783   1.0889422091e+02   3.8454292433e+01     1.268655       1.0832 -43.41  0.007528904    1.318    0.241
        26  -9.3060    101.4631    249.5215   1.1109439629e+02   9.6974452197e+00    0.1188655   0.09651168  52.84 1.455474e-05    1.024    0.024
        27  -9.9921     47.8172    172.2579   1.1399458772e+02   3.3064884258e+01    0.2405496    0.1416484 -48.00 0.0006884582    2.000    0.500
        28  -9.5850     37.3849    167.9243   1.1597950713e+02   3.5261996521e+01    0.2486306    0.1429068  55.65  0.001171388    1.740    0.425
        29  -9.1610     42.1698    167.3940   1.1477683360e+02   3.4864356948e+01    0.1720221    0.1071951  50.18 0.0004910981    1.597    0.374
        30 -11.2978    139.1564    171.1957   9.1772312867e+01   1.8946501483e+01    0.3836478    0.3650151  82.55  0.001128338    1.089    0.082
        31 -10.3089     32.5039    164.9891   1.1682358429e+02   3.6467942155e+01    0.2006048    0.1808008 -25.09 0.0006903127    1.510    0.338
        32  -9.6672     48.7524    160.9877   1.1238311323e+02   3.5646202751e+01    0.2433921    0.1569321 -58.33 0.0008287776    1.469    0.319
        33 -10.6744    157.3304    159.5558   8.5175196004e+01   1.7918420214e+01    0.4508234    0.3164986 -80.34  0.001886605    2.277    0.561
        34 -12.2365     89.7356    154.1703   1.0080828676e+02   3.1637282222e+01    0.6344996    0.4663017 -24.55  0.003032109    1.902    0.474
        35 -13.1395     82.7763    161.1306   1.0380064898e+02   3.1037348806e+01     1.413403     0.606646  58.96 0.0003693731    3.870    0.742
        36 -10.6236    187.9543    152.4677   7.6900644805e+01   1.3168453246e+01    0.2703238    0.2183154 -83.71  0.001301902    1.766    0.434
        37 -11.4334    133.7344    144.6356   8.7546158816e+01   2.5948876594e+01      1.19383    0.3051117 -53.82  0.002879897    5.295    0.811
        38  -9.4657    112.7446    150.8017   9.4193123606e+01   2.8515193435e+01    0.2050687    0.1714905  85.38 0.0003880395    1.325    0.245
        39 -10.6728    174.4886    149.3052   7.9056333231e+01   1.6566161529e+01     0.301702    0.2423399  28.97 0.0008936785    1.301    0.231
        40 -10.8205    144.2930    146.8838   8.5458732557e+01   2.3315457562e+01    0.3504406    0.2435073  72.34  0.001462432    2.072    0.517
        41 -11.1106     40.3527    146.9196   1.1267761622e+02   4.0008164446e+01    0.2902941    0.2418864   3.30 0.0009363112    1.624    0.384
        42 -13.8609     71.2892    156.0670   1.0593103641e+02   3.3942394523e+01    0.6054311     0.519402 -46.02  0.002877359    1.287    0.223
        43 -10.9465    103.2557    139.3504   9.4306428763e+01   3.2954262226e+01    0.5608656    0.3549043 -24.10  0.002203915    2.530    0.605
        44 -12.4285     90.6735    139.4114   9.7739539476e+01   3.5081028190e+01    0.2917779     0.262178 -48.05 0.0003362875    1.125    0.111
        45 -12.8928     44.3565    130.5808   1.0916160314e+02   4.3599655819e+01    0.9176038    0.3782053 -78.99  0.003209236    3.388    0.705
        46 -11.3854     39.2526    124.4699   1.0964330314e+02   4.5645372150e+01    0.3257981    0.2118178 -88.92  0.001424114    1.668    0.400
        47 -14.4827     57.5359    240.7596   1.1848143442e+02   1.7256366137e+01    0.7938398    0.3352943  50.08  0.004254433    1.904    0.475
        48 -10.6410    105.9556    130.8147   9.1691259577e+01   3.4522306618e+01    0.3630795    0.3149824 -72.85  0.001277968    1.184    0.156
        49 -10.5646    112.2060    130.0430   8.9808851074e+01   3.3546949480e+01    0.3441579    0.2882559   3.26 0.0008652624    1.472    0.321
        50 -11.2173    135.6576    127.8343   8.3111562051e+01   2.9387953747e+01    0.5665676    0.1762545 -48.88  0.001674943    3.249    0.692
        51 -11.0868     99.3362    126.1393   9.2459222984e+01   3.6833463816e+01     0.315362    0.2559918 -23.76 0.0007545555    1.445    0.308
        52 -11.4049    119.1070    123.3312   8.6330547011e+01   3.3791105925e+01     0.569352    0.3793169  11.35  0.002224732    2.436    0.590
        53 -10.3927    160.5344    128.1457   7.7151569585e+01   2.3986583138e+01     0.378281    0.2661747 -43.26  0.001508692    1.384    0.277
        54 -13.0673     43.6297    109.3137   1.0558626456e+02   4.8904417909e+01     1.039526     0.341985 -55.08  0.004056556    2.390    0.582
        55  -9.9559    108.1968    119.0324   8.8265008041e+01   3.6908012910e+01    0.2279135    0.2144806  33.18 0.0003125307    1.122    0.109
        56  -9.6678    168.5324    113.3377   7.1546315440e+01   2.5300142932e+01    0.3125211    0.2403217 -87.57  0.001059362    1.784    0.439
        57 -11.3906    117.9534    109.8032   8.3165749161e+01   3.7134106546e+01    0.6506205    0.4677141  70.22  0.002823476    1.891    0.471
        58 -10.1478    205.5338    110.2696   6.3335550271e+01   1.7548475868e+01    0.3016425    0.2366042  41.22 0.0008853829    1.385    0.278
        59 -16.5135     36.4499    249.3716   1.2280908049e+02   1.8204410188e+01     10.65023     3.288271  27.83   0.02597125   13.738    0.927
        60  -8.7039    142.6830    109.3079   7.6537241177e+01   3.1978696760e+01    0.1591456    0.1265898 -84.05 0.0005847262    1.633    0.388
        61 -10.2703    134.8710    104.6755   7.7245634905e+01   3.4698886187e+01    0.5580983    0.2065311 -38.91  0.001762817    2.848    0.649
        62 -10.4731    241.5246    101.5273   5.5409134175e+01   1.1476302546e+01    0.1401437    0.1219392 -37.84 7.616331e-05    1.014    0.014
        63 -10.7880     33.1448     99.9390   1.0713369617e+02   5.2207760899e+01    0.2959744    0.2409368  44.02  0.001804686    1.454    0.312
        64  -8.9536     66.5937    100.2163   9.6162297530e+01   4.8271250507e+01    0.1374362    0.1050481  62.51 0.0006466228    1.649    0.394
        65 -11.1808     52.3893     92.7604   9.9056257227e+01   5.1874020097e+01     0.370728    0.2742811 -52.94  0.001643276    1.169    0.144
        66 -11.0197    131.6670    172.4835   9.3778850676e+01   2.0063316358e+01    0.4411542    0.2445965  25.88  0.001731384    2.430    0.589
        67  -9.6368     75.5354     85.0455   8.9121502028e+01   5.0425663110e+01     0.198048    0.1877091 -17.98  0.000307136    1.067    0.063
        68 -10.1502    157.7508     81.9679   6.5200841511e+01   3.3994776855e+01    0.2232843    0.2005955 -37.73 0.0005132268    1.095    0.086
        69  -9.2428    184.5913     77.1876   5.8436342303e+01   2.8361616572e+01    0.2091847    0.1442496 -22.52 0.0006500137    1.658    0.397
        70 -10.0945     58.8186     67.5833   8.9675375040e+01   5.6637424850e+01    0.2275414    0.2095844 -61.40 0.0004939252    1.273    0.215
        71 -11.1837     13.3046     59.8098   1.0543324345e+02   6.2881204097e+01    0.2446035    0.2113335 -68.39 0.0004897309    1.284    0.221
        72 -13.8289    188.2162     46.6653   4.9322857563e+01   3.2260447858e+01     1.249559    0.9205213  34.63 0.0009324974    1.668    0.400
        73 -16.9696      7.2863    245.2075   1.2745960441e+02   2.2064657440e+01      1.70184     1.583533  54.84   0.01478545    1.571    0.364
        74 -11.3962    113.6110    207.1677   1.0357104839e+02   1.5797159643e+01    0.4103524    0.2652967  84.58  0.001960203    2.167    0.539
        75  -9.0047     71.8158     53.6186   8.0092371521e+01   5.7397841702e+01    0.1853481    0.1279084  48.14 0.0009417663    1.747    0.428
        76 -12.6015    202.6745    199.5329   8.3616380801e+01   1.8455426490e+00     0.565693    0.3520895  23.96  0.002860656    1.652    0.395
        77 -10.7473    147.5965     43.8263   5.5527256000e+01   4.2738932829e+01    0.2622503    0.2414339  76.00 0.0003942492    1.100    0.091
        78 -11.4693     22.4229     34.0509   9.3176613849e+01   6.7278245333e+01    0.3113238    0.1697449  24.88  0.001201211    2.011    0.503
        79 -11.8432    145.7794     50.1858   5.7964180741e+01   4.2263910666e+01    0.5774981    0.3628989 -79.36  0.001918054    2.702    0.630
        80  -9.6717     23.8431    207.6887   1.2240554754e+02   2.7763623341e+01    0.2553192    0.1285876  85.48  0.001402825    1.820    0.451
        81  -8.6879    161.3123    199.7139   9.2090360803e+01   9.0671144082e+00    0.1334881     0.106851  68.68 0.0002709408    1.578    0.366
        82 -11.7244    109.5578    201.6334   1.0367134878e+02   1.7599404834e+01    0.5135836    0.3055128  28.39  0.002431383    1.970    0.492
        83  -9.7890    189.6839     14.9832   4.0454726142e+01   3.5806931031e+01    0.1823519    0.1631041 -57.21 0.0005434505    1.117    0.105
        84 -13.1844     15.7765    192.8332   1.2296368956e+02   3.1751598060e+01    0.6847194     0.224296 -61.20  0.002890339    2.866    0.651
        85 -12.0013    193.6380    195.8654   8.4709907723e+01   4.0252748811e+00     1.439073    0.6358302 -56.67  0.004385973    5.447    0.816
