#   1 NUMBER                 Running object number                                     
#   2 MAG_AUTO               Kron-like elliptical aperture magnitude                    [mag]
#   3 X_IMAGE                Object position along x                                    [pixel]
#   4 Y_IMAGE                Object position along y                                    [pixel]
#   5 X_WORLD                Barycenter position along world x axis                     [deg]
#   6 Y_WORLD                Barycenter position along world y axis                     [deg]
#   7 A_WORLD                Profile RMS along major axis (world units)                 [deg]
#   8 B_WORLD                Profile RMS along minor axis (world units)                 [deg]
#   9 THETA_WORLD            Position angle (CCW/world-x)                               [deg]
#  10 FWHM_WORLD             FWHM assuming a gaussian core                              [deg]
#  11 ELONGATION             A_IMAGE/B_IMAGE                                           
#  12 ELLIPTICITY            1 - B_IMAGE/A_IMAGE                                       
         1 -13.5320    193.9995     48.5197   3.3865942437e+01   3.0235999877e+01     1.008082    0.8970768  31.27   0.00365795    1.243    0.196
         2 -14.1172    222.4447     17.5008   2.2898838065e+01   2.7341702575e+01      1.55506     1.107554  24.78  0.007195985    1.913    0.477
         3 -11.0908     66.0302      1.9985   4.3071019868e+01   6.8823611296e+01    0.3137998    0.1856904  55.74  0.001486706    1.560    0.359
         4 -10.5818     46.8197      2.3759   5.2869191506e+01   7.3000380512e+01    0.2043401    0.1133528  37.91 0.0009535485    1.710    0.415
         5  -4.1538     68.4301    244.4759   9.8277533405e+01   1.7997603843e+01    0.1101532   0.08245535  32.12 7.701256e-05    1.094    0.086
         6 -12.6761    249.1313    228.2452   6.2284349899e+01  -1.0944167099e+00    0.9522461    0.1891698 -32.83  0.004175843    5.066    0.803
         7 -11.8206    242.3617    248.7526   6.6139263590e+01  -2.2385186581e+00    0.3064586    0.2038308  -3.90  0.002561729    1.222    0.182
         8 -12.3102    248.4348    246.5606   6.4930360722e+01  -2.6419985684e+00    0.5849542     0.248609 -24.74  0.003965027    2.237    0.553
         9 -19.5191     19.6323    144.8673   1.0436016684e+02   4.2457607659e+01     17.73878      5.95881 -86.52   0.06951268    3.136    0.681
        10 -10.5480     34.7024    190.9925   1.0282593971e+02   3.0996815860e+01    0.2302776     0.117415  44.72 0.0004721984    1.541    0.351
        11 -12.4737     54.4015    184.6171   9.7360324500e+01   3.0288215652e+01    0.5203459    0.3064094  51.57  0.002075383    1.514    0.339
        12 -10.7577     48.6285    177.5854   9.8327277175e+01   3.2386014740e+01    0.8153285     0.222235  56.51  0.002343242    5.880    0.830
        13 -10.6928    233.0473    238.8273   6.6248723259e+01  -4.0408384250e-01    0.2736675    0.1163368   6.85  0.001388239    3.089    0.676
        14  -9.6483     92.9001    184.4976   8.7401560593e+01   2.5539627398e+01    0.3693254    0.1141212  30.09  0.001373763    2.790    0.642
        15  -9.1704     93.6956    236.6879   9.2409732448e+01   1.6373830082e+01    0.1473396    0.1378985 -56.98 0.0007342654    1.446    0.308
        16 -11.2633    180.5292    177.5306   6.6134088500e+01   1.3536906305e+01    0.3744375    0.2581922 -35.27  0.001542283    1.591    0.371
        17 -10.5500    182.6638    173.6990   6.5037042499e+01   1.3770770260e+01    0.2075451    0.1580318   7.59  0.001240177    1.154    0.134
        18  -9.8982    155.3968    178.9554   7.1647305751e+01   1.7206192447e+01    0.2997792    0.1448737  47.86  0.001294825    2.558    0.609
        19  -9.5531    199.7949    173.3579   6.1698188935e+01   1.1218001084e+01    0.1936237    0.1554365 -29.86 0.0008951661    1.414    0.293
        20 -12.0249    231.1254    167.5053   5.5272662964e+01   7.4714814139e+00     0.327885    0.2746709  -5.51  0.002378777    1.214    0.176
        21  -9.5099    121.7796    166.4262   7.7504700515e+01   2.4767655072e+01    0.2042167    0.1197996  23.47 0.0009492718    1.720    0.419
        22 -10.7977    246.9317    164.1478   5.2257835809e+01   5.7439739244e+00    0.1635999     0.137095  -9.06 0.0006769135    1.277    0.217
        23 -10.6750    245.9972    159.9964   5.1642088588e+01   6.3395067983e+00    0.2063826     0.136821 -19.83 0.0005618791    1.259    0.206
        24  99.0000     42.4675    233.2769   1.0314293543e+02   2.2443869299e+01    0.2926613    0.1079089 -84.65  0.001468148    3.602    0.722
        25 -11.3471     88.5326    152.4006   8.4267917443e+01   3.2833037201e+01    0.2803656     0.268409 -75.44 0.0002697159    1.159    0.137
        26 -11.0850    133.8510    146.0652   7.0818274640e+01   2.6671942509e+01     1.077902    0.3087899 -54.34   0.00286929    6.080    0.836
        27 -10.7324    111.9115    150.2389   7.7356662833e+01   2.9612639738e+01    0.3733767    0.2642916  71.42  0.001296753    2.027    0.507
        28  -9.1626    106.7169    149.5705   7.8665960107e+01   3.0607682991e+01    0.1982174    0.1209626  43.10 0.0005673834    1.517    0.341
        29 -12.2444     94.4862    146.6403   8.1637542120e+01   3.3196618651e+01    0.6214365    0.4826956 -21.31  0.002653073    1.592    0.372
        30 -11.4158    116.6196    134.3077   7.3053035026e+01   3.2143859856e+01    0.6153771    0.4007565  77.71  0.002384685    2.972    0.663
        31 -11.9194    106.2576    133.0669   7.5756700459e+01   3.4244957989e+01    0.7615056    0.5029413 -69.47  0.003452821    1.984    0.496
        32  -9.0057    143.5209    136.4777   6.6463211125e+01   2.6748884173e+01    0.1457744    0.1309394  19.39 4.847499e-05    1.010    0.010
        33 -11.7933     94.6541    133.3991   7.9270571606e+01   3.6133765296e+01    0.2758648    0.2593367 -50.21 0.0002405018    1.153    0.132
        34 -10.9053    134.1578    128.0214   6.6999269276e+01   3.0168660358e+01    0.4999865    0.4271467  44.64   0.00269331    1.167    0.143
        35 -10.5610    114.2948    126.9522   7.2183388490e+01   3.4135954076e+01    0.2880877     0.245285  -2.18 0.0006629332    1.307    0.235
        36 -10.3490    101.6927    122.2771   7.4919322480e+01   3.7449377488e+01    0.2704466    0.2353899   5.15 0.0009124313    1.253    0.202
        37 -10.1677    166.1492    249.3841   7.9162340581e+01   5.9987789976e+00    0.2746028    0.1775087  47.47  0.001057741    2.205    0.546
        38  -9.4558    109.7896    116.8110   7.1269511645e+01   3.7184498007e+01    0.2146868    0.1972971  11.53 0.0003972034    1.110    0.099
        39  -8.7463    183.3323    116.3492   5.3169175585e+01   2.2579782975e+01    0.1487861    0.1023265   7.33 0.0007048221    1.772    0.436
        40 -11.0234     77.6985    113.2195   8.0855559252e+01   4.3612912798e+01    0.3639938    0.2174565  48.93  0.001267611    1.725    0.420
        41 -10.7186    134.6263    108.7844   6.2349847026e+01   3.3917154147e+01    0.7875786    0.1686848 -46.62   0.00197476    5.347    0.813
        42  -9.9695    205.4724    110.3680   4.7815228063e+01   1.9241490329e+01    0.2269355    0.2029417   6.13 0.0005950529    1.057    0.054
        43 -11.6126    119.8225    104.0703   6.5229741264e+01   3.7957549945e+01    0.3830618    0.2912946  15.24  0.001496437    1.551    0.355
        44 -10.8199     73.2869    232.2977   9.6452835839e+01   1.9397123932e+01     0.144614    0.1187797  41.77  0.000378087    1.125    0.111
        45 -10.7929    113.7076    104.4138   6.7114741652e+01   3.9130579531e+01     0.306417    0.1409915  44.48  0.001136839    2.095    0.523
        46 -11.2925     62.3985     99.6191   8.3669876497e+01   4.9260945712e+01    0.5404399    0.2330681  33.01  0.002081692    2.190    0.543
        47  -9.8915     72.9797    227.3226   9.6166365312e+01   2.0249503423e+01      0.15517    0.1297401  37.17 0.0003960639    1.117    0.105
        48  -9.4810     90.4726    227.0882   9.2297779793e+01   1.8263173563e+01    0.1754243    0.1199981  33.53 0.0003667497    1.089    0.082
        49  -9.4961    166.2303    219.9787   7.5505316727e+01   9.6238485505e+00    0.1294048   0.09471922 -31.75 0.0007194005    1.614    0.380
        50 -12.3499     55.7675     77.8083   8.1418539842e+01   5.5670144470e+01    0.7878866    0.4229088  19.93  0.003197752    2.175    0.540
        51 -12.5531     41.9231    212.8002   1.0226278041e+02   2.6088621053e+01    0.2823929     0.197274  61.35  0.001199621    1.321    0.243
        52 -10.6366     56.2885    210.7506   9.8804551925e+01   2.4988948860e+01    0.1896985    0.1328319  62.57 0.0006213466    1.404    0.288
        53 -13.1388    177.5687     61.3334   3.9889557686e+01   3.2357316308e+01     1.630415    0.9076446  30.02  0.005839635    2.637    0.621
        54  -9.9281     54.5811    206.2328   9.8904865882e+01   2.6011012999e+01    0.3197399    0.1236827  49.94  0.001520014    2.273    0.560
        55 -12.5422    199.1958     42.8309   3.1665431989e+01   2.9743204585e+01    0.4940762    0.4808599  43.22   0.00123355    1.122    0.108
        56  -8.9938     83.4624     61.5405   6.4664210953e+01   5.4706858026e+01    0.1522796    0.1472856  27.27 0.0001101781    1.006    0.006
        57  -9.6587     72.9428    203.7472   9.4316396626e+01   2.4406377146e+01    0.2566525    0.1445639  72.17  0.001316758    2.378    0.579
        58 -11.1221     46.7438     46.4869   7.6328062256e+01   6.4516079814e+01    0.5415553    0.2317941  41.60  0.002082091    2.501    0.600
        59 -11.1802     33.2538     43.4611   8.3131475699e+01   6.6918636403e+01    0.2625998    0.2450042 -39.64 0.0006651175    1.030    0.029
        60 -10.1228     93.4943    248.5069   9.3388625014e+01   1.4640833522e+01    0.3307693    0.1341654 -52.97  0.001839877    3.290    0.696
        61 -10.3541     71.8508     28.2630   5.5536312606e+01   6.3684428244e+01    0.2674156    0.2436894 -63.30 0.0008669947    1.291    0.225
        62 -11.6660     50.8064    247.5614   1.0206848196e+02   1.9327119383e+01    0.1418071    0.1053443  44.50 0.0004632576    1.097    0.088
        63 -10.3713    191.9891    192.9530   6.6497811266e+01   9.7127424604e+00    0.5627091    0.3451175 -61.23  0.002099031    6.468    0.845
        64  -9.3251     58.2058    195.2755   9.7230968793e+01   2.7721466593e+01    0.1000609   0.09040824 -23.42 0.0002190114    1.406    0.289
        65 -10.0165    189.5000     14.9693   2.4881350662e+01   3.5100214959e+01    0.2027199    0.1259236 -26.25 0.0006040362    1.583    0.368
        66 -11.0171     60.4199     20.9354   5.7089645320e+01   6.7353985893e+01    0.2729488    0.2707363  22.38 0.0007759808    1.147    0.128
        67 -10.5538     76.1753    244.5852   9.6677007790e+01   1.7147234151e+01    0.1393329    0.1124437  46.35   0.00106874    1.192    0.161
