#   1 NUMBER                 Running object number                                     
#   2 MAG_AUTO               Kron-like elliptical aperture magnitude                    [mag]
#   3 X_IMAGE                Object position along x                                    [pixel]
#   4 Y_IMAGE                Object position along y                                    [pixel]
#   5 X_WORLD                Barycenter position along world x axis                     [deg]
#   6 Y_WORLD                Barycenter position along world y axis                     [deg]
#   7 A_WORLD                Profile RMS along major axis (world units)                 [deg]
#   8 B_WORLD                Profile RMS along minor axis (world units)                 [deg]
#   9 THETA_WORLD            Position angle (CCW/world-x)                               [deg]
#  10 FWHM_WORLD             FWHM assuming a gaussian core                              [deg]
#  11 ELONGATION             A_IMAGE/B_IMAGE                                           
#  12 ELLIPTICITY            1 - B_IMAGE/A_IMAGE                                       
         1 -14.1292    244.8301    107.6868   2.8962074821e+02   5.1089149783e+00    0.1450865    0.1016483 -76.41   0.01543754    1.559    0.358
         2 -16.1398    155.7627      8.4311   2.9004185411e+02   6.7710541025e+00    0.4826784    0.1539827  25.80   0.03477321    3.335    0.700
         3 -14.7515    220.4416     33.7780   2.8945641403e+02   6.1034398415e+00    0.1263448   0.09492321  15.43   0.01407081    1.444    0.307
         4 -13.8630    246.1143     30.0914   2.8914215301e+02   5.9967821202e+00   0.06594674   0.05258333  64.26  0.007528954    1.398    0.285
         5 -12.4284    241.1904     15.5093   2.8911087779e+02   6.1935243713e+00   0.04203621   0.02230947  71.93  0.002370394    3.663    0.727
         6 -14.1790    195.1531     15.9981   2.8963805686e+02   6.4553312654e+00    0.1067632   0.04884151  41.85  0.009323388    2.252    0.556
         7  -9.3138    243.0756      8.3165   2.8904634709e+02   6.2654695800e+00   0.01144931  0.007872681 -50.80  0.001037868    1.419    0.295
         8 -10.9265      3.9040      2.5891   2.9174168509e+02   7.7148653832e+00   0.02956066   0.01475494  24.94  0.002686633    2.094    0.522
         9 -13.3607     51.2634    177.8286   2.9224298588e+02   5.4170925397e+00   0.05445414   0.05057522  47.75  0.003051303    1.101    0.091
        10  -9.7478    183.4045    195.2086   2.9084126679e+02   4.4536006122e+00   0.01101192   0.00940768  45.66 0.0003083451    1.201    0.168
        11 -12.2208    232.0106    170.5876   2.9014182648e+02   4.4567848028e+00   0.06376372    0.0385965  22.40  0.006365607    1.757    0.431
        12 -11.8021    246.2907    169.3014   2.8997183032e+02   4.3888995273e+00    0.0410005   0.03254384  33.43  0.004716934    1.271    0.214
        13 -10.3010    216.2461    168.8435   2.9031069469e+02   4.5682465245e+00   0.01810181   0.01140392  46.32 0.0009335769    1.685    0.407
        14  -9.7959    211.9369    166.4491   2.9034543942e+02   4.6208674022e+00   0.01758988  0.009658187  45.69  0.001154084    1.956    0.489
        15 -10.9710     67.3270    169.3278   2.9200943602e+02   5.4229461389e+00   0.02697115   0.01327274 -70.17  0.002346485    2.266    0.559
        16  -9.6966     24.5120    166.0087   2.9247789429e+02   5.7076938009e+00    0.0105345  0.006353484 -62.77  0.001043624    1.622    0.384
        17 -10.0037     12.8776    162.8032   2.9259157324e+02   5.8116290399e+00   0.01383655  0.008029201  -4.25  0.001172625    2.702    0.630
        18 -13.2092    241.4952    146.6252   2.8989110364e+02   4.6786143044e+00   0.09756902   0.06714036 -57.98   0.01052487    1.402    0.287
        19 -11.1164    239.7318    123.5473   2.8977343272e+02   4.9553625531e+00   0.01988507   0.01716106  19.53 0.0007495254    1.202    0.168
        20 -14.2000    224.8807    235.6635   2.9061032011e+02   3.7461727173e+00    0.1961469   0.06068972  20.67   0.01212385    4.694    0.787
        21 -10.4442     66.4036    144.2193   2.9187084822e+02   5.7186833177e+00   0.02123377   0.01478907 -79.00  0.001488494    1.606    0.377
        22 -12.7870    220.8419    119.4636   2.8996392457e+02   5.1120674421e+00    0.1045104   0.02204621  43.49  0.005504346    6.248    0.840
        23 -10.3795    192.2194    144.0200   2.9043611592e+02   4.9942150321e+00   0.01708465   0.01365896 -76.75 0.0009543823    1.311    0.237
        24 -11.6013    197.5683    143.2932   2.9037090605e+02   4.9716406016e+00   0.02998596   0.01449494  25.74  0.002681719    2.147    0.534
        25  -8.6557    128.7086    141.9021   2.9114680908e+02   5.3860289639e+00  0.008731563  0.007998803 -66.99 0.0004122902    1.078    0.072
        26  -9.5859    193.1537    132.0112   2.9035388600e+02   5.1275634115e+00   0.01013803  0.008475915 -30.40 0.0003797017    1.272    0.214
        27 -12.4162    188.7036    104.0724   2.9023788196e+02   5.4761101734e+00   0.07149974   0.04441332 -61.21  0.007320323    1.563    0.360
        28 -14.1593    168.0278    120.0508   2.9056867083e+02   5.4112337299e+00    0.1764728   0.05451518  31.53    0.0132073    3.008    0.668
        29 -10.8865    205.6496    122.1860   2.9015305019e+02   5.1686825557e+00   0.01427118   0.01331068  45.72  0.001241081    1.094    0.086
        30 -10.7322    134.5110     93.7796   2.9079396869e+02   5.9086986198e+00   0.02260647   0.01886492  26.60  0.001309643    1.223    0.182
        31 -12.7086    123.2396     98.7327   2.9095201007e+02   5.9166191697e+00   0.07506789   0.04159978  36.77  0.007295198    1.789    0.441
        32 -10.6413    200.7301    116.0425   2.9017238718e+02   5.2681572859e+00   0.01374291   0.01029046  51.47 0.0008247021    1.431    0.301
        33 -11.6056    120.5185    111.4857   2.9105903045e+02   5.7849527705e+00    0.0248167   0.01560423  87.42  0.002321373    2.190    0.543
        34  -9.9533    136.4904    126.4533   2.9096613945e+02   5.5196503536e+00   0.02260615   0.01188319 -80.57  0.001006242    2.664    0.625
        35 -11.4609    204.7001    110.2782   2.9009279706e+02   5.3117317012e+00   0.02469844   0.01509463  21.78  0.002019555    1.750    0.429
        36 -10.5357    201.9968    125.7297   2.9021576517e+02   5.1489111577e+00   0.01186543   0.01075538 -10.60   0.00050034    1.172    0.147
        37 -10.7612    171.2790     97.7552   2.9039864887e+02   5.6500094151e+00   0.02192259   0.01027243  46.42  0.001538228    2.393    0.582
        38 -10.2817    185.3257     85.7132   2.9016675819e+02   5.7077289593e+00    0.0215753   0.01455799 -73.57   0.00167261    1.592    0.372
        39 -10.3658     69.5182    145.4897   2.9184287953e+02   5.6860470975e+00   0.01737167   0.01488032  64.55  0.001290959    1.257    0.204
        40  -8.0552    208.0318     92.5372   2.8994895271e+02   5.4973047147e+00  0.008792746  0.006449439  28.41 0.0003275561    1.384    0.277
        41 -13.0197    141.8608    102.8908   2.9076451158e+02   5.7609161610e+00    0.1076068   0.07149795 -14.57   0.01060245    2.006    0.501
        42  -9.1460    157.4024     88.8438   2.9050359148e+02   5.8332893679e+00   0.01278247  0.009693922 -24.35  0.000839251    1.512    0.339
        43  -9.0154    160.4528     86.5044   2.9045486689e+02   5.8426556483e+00   0.01183347   0.01003074 -61.09 0.0007552323    1.153    0.133
        44  -9.8460    142.2784     85.0034   2.9065306941e+02   5.9651704314e+00   0.01335885   0.01075614 -77.43  0.001530152    1.304    0.233
        45 -10.3986    249.7320     80.4055   2.8940198349e+02   5.3953578742e+00     0.015532   0.01077742  52.10  0.001379292    1.581    0.368
        46  -8.7203    184.2435     77.5892   2.9013057265e+02   5.8078168669e+00   0.01526808   0.01101006   0.63  0.001476522    1.676    0.403
        47  -9.3221    180.5033     76.5149   2.9016676540e+02   5.8418960292e+00   0.01230151   0.01088515 -78.05 0.0008498387    1.156    0.135
        48 -11.4816    156.8291     76.2493   2.9043495799e+02   5.9820842788e+00   0.01586444   0.01075565 -52.81 0.0007530325    1.427    0.299
        49 -10.8184    174.6614     74.4100   2.9022075351e+02   5.9000517893e+00   0.02304083   0.01756992 -16.01   0.00145709    1.547    0.353
        50  -8.4057    222.8140     73.7883   2.8966867754e+02   5.6280056124e+00  0.008487523  0.007116018  60.56 0.0002524631    1.284    0.221
        51 -11.6401    248.0184     65.2067   2.8933059705e+02   5.5806896863e+00   0.03174983   0.02203121  53.49  0.003360961    1.600    0.375
        52 -10.1449    181.9742     68.0894   2.9009968274e+02   5.9306582730e+00   0.01012051  0.009214905 -61.30 0.0003495831    1.076    0.070
        53  -8.6179    211.3260     64.6625   2.8974490447e+02   5.8000027555e+00   0.01097697  0.007737925  59.74 0.0006199265    1.647    0.393
        54 -11.2272    204.2898     57.3467   2.8978129353e+02   5.9252638670e+00   0.05161363    0.0237859  65.49  0.002920843    6.181    0.838
        55 -10.3369    191.6066     60.1027   2.8994222557e+02   5.9670188717e+00   0.01305857   0.01053995   4.62  0.001226168    1.378    0.274
        56 -10.8545    196.8479     55.8915   2.8985735257e+02   5.9852306470e+00   0.01760541   0.01276082 -14.49   0.00133136    1.699    0.411
        57 -10.0039    206.1102     64.7865   2.8980503436e+02   5.8288326566e+00   0.03267763    0.0146579  63.83  0.001787646    6.526    0.847
        58  -8.5193     91.5605     65.8198   2.9111718698e+02   6.4798863172e+00  0.009285611  0.006309696 -82.78 0.0009351876    1.732    0.422
        59  -9.5883    229.9595     62.1402   2.8951772159e+02   5.7209549365e+00   0.01932142  0.009635366  56.86  0.001546644    2.894    0.655
        60  -8.4941    225.5460     63.2003   2.8957428983e+02   5.7343462797e+00  0.006911843  0.004397296  49.50 0.0004369631    1.720    0.419
        61 -12.2916    174.0255     57.2803   2.9012567754e+02   6.1015171543e+00   0.02596716   0.01312987 -41.89  0.002230043    2.193    0.544
        62  -9.0707    144.1597     59.0348   2.9047662557e+02   6.2542221213e+00   0.01019501   0.00829404  68.82 0.0007817186    1.373    0.272
        63  -9.2385     34.1575     57.3862   2.9172238195e+02   6.9081686095e+00   0.01215934  0.009283033 -78.01 0.0007870624    1.404    0.288
        64  -9.0186    229.1322     56.0728   2.8949085415e+02   5.7957702341e+00   0.01191622  0.007450579  55.46  0.001157652    1.891    0.471
        65  -8.2048    114.3365     56.6606   2.9080263879e+02   6.4541267913e+00  0.007073205  0.004885229  63.97 0.0007051092    1.757    0.431
        66  -9.7850    159.6724     49.4543   2.9024252336e+02   6.2750187388e+00   0.02909885   0.01049866  43.33  0.002197936    3.012    0.668
        67  -9.0641     62.1385    247.3671   2.9253106534e+02   4.5499959725e+00   0.01047827  0.008438053 -48.71 0.0004066493    1.223    0.183
        68  -9.9435    136.9951    242.3116   2.9164915218e+02   4.1770969630e+00  0.009461773  0.008706066  25.22 0.0008504583    1.110    0.099
        69  -8.3426     39.9655    225.9813   2.9265699827e+02   4.9249624185e+00  0.007632796  0.007558713 -52.53 0.0003494272    1.012    0.012
        70  -8.7451    248.4373     47.5481   2.8922019942e+02   5.7819637077e+00  0.006546172  0.006221754 -39.87 0.0001641638    1.053    0.050
        71 -12.9110      9.8939    214.3789   2.9293093151e+02   5.2320002327e+00   0.04915969   0.03864925 -45.44  0.004545457    1.271    0.213
        72 -11.9491      5.6971    210.2980   2.9295461704e+02   5.3033178538e+00   0.03704357   0.01953279 -32.18  0.002651758    2.589    0.614
        73 -14.0328     39.6914    187.7776   2.9243387542e+02   5.3685649583e+00   0.09647228   0.06242058  -7.79  0.002135414    2.123    0.529
