#   1 NUMBER                 Running object number                                     
#   2 MAG_AUTO               Kron-like elliptical aperture magnitude                    [mag]
#   3 X_IMAGE                Object position along x                                    [pixel]
#   4 Y_IMAGE                Object position along y                                    [pixel]
#   5 X_WORLD                Barycenter position along world x axis                     [deg]
#   6 Y_WORLD                Barycenter position along world y axis                     [deg]
#   7 A_WORLD                Profile RMS along major axis (world units)                 [deg]
#   8 B_WORLD                Profile RMS along minor axis (world units)                 [deg]
#   9 THETA_WORLD            Position angle (CCW/world-x)                               [deg]
#  10 FWHM_WORLD             FWHM assuming a gaussian core                              [deg]
#  11 ELONGATION             A_IMAGE/B_IMAGE                                           
#  12 ELLIPTICITY            1 - B_IMAGE/A_IMAGE                                       
         1 -14.7876     89.8417    111.3931   1.0634134837e+02   4.1495310695e+01     2.401457     1.501644 -30.33   0.01059091    2.546    0.607
         2 -14.8915     53.3162     98.5122   1.1373586404e+02   4.9502879833e+01     2.524936     1.514321  45.12   0.01368867    1.858    0.462
         3 -15.7629      7.0423     69.8096   1.2300128284e+02   6.0178820398e+01     1.976348    0.8802552 -79.25  0.007152651    1.941    0.485
         4 -15.5744      8.6103     44.5082   1.1748309410e+02   6.5730387153e+01     2.707312     1.258452 -54.24   0.01525779    1.566    0.361
         5 -13.9434     46.6343     27.8050   9.5740113761e+01   6.5722196277e+01     1.769853    0.5370611 -41.84  0.006884587    2.757    0.637
         6 -15.2557     42.0543      6.8059   8.7447036981e+01   6.9936608872e+01     2.311714     1.298712 -18.57    0.0120251    1.907    0.476
         7 -15.6860     14.1347     19.9553   1.0742169054e+02   7.0509433789e+01     1.333957    0.7563606 -25.05  0.006448599    1.958    0.489
         8 -15.1606     21.8253     13.4432   1.0074061087e+02   7.1112571892e+01     1.491432    0.9476649  57.22  0.007803859    3.284    0.695
         9 -14.9411    197.7065     70.9117   7.0775285675e+01   2.6100367499e+01       2.8853    0.9939572  41.92  0.008476695    3.828    0.739
        10 -14.2283     66.9639     49.6800   9.6479728428e+01   5.8625115178e+01     1.902063    0.9077191 -39.68  0.008425035    1.936    0.483
        11 -14.4756     87.5155     65.7436   9.5136097971e+01   5.1987546067e+01     1.576461     0.809038 -31.16  0.004437015    2.578    0.612
        12 -14.6905    101.5993     50.2128   8.5478457660e+01   5.2474332050e+01     1.207292    0.8980463 -39.44  0.002137584    1.228    0.186
        13 -15.3023    119.6042     54.6638   8.2092780649e+01   4.7866950115e+01     1.564943    0.9529235  34.28  0.001913893    1.967    0.491
        14 -15.1267    166.6494     30.3359   6.2908602740e+01   4.0052998008e+01     1.272559     1.172748  52.71  0.003290073    1.102    0.093
        15 -15.6673    147.1173     30.5238   6.6592390503e+01   4.5120836083e+01     3.744291     1.152562  62.51   0.01142329    3.533    0.717
        16 -14.2393    111.9049     40.3915   7.8760879720e+01   5.2058983610e+01     1.249146    0.7948331  -6.75  0.002883097    2.142    0.533
        17 -14.9482    122.2133     36.9861   7.4711552824e+01   5.0284456657e+01     1.369711     0.690616  35.73  0.004358042    2.466    0.595
        18 -13.3750     55.8253     27.4834   9.1846069986e+01   6.4544761401e+01    0.4989828    0.3719251  42.32  0.001467658    1.645    0.392
        19 -13.6698    231.3262      2.7440   4.6330735715e+01   2.6136528157e+01     1.561028    0.4511972  64.83  0.005647579    3.187    0.686
        20 -15.4382    212.2548     41.0767   5.9567622066e+01   2.6678868346e+01     2.359511     1.326806  62.14   0.01022546    1.849    0.459
        21 -14.9446    218.7642     15.1540   5.1022017300e+01   2.8055221676e+01     1.282866      1.02181 -28.02   0.00691735    1.191    0.160
        22 -13.6465    215.2291      9.7243   4.9752588950e+01   2.9522204946e+01    0.6717124      0.53912  83.87  0.001754349    1.281    0.219
        23 -15.9069    190.9950     25.0474   5.7371388095e+01   3.4225986946e+01     2.743481     2.189236  88.58   0.01384773    1.367    0.268
        24 -13.6677    241.8990     35.9833   5.4598035822e+01   1.9974467435e+01     0.956066    0.6383365 -81.14  0.003656765    1.848    0.459
        25 -15.7894     99.6125     12.6771   7.0019450467e+01   5.8809165818e+01     1.592353    0.8963902  50.54  0.003011864    1.795    0.443
        26 -12.2038    203.1511     11.4321   5.1508423828e+01   3.2496758701e+01    0.4887575    0.3062494 -54.53  0.002252704    1.670    0.401
        27 -11.2285    139.6734     11.0135   6.0312174281e+01   4.9391107858e+01    0.2998355     0.209626  52.23  0.001353614    1.385    0.278
        28 -12.1679    153.5621      8.3077   5.6878924442e+01   4.6044420189e+01    0.3133176    0.2725048 -86.97 0.0005206692    1.256    0.204
        29 -12.2084    125.6809      8.4490   6.1933159920e+01   5.3190145514e+01    0.4577304    0.3810946 -63.07  0.001995227    1.439    0.305
        30 -11.9413    120.3924      3.8186   6.0964127977e+01   5.4955555057e+01    0.3517419    0.2881178 -87.96  0.001384839    1.503    0.335
        31 -10.9391    117.6929      1.3039   6.0377087028e+01   5.5850660880e+01    0.2087931    0.1451599  66.12 0.0002332343    1.530    0.347
        32 -12.2912     61.1336     17.5665   8.5081903021e+01   6.5440412617e+01     0.415755    0.2480356 -48.89            0    1.949    0.487
        33 -11.7854     67.6030      3.8075   7.5374432848e+01   6.6309304127e+01    0.3069673     0.248758  -9.28   0.00147283    1.035    0.034
        34 -11.1652    192.9391      3.0946   4.9934335322e+01   3.6010579520e+01    0.2497786    0.2019974 -25.31 0.0007854642    1.225    0.183
        35 -12.4551     80.5992      1.9414   7.0051382688e+01   6.4053833187e+01    0.5913264    0.1926451  50.61  0.002324416    2.942    0.660
        36 -11.0275     62.4849      1.5157   7.5937444791e+01   6.7502057058e+01    0.2363339    0.1695362  17.17 0.0006583014    1.380    0.275
        37 -11.4650     59.4794      1.4908   7.7058091060e+01   6.8021979386e+01    0.2418181    0.1721442  18.41 0.0008271073    1.406    0.289
        38 -12.6913    201.4088    192.6094   9.8150388841e+01   6.5593726676e+00    0.4421117     0.345549 -38.20  0.002183153    1.523    0.343
        39 -14.7469     95.8598    237.2311   1.2154978643e+02   1.6771411195e+01     1.411657    0.6765364  61.84  0.005144712    1.973    0.493
        40 -11.4744     40.4359    245.7708   1.3056322165e+02   2.2200325258e+01    0.1841014    0.1174977 -83.02  0.001546211    1.580    0.367
        41 -13.3055      9.1892    210.9492   1.3378403135e+02   3.0876665119e+01    0.6274638     0.402359  43.33  0.005068277    1.620    0.383
        42 -13.7883     27.7945    245.7265   1.3238884527e+02   2.3535003535e+01    0.6792434    0.4256327  70.28  0.005010643    1.112    0.101
        43 -14.2955     23.8710    224.2302   1.3205764270e+02   2.7261226418e+01     1.000653     0.496869 -86.75  0.007266695    1.760    0.432
        44 -13.7494     30.0158    169.3407   1.2783387197e+02   3.6529189257e+01     0.540843     0.394261 -46.96 0.0007616608    2.092    0.522
        45 -15.3925      9.4464    180.6362   1.3237789108e+02   3.6279187795e+01     1.859301    0.9041814 -82.82   0.01234102    1.651    0.394
        46 -11.8107      2.5597    249.7532   1.3604249746e+02   2.5383340170e+01    0.2408735    0.1079004  61.45   0.00191535    1.412    0.292
        47 -14.1531      8.9858    245.5433   1.3503702756e+02   2.5406497741e+01    0.6609311    0.2886898  58.60  0.003196458    1.476    0.322
        48 -10.9854    107.5695    192.7990   1.1519202538e+02   2.2176541414e+01    0.1981511    0.1092424 -56.20  0.001120858    2.039    0.509
        49 -10.1682     81.5222    193.4713   1.2011838852e+02   2.5791946879e+01    0.1148365   0.09115946  68.86 0.0001443768    1.013    0.012
        50 -13.2136     98.3985    187.2997   1.1628131412e+02   2.4519304153e+01    0.4652073    0.3939331 -67.08  0.003275035    1.332    0.249
        51 -11.2321    180.0000    188.9989   1.0129523586e+02   1.0767746694e+01    0.1802327   0.07134555 -41.45  0.000752589    2.926    0.658
        52 -12.9624     85.0880    180.0029   1.1801998594e+02   2.7785547440e+01    0.4381352    0.2676775  76.91  0.002525219    1.719    0.418
        53 -12.0517     84.4895    173.4246   1.1738140090e+02   2.9130744801e+01    0.3914176     0.238241 -59.17  0.002294304    1.734    0.423
        54 -12.4191    111.2008    182.2023   1.1318909763e+02   2.3497675414e+01    0.4392634    0.3117206   3.46  0.002151336    3.205    0.688
        55 -12.2441     48.7595    180.9655   1.2513447320e+02   3.2237144161e+01    0.4502781    0.2462813 -68.23  0.002818028    1.760    0.432
        56 -12.2779    198.6446    182.3957   9.6886152400e+01   8.3967155422e+00    0.2887047    0.2189662  32.96  0.001594347    1.145    0.127
        57 -13.2802    195.2156    177.3035   9.6589336523e+01   9.7199379129e+00    0.4839154    0.3772907 -74.32   0.00273524    2.070    0.517
        58 -11.4260    123.4731    182.9720   1.1091668159e+02   2.1402847461e+01    0.2930033    0.1762895  84.92  0.001409534    2.606    0.616
        59 -12.7365    131.3415    173.4154   1.0799327881e+02   2.1787763007e+01    0.4694013    0.4025893  81.86  0.002990394    1.181    0.153
        60 -13.5567    123.9814    166.2876   1.0837298392e+02   2.4345851406e+01    0.6995493    0.4563006 -70.60  0.003465137    1.780    0.438
        61 -12.1443    116.6687    162.7178   1.0932417068e+02   2.6253787699e+01    0.3773817    0.3027782   7.61  0.002137344    1.922    0.480
        62 -12.7726    122.3731    154.9510   1.0687105535e+02   2.6790272897e+01    0.6293988    0.3898664 -48.30  0.003265901    1.748    0.428
        63 -10.9748    177.1628    167.1904   9.8056045490e+01   1.4570094812e+01     0.173495    0.1554515  76.26 0.0006219075    1.315    0.240
        64 -10.7757    102.2980    160.8589   1.1205472642e+02   2.8946469678e+01    0.2385495    0.1471698  34.35  0.001246651    1.888    0.470
        65 -12.1889     26.0548    157.2721   1.2771018067e+02   3.9356671607e+01    0.4377563    0.2814794  63.30  0.002992538    1.326    0.246
        66 -11.4813    154.8657    157.6158   1.0062372391e+02   2.0382371479e+01    0.3425466    0.2343179  63.40  0.001759549    1.673    0.402
        67 -13.3454     74.0167    153.4475   1.1710930424e+02   3.4617467477e+01    0.6650048    0.5909362  77.30  0.003196407    1.128    0.114
        68 -13.1888    208.5340    154.4841   8.9829908962e+01   1.0500283064e+01    0.6928403    0.4848754  42.63  0.003808601    1.349    0.259
        69 -11.3564    109.4943    153.4739   1.0938669720e+02   2.9263936663e+01    0.2936529     0.200776 -88.20  0.001550874    1.719    0.418
        70 -12.2201     85.7356    153.1769   1.1451214488e+02   3.3022739436e+01    0.4615362    0.2998346 -52.46  0.002591702    1.696    0.410
        71 -11.6324     55.9260    155.4029   1.2125865712e+02   3.6523236032e+01    0.3003662    0.2262585 -47.19  0.001865172    1.790    0.441
        72 -11.1685     41.4528    154.2078   1.2422669344e+02   3.8423761527e+01    0.2971893    0.1135866  63.38  0.001294952    3.117    0.679
        73 -12.5612     77.6791    157.1431   1.1679246027e+02   3.3346922363e+01     0.411373    0.2597293  39.55  0.001399059    1.687    0.407
        74 -12.1909    103.3203    150.1756   1.1020328681e+02   3.0941273901e+01    0.3700573    0.3092009 -31.26  0.001739058    1.628    0.386
        75 -12.8712    244.2125    146.3425   8.2134007176e+01   4.8342942391e+00    0.5678316    0.2222322 -29.24   0.00243162    2.437    0.590
        76 -11.7752      6.4947    147.7290   1.3106606652e+02   4.3037376515e+01     0.384797    0.1876878  60.75  0.002387714    1.783    0.439
        77 -12.5417     63.2349    146.4849   1.1860580266e+02   3.7508986317e+01    0.2490291    0.1978671  89.17  0.001064038    1.049    0.046
        78 -11.3876    112.8562    157.2755   1.0927295501e+02   2.7949612238e+01    0.2985516    0.1845531  56.77  0.001302687    1.586    0.370
        79 -10.5491     38.1884    145.8400   1.2411375644e+02   4.0539305821e+01    0.1509568    0.1223924 -67.63 0.0005154425    1.333    0.250
        80 -11.0021     44.8623    145.1335   1.2256015985e+02   3.9974979114e+01    0.1683667    0.1290002 -52.10 0.0006368306    1.617    0.382
        81 -10.9006    162.5333    141.5381   9.5901891751e+01   2.1773585373e+01    0.2963633    0.1378042 -43.10  0.001230408    2.243    0.554
        82 -11.2562    149.2981    140.9571   9.8534914401e+01   2.4508471934e+01    0.3976359    0.2704047  69.25  0.001894394    1.874    0.466
        83 -12.3349     42.8490    139.4319   1.2238864383e+02   4.1426596437e+01    0.4022016    0.2883546  87.38  0.001708974    1.152    0.132
        84 -13.3152     46.1137    134.3531   1.2103939757e+02   4.2182324837e+01    0.7156309    0.5403358  57.83  0.004720129    1.309    0.236
        85 -12.2065     62.5997    134.8837   1.1721062297e+02   4.0111871109e+01    0.4729348    0.3150749 -86.26  0.002732705    1.400    0.285
        86 -12.7995    246.4719    133.2466   7.8903512050e+01   6.0952430456e+00    0.5450197    0.4054845 -30.48   0.00287693    1.334    0.250
        87 -14.6910    229.6495    129.3661   8.0703586203e+01   9.9257421009e+00     1.306765     1.046814  59.95  0.007274887    1.535    0.349
        88 -12.8266    135.9195    103.3139   9.2881242863e+01   3.4706514824e+01    0.8185967    0.3977676  50.35  0.002519279    2.159    0.537
        89 -13.1826    137.4480     96.0337   9.0582340040e+01   3.5866928121e+01    0.5463451    0.3950779 -45.05  0.001380887    1.332    0.249
        90 -14.7515    106.8157    123.6877   1.0462036689e+02   3.5956543322e+01     1.745465     1.356543  15.61  0.009075125    1.857    0.462
        91 -11.7718    234.8777    248.2345   1.0112861001e+02  -4.4398723269e+00    0.2269302    0.1227977  51.21  0.001412063    2.319    0.569
        92 -10.6039     11.2900    134.4155   1.2907847702e+02   4.5460610639e+01    0.1346356   0.08885562  57.11 0.0004682316    1.444    0.307
        93 -11.5761    138.1179    132.6462   9.9230837877e+01   2.8306740782e+01    0.2575578    0.2070573 -36.92 0.0007704421    1.361    0.266
        94 -12.8696    132.5197    128.9319   9.9697414346e+01   3.0137565935e+01    0.8023954    0.4234845 -39.54  0.003420836    2.159    0.537
        95 -11.9351    109.9565     96.0458   9.7476775189e+01   4.1410498925e+01    0.2852855    0.2543034  88.36 0.0003835621    1.183    0.155
        96 -11.7424     59.6528    125.9556   1.1663661059e+02   4.2467545231e+01    0.4253572    0.2736808 -35.99  0.002181943    2.399    0.583
        97 -13.7478    170.6200    242.5112   1.1018262445e+02   5.4094614779e+00    0.8467325     0.471101  36.29  0.005576122    1.484    0.326
        98 -11.2290     41.1540    250.1059   1.3066045686e+02   2.1490438494e+01    0.1875211     0.126655  71.00  0.001649423    1.115    0.103
        99 -12.4162    147.2221    238.9405   1.1349617779e+02   9.2966783425e+00    0.2777287    0.2012304 -81.20  0.001212514    1.958    0.489
       100 -12.4304    144.6405    231.9703   1.1316336788e+02   1.0576563414e+01    0.2874687    0.1876062 -54.44  0.002000719    1.975    0.494
       101 -13.2444     55.0138    247.1951   1.2849325480e+02   2.0373420746e+01    0.7135199    0.3619449  33.88  0.004615531    2.557    0.609
       102 -15.4191     18.0061    110.7598   1.2522503303e+02   5.0131775376e+01     1.643613      1.33301  62.41   0.01190119    1.308    0.235
       103 -14.1898      2.4643     97.2409   1.2791155784e+02   5.4260948743e+01     1.260824    0.3365585 -78.68  0.003843129    3.067    0.674
       104 -15.4797     25.3632     94.6191   1.2112564104e+02   5.3204617292e+01     1.860757     1.202962 -18.46   0.01034926    2.611    0.617
       105 -11.9888    249.2233    236.2816   9.7374342299e+01  -5.4291881856e+00    0.2326098    0.2118402 -87.29  0.001800828    2.383    0.580
       106 -12.6955     16.6255    196.0990   1.3190326697e+02   3.2774516560e+01    0.6063905      0.21713 -66.01  0.003218874    2.808    0.644
       107 -12.3457    180.9801    121.1313   8.7564550501e+01   2.1555062142e+01    0.4361203    0.2811896  53.34  0.001240631    1.611    0.379
       108 -15.1576    106.1279    108.9173   1.0160621347e+02   3.9298872081e+01     2.095492     1.245675 -35.11  0.009140397    2.174    0.540
       109 -11.4758     51.7225    116.7743   1.1726044658e+02   4.5492427783e+01    0.4639622    0.2108238 -82.00  0.001961932    2.672    0.626
       110 -11.8012    193.3419    117.3312   8.4240557927e+01   1.9494694048e+01    0.3639935    0.1951368  55.06  0.001518461    2.029    0.507
       111 -14.0226    121.3289    102.2329   9.6155157042e+01   3.7895279767e+01    0.9305434    0.7933528  32.84  0.003898139    1.317    0.241
       112 -12.4503     45.2704    110.1406   1.1794152091e+02   4.7728089952e+01    0.4919153    0.3539955 -67.38  0.003037862    1.171    0.146
       113 -12.4001    176.8602    111.1184   8.5907042575e+01   2.4243311290e+01    0.5060698    0.3921426 -11.63  0.002038255    1.485    0.327
       114 -11.4512    222.7020    109.7707   7.7141736201e+01   1.4236131142e+01    0.2789173    0.2058076  61.62  0.001015013    1.618    0.382
       115 -10.2569    154.2002    105.6079   8.9283776168e+01   3.0319833193e+01    0.2160003    0.1387015  38.13 0.0007558347    1.699    0.411
       116 -13.4998    248.9247     96.2735   6.9725259778e+01   1.0539105527e+01     1.036858    0.3436553 -29.05  0.003784568    2.639    0.621
       117 -11.4383    162.0360     97.2381   8.5330976547e+01   3.0160629868e+01    0.3520059    0.2609605  49.53  0.001681319    1.380    0.275
       118 -10.7685    188.6926     96.9675   7.9845522459e+01   2.4008360131e+01    0.2233868     0.196007 -32.54 0.0009315194    1.106    0.096
       119 -12.3172    127.8018     95.9486   9.2902861059e+01   3.7913807254e+01    0.4588028    0.2911609  70.91  0.001878572    2.320    0.569
       120 -10.7546     76.0216     95.6561   1.0667102236e+02   4.7174722207e+01    0.1763767    0.1674972  89.21 0.0003902564    1.123    0.110
       121 -13.7404    188.3754     84.4672   7.6410153054e+01   2.6199951942e+01       1.3619    0.5653903  47.02  0.003417674    2.479    0.597
       122 -13.9062    214.3744     77.9047   7.0039380427e+01   2.0953566349e+01     1.153111    0.9790253  72.46  0.006024302    1.362    0.266
       123 -13.2646    236.9198    230.2943   9.8327309995e+01  -3.1681162314e+00    0.3488405    0.2630688  61.89  0.002365015    2.321    0.569
       124 -13.7027    164.2943     71.2803   7.7206044612e+01   3.4355366241e+01     1.319685    0.5906845  42.69  0.003382162    2.521    0.603
       125 -14.9185    160.9027     80.7755   8.0841641893e+01   3.3481873430e+01     2.205896     1.016999  34.55  0.007039984    3.321    0.699
       126 -14.4760    169.9758     77.0326   7.7810373407e+01   3.1958257810e+01     1.071373     0.778723  33.78  0.003713093    1.531    0.347
       127 -13.3021    135.1274     79.5400   8.6383223365e+01   3.9677298574e+01    0.8965906    0.4862239  50.33  0.002897039    1.943    0.485
       128 -12.8698    131.3774     85.6682   8.9133200092e+01   3.9272763393e+01    0.6424006    0.4838963  66.39   0.00222564    1.560    0.359
       129 -11.4685    125.6991     86.7086   9.0855424882e+01   4.0264591131e+01    0.3558178     0.282818  88.89  0.001730065    1.587    0.370
       130 -11.7724     89.6515     87.4575   1.0079029318e+02   4.6898662002e+01    0.4294313    0.2609995  51.96  0.002027198    1.885    0.470
       131 -13.8463    238.5224     81.5911   6.7417977671e+01   1.4809134446e+01     1.062411    0.6645062  74.69  0.004746449    2.264    0.558
       132 -10.9861     98.4320     84.0314   9.7379262351e+01   4.6139041288e+01    0.2528315    0.1990084  69.23 0.0006127249    1.507    0.337
       133 -12.4323    100.3565     64.5017   9.0879866102e+01   4.9917996889e+01    0.7348673    0.4921654  54.05  0.003184967    1.738    0.425
       134 -11.3503    160.0318    230.6795   1.1050472157e+02   8.4175486648e+00    0.1644338    0.1169796  43.20  0.001171219    1.086    0.079
       135 -14.6652     39.2133     67.7816   1.1163196730e+02   5.8101468325e+01     2.652851    0.6646764  28.62   0.00943109    5.124    0.805
       136 -12.8580     77.1476     73.3460   1.0065150748e+02   5.2032608646e+01    0.5609922    0.3666091 -43.58  0.002051783    1.414    0.293
       137 -11.2121     39.0553    210.6245   1.2892931301e+02   2.7939405251e+01    0.3070693    0.1106422  45.00  0.001557574    2.162    0.538
       138 -13.6212     56.3747     79.0275   1.0867906646e+02   5.3624843769e+01    0.6607485    0.3876222 -44.81  0.001920707    1.659    0.397
       139 -13.9466     60.6810     75.6495   1.0647389064e+02   5.3849828050e+01     0.719956     0.513381 -57.87  0.001179009    1.181    0.153
       140 -12.0289    113.8880     80.3603   9.2074068351e+01   4.3997139484e+01    0.4418656    0.3629982 -43.40  0.001489866    1.137    0.121
       141 -11.8702     90.7962     80.2005   9.8491338666e+01   4.8310272968e+01    0.4056584    0.3494624  -5.61   0.00223931    1.440    0.306
       142 -12.3014     41.7635     77.7016   1.1304499663e+02   5.5578102985e+01    0.4453538    0.2450232 -56.05  0.001213269    1.471    0.320
       143 -11.1844     23.1669     75.1690   1.1858692871e+02   5.7848572408e+01     0.188162    0.1337925 -55.55 0.0006163721    1.233    0.189
       144 -12.8281    241.8729     71.7719   6.4348287843e+01   1.5399998886e+01    0.6110818    0.4015374 -65.01   0.00277592    2.123    0.529
       145 -13.9766    131.8926     66.7815   8.3127167984e+01   4.2867796823e+01     1.375355    0.9698474  48.73  0.006451009    1.494    0.330
       146 -12.7779     45.7407    208.8413   1.2770147884e+02   2.7506707010e+01    0.8052108    0.2352021  63.67  0.003263226    4.485    0.777
       147 -13.0708     57.4320    202.3332   1.2523644079e+02   2.7284216530e+01    0.8067528    0.2915972 -72.76  0.004263617    2.758    0.637
       148 -13.0506    139.3124     21.6021   6.4670394270e+01   4.8268796596e+01    0.6220229    0.3539515  61.07 0.0007995698    1.797    0.443
       149 -13.8110     68.0194    222.7004   1.2494027417e+02   2.2567529889e+01    0.5860501     0.504725  33.72  0.004752668    1.679    0.404
       150 -14.4584     62.8613    214.7315   1.2522208958e+02   2.4502607458e+01     0.852704    0.5421161  52.97  0.006202933    1.255    0.203
       151 -13.2363     22.4936    181.1132   1.3004390883e+02   3.4983366447e+01    0.4497976    0.3021823 -88.89  0.002226343    1.203    0.169
       152 -14.3858     97.8085    217.4451   1.1951987594e+02   1.9497374537e+01     0.732053    0.4922123  46.80  0.005132629    1.276    0.216
       153 -13.9657    157.1570     44.5227   6.9727507457e+01   4.0537266358e+01     1.459501    0.6888217  43.02  0.005359554    2.345    0.574
       154 -11.4919    157.9530     63.6816   7.6103099878e+01   3.7233838295e+01    0.4546575    0.2586185 -51.51  0.001773331    2.049    0.512
       155 -13.6688     79.6481     60.2970   9.5844227416e+01   5.4450353557e+01    0.8696895    0.5442936 -32.84  0.004166898    1.693    0.409
       156 -11.7718     85.8184     50.3445   9.0378482396e+01   5.5424780214e+01    0.4839299    0.2538176 -35.50  0.001494018    1.835    0.455
       157 -14.2370    178.1089     57.3599   7.0056891168e+01   3.3179362743e+01    0.9907184    0.7052047 -46.76  0.002571768    1.443    0.307
       158 -12.8126     39.5410     60.3633   1.0964488515e+02   5.9737250606e+01    0.3324276    0.3240745 -84.48  0.002069064    1.225    0.184
       159 -13.3520     71.9477     75.0296   1.0274501722e+02   5.2438087358e+01    0.7948593    0.5354165 -46.34  0.003210513    1.337    0.252
       160 -12.6741     24.4625     59.8707   1.1498286438e+02   6.1219350400e+01    0.3492641    0.2001849 -58.13  0.001186929    1.325    0.245
       161 -13.1767    248.2947     51.8650   5.8216808130e+01   1.6535264774e+01    0.7300491    0.4568874 -22.31  0.003547155    1.467    0.318
       162 -12.1873    230.4577     55.2216   6.1305809654e+01   2.0293435812e+01      0.56699    0.3404901  66.65  0.002273284    1.883    0.469
       163 -10.8412     36.5390     53.4718   1.0885785359e+02   6.1563744957e+01    0.1287611    0.1019498 -54.67  3.75596e-05    1.002    0.002
       164 -11.1596    180.8634    216.2398   1.0521935234e+02   6.9694251740e+00    0.2051307    0.1413554   2.42   0.00124315    2.084    0.520
       165 -10.9976     23.2637     50.0236   1.1301063113e+02   6.3504910447e+01    0.1827464    0.1630695 -51.02 0.0004851904    1.168    0.144
       166 -12.3956     85.4720    215.9096   1.2148646365e+02   2.1423504250e+01    0.2960863    0.1614703  52.41  0.001482344    1.437    0.304
       167 -12.1357    238.4985    213.0025   9.5454803747e+01  -1.7662384665e+00    0.2303519     0.102463 -21.09  0.001219316    2.690    0.628
       168 -12.8170    185.3712    212.1604   1.0389193616e+02   6.7527200958e+00    0.4531896    0.1900268 -40.49  0.002328297    2.922    0.658
       169 -12.1106    137.5403    212.0797   1.1208101984e+02   1.4443598927e+01    0.3839934    0.2153036  66.61  0.002040218    2.363    0.577
       170 -11.6273    142.1993     45.9882   7.3417103792e+01   4.4069873896e+01    0.2769119    0.2305181  52.38  0.001389657    1.248    0.199
       171 -12.7693    211.4138     33.4457   5.7360312999e+01   2.7856624040e+01    0.6792035    0.5066057   8.88   0.00213626    1.572    0.364
       172 -11.3226    157.4104    213.2050   1.0878472668e+02   1.1136898202e+01    0.1417589    0.1095808 -70.50 0.0009517118    1.713    0.416
       173 -13.3223     75.9274     37.4463   8.8650515285e+01   5.9589754410e+01     0.447565    0.3403705   7.05 0.0008287149    1.567    0.362
       174 -12.7474     70.5266     36.5133   9.0164736150e+01   6.0654053025e+01    0.5872078    0.3211491 -32.30  0.001420683    1.754    0.430
       175 -11.7724    181.1187     40.6524   6.4039980531e+01   3.4851772355e+01    0.4650128    0.2699554  89.90  0.001715396    2.652    0.623
       176 -10.2850    126.4932    211.5342   1.1394480517e+02   1.6231787713e+01    0.1154681   0.09149688  55.97 0.0002238478    1.022    0.022
       177 -11.9052    245.8038     30.5406   5.2717375091e+01   1.9686726124e+01    0.3341788    0.2792381 -13.84 0.0007894271    1.199    0.166
       178 -11.0735     91.1683     34.1949   8.2266406292e+01   5.7391400470e+01    0.2719364    0.1840802 -30.21 0.0009946412    1.344    0.256
       179 -11.1579     89.2367     30.2226   8.1160330022e+01   5.8428005195e+01    0.2363098    0.2199259  -6.69 0.0002213335    1.077    0.071
       180 -12.2065     97.6190     26.8010   7.7096663977e+01   5.7283198598e+01    0.3742282    0.2973225 -44.76  0.001648369    1.348    0.258
       181 -10.8720    184.9688    124.2517   8.7527484286e+01   2.0147270238e+01     0.218081    0.1990495 -79.60  0.000457078    1.300    0.231
       182 -11.4674     65.2116     24.4086   8.6813619619e+01   6.3662186109e+01    0.3676813    0.2371625 -10.74  0.001832698    1.889    0.471
       183 -11.3955     74.8525     23.3193   8.2806953659e+01   6.2215712812e+01    0.3600501    0.2118036  44.85  0.001752621    1.901    0.474
       184 -11.0103     78.0038     20.6297   8.0445594722e+01   6.2070095650e+01     0.234913    0.1764898 -24.61 0.0004894233    1.168    0.144
       185 -11.9255    247.9907    224.0389   9.5737203954e+01  -4.2033652396e+00    0.2192846    0.1954761 -23.35  0.001773965    1.624    0.384
       186 -11.9862    148.8985     17.6609   6.1292758984e+01   4.6270770361e+01    0.2652916    0.2034658  -3.20 0.0009650184    1.360    0.265
       187 -11.7083     70.7702     16.7444   8.1071597123e+01   6.3958205275e+01    0.2456822    0.2046161 -19.66 0.0004696618    1.031    0.030
       188 -12.1863     80.3521    208.4924   1.2172544584e+02   2.3330751720e+01    0.3077442     0.149335  58.68  0.001799502    1.796    0.443
       189 -10.9345    149.7327    206.8312   1.0928756182e+02   1.3281455569e+01    0.2096215    0.1361303  38.37 0.0009179778    1.381    0.276
       190 -10.5658    163.5034    225.4740   1.0930872062e+02   8.5432894529e+00     0.112619   0.08782002  42.44  0.000169747    1.018    0.018
       191 -11.2710    213.4380    200.8951   9.7496302106e+01   3.5138414662e+00    0.2378874    0.2228278  46.93  0.001749927    1.360    0.265
       192 -10.5806     80.6258    201.8257   1.2107841453e+02   2.4435834390e+01    0.1528088   0.09126446 -87.52  0.000944943    1.747    0.428
       193 -11.5381     45.3103    198.1375   1.2706160470e+02   2.9438352872e+01    0.3489798    0.2069598 -89.66  0.002401814    1.468    0.319
       194 -12.1986     41.5177    200.9945   1.2791510962e+02   2.9349516735e+01    0.2305108    0.1632524  85.75  0.001260871    1.176    0.149
       195 -12.7328     40.3593    194.8217   1.2770875606e+02   3.0587054835e+01    0.4186586    0.2717866  89.41  0.002363872    1.287    0.223
       196 -11.9558    248.9804    194.9872   9.0836768117e+01  -1.5726573818e+00    0.3798571    0.2448688 -24.69  0.002447188    1.618    0.382
       197  -9.8951    134.6690    200.7225   1.1118169163e+02   1.6635967142e+01    0.1105115   0.08772717  22.06 0.0003957138    1.600    0.375
       198 -13.2625    164.4991    194.9457   1.0499631972e+02   1.2580962690e+01     0.603959    0.3673649 -63.83  0.003187172    2.512    0.602
