#   1 NUMBER                 Running object number                                     
#   2 MAG_AUTO               Kron-like elliptical aperture magnitude                    [mag]
#   3 X_IMAGE                Object position along x                                    [pixel]
#   4 Y_IMAGE                Object position along y                                    [pixel]
#   5 X_WORLD                Barycenter position along world x axis                     [deg]
#   6 Y_WORLD                Barycenter position along world y axis                     [deg]
#   7 A_WORLD                Profile RMS along major axis (world units)                 [deg]
#   8 B_WORLD                Profile RMS along minor axis (world units)                 [deg]
#   9 THETA_WORLD            Position angle (CCW/world-x)                               [deg]
#  10 FWHM_WORLD             FWHM assuming a gaussian core                              [deg]
#  11 ELONGATION             A_IMAGE/B_IMAGE                                           
#  12 ELLIPTICITY            1 - B_IMAGE/A_IMAGE                                       
         1 -14.0600     67.1776    142.9277   5.1768188556e+01   3.7790026983e+01     2.968618     1.548256  87.50  0.009818901    3.381    0.704
         2 -13.8493    243.0604     57.5478   3.5645998046e+02   2.0940113699e+01     1.165001     1.044086   8.19  0.008734487    1.634    0.388
         3 -12.4098      2.9559     22.5957   5.3437862134e+01   7.5467726725e+01     1.184733    0.2985541 -60.54  0.004375762    3.595    0.722
         4 -13.5588      4.1425      8.7110   4.4980385807e+01   7.8090518740e+01     1.967091     1.050303 -53.75   0.01050972    1.967    0.492
         5  -8.5588    108.3261      7.7181   3.5736402260e+02   5.6471975863e+01    0.1387262   0.09049159 -69.50 0.0003579842    1.598    0.374
         6 -10.1777    111.9258    244.2590   5.3428648247e+01   9.4696950945e+00    0.1916464    0.1680681 -30.09 0.0005376739    1.304    0.233
         7 -12.7762     33.7380    158.2763   6.4742690634e+01   3.7881997983e+01    0.9687604    0.5982224   1.61  0.001289871    2.156    0.536
         8 -11.7827     42.0422    153.9963   6.1588271061e+01   3.8114083885e+01     0.381949    0.3276129 -10.41 0.0006957141    1.388    0.280
         9 -15.8198      7.9929    202.1654   7.5153626209e+01   2.9319426462e+01     5.958501     3.319879 -85.39    0.0317613    1.779    0.438
        10 -15.5984     13.1959    160.0806   7.1429447247e+01   3.9294919463e+01     9.152925     2.381896  89.80   0.02501254    5.303    0.811
        11  -9.8280     76.8471    229.2534   5.9866001094e+01   1.6344835860e+01    0.1979761    0.1635557  76.41 0.0005743819    1.379    0.275
        12 -11.2766     60.8958    225.5764   6.3355125831e+01   1.8916469953e+01    0.5716914     0.178119 -73.80  0.002130137    4.202    0.762
        13  -9.8218     93.4096    244.7174   5.7528458167e+01   1.1535693334e+01    0.1529361    0.1106292 -43.77 0.0009570381    1.654    0.395
        14 -10.4996     51.0001    244.0880   6.7016990741e+01   1.6331362560e+01     0.445993     0.175161 -77.07  0.001960312    3.192    0.687
        15 -11.1708     73.8736    219.7800   5.9685259118e+01   1.8603583762e+01    0.4752246    0.1457244  36.01   0.00189848    2.491    0.599
        16  -9.6274    140.0918    204.4755   4.2163386967e+01   1.2992814178e+01    0.3145038    0.2099961 -70.12  0.001260346    2.339    0.573
        17 -10.1654     72.9492    228.5976   6.0728904338e+01   1.6928786215e+01    0.2223342    0.1682877 -42.36 0.0007629159    1.600    0.375
        18  -8.5478    170.5843    195.5140   3.4365738993e+01   1.0437775373e+01    0.1235903    0.1093628  -6.35   6.7286e-05    1.057    0.054
        19 -10.9385     77.0464    184.4906   5.4929683951e+01   2.6004024139e+01    0.3053787    0.2177094  46.51  0.001156026    1.322    0.244
        20 -11.3016     70.8665    184.3109   5.6612236412e+01   2.6868011136e+01    0.4249498    0.2317195  68.84  0.001127491    2.576    0.612
        21 -10.7981     98.8987    181.2330   4.8589480170e+01   2.3672420450e+01    0.3086163    0.2637928  39.29 0.0007046519    1.102    0.093
        22 -13.8805      5.6083    171.9924   7.4437538066e+01   3.6814037951e+01     1.344467    0.8028523  85.87  0.003594135    1.563    0.360
        23  -9.2324    126.9942    171.4899   3.9846617203e+01   2.1505849836e+01    0.2205247    0.1789025 -47.52 0.0005845135    1.262    0.208
        24  -8.6462    145.4464    171.5610   3.5535920201e+01   1.8563488597e+01    0.1342597    0.1276593   0.59 0.0002135671    1.043    0.041
        25 -11.4200     56.2426    147.1348   5.6018408717e+01   3.8195494892e+01    0.4284569    0.3484202  14.95 0.0004951073    1.363    0.266
        26 -12.5144     88.5223    167.3152   4.9278424112e+01   2.8466144749e+01     1.018671    0.4766247  47.54  0.003967463    2.266    0.559
        27 -12.5694     72.8548    159.0505   5.2574391928e+01   3.2812704309e+01     1.241514    0.7611706  27.50  0.005592755    1.642    0.391
        28  -8.9446    190.6907    249.3348   3.8515507749e+01   8.3286376833e-03   0.09314888   0.08111105  33.41 0.0007042933    1.677    0.404
        29  -9.3539    155.2388    166.3331   3.2416095839e+01   1.8042134029e+01    0.4117505    0.1737493 -56.80  0.001466485    3.446    0.710
        30 -12.0754     71.9739    130.0405   4.7836665660e+01   4.0439213062e+01    0.5748814    0.3294989  30.07 0.0006362469    1.797    0.444
        31 -12.1262    235.5034    158.1510   1.6839147895e+01   7.7923960493e+00    0.5251526    0.2188864 -24.96  0.002293829    3.098    0.677
        32 -12.9170     40.0406    142.0501   6.0770349404e+01   4.1544485094e+01    0.5732216    0.3985822   1.91  0.001142751    1.810    0.448
        33 -10.4291     85.0122    133.9280   4.4368465440e+01   3.7319998449e+01    0.3544956    0.3197473 -18.64  0.001003438    1.253    0.202
        34  -9.7730     88.8976    130.8555   4.2518336244e+01   3.7433314663e+01    0.3344185     0.281529 -26.31  0.001086755    1.371    0.270
        35  -9.2640    105.2903    130.6748   3.7567988909e+01   3.4549641712e+01    0.2710142    0.2364228  82.81   0.00103364    1.260    0.207
        36 -10.5325     71.0561    241.5366   6.2273030595e+01   1.4649665706e+01    0.2074631    0.1847917 -84.85 0.0006527122    1.334    0.251
        37 -10.7146    240.0033    126.5013   1.0401498749e+01   1.1816346102e+01    0.1919071    0.1191398  55.91   0.00117138    2.231    0.552
        38  -9.4644    101.5035    125.8746   3.7601151818e+01   3.6400787966e+01    0.2963555    0.2207338  18.69  0.001353582    1.634    0.388
        39 -11.3168    246.3761    167.5472   1.7008521889e+01   5.1528402575e+00    0.2300715    0.1663289 -43.90  0.001620502    1.489    0.329
        40 -10.1008     87.0564    120.4379   4.0827643011e+01   4.0368166594e+01    0.3116237     0.269145  26.20 0.0006927481    1.235    0.190
        41 -11.0160     28.0885    237.4342   7.1866291817e+01   1.9918212950e+01    0.2936736    0.1662536 -77.59 0.0008453483    1.979    0.495
        42  -8.2821    183.6591    116.6784   1.6534715388e+01   2.2503797963e+01    0.1356023    0.1039883  -3.43 0.0007050421    1.722    0.419
        43 -11.9866    244.6727    112.3687   7.1550815590e+00   1.3192829371e+01    0.4783425    0.1195715 -35.21  0.001837836    3.428    0.708
        44  -9.2152    100.8651    115.1983   3.5286534289e+01   3.9084734094e+01    0.2230798    0.2004414  72.24 0.0003245081    1.157    0.136
        45 -10.4763     43.1009    112.6525   5.5058910599e+01   4.9189266028e+01    0.2689233    0.2478338 -57.03 0.0008423029    1.087    0.080
        46  -9.3782    204.3354    110.7898   1.1979151483e+01   1.9819459519e+01    0.2461314    0.1750886  37.14  0.001410129    1.743    0.426
        47  -9.7390     23.8852    105.1096   6.1705481398e+01   5.3332056087e+01    0.2289776     0.188598  64.08 0.0007956135    1.240    0.194
        48 -11.9543    244.3951     94.4104   3.6962781216e+00   1.5771294350e+01    0.3532966    0.1603581 -38.62  0.001928539    1.662    0.398
        49 -10.9899     52.4371     90.8377   4.6437395760e+01   5.3691096769e+01    0.4774587    0.1371164 -57.89  0.001465383    3.256    0.693
        50 -11.5253    249.3274     86.3601   1.6396120186e+00   1.6131924049e+01     0.432922    0.1317474 -36.53  0.001970609    2.485    0.598
        51  -9.4899     29.8466     87.8876   5.5864184500e+01   5.7383486993e+01    0.2147744    0.1857377 -43.07 0.0002834927    1.153    0.132
        52 -11.0894     17.3354     80.8452   6.0545180345e+01   6.0433402583e+01    0.4953668    0.2670552  64.68  0.002024005    2.476    0.596
        53  -8.6728     70.4916     78.5081   3.5530482098e+01   5.3643348162e+01    0.1487357    0.1481898  82.54 -0.0001655862    1.022    0.021
        54 -13.2398    225.9055     66.1254   3.5972517465e+02   2.2751005316e+01     0.907827    0.7517189 -32.44   0.00626008    1.265    0.209
        55 -10.5329     27.8804    231.6560   7.1630429985e+01   2.1105630057e+01    0.2358861    0.1762767  73.80 0.0005870734    1.319    0.242
        56 -10.2175     63.3264     64.5952   3.3795717537e+01   5.8120899592e+01    0.4833419    0.3096949 -81.24  0.001678986    2.765    0.638
        57 -10.9676     13.3996     60.3591   5.8216444655e+01   6.5998416979e+01    0.3301725     0.237722 -65.16 0.0005208575    1.325    0.245
        58  -9.3244    119.0087     55.4693   1.2748747728e+01   4.7522665160e+01    0.2811154    0.1867304 -58.20 0.0008175111    1.613    0.380
        59 -11.4581      2.3381     48.4399   6.2327885536e+01   6.9659659437e+01    0.5114299    0.2330176 -75.31  0.002242815    2.285    0.562
        60 -11.6158     12.6595     49.4293   5.5699556516e+01   6.8709198376e+01     0.323079    0.2620845 -59.10  0.001795118    1.190    0.160
        61  -9.8423    154.6959    228.7370   4.2544144120e+01   6.9446975356e+00    0.4312645    0.1711875 -54.76  0.001878055    3.581    0.721
        62 -10.5131    210.7754    247.9856   3.4912624971e+01  -1.7713445085e+00    0.2001284    0.1084378   9.62  0.001300769    1.667    0.400
        63  -8.9577     60.4531     21.1007   1.5986350218e+01   6.6548375682e+01    0.2086837    0.1650032  51.70 0.0005048506    1.164    0.141
        64  -8.3570    189.5073     15.4728   3.5111361268e+02   3.6313822915e+01    0.1251963   0.09876722 -63.80 0.0004362801    1.003    0.003
