#   1 NUMBER                 Running object number                                     
#   2 MAG_AUTO               Kron-like elliptical aperture magnitude                    [mag]
#   3 X_IMAGE                Object position along x                                    [pixel]
#   4 Y_IMAGE                Object position along y                                    [pixel]
#   5 X_WORLD                Barycenter position along world x axis                     [deg]
#   6 Y_WORLD                Barycenter position along world y axis                     [deg]
#   7 A_WORLD                Profile RMS along major axis (world units)                 [deg]
#   8 B_WORLD                Profile RMS along minor axis (world units)                 [deg]
#   9 THETA_WORLD            Position angle (CCW/world-x)                               [deg]
#  10 FWHM_WORLD             FWHM assuming a gaussian core                              [deg]
#  11 ELONGATION             A_IMAGE/B_IMAGE                                           
#  12 ELLIPTICITY            1 - B_IMAGE/A_IMAGE                                       
         1 -14.2175    157.6359     53.1304   8.2598404143e+01   3.9206886197e+01     1.355572     1.092329  25.80   0.00516508    1.412    0.292
         2 -14.3562    170.0332     37.4194   7.5650183692e+01   3.8347456376e+01     1.093677    0.9606062  17.56  0.004024624    1.327    0.247
         3 -14.0466    185.7115      6.2668   6.4800168505e+01   3.8000093969e+01    0.9746893    0.7869911  85.40   0.00498299    1.094    0.086
         4 -11.9712    146.6158    239.2263   1.2670396624e+02   4.5656846759e+00    0.3536146    0.1518535 -50.69  0.001625128    2.744    0.636
         5 -19.0023     72.3377    242.2355   1.4074352950e+02   1.5960453496e+01     6.576926     5.298337  74.90   0.04017665    1.101    0.092
         6 -11.5372    163.4156    203.8580   1.1788058949e+02   7.8858657267e+00     0.323312    0.2458524 -50.55  0.001052989    1.442    0.307
         7 -11.7868    160.8092    198.5520   1.1749222759e+02   9.4144339827e+00    0.3275187    0.2307141  68.79  0.001472501    1.733    0.423
         8 -10.2385    176.3669    233.8192   1.2021524904e+02   2.0789138867e-01    0.1672445    0.1216578 -30.90 0.0009487249    1.689    0.408
         9 -14.1975    137.8006    198.2580   1.2231242097e+02   1.3884931036e+01    0.7627772    0.6069636  60.53  0.004193549    1.187    0.157
        10 -12.6603    155.1082    196.7996   1.1838376380e+02   1.0868825632e+01    0.4445505    0.2967818 -82.54  0.001966864    2.287    0.563
        11 -10.7800     41.4743    199.3125   1.4243401265e+02   2.8696804642e+01    0.1861964    0.1494426  55.00 0.0008024002    1.316    0.240
        12 -11.5376    208.0752    196.3229   1.0745859931e+02   6.4204086667e-01    0.2029186    0.1712137  35.61  0.001156644    1.118    0.105
        13 -11.2017    174.9838    193.7391   1.1365023449e+02   7.5624924018e+00    0.3282273    0.1992379 -65.47  0.001381064    2.441    0.590
        14 -10.6466    180.0231    192.3203   1.1233643733e+02   6.8341794201e+00    0.2467471    0.2029478 -85.24 0.0006992295    1.559    0.358
        15 -12.3611    167.5994    190.9404   1.1467503075e+02   9.5732320414e+00    0.4246767     0.300256  29.62  0.001557432    1.554    0.356
        16 -11.0163     25.7537    232.2587   1.4788874930e+02   2.3809139259e+01    0.1307845    0.1030065 -84.37 0.0005279913    1.312    0.238
        17 -11.5008    178.3489    226.4985   1.1867409997e+02   1.0512338210e+00    0.2228973    0.2103792  -9.16 0.0007220296    1.184    0.155
        18 -10.9239    176.4670    187.7706   1.1220548293e+02   8.4197551871e+00    0.2616248    0.1434391 -49.82 0.0009770684    1.988    0.497
        19 -11.0047    184.4609    186.7672   1.1034472018e+02   7.0055869918e+00    0.2787873    0.1965448  43.84 0.0008645458    1.345    0.256
        20 -12.3166    168.2055    233.3828   1.2171893187e+02   1.7338873261e+00    0.3728515    0.2505204  58.39  0.001123248    1.575    0.365
        21 -12.1490    205.5057    180.4795   1.0480733655e+02   3.9591604480e+00    0.4990334    0.3367315  44.99  0.001851706    1.456    0.313
        22 -12.0955    208.5253    178.5102   1.0380430926e+02   3.7168943967e+00    0.4445289    0.3738655  12.66  0.002424987    1.243    0.196
        23 -12.5665    195.9540    171.1689   1.0479541912e+02   7.6536412529e+00    0.8317523    0.4256093 -51.21  0.002775752    2.253    0.556
        24 -12.5777    144.1406    168.1398   1.1542018794e+02   1.9072765827e+01    0.5071237    0.3244945  68.19    0.0021312    2.040    0.510
        25 -10.7107    198.8678    222.6801   1.1406437261e+02  -2.0305664005e+00     0.188087    0.1491858  39.33 0.0005363118    1.132    0.117
        26 -11.2218     25.2727    165.7850   1.4236978984e+02   3.7832846985e+01    0.2137651    0.1906284   7.03 0.0008628312    1.667    0.400
        27 -13.9037    137.7382    171.7532   1.1758760421e+02   1.9558795876e+01    0.8809217    0.5043384  53.38  0.003100436    1.790    0.441
        28 -18.8977     55.9671     90.7756   1.2175198201e+02   5.1634906912e+01     18.32868    0.8979017 -54.85   0.02672708   18.938    0.947
        29 -10.5686    223.8218    164.0476   9.7791926069e+01   3.2850385349e+00    0.2142204    0.1915695 -62.29 0.0006009307    1.304    0.233
        30 -10.2024     21.3669    235.3423   1.4880366532e+02   2.3708261558e+01    0.1006711    0.0780495  83.19 0.0007670493    1.192    0.161
        31 -10.8992     11.5045    213.8226   1.4904902467e+02   2.8944876066e+01    0.1334048   0.07990333 -68.06 0.0008807442    1.624    0.384
        32 -11.3747    163.0839    210.2085   1.1903418760e+02   6.7530664115e+00    0.2298941    0.2077117 -52.10 0.0008304364    1.229    0.186
        33 -10.2747     33.4079    211.3459   1.4501287174e+02   2.7107053845e+01      0.19159     0.095907  42.77 0.0009849388    1.983    0.496
        34 -12.1092    162.5524    154.2031   1.0830474813e+02   1.8252038293e+01    0.4454863    0.3296272  70.98  0.002025446    1.637    0.389
        35 -14.0916    133.0857    145.6268   1.1331111118e+02   2.6371841102e+01     1.157075    0.6173185 -60.16   0.00406702    2.149    0.535
        36 -11.1278     14.9470    150.8578   1.4303782937e+02   4.2114160952e+01    0.3119653    0.1970567 -27.98  0.001753555    2.632    0.620
        37 -11.2292    174.5953    149.0175   1.0446384535e+02   1.6725182786e+01    0.2896629     0.262064  71.89 0.0008512738    1.162    0.139
        38 -10.0185     29.7356    206.0354   1.4524656079e+02   2.8621381638e+01    0.1479505    0.1365009 -68.67            0    1.512    0.339
        39 -12.7724    144.8024    145.8497   1.1055038646e+02   2.3889339282e+01    0.4906973    0.3826707  83.39  0.002294856    1.555    0.357
        40 -12.8523      4.8100    139.5766   1.4412584010e+02   4.5410797422e+01    0.7073672    0.4293278  81.75  0.002597326    1.606    0.377
        41 -12.2145      3.2195    112.4977   1.4126326590e+02   5.1485986856e+01    0.3246298    0.2113685 -67.88  0.001565958    1.147    0.128
        42 -13.1905      2.8647    126.7231   1.4314221426e+02   4.8384391971e+01     1.224792    0.3459095 -72.09  0.005256427    2.774    0.640
        43 -12.8082    105.4262    138.2461   1.1861974665e+02   3.3392023237e+01    0.4984742    0.3381315  67.20 0.0005659733    1.820    0.451
        44 -12.6166    115.3905    138.0034   1.1602602966e+02   3.1610690505e+01    0.5442168    0.3268994 -39.66  0.002321261    1.869    0.465
        45 -11.5733     19.9831    141.5384   1.4079929592e+02   4.3788810140e+01    0.2209821    0.1311163 -59.83 0.0004126994    1.423    0.297
        46 -10.4257    172.1080    138.1552   1.0248991254e+02   1.9575926196e+01    0.2187527    0.1879667  88.30 0.0006465474    1.321    0.243
        47 -12.4345    106.0344    130.7441   1.1682678753e+02   3.5031110615e+01    0.4307354    0.3557428 -67.10  0.001290429    1.191    0.161
        48 -11.6401    108.6349    125.1372   1.1486412356e+02   3.5850845579e+01    0.3205872    0.2784885 -18.21  0.001001841    1.361    0.265
        49 -12.5459    119.5825    129.4435   1.1301869926e+02   3.2776593191e+01    0.4384057    0.3989637 -44.14  0.001280451    1.114    0.103
        50 -12.7948    125.5382    127.1412   1.1095304358e+02   3.2115501823e+01    0.6922788    0.4377834 -89.49  0.002465623    3.020    0.669
        51 -12.0892      9.9431    111.1727   1.3928426539e+02   5.1348112276e+01    0.4493663     0.228587  -6.37  0.002202434    3.617    0.724
        52 -11.0386    115.8521    115.1162   1.1052595868e+02   3.6752454583e+01    0.2650068    0.2060594  65.65 0.0008716816    1.490    0.329
        53 -11.4612    113.9699    118.4965   1.1186394556e+02   3.6357831275e+01    0.2848508    0.2204498 -50.55  0.000423858    1.238    0.192
        54 -11.1222    167.7147    113.1541   9.7270893716e+01   2.5839635439e+01    0.4581105    0.3148902 -89.48  0.001504722    2.255    0.557
        55 -11.5463    160.4745    127.6458   1.0258168163e+02   2.4455194548e+01    0.4537849    0.2573018 -53.91  0.001782753    1.920    0.479
        56 -12.7245     34.4046    111.0753   1.3249508304e+02   4.9426467975e+01    0.3799808    0.2014629  21.77  0.001968935    2.461    0.594
        57 -12.1485     95.2859    110.1257   1.1489255786e+02   4.1645801341e+01    0.3879569    0.3001558   2.59   0.00124637    1.730    0.422
        58 -10.7066    205.4849    110.1774   8.8743846749e+01   1.7478320788e+01    0.3338824    0.2217983  44.49 0.0009304797    1.604    0.377
        59 -11.7418     85.0149    110.0254   1.1776634435e+02   4.3358277073e+01    0.2262319    0.2088262 -56.01  0.001063669    1.020    0.020
        60 -12.9426     28.0816    117.8775   1.3540541184e+02   4.8460239197e+01    0.4624226    0.2430678 -29.53  0.002178555    2.924    0.658
        61 -12.8970    135.8223    122.6166   1.0725706357e+02   3.0995101917e+01    0.7367177    0.3241563 -51.63  0.002612577    2.369    0.578
        62 -11.0584     95.7183     79.9472   1.0656820693e+02   4.7964411600e+01    0.2513535    0.2011849  45.80 0.0005905165    1.355    0.262
        63 -10.1945     13.5149     59.8974   1.2831191232e+02   6.1821202261e+01    0.1602672    0.1285755 -38.92 0.0004469867    1.070    0.065
        64 -11.7965    158.7682    204.7399   1.1899507428e+02   8.6086238907e+00    0.3905842    0.2515536  65.23  0.001585303    1.919    0.479
        65 -10.9618     13.4622    244.9200   1.5060827047e+02   2.2781357515e+01    0.2921223   0.06236554 -69.29  0.001336094    3.799    0.737
        66 -12.7757    173.4996     30.2264   7.3022675486e+01   3.8393273802e+01    0.4381628    0.3677974  35.24  0.001139724    1.323    0.244
        67 -10.6607    134.7288     30.0060   8.0163393356e+01   4.7786620059e+01    0.2544291    0.1886326  66.09 0.0007612447    1.377    0.274
