#   1 NUMBER                 Running object number                                     
#   2 MAG_AUTO               Kron-like elliptical aperture magnitude                    [mag]
#   3 X_IMAGE                Object position along x                                    [pixel]
#   4 Y_IMAGE                Object position along y                                    [pixel]
#   5 X_WORLD                Barycenter position along world x axis                     [deg]
#   6 Y_WORLD                Barycenter position along world y axis                     [deg]
#   7 A_WORLD                Profile RMS along major axis (world units)                 [deg]
#   8 B_WORLD                Profile RMS along minor axis (world units)                 [deg]
#   9 THETA_WORLD            Position angle (CCW/world-x)                               [deg]
#  10 FWHM_WORLD             FWHM assuming a gaussian core                              [deg]
#  11 ELONGATION             A_IMAGE/B_IMAGE                                           
#  12 ELLIPTICITY            1 - B_IMAGE/A_IMAGE                                       
         1 -14.4652    128.4895    103.6366   6.7930227019e+01   3.6678291021e+01     13.54547     8.218515  37.44   0.05734937    1.737    0.424
         2 -15.1556    220.5584     26.9016   3.2572589062e+01   2.8290087676e+01     3.761253     1.680983 -21.84   0.01537925    4.159    0.760
         3 -16.9253    246.0647     68.9629   3.8698361096e+01   1.7674128335e+01     7.438629     2.489617 -34.05    0.0102237    3.239    0.691
         4 -13.6456    197.0991     34.7697   3.6662489470e+01   3.2348033185e+01      2.61976     1.643417 -11.76   0.01285877    2.697    0.629
         5 -14.6939    198.5810     56.7176   4.1627976087e+01   2.9095054313e+01     5.006539     1.041854 -39.62   0.01643326    3.944    0.746
         6 -11.6052    134.9563     15.1920   3.9921025219e+01   4.8803160412e+01    0.5680841    0.2958554 -15.60  0.002257184    2.582    0.613
         7 -15.9640    243.4195     32.1830   3.1713933965e+01   2.3125236351e+01      1.93713      1.55647  -6.39   0.01271308    2.089    0.521
         8  -9.4012    155.0987     14.3854   3.6708546878e+01   4.4181866283e+01    0.2845285    0.1660989  10.56   0.00128577    3.212    0.689
         9 -10.0618    115.9725     12.5176   4.2439472924e+01   5.3432189356e+01    0.3368486    0.1984324  59.35  0.001273115    1.421    0.296
        10 -11.3530    120.2714      8.9389   4.0460728395e+01   5.2757396137e+01    0.3923602    0.3335669  70.72  0.001316414    1.087    0.080
        11  -9.8487    138.4986      6.3532   3.6738718417e+01   4.8763103260e+01    0.2271945    0.1263915 -22.60  0.001208598    2.161    0.537
        12  -9.2731     93.1412      6.1161   4.5000448333e+01   5.9058431732e+01    0.1980837    0.1392634  37.83 0.0006581823    1.274    0.215
        13  -8.8830    250.8059      4.9547   2.6190377845e+01   2.4844737990e+01    0.1495022   0.07053525 -49.60 0.0003309966    1.652    0.395
        14  -9.1632    243.6734      3.2345   2.6294303603e+01   2.6349125805e+01    0.1670125    0.1398341  76.46 0.0004825496    1.409    0.290
        15 -10.6446    249.0526      1.4054   2.5661958304e+01   2.5536690440e+01    0.2401866    0.1106979  78.20 0.0007217281    2.007    0.502
        16 -15.1981    228.6208     91.7056   4.5496040771e+01   1.7450037175e+01     4.132933      1.18917 -53.64  0.009679403    8.044    0.876
        17  -9.8492    181.8167      3.9766   3.1050877800e+01   3.9057918573e+01    0.2386876    0.1707724 -88.22 0.0008294815    1.196    0.164
        18 -10.1363    113.5039      3.4849   3.9871184288e+01   5.4738113120e+01    0.2150324    0.1511523  72.93  0.001285984    1.322    0.243
        19  -8.6453    171.6754      2.3093   3.1640586320e+01   4.1482399548e+01    0.1930111    0.1105768 -66.80  0.001055679    1.807    0.447
        20  -8.6803    159.4345      1.9306   3.2848189907e+01   4.4299807424e+01    0.1552673    0.1205725 -27.81 0.0005027123    1.538    0.350
        21  -9.4929    185.7553    240.5864   8.3237688657e+01  -2.1635300243e+00    0.2523462    0.1984467  57.73  0.001448808    2.000    0.500
        22 -10.2570    206.3025    235.1334   7.8241085543e+01  -4.1013654009e+00    0.2109415    0.1731537   8.55 0.0001887103    1.095    0.087
        23  -9.2024    173.6383    234.8243   8.4823318845e+01   5.3508958810e-01    0.2160459    0.1565907  18.08  0.000441365    1.245    0.197
        24  -8.9398    233.6693    186.8842   6.4379537053e+01   4.4314808667e-02    0.2235871    0.1816336  29.85 0.0007379989    1.396    0.284
        25  -8.9192    235.8152    183.6088   6.3377401240e+01   2.9094123801e-01    0.1764558    0.1541697 -13.63 0.0005853995    1.107    0.097
        26  -8.5886     29.7537    183.1858   1.1208111046e+02   3.2292292162e+01    0.1664432    0.1410776 -52.46 0.0002507636    1.284    0.221
        27 -10.0268    179.1550    181.0201   7.3891619097e+01   9.8569695883e+00    0.4583225     0.278799  70.57  0.001371394    5.422    0.816
        28 -11.1286    200.2858    174.8460   6.8231187680e+01   7.4397795139e+00    0.6094703    0.4040541   0.40  0.002825371    1.999    0.500
        29  -9.7321    180.1562    173.1506   7.2066302402e+01   1.1282508280e+01     0.190941    0.1807495 -80.75 0.0004921068    1.305    0.234
        30 -10.1984    176.3987    171.5659   7.2556093490e+01   1.2284079481e+01    0.4495262    0.2577743 -10.63  0.001517407    3.506    0.715
        31 -10.5000    215.1990    169.3734   6.4243114266e+01   5.9825687409e+00    0.4331992    0.3044614  51.47  0.001335138    1.837    0.456
        32 -10.4261    193.6747    170.2391   6.8616602924e+01   9.4738599544e+00    0.3360451    0.2403625 -67.99  0.001548598    2.142    0.533
        33 -10.0856    185.5013    167.9494   6.9836529002e+01   1.1382528603e+01    0.2737581    0.2045154  13.06  0.001356512    1.518    0.341
        34  -9.6892    183.8799    162.1229   6.8942023486e+01   1.2863255702e+01     0.219642    0.2047311 -63.39 0.0006701645    1.243    0.196
        35 -12.1667    191.9475    154.2576   6.5566862167e+01   1.2963456675e+01    0.8041167    0.6032584 -67.28  0.002353115    1.795    0.443
        36 -13.6044    250.2558     41.8539   3.3010595273e+01   2.0626183328e+01    0.4537291    0.2094378 -34.89  0.001328416    2.167    0.539
        37  -9.0489    159.7033    158.9961   7.3663150752e+01   1.8080515172e+01    0.2194963    0.1936477 -37.21 0.0004629676    1.093    0.085
        38 -13.3278     10.4639    151.0536   1.1392728480e+02   4.2004867095e+01      1.01782    0.8164532 -71.37  0.003687414    1.060    0.057
        39 -11.3580    204.8200    152.8702   6.2738879793e+01   1.0884162214e+01    0.5194556    0.4560592  77.80  0.001513997    1.502    0.334
        40 -10.6623    133.7572    144.7757   7.6899447319e+01   2.6354288625e+01     1.222719    0.3257877 -54.36  0.002822374    5.618    0.822
        41 -10.6445    173.9202    151.6379   6.8800061287e+01   1.6923896074e+01    0.4492896     0.314403 -49.25 0.0007824316    1.433    0.302
        42  -9.0808    172.1414    187.2417   7.6671135933e+01   9.8071327992e+00    0.4284229    0.2785245  73.43  0.001515541    3.887    0.743
        43  -8.7289    217.9420    148.1722   5.9335291020e+01   9.4475104225e+00    0.2063683    0.1610952  88.93 0.0005518598    2.008    0.502
        44 -10.6532    144.1172    145.4124   7.4395032245e+01   2.4165155481e+01    0.7414117     0.376329 -64.63  0.002277249    3.647    0.726
        45  -8.2912    219.6311    231.6808   7.5102667040e+01  -5.3175757719e+00    0.1348962   0.08104052  -4.11 8.425358e-05    1.790    0.441
        46 -11.5714     67.6472    143.4142   9.5681724386e+01   3.8040989700e+01     3.138288     1.418175 -69.20   0.01074287    2.660    0.624
        47 -13.1656     48.7884    138.7932   1.0071813189e+02   4.1622127892e+01     1.186409    0.8799815 -50.26  0.003934106    1.252    0.201
        48 -11.1482    158.6873    141.0135   6.9836136472e+01   2.2225016182e+01    0.6640113    0.3274276 -58.73  0.002247651    2.909    0.656
        49 -10.4830    199.4178    144.2733   6.1900751006e+01   1.3545034524e+01    0.3336419     0.197332 -46.09  0.001524945    1.597    0.374
        50 -11.0489    192.9510    143.7956   6.3058643017e+01   1.4863942839e+01    0.4866644     0.302905  26.76  0.001434463    2.051    0.512
        51 -10.3671    202.0705    140.4958   6.0561613821e+01   1.3781020228e+01    0.4942623    0.1948528 -43.73  0.001868594    2.315    0.568
        52 -11.5064    210.7062    136.0840   5.8010594160e+01   1.3008192862e+01    0.6340484    0.5025358  -9.33  0.002528552    1.462    0.316
        53 -10.1170    205.1649    136.1495   5.9024520030e+01   1.4033128445e+01    0.2921535    0.2389788  -6.24 0.0009120113    1.400    0.286
        54 -10.2776    144.8691    139.1040   7.2734615369e+01   2.5444928840e+01    0.3963587    0.2573799 -60.95  0.001130133    1.855    0.461
        55  -9.8090    141.8616    136.1354   7.2784815001e+01   2.6724931445e+01    0.3212072    0.2129198 -34.12  0.001193455    1.599    0.375
        56 -11.2154    191.1406    137.4757   6.1995486853e+01   1.6472142779e+01     0.459968    0.3886077  66.60 0.0009136146    1.427    0.299
        57  -9.3745    191.6945    132.9045   6.0844093462e+01   1.7269722146e+01    0.3123635    0.2568663 -42.57 0.0007930115    1.127    0.113
        58 -11.6350     25.3022    136.7748   1.0777168995e+02   4.4483619173e+01    0.3777319    0.2915634 -30.84   0.00213326    1.429    0.300
        59 -11.6839     40.6283    141.6443   1.0373972419e+02   4.1779811366e+01    0.4134327    0.3447768 -30.33 0.0009475475    1.305    0.234
        60  -9.9572    166.9278    133.9894   6.6290443672e+01   2.2056162730e+01    0.2901893    0.2308136  31.79 0.0008013163    1.349    0.259
        61  -8.7515    218.4219    154.7293   6.0630394396e+01   8.1510864201e+00    0.2211694    0.1689323  53.55 0.0007029737    1.639    0.390
        62 -10.7921    202.2763    126.6187   5.7415387135e+01   1.6405624339e+01    0.4813741    0.3146886 -52.82 0.0009691302    1.564    0.361
        63 -10.0729    209.3179    128.0375   5.6478763070e+01   1.4778538459e+01    0.4303629    0.2642054  76.35  0.001368566    3.219    0.689
        64 -11.5177    160.1886    128.7204   6.6555704579e+01   2.4572032532e+01    0.5577734    0.4228144 -27.74  0.002250239    1.407    0.290
        65 -10.1920    205.2780    122.3636   5.5915118898e+01   1.6620689818e+01    0.4235182    0.3319547 -70.54  0.001527024    1.529    0.346
        66  -8.8427     94.0852    124.0497   8.3271005540e+01   3.8772542910e+01    0.2327376    0.2251087 -42.92 0.0004851848    1.031    0.030
        67 -10.6969    168.0126    116.6962   6.1850416430e+01   2.5417625372e+01    0.3517923    0.3201529  45.42  0.001272964    1.147    0.128
        68  -9.8576    174.5642    115.0827   6.0065424435e+01   2.4339523761e+01    0.4109319     0.311833 -66.19  0.001271297    1.546    0.353
        69  -8.5458    172.9844    110.4732   5.9251897546e+01   2.5589062574e+01    0.2013191    0.1968258  69.02            0    1.067    0.063
        70 -11.9754     56.4157    137.5592   9.8089231245e+01   4.1027242068e+01    0.6551365    0.4186525 -67.21  0.001723829    1.525    0.344
        71  -9.7647    217.3794    112.0939   5.1593470072e+01   1.6139913133e+01    0.4516545    0.2573044 -42.68  0.002177768    1.540    0.351
        72 -10.2373     85.1448     97.9952   7.9342968770e+01   4.6439546459e+01    0.2353739    0.2078369  15.72 0.0002705891    1.143    0.125
        73 -13.2361    171.4773     87.6447   5.3747056351e+01   3.0207853995e+01     1.454329     1.009242 -12.15  0.006486392    2.123    0.529
        74  -9.9641    152.6656     82.5672   5.6232902639e+01   3.5396743300e+01    0.4676305    0.2593006  58.56  0.001970241    1.912    0.477
        75 -12.2371    135.2357     78.0624   5.8934153596e+01   4.0181848301e+01    0.8956864    0.4732472 -28.11   0.00293423    2.354    0.575
        76 -10.8140    140.9916     77.9490   5.7541287156e+01   3.8891007783e+01    0.4261584     0.295255 -28.74  0.001396136    1.594    0.373
        77 -10.2561    164.7073     76.1939   5.2036554364e+01   3.3735335598e+01    0.3432624    0.2340636 -50.07  0.001102429    1.486    0.327
        78  -9.1927    175.1217    230.1991   8.3758649777e+01   1.1241959008e+00    0.1967865    0.1562948   2.71 0.0003357902    1.164    0.141
        79 -10.6473    151.7197     71.4314   5.3329113957e+01   3.7533900551e+01    0.4256212    0.2450725  59.81  0.000593319    1.772    0.436
        80 -11.0353    140.1200     64.2097   5.3728424882e+01   4.1401043173e+01    0.5055248    0.2502128 -37.92   0.00164696    2.075    0.518
        81 -11.7838    134.8891     62.6590   5.4436878162e+01   4.2857700090e+01    0.6172992    0.4320587 -36.76   0.00282017    1.490    0.329
        82 -10.3003    126.2936     70.4460   5.8860756316e+01   4.3536556490e+01    0.3482799    0.2229201 -42.65  0.001187747    1.623    0.384
        83 -10.0330    158.2749     67.9894   5.1051596025e+01   3.6572462352e+01    0.2858625      0.22002 -40.32 0.0005466361    1.318    0.241
        84 -11.1608    144.2544     58.8770   5.1276922118e+01   4.1266463425e+01    0.4507853    0.3323878 -40.48   0.00193024    1.407    0.289
        85  -8.4714     72.7683     58.5610   7.1214315054e+01   5.6515108835e+01    0.1734779    0.1288041  45.12 0.0003701852    1.464    0.317
        86 -10.9862    179.4335     50.9049   4.2896268755e+01   3.4219558438e+01    0.5950747    0.4387815  23.89  0.003088329    1.996    0.499
        87  -9.8691    144.0992     50.1431   4.8744012548e+01   4.2575118544e+01    0.2616695    0.1833906  64.73 0.0008669342    1.378    0.274
        88  -9.3812    169.6196     45.8162   4.3064473919e+01   3.7179928930e+01    0.1949846    0.1330887 -34.58  0.000714487    1.555    0.357
        89 -10.5646    118.9814     42.1974   5.1677809200e+01   4.9483623971e+01    0.2981604    0.2210725 -19.93 0.0003796851    1.531    0.347
        90 -11.8315    123.2402     37.8570   4.9294004095e+01   4.9063866617e+01    0.5278643    0.2887893 -35.98  0.002524928    1.968    0.492
        91  -9.7907    164.3775     40.4693   4.2450906969e+01   3.9099852839e+01    0.2840793    0.1977512  27.59 0.0009342652    2.023    0.506
        92  -9.4794     91.9770     38.9390   5.7673737454e+01   5.5827191385e+01     0.230666     0.185031 -21.55 0.0004856294    1.319    0.242
        93 -10.0024    171.7258     35.0134   3.9923523902e+01   3.8067358263e+01    0.4354838    0.2478947  86.93  0.002061384    2.046    0.511
        94 -10.4430    167.1025     33.3260   4.0136101111e+01   3.9344047143e+01    0.3891332    0.2456648 -16.33  0.001286335    2.184    0.542
        95  -8.8978    170.3466     31.3058   3.9151140245e+01   3.8829400969e+01    0.1910339    0.1682061  24.16  0.001148031    1.439    0.305
        96 -11.0291    119.5063     32.9480   4.8510428261e+01   5.0517120606e+01    0.3200762    0.1605075  50.91  0.001486362    1.748    0.428
        97  -8.8717    113.3105     27.3370   4.8006858317e+01   5.2568859894e+01    0.1389621   0.09108298  30.53 0.0002961099    1.685    0.406
        98 -10.9199    179.8606     24.0324   3.6093906712e+01   3.7472328351e+01    0.6856197    0.3605087  70.19  0.003533346    1.716    0.417
        99  -9.5585    163.0020     23.7775   3.8174052138e+01   4.1383640874e+01    0.3023519     0.188559 -13.33  0.001219363    2.275    0.561
       100 -10.6619    133.5240     23.5442   4.2718531252e+01   4.8309645544e+01    0.2447105    0.2099449  64.42   0.00131712    1.025    0.025
       101  -9.0523    145.6355     23.3154   4.0606785949e+01   4.5496072693e+01    0.1371322   0.09164972 -74.09 0.0005874647    1.767    0.434
       102 -10.1625    152.7371     21.7319   3.9070031700e+01   4.3997325943e+01    0.2223205    0.1667217  70.96 0.0006524542    1.173    0.148
       103  -9.1125    175.9525    225.3528   8.2776877814e+01   1.8601802099e+00    0.1866124    0.1576154  13.50 0.0004781965    1.049    0.047
       104  -9.0870    239.2070    223.2034   7.0065499489e+01  -6.4973777583e+00    0.1528878    0.1339364 -19.34 0.0006420253    1.335    0.251
       105 -10.1792    143.0283    219.0632   8.8998647182e+01   8.1551235575e+00    0.2625673    0.1966956 -43.25 0.0004905913    1.412    0.292
       106  -8.9230    233.3586    211.3140   6.8990111127e+01  -3.9242918956e+00    0.2916283    0.1319356 -27.21  0.001286092    2.240    0.554
       107  -8.6980    247.0302    211.4900   6.6635653132e+01  -5.6912248640e+00    0.1653428    0.1104459  23.13 0.0004844209    1.538    0.350
       108  -8.8116    173.0309    211.3615   8.0984950665e+01   4.8938265990e+00    0.2381719    0.1234366  33.67  0.001070715    1.846    0.458
       109  -8.8595    227.2297    206.5663   6.9232795627e+01  -2.3370499590e+00    0.2208452    0.1757524  49.47  0.001314047    1.859    0.462
       110 -10.5968    124.0090    206.0032   9.1348311803e+01   1.3945698579e+01    0.1998607    0.1887371  25.36   0.00115359    1.002    0.002
       111  -9.1348    165.9063    204.9816   8.1408271807e+01   7.2797401947e+00    0.2100254    0.1886173  -4.99 0.0003256278    1.030    0.029
       112 -11.2172    194.5044    197.5156   7.3880806898e+01   4.0922951624e+00    0.5392625    0.3451167 -57.03  0.002329318    2.162    0.538
       113 -11.5855    191.7791    192.3694   7.3454628076e+01   5.4988750813e+00    0.7650685    0.4763557 -69.43  0.002814972    3.906    0.744
       114 -10.6727    241.2635    197.7712   6.5118613595e+01  -2.8032569713e+00    0.3992756    0.1531795 -39.76  0.001793023    2.263    0.558
       115 -10.8266    244.7457    193.7111   6.3771065551e+01  -2.6124529944e+00    0.3001134    0.2315189  32.06  0.001349483    1.520    0.342
       116  -9.3303     26.9477    198.9468   1.1424595828e+02   2.8747334593e+01    0.1879683    0.1641915  88.14 0.0002929364    1.055    0.052
