#   1 NUMBER                 Running object number                                     
#   2 MAG_AUTO               Kron-like elliptical aperture magnitude                    [mag]
#   3 X_IMAGE                Object position along x                                    [pixel]
#   4 Y_IMAGE                Object position along y                                    [pixel]
#   5 X_WORLD                Barycenter position along world x axis                     [deg]
#   6 Y_WORLD                Barycenter position along world y axis                     [deg]
#   7 A_WORLD                Profile RMS along major axis (world units)                 [deg]
#   8 B_WORLD                Profile RMS along minor axis (world units)                 [deg]
#   9 THETA_WORLD            Position angle (CCW/world-x)                               [deg]
#  10 FWHM_WORLD             FWHM assuming a gaussian core                              [deg]
#  11 ELONGATION             A_IMAGE/B_IMAGE                                           
#  12 ELLIPTICITY            1 - B_IMAGE/A_IMAGE                                       
         1 -16.0178    146.3027    146.2640   9.9712101423e+01   2.3809106415e+01     2.155038     1.289153 -86.82  0.006343765    5.204    0.808
         2 -14.7825    135.9076    128.2850   9.8228348053e+01   2.9641363905e+01     2.256628    0.4642803 -51.40  0.004928462    7.028    0.858
         3 -15.0526    167.7404     48.1591   6.8215818341e+01   3.7206875948e+01      1.35147     1.032593   2.07  0.004127699    1.579    0.367
         4 -15.1576    184.2639     17.6632   5.6057664360e+01   3.6786771581e+01     1.087172    0.9863051  39.46  0.004350308    1.168    0.144
         5 -10.6959    151.6118    235.9917   1.1322424589e+02   7.0245394279e+00    0.1671605    0.1342808  42.31  0.001156963    1.016    0.016
         6 -19.5413     69.6763    157.8361   1.1998748782e+02   3.4275365913e+01     16.44375     6.574826 -68.90   0.06947892    2.562    0.610
         7 -11.7664    112.8405    195.7015   1.1554512849e+02   1.9990380966e+01     0.402356    0.2993995   0.93  0.001820513    2.340    0.573
         8 -11.2420    133.5946    195.5944   1.1124348455e+02   1.6573557740e+01    0.2331826    0.1886627  59.21  0.001412473    1.174    0.148
         9 -11.7239    102.5265    240.4920   1.2255831770e+02   1.3755679066e+01    0.2038774    0.1529392  66.12  0.001454397    1.194    0.162
        10 -13.8950    162.7866    181.2458   1.0286703964e+02   1.3939955034e+01    0.4004033    0.2997508 -65.91  0.002138595    1.740    0.425
        11 -11.2582     36.6561    186.2003   1.3022185300e+02   3.2173577143e+01     0.178775    0.1494893  51.08 0.0008637361    1.295    0.228
        12 -10.3196     25.5370    185.0396   1.3234860619e+02   3.3548154349e+01    0.1400039   0.09060303 -81.65 9.547875e-05    1.319    0.242
        13 -12.0573     30.8404    182.9631   1.3113693943e+02   3.3439995499e+01    0.2150539    0.1519347  41.19 0.0005542671    1.501    0.334
        14 -12.5465    209.8649    187.7197   9.4806502938e+01   4.2353024337e+00    0.2322074    0.1800982 -65.52   0.00125618    2.132    0.531
        15 -12.1222      7.5345    175.9381   1.3530338388e+02   3.7030127562e+01    0.3375218    0.1656925  68.13  0.001153243    1.772    0.436
        16 -10.6961     11.9368    174.0021   1.3430415482e+02   3.7054123272e+01    0.1444111     0.110653 -61.66 0.0004358576    1.521    0.343
        17 -14.2296    187.3075    176.0492   9.6930753016e+01   1.0214044471e+01    0.6913281    0.4279387 -51.74  0.002521921    2.043    0.511
        18 -12.8207    186.3083    170.3335   9.6021341274e+01   1.1365076559e+01    0.2883402    0.2198057   8.53  0.001166681    1.490    0.329
        19 -12.6031    193.7661    171.2503   9.4721946378e+01   9.7765148815e+00    0.2854562     0.258837  27.90 0.0007030393    1.055    0.052
        20 -11.0240     31.3534    171.0678   1.3006682395e+02   3.5861269565e+01    0.1723219    0.1563072  17.20 0.0002535098    1.568    0.362
        21 -13.1253    176.7314    169.2895   9.7761077932e+01   1.3400870949e+01     0.304736    0.2012377 -46.23  0.001521064    1.676    0.404
        22 -12.1439    110.8112    229.6060   1.1997527403e+02   1.4306354534e+01    0.2333893    0.1721292 -71.74   0.00125289    1.571    0.363
        23 -11.5254     25.6342    164.9248   1.3077163074e+02   3.7723310415e+01    0.2369084    0.1810162 -14.44  0.001511967    2.248    0.555
        24 -15.9538    133.8685    145.9640   1.0254629758e+02   2.6312203437e+01     1.670478    0.8909525 -62.84  0.006610152    2.500    0.600
        25 -11.2298    114.8071    229.2892   1.1920278255e+02   1.3760203280e+01    0.1564853     0.150397 -88.08 0.0003719823    1.279    0.218
        26 -12.3268    187.2527    153.4545   9.2368369990e+01   1.4104863605e+01    0.3858268    0.2211968  32.65  0.001690041    1.864    0.463
        27 -11.4981    191.8180    151.7171   9.1072659753e+01   1.3480284214e+01    0.2651379    0.1874496 -64.10  0.001218644    2.099    0.524
        28 -10.6617    162.9982    245.4648   1.1235806426e+02   3.9332394478e+00    0.1888268   0.08996783  40.84 7.840466e-05    1.617    0.382
        29 -12.9227    161.6180    149.4417   9.6939560851e+01   2.0085391841e+01    0.3003741    0.2487972 -84.89 0.0008495821    1.545    0.353
        30 -12.2442    174.5926    149.2096   9.4086526624e+01   1.7468773215e+01    0.2788266    0.2019515  44.55 0.0008224354    1.328    0.247
        31 -14.0605      3.0466    127.2832   1.3275505861e+02   4.7751018189e+01    0.7643939    0.2962778 -88.66  0.003626519    2.492    0.599
        32 -13.9611      7.1797    138.7350   1.3273562977e+02   4.4946056866e+01    0.5307705    0.3419501 -70.66  0.003118352    1.297    0.229
        33 -11.6464      1.8091    139.9388   1.3408241937e+02   4.5059347240e+01    0.1934543    0.1529431 -59.84 0.0004999427    1.386    0.278
        34 -13.1505    160.6945    128.1956   9.2373530702e+01   2.4455377365e+01    0.4083429     0.349979 -73.04   0.00208766    1.374    0.272
        35 -13.0442     12.9882    137.9832   1.3129142409e+02   4.4679460101e+01    0.2255759    0.1862035 -36.05 0.0008302997    1.621    0.383
        36 -10.9869    231.2635    113.8303   7.5040426404e+01   1.1554606869e+01    0.2233444    0.2000316  63.31 0.0007874203    1.303    0.232
        37 -12.2690    168.1511    113.0129   8.6949338907e+01   2.5781337293e+01    0.4204021    0.3222637 -65.25  0.001508581    1.618    0.382
        38 -12.7824    130.1528    157.4731   1.0566060667e+02   2.4617475160e+01    0.2612077    0.2271769  78.79 0.0007585333    1.216    0.177
        39 -13.0618    104.4367    249.3296   1.2303585010e+02   1.2116581710e+01    0.2934094     0.238918 -14.22  0.002035683    2.195    0.544
        40 -11.3342    140.3513    219.9988   1.1328623513e+02   1.1267802854e+01    0.3093331     0.138233 -52.79  0.001516296    2.713    0.631
        41 -10.7990     90.6911    244.7697   1.2501074456e+02   1.4728348125e+01    0.2039538    0.1512415 -30.70  0.001306006    2.589    0.614
        42 -11.0814    205.6988    110.1469   7.8598282350e+01   1.7742747387e+01      0.24604     0.208881  61.89 0.0006323827    1.310    0.237
        43 -14.1479      6.7842    120.8217   1.3121018183e+02   4.8943128706e+01    0.4600459    0.3185251  58.61  0.001768784    1.497    0.332
        44 -11.3344    152.4988    219.4009   1.1089242193e+02   9.3727608879e+00    0.1862239    0.1782887 -57.26 0.0005467036    1.265    0.210
        45 -11.6961      8.6380    102.3374   1.2866777035e+02   5.2980850694e+01    0.2430263    0.1874155 -88.95   0.00130581    1.163    0.140
        46 -12.7667    103.9572    236.5128   1.2192344710e+02   1.4186320366e+01    0.2619623    0.1742301  55.87  0.001168646    1.224    0.183
        47 -12.5746    100.7658    245.5279   1.2332970251e+02   1.3215121574e+01     0.325656    0.2483597  75.66  0.002402964    1.293    0.227
        48 -11.0328    113.1200    205.8460   1.1679926584e+02   1.8063889812e+01    0.1894573    0.1435439  59.88  0.001174356    1.182    0.154
        49 -13.9088    155.5554     62.1013   7.5130537078e+01   3.8110060040e+01    0.5224874    0.4603704  51.73  0.000950598    1.127    0.113
        50 -11.9590     11.4838    206.0090   1.3623816506e+02   3.0799475257e+01    0.2199733    0.1484178  40.26  0.001640064    1.595    0.373
        51 -11.8350    134.6038    239.3749   1.1670327136e+02   9.1737291176e+00    0.1709127    0.1535127  74.17 0.0006377976    1.241    0.195
        52 -13.0306    172.6497     40.1191   6.4784460989e+01   3.7073136399e+01     0.397455    0.3720617   4.53 0.0007803975    1.130    0.115
