#   1 NUMBER                 Running object number                                     
#   2 MAG_AUTO               Kron-like elliptical aperture magnitude                    [mag]
#   3 X_IMAGE                Object position along x                                    [pixel]
#   4 Y_IMAGE                Object position along y                                    [pixel]
#   5 X_WORLD                Barycenter position along world x axis                     [deg]
#   6 Y_WORLD                Barycenter position along world y axis                     [deg]
#   7 A_WORLD                Profile RMS along major axis (world units)                 [deg]
#   8 B_WORLD                Profile RMS along minor axis (world units)                 [deg]
#   9 THETA_WORLD            Position angle (CCW/world-x)                               [deg]
#  10 FWHM_WORLD             FWHM assuming a gaussian core                              [deg]
#  11 ELONGATION             A_IMAGE/B_IMAGE                                           
#  12 ELLIPTICITY            1 - B_IMAGE/A_IMAGE                                       
         1 -13.4335     12.8277     57.6940   1.1803148395e+02   6.2626640921e+01     1.251915    0.1431841 -66.81  0.003825104    5.276    0.810
         2 -13.7269     12.9793      8.0124   1.0350592235e+02   7.2812077691e+01     1.544501    0.7836946 -16.69  0.008235409    2.533    0.605
         3 -11.3133      3.1747      3.0322   1.0715721109e+02   7.4364779145e+01    0.4782086    0.3127412 -16.04  0.003317894    1.564    0.361
         4 -14.1222     19.5739     32.9909   1.0921562533e+02   6.7465052458e+01    0.9599326    0.7460564 -21.90  0.006641004    1.352    0.261
         5 -12.5426    205.2755     20.9701   5.2006968467e+01   3.0894198123e+01    0.6603403    0.3524515  20.98  0.002255962    3.120    0.679
         6 -14.0823      4.4220     40.4797   1.1795715600e+02   6.6801366323e+01     1.996251    0.4368471 -63.92  0.008405908    2.918    0.657
         7 -11.5236    211.9628     12.4004   4.8732508868e+01   3.0066099413e+01    0.5912783    0.4615021 -45.70  0.003191388    1.238    0.192
         8 -12.2499    131.8186      7.6599   5.8746186818e+01   5.1844857821e+01    0.6731299    0.4544051 -36.98   0.00330972    1.571    0.363
         9 -11.1414     31.7592    189.7461   1.2711481919e+02   3.2889403771e+01    0.3406689    0.2390732 -80.61  0.001865745    1.363    0.266
        10 -13.9983    145.7441    213.7956   1.0793425772e+02   1.3137020394e+01     2.643596     1.001316  46.69   0.01267535    2.128    0.530
        11 -13.4086    127.6344    231.3290   1.1313689181e+02   1.3415407485e+01     1.162662    0.8321776 -77.86  0.008197823    1.804    0.446
        12 -13.5073    136.5729    195.3821   1.0727615201e+02   1.7487655380e+01     1.483821    0.7190082 -59.53  0.007347574    2.670    0.625
        13 -14.1737    143.0202    241.9459   1.1160190395e+02   9.6904646623e+00     1.942774     1.122285  27.68   0.01166039    2.099    0.524
        14 -13.6152    156.9561    233.8634   1.0835835972e+02   8.6182709641e+00     1.218286    0.7948744  36.53  0.008219238    1.271    0.213
        15 -14.3286     97.2621    202.0211   1.1564910782e+02   2.2505227592e+01     1.645105     1.195979 -80.12   0.01111057    1.479    0.324
        16 -15.1128    117.1345    195.2310   1.1104143273e+02   2.0665214717e+01     2.549155     1.899594 -86.49   0.01627702    1.527    0.345
        17 -12.1999     98.6999    234.4222   1.1840425996e+02   1.7112330679e+01    0.5484278    0.3427645  45.10    0.0023928    1.266    0.210
        18 -13.1134     98.8799    245.9404   1.1930384936e+02   1.5424095184e+01    0.9569648    0.4489084  44.11  0.006089181    1.569    0.363
        19 -12.0342     89.2775    244.6423   1.2077777942e+02   1.6882386770e+01    0.5217133    0.3427988  35.30  0.003353303    1.652    0.395
        20 -13.7054     64.4390    246.7653   1.2491914645e+02   1.9687187268e+01    0.8286069    0.4699886  46.88  0.005826592    1.333    0.250
        21 -12.4329     62.0108    238.8102   1.2483535122e+02   2.1166583902e+01    0.5241312    0.4221475  10.85  0.003885325    2.436    0.589
        22 -15.7824     10.4381    131.0120   1.2760432743e+02   4.6608563377e+01      3.64147     1.932439  87.38   0.02211514    1.575    0.365
        23 -16.1303     10.4772    201.5146   1.3155018686e+02   3.2806784420e+01     1.858751    0.7240644 -88.98   0.01124466    2.237    0.553
        24 -15.4511     15.1821    247.1471   1.3247705288e+02   2.4954326233e+01    0.8622363    0.4480343  31.52  0.006080538    2.526    0.604
        25 -16.4997      8.6528    237.3343   1.3313407096e+02   2.7060573831e+01     1.304679    0.7347249  44.25   0.01023737    1.539    0.350
        26 -15.3601     26.1122    211.1810   1.2930357174e+02   2.9633588234e+01     1.790878    0.7127104 -84.70   0.01076257    2.355    0.575
        27 -10.3135     83.8249    186.2972   1.1664061941e+02   2.7239360034e+01    0.2186729    0.1673498  61.41  0.001469217    1.066    0.062
        28 -12.5835    159.6379    186.4317   1.0150003455e+02   1.4956779991e+01     1.058457    0.7656242  13.81  0.005907006    1.841    0.457
        29 -10.3510     69.2180    184.3912   1.1939068298e+02   2.9563129848e+01     0.272822    0.1485427  46.95 0.0009814413    1.561    0.359
        30 -10.6638     71.9803    181.7494   1.1857424287e+02   2.9705529676e+01    0.2780613    0.1689026  54.95 0.0009610754    1.389    0.280
        31 -10.6856     73.8534    178.6543   1.1787576923e+02   3.0051919634e+01    0.4176214     0.252708  73.90   0.00156963    1.655    0.396
        32 -10.3900     40.3084    182.6678   1.2499924891e+02   3.3323355430e+01    0.3178404    0.1654248  86.48  0.001905145    1.793    0.442
        33 -11.6538     33.2295    177.3596   1.2602068574e+02   3.5089224877e+01      0.44404    0.3543128  53.05  0.002019904    1.272    0.214
        34 -10.8079     39.7893    172.4762   1.2433736141e+02   3.5358522655e+01    0.3256475    0.2667898 -36.07  0.002283462    1.962    0.490
        35 -10.5666     54.6833    177.7650   1.2172957245e+02   3.2641019646e+01    0.3864166    0.1878363 -84.07  0.002096155    2.105    0.525
        36 -13.8802    162.1752    145.4043   9.3682590239e+01   2.1430790273e+01     1.274186    0.8617643 -25.67  0.006179258    1.885    0.469
        37 -13.9670    176.2236    163.9876   9.4412713670e+01   1.5480352360e+01      1.93105     1.276642  11.38  0.009136035    2.230    0.552
        38 -10.0939     27.1429    166.6905   1.2650870225e+02   3.7791316992e+01    0.2083121    0.1328376 -80.31  0.001098334    1.364    0.267
        39 -13.1777     61.6201    135.5233   1.1555307973e+02   4.0565718034e+01     2.377425     1.112203  87.02  0.009264557    3.484    0.713
        40 -12.4801     92.2761    157.4797   1.1132116170e+02   3.1641439438e+01    0.7794338    0.6348661  82.03  0.003145737    1.145    0.127
        41 -11.9511     62.2189    161.3709   1.1853236525e+02   3.5002075987e+01    0.5050866    0.3452927 -40.67  0.002254097    2.229    0.551
        42 -13.6687     58.0355    152.6928   1.1851841334e+02   3.7319896400e+01     1.241069    0.8060589 -83.38  0.006664502    1.419    0.295
        43 -11.4717     70.7708    164.3327   1.1698031353e+02   3.3297593811e+01    0.3163029    0.2366128 -47.63  0.001153807    1.751    0.429
        44 -13.7487     75.2920    156.7329   1.1506759775e+02   3.4247239129e+01     1.176389    0.7020287  33.04  0.005532359    1.904    0.475
        45 -10.4700    139.9441    163.4236   1.0176236315e+02   2.2436964552e+01    0.4318247     0.218559  50.35  0.001984833    1.850    0.459
        46 -14.7735    182.5026    137.9585   8.7913890732e+01   1.8536909333e+01      2.31745     1.541478 -40.31   0.01148025    1.605    0.377
        47 -11.5012    123.9840    151.8401   1.0326686244e+02   2.7526086956e+01    0.5045981    0.3625448  16.78  0.002512902    2.060    0.515
        48 -12.2116     38.3801    142.9943   1.2204686481e+02   4.1577850009e+01    0.6816487    0.4790032 -47.78   0.00390038    1.822    0.451
        49 -12.0242    190.8664    170.1373   9.2721867920e+01   1.1722380415e+01    0.6571462    0.3190478  29.18  0.002733621    2.574    0.612
        50 -11.3670    128.4284    141.2867   1.0034149515e+02   2.8808328270e+01    0.2969651    0.2871998 -32.81  0.001806889    1.176    0.149
        51 -10.3773     90.5828    144.0567   1.0973577753e+02   3.4690142647e+01    0.2116026    0.1838117  40.15   0.00047898    1.266    0.210
        52 -11.6988    112.4162    132.4010   1.0244187233e+02   3.3549741970e+01    0.6916319    0.3939952  55.56   0.00317513    1.858    0.462
        53 -13.3245    115.5129    123.7486   9.9957410193e+01   3.4815852548e+01      1.07714    0.5751135 -62.52  0.004577975    2.190    0.543
        54 -12.9172    108.6673    120.2739   1.0096314157e+02   3.6795187311e+01     1.243978    0.5916957 -49.24   0.00527184    2.124    0.529
        55 -13.0791     70.0263    121.3449   1.1127476376e+02   4.2616946720e+01     1.046176    0.7263142  86.69  0.004842757    1.529    0.346
        56 -12.8452     75.9911    116.1209   1.0877209768e+02   4.2961374413e+01    0.9337038    0.6988829 -59.28  0.005354964    1.269    0.212
        57  -8.8418     99.3280    129.3179   1.0509884908e+02   3.6451154961e+01    0.1313368    0.1093189 -17.15 0.0007046337    1.680    0.405
        58 -12.7680    109.4857    234.7757   1.1659416808e+02   1.5556844423e+01    0.6325976    0.4372618  53.04  0.002769201    1.072    0.067
        59 -14.8767     13.2926    178.6832   1.2998161383e+02   3.6732751827e+01     1.644828    0.8738022  88.71   0.01102264    1.530    0.346
        60 -12.4421     62.7785    107.9463   1.1096880215e+02   4.6585189177e+01    0.5760694    0.4644846  81.72  0.003501336    1.225    0.184
        61 -12.8625    135.3488    105.2095   9.0769574672e+01   3.4761013714e+01    0.7299288    0.4491276 -63.33  0.003050783    2.122    0.529
        62 -12.5608    142.8302     97.3408   8.6906149589e+01   3.4721097176e+01    0.7163195    0.4662464 -45.97   0.00324985    1.559    0.359
        63 -11.4851     30.2366     93.9286   1.1822780432e+02   5.3238749919e+01    0.3938107     0.249511 -52.00  0.002126919    1.522    0.343
        64 -12.2999     31.3637     85.2137   1.1648728134e+02   5.5116870364e+01    0.7737449    0.3921977 -80.17  0.003862576    2.007    0.502
        65 -13.1899    222.1561     92.8348   6.9716766675e+01   1.6966630922e+01    0.7273567    0.3878789 -21.41  0.003023863    2.053    0.513
        66 -12.1180     52.0709     90.1903   1.1083595350e+02   5.1914190689e+01     1.171534    0.5168854 -70.96  0.005030162    2.408    0.585
        67 -11.7109     68.5910     87.5491   1.0511395134e+02   5.0441212672e+01    0.6787518    0.3988321  51.95  0.003323474    1.972    0.493
        68 -13.7416     14.5528     90.7338   1.2255202852e+02   5.5159798276e+01     1.307944    0.7251018  18.01  0.006926168    2.395    0.583
        69 -11.9756     27.5679     74.2580   1.1581080643e+02   5.7907592072e+01    0.5303708    0.4051622  20.67  0.003480611    1.633    0.388
        70  99.0000     43.3499    237.4989   1.2776561371e+02   2.3512675772e+01    0.3910514    0.2327612  44.50  0.002681951    1.442    0.306
        71 -13.1959     21.7586     47.7807   1.1232647819e+02   6.4193135386e+01    0.6087058    0.2889033 -49.72  0.003283566    1.691    0.409
        72 -10.1217     49.0907    233.7746   1.2664592163e+02   2.3450493107e+01    0.1997269     0.155823  41.51  0.001320955    1.514    0.340
        73 -10.4845     75.3813    234.8383   1.2237325993e+02   2.0128282298e+01    0.4618759    0.2005001  61.08  0.002701199    2.090    0.522
        74 -10.2577     82.3158    224.3067   1.2040417904e+02   2.0877031130e+01    0.4444178    0.2307539 -87.86  0.002634345    2.385    0.581
        75 -11.2309    189.8565     35.6524   5.8610953910e+01   3.3216826034e+01    0.2610406    0.2132267  -9.08 0.0008972693    1.329    0.247
        76  -9.8652     85.3558    219.9731   1.1951570538e+02   2.1167985329e+01    0.2179488    0.1823345 -87.34  0.001706085    1.319    0.242
        77  -9.6291     45.2868    214.2779   1.2616530648e+02   2.7065269520e+01   0.08284074   0.07827302  80.03 0.0004033158    1.516    0.340
        78 -13.1720     76.7680    196.4983   1.1904012007e+02   2.6332263323e+01    0.9972328    0.5877615 -64.48   0.00569337    1.850    0.460
