#   1 NUMBER                 Running object number                                     
#   2 MAG_AUTO               Kron-like elliptical aperture magnitude                    [mag]
#   3 X_IMAGE                Object position along x                                    [pixel]
#   4 Y_IMAGE                Object position along y                                    [pixel]
#   5 X_WORLD                Barycenter position along world x axis                     [deg]
#   6 Y_WORLD                Barycenter position along world y axis                     [deg]
#   7 A_WORLD                Profile RMS along major axis (world units)                 [deg]
#   8 B_WORLD                Profile RMS along minor axis (world units)                 [deg]
#   9 THETA_WORLD            Position angle (CCW/world-x)                               [deg]
#  10 FWHM_WORLD             FWHM assuming a gaussian core                              [deg]
#  11 ELONGATION             A_IMAGE/B_IMAGE                                           
#  12 ELLIPTICITY            1 - B_IMAGE/A_IMAGE                                       
         1 -11.9144    208.1119     35.0118   3.7831467833e+01   2.9675822412e+01    0.5795764     0.547331 -88.60  0.001203926    1.209    0.173
         2  -9.9601     33.0000      5.0456   6.7912619272e+01   7.0680985850e+01    0.5091357   0.08237015 -29.19  0.001275743   10.078    0.901
         3 -11.9618    233.4225      8.5802   2.9947811477e+01   2.7408121774e+01    0.7880297    0.6062152 -68.65  0.005586609    1.029    0.028
         4 -10.3556    128.2222    247.8762   9.9080658990e+01   4.6769159490e+00    0.2690853    0.1613154  20.53  0.001354717    1.922    0.480
         5 -11.1849    107.4249    249.2419   1.0359781004e+02   7.4888023999e+00    0.5120683    0.3239937  12.82  0.002552363    2.317    0.568
         6  -9.7378     71.8246    249.0065   1.1092313129e+02   1.2494974159e+01      0.26341     0.190823  88.79  0.001648264    1.434    0.303
         7 -10.5264     71.8815    244.8331   1.1053203422e+02   1.3307709462e+01    0.5084139    0.2791879  53.48  0.002743325    1.617    0.382
         8 -16.9792      9.3154    242.8313   1.2267564609e+02   2.0998012661e+01     14.56322     4.092164 -78.09   0.02332634    3.255    0.693
         9 -10.9048     60.1516    217.0521   1.1037686252e+02   2.0723568413e+01    0.7265747    0.3700271 -57.17   0.00201099    2.081    0.519
        10 -11.1256     56.9459    211.0072   1.1048874752e+02   2.2502111749e+01    0.5307733    0.4216493  33.06  0.002646994    1.363    0.266
        11 -10.8927     54.3856    206.2286   1.1058629908e+02   2.3926844683e+01    0.3421277    0.2294707 -87.33  0.001236967    1.454    0.312
        12 -10.7659    113.9801    214.7768   9.7747095700e+01   1.3384730297e+01    0.3466623    0.2229287  19.81  0.001286463    1.896    0.473
        13  -8.7523     75.2989    209.3874   1.0606109268e+02   2.0414360650e+01    0.1948152    0.1108221  45.60 0.0007249089    1.610    0.379
        14  -9.5026     41.2744    208.2522   1.1378111542e+02   2.5039532842e+01    0.3051965    0.1880896  79.05  0.001312694    1.583    0.368
        15  -8.7705     64.6496    205.7164   1.0813372301e+02   2.2717807709e+01    0.2360293    0.1596169 -84.25  0.001105646    1.492    0.330
        16 -10.5860     72.3304    217.3309   1.0765758455e+02   1.9036203754e+01    0.3944786    0.3032057  48.23  0.001881734    1.177    0.150
        17  -9.7189    123.1746    200.0789   9.3332127585e+01   1.5082016744e+01    0.3347314    0.1963577 -82.33  0.001240509    3.174    0.685
        18 -10.5163    110.6806    204.1685   9.6957536233e+01   1.6233133808e+01    0.4389526    0.1903552  29.95  0.001664785    2.550    0.608
        19  -8.5554     59.0870    196.8357   1.0844706310e+02   2.5541171084e+01    0.2066962    0.1583515  67.59  0.000422321    1.225    0.184
        20 -11.5302     56.5828    184.2894   1.0756949647e+02   2.8910135618e+01    0.6918913    0.6103925  82.36  0.002645766    1.012    0.011
        21  -8.5170     85.4028    186.1783   1.0048705794e+02   2.4422480242e+01    0.3290447    0.1957081  75.51  0.001343788    2.379    0.580
        22  -8.5394     82.7513    182.6097   1.0063225998e+02   2.5694174946e+01    0.2349651    0.1928621 -65.15 0.0009494039    1.196    0.164
        23  -8.9567     99.1126    181.0791   9.6168668622e+01   2.3504687991e+01    0.2207163    0.2003618 -21.61 0.0006902146    1.271    0.213
        24  -9.0090     37.0416    180.8218   1.1209629256e+02   3.2069919055e+01    0.2142869    0.1538981  68.29 0.0007661573    1.328    0.247
        25  -8.8371     41.3343    179.0117   1.1081555993e+02   3.2043870340e+01    0.1913143    0.1525679 -81.22 0.0003955131    1.111    0.100
        26 -15.2974      6.4468    206.7573   1.2126234304e+02   2.8943938344e+01      3.97236     1.890891 -72.20   0.02148048    1.835    0.455
        27  -9.0261    114.6800    174.3286   9.0971221058e+01   2.2499849894e+01     0.157061    0.1164866  73.98 0.0006357098    1.687    0.407
        28 -10.2068    102.3371    172.8236   9.3911604463e+01   2.4985036400e+01    0.2868097    0.1831045  49.97  0.001279475    1.625    0.384
        29  -9.9480     69.6010    171.1994   1.0237795198e+02   3.0448617545e+01    0.2890888    0.2619136 -51.14 0.0004898443    1.179    0.152
        30 -11.1171     73.7821    166.5248   1.0051915195e+02   3.1039453321e+01    0.5810799    0.3546931 -49.27  0.002660569    1.676    0.403
        31 -10.2854    101.6697    244.6771   1.0429018086e+02   9.1842239286e+00    0.3223047    0.1145521 -58.56  0.001357918    3.130    0.680
        32 -11.5625     82.0528    158.6480   9.6898064141e+01   3.1811932710e+01    0.7797517    0.5266932  58.07  0.003594507    1.655    0.396
        33 -11.7705     71.0947    152.6861   9.8960875913e+01   3.4966669120e+01    0.4912794    0.3789089 -47.60 0.0009219056    1.310    0.237
        34 -11.7849     70.0074    144.4675   9.7802949015e+01   3.7238448056e+01     0.749333    0.5393499  63.53  0.002378633    1.601    0.375
        35  -9.9401     88.3002    152.5544   9.4009368258e+01   3.2378427897e+01    0.4685365    0.3101841 -33.89 0.0007621817    1.854    0.461
        36 -10.0675     92.5033    149.5012   9.2216599399e+01   3.2463722216e+01    0.3540117     0.295517 -76.11  0.001534489    1.237    0.191
        37  -9.8498    134.4157    148.4760   8.0575955185e+01   2.5000686787e+01    0.5518021    0.1548415 -51.96  0.001514563    3.812    0.738
        38  -9.1448     38.5254    146.0694   1.0739193364e+02   4.0714850561e+01     0.254463    0.1753479  52.51 0.0007738083    1.561    0.359
        39 -10.7754     49.1271    249.1437   1.1547181768e+02   1.5351676075e+01    0.2381725    0.1843649  82.15 0.0005914165    1.191    0.161
        40  -9.9279    102.2445    138.7493   8.7162569585e+01   3.3479941190e+01    0.4864095    0.3107949 -19.14  0.001830068    2.565    0.610
        41  -9.8947    105.8471    131.2760   8.4421365048e+01   3.4668033824e+01    0.5432662    0.2678181 -52.87  0.002060772    1.980    0.495
        42 -10.5053     90.6325    137.0984   9.0189937236e+01   3.5914158606e+01    0.3058717    0.2587279 -46.11  0.000375923    1.158    0.137
        43 -11.1455     59.5011    134.6762   9.9170743167e+01   4.1196358857e+01    0.5793034    0.2786289 -72.50   0.00219217    2.441    0.590
        44 -10.0184     83.9016    245.1697   1.0807263645e+02   1.1608270102e+01    0.2839505    0.1730088 -84.63  0.001087488    1.989    0.497
        45  -9.8554    112.4393    128.8244   8.1950876468e+01   3.4015737880e+01    0.3629235    0.2242319  17.78  0.001359921    2.438    0.590
        46  -9.2168    135.4023    128.2075   7.5554987361e+01   2.9536180450e+01    0.2335731    0.1487262 -57.04 0.0008681698    1.699    0.411
        47  -9.3021     99.1991    124.6729   8.4806024425e+01   3.7507333017e+01    0.2927918    0.2328818 -31.61 0.0005299886    1.350    0.259
        48 -11.2936     22.2639    119.0565   1.0837666571e+02   4.9109158060e+01    0.3841782    0.2831841  86.44  0.001489262    1.444    0.307
        49 -11.5029     31.1363    117.9623   1.0526974963e+02   4.8622324601e+01    0.5273715    0.2546439  38.10  0.001648937    2.302    0.566
        50  -8.4081    107.9225    118.1568   8.0612793448e+01   3.7442416973e+01    0.2079335    0.1813789   3.38 0.0004087162    1.297    0.229
        51  -8.4658    231.5637    113.7736   5.2611510374e+01   1.2398779105e+01    0.1974812    0.1117318 -48.52 0.0009387558    1.602    0.376
        52 -10.3978    114.7116    108.8163   7.6197803223e+01   3.8265196783e+01    0.5797848    0.1721834 -46.35  0.001709307    3.280    0.695
        53 -11.4319     31.6148    108.0568   1.0330652106e+02   5.1052984655e+01    0.4494618     0.341707 -63.01   0.00254214    1.155    0.134
        54  -7.9570    205.6703    110.3210   5.5979670987e+01   1.8165362877e+01    0.1493503    0.1082109 -71.17 0.0007048682    1.692    0.409
        55 -10.4382     48.4904    106.7873   9.7130266591e+01   4.9603919858e+01    0.2500863     0.204938  23.07  0.001052052    1.349    0.259
        56 -11.0875     32.5556     98.9967   1.0115199863e+02   5.3183855389e+01    0.5674052    0.2382078 -58.57  0.002436189    1.975    0.494
        57  -9.5280     73.6244    238.0466   1.0952506395e+02   1.4440022994e+01    0.2924041     0.147006 -67.27  0.001472068    2.125    0.529
        58 -10.2320     94.0977    236.1087   1.0493960516e+02   1.1965727435e+01     0.206436    0.1691922 -57.80 0.0004018352    1.384    0.278
        59  -9.8273    119.6063    246.2154   1.0068462896e+02   6.2602701873e+00    0.1650662    0.1187516 -43.55 0.0007819147    1.657    0.397
        60 -11.1992    187.3775     52.3491   4.4656527016e+01   3.2041628978e+01    0.3885235    0.3244797  61.80  0.001134806    1.228    0.186
        61 -12.1098    198.6295     44.0543   4.1075022262e+01   3.0613763540e+01    0.8047814    0.7424573 -55.55  0.003518289    1.159    0.137
        62 -10.0062    140.1073    248.7431   9.6710725999e+01   2.7526190833e+00    0.2715571    0.1946341  71.35  0.001484059    2.043    0.511
        63 -13.0211    127.0606    227.9639   9.6669012611e+01   8.6041204373e+00    0.8591006    0.5777485 -55.80  0.004606781    1.665    0.400
        64 -10.5329     32.8034     31.9137   8.0693109367e+01   6.7041133179e+01     0.506737   0.07405469 -42.65  0.001487071    5.937    0.832
        65 -11.4145    141.5878    228.8294   9.3602420501e+01   6.1471517109e+00    0.4216874    0.2680757 -24.72  0.002030384    2.170    0.539
        66 -10.7732    115.1295    247.4047   1.0177081725e+02   6.7030114125e+00    0.3876831    0.2329957 -77.74   0.00194068    2.446    0.591
