#   1 NUMBER                 Running object number                                     
#   2 MAG_AUTO               Kron-like elliptical aperture magnitude                    [mag]
#   3 X_IMAGE                Object position along x                                    [pixel]
#   4 Y_IMAGE                Object position along y                                    [pixel]
#   5 X_WORLD                Barycenter position along world x axis                     [deg]
#   6 Y_WORLD                Barycenter position along world y axis                     [deg]
#   7 A_WORLD                Profile RMS along major axis (world units)                 [deg]
#   8 B_WORLD                Profile RMS along minor axis (world units)                 [deg]
#   9 THETA_WORLD            Position angle (CCW/world-x)                               [deg]
#  10 FWHM_WORLD             FWHM assuming a gaussian core                              [deg]
#  11 ELONGATION             A_IMAGE/B_IMAGE                                           
#  12 ELLIPTICITY            1 - B_IMAGE/A_IMAGE                                       
         1 -11.9573    220.8624     36.4744   7.9473745631e+00   2.6000825227e+01    0.9989946    0.5031897 -39.92  0.003127213    1.597    0.374
         2 -15.2837    228.3934      8.8012   3.6709097420e-01   2.7752076781e+01     4.430766     1.727636  76.57   0.02021293    2.706    0.630
         3 -12.8299    178.7362     23.5872   8.8243103200e+00   3.7599543097e+01    0.9193187    0.6136947  51.75  0.004598595    1.670    0.401
         4 -12.0084    189.8085     25.6678   8.1796061377e+00   3.4618168940e+01    0.5436383    0.3454202  45.42  0.002626717    1.951    0.487
         5  -9.5634    115.9934     12.5183   1.4462936726e+01   5.4862867549e+01    0.2391822    0.1991386  13.62  0.001277963    1.298    0.229
         6 -11.1789    120.2419      9.0448   1.2184421775e+01   5.4145303781e+01    0.4518364    0.3742723  36.16  0.001583246    1.238    0.192
         7  -9.2507     97.2784      3.6857   1.4422579637e+01   6.0355199788e+01    0.1335469    0.1009489 -56.90 0.0002390378    1.568    0.362
         8 -11.3032     49.5852      9.9647   3.3949854786e+01   6.9966904246e+01    0.5156232    0.2937922  -1.29  0.002304591    2.407    0.585
         9 -10.0197    228.1924    222.6206   4.8274708459e+01  -4.4102725692e+00    0.3744556    0.1547505  21.59  0.001797897    2.682    0.627
        10 -15.0059    225.3731     83.2577   1.9428833897e+01   1.7977152533e+01     1.662848    0.9689859  32.23  0.007220591    2.685    0.628
        11 -19.5253    229.9942    133.6412   3.0756244244e+01   8.6400598491e+00     6.862636     6.247649  -3.10   0.02760371    1.173    0.147
        12 -10.4012    101.0140    175.9908   6.6977183479e+01   2.2764604311e+01    0.1987144    0.1874367  67.08  0.001168854    1.009    0.009
        13 -11.7247    138.4129    168.6551   5.6707499252e+01   1.8227169134e+01    0.3530351    0.2842417 -55.18   0.00186911    1.294    0.227
        14 -12.3130     68.1811    143.9758   7.0743587257e+01   3.5618475251e+01    0.8124976    0.4680443  69.57  0.003072084    2.201    0.546
        15  -8.8123     14.6549    139.2508   8.5621847085e+01   4.2676225158e+01    0.1371095   0.08241953  61.90 0.0002835621    1.580    0.367
        16 -11.2744    181.5565    211.8514   5.4983809750e+01   3.3005121215e+00    0.3693476    0.1553846  40.88  0.001627392    2.386    0.581
        17  -9.9926     37.0552    127.0085   7.7581947972e+01   4.3949401778e+01    0.2120897    0.1791386 -80.31 0.0002983993    1.016    0.016
        18 -14.3664     73.7603    103.0250   6.0878352280e+01   4.5784085878e+01     1.838452     1.318023  43.06  0.005963699    1.523    0.343
        19 -13.2409     61.8660     99.6505   6.4208496876e+01   4.8452108844e+01    0.6990336    0.6211255  30.42 0.0007342217    1.281    0.220
        20 -13.9545     42.1656     96.5487   7.0712341002e+01   5.1745596014e+01      1.18868    0.9664075 -68.58  0.003824803    1.059    0.056
        21 -12.2662    146.8752     78.4108   3.2050361626e+01   3.6618574731e+01    0.6234739    0.4311236   2.07  0.002412435    2.364    0.577
        22 -10.9117    140.4663     78.4584   3.3585154416e+01   3.8130261169e+01    0.3524367    0.2411882 -55.22  0.000991075    1.544    0.352
        23 -11.4775    135.8209     90.8238   3.8592254404e+01   3.6560362599e+01    0.4510693    0.3066297 -21.67   0.00119026    1.869    0.465
        24 -12.2378    137.9988     85.7998   3.6503311839e+01   3.7158692163e+01    0.7674176    0.3648543 -25.97  0.002232895    3.578    0.721
        25  -9.9781    172.8967    211.4459   5.6613324620e+01   4.6174415141e+00    0.3320366    0.1101378  35.94  0.001354428    2.730    0.634
        26 -13.7028      4.6134     87.8496   8.3588894698e+01   5.7066305748e+01    0.5286704    0.3463664  30.32  0.002751496    1.836    0.455
        27 -10.1605    182.9238    205.0718   5.3611745178e+01   4.1771655895e+00    0.2179369    0.1982474  51.65 0.0007520366    1.468    0.319
        28 -12.6002    148.3748     85.5530   3.3916192621e+01   3.4796580105e+01    0.8470691    0.5163255 -13.75  0.002905645    2.869    0.651
        29 -11.0768    128.6063     87.3015   3.9402313128e+01   3.8975619130e+01     0.302049    0.2019378 -34.34  0.001265308    1.517    0.341
        30 -10.4904     85.2809     84.5581   5.1816463227e+01   4.8599080848e+01    0.4804028    0.2596394 -53.18  0.001904167    1.730    0.422
        31 -11.9937    178.6832    249.0109   6.0899854654e+01  -1.6325403329e+00    0.3147867    0.3031664  53.04  0.001940394    1.550    0.355
        32 -11.5806    128.1260     78.1671   3.6623213469e+01   4.1080925436e+01     0.427901     0.249658 -46.26  0.001067302    1.631    0.387
        33  -9.2021    112.5236    202.0693   6.7976990789e+01   1.5366275793e+01    0.1743826    0.1296226 -58.38 0.0003489323    1.464    0.317
        34 -11.8181    233.3611     61.7536   1.3065397319e+01   1.9734963806e+01    0.2909731    0.2604031  57.61 0.0009637185    1.377    0.274
        35  -9.2074    237.5466     71.5626   1.5004492786e+01   1.7407902227e+01    0.1916388    0.1702753  76.00 0.0001364862    1.363    0.267
        36 -11.2572    235.7881     67.3439   1.4173594655e+01   1.8401227840e+01    0.3257371    0.2210763 -36.70 0.0009450895    1.193    0.162
        37 -10.9442    198.4625     69.5631   1.9660277725e+01   2.6045330911e+01    0.4851539     0.360097 -30.82   0.00154726    1.262    0.208
        38 -11.5669    206.7062     66.4645   1.7611815174e+01   2.4698186958e+01    0.5026887    0.4499387 -59.82  0.001170921    1.104    0.094
        39 -10.7959    214.8282     63.2453   1.5661893226e+01   2.3418661083e+01     0.744146    0.2780907  66.48   0.00271173    3.442    0.709
        40 -12.1522    227.2019     69.2487   1.5662926469e+01   1.9850141408e+01    0.3438162    0.2872434  54.09  0.001374543    1.453    0.312
        41  -9.8663    247.9275    200.0332   4.1178771034e+01  -3.9262354731e+00    0.2247933     0.135778   1.58 0.0009346614    1.592    0.372
        42  -9.8072    170.1278    200.4187   5.5383934883e+01   6.8681642914e+00    0.2882733    0.1868137 -13.10  0.001103236    1.920    0.479
        43 -10.2704    158.8704     67.8225   2.6087599976e+01   3.5767201516e+01    0.2234993    0.2091561 -15.16 0.0003856891    1.142    0.124
        44  -9.5430     71.1644    200.6571   7.7125594472e+01   2.1461351554e+01    0.2109156      0.15556  83.36 0.0005680723    1.335    0.251
        45 -10.5431    250.4833     62.1318   1.1360920588e+01   1.6318688619e+01    0.1855846    0.1253601 -41.08 0.0005472105    1.136    0.120
        46  -9.8774    184.3051     59.1173   1.8845004793e+01   3.1096351457e+01     0.349176    0.2559781  73.85  0.001181836    1.529    0.346
        47 -10.9966    144.0748     59.3686   2.6433078121e+01   4.0954499140e+01    0.3418788    0.2776259 -84.27 0.0009774723    1.430    0.301
        48 -10.2468    213.1834     58.2627   1.4545463669e+01   2.4555041688e+01     0.262689    0.2095169  45.70   0.00135654    1.536    0.349
        49 -10.0248    216.8627     55.6507   1.3402356417e+01   2.4142777652e+01     0.301279     0.231685  81.98  0.001658342    1.481    0.325
        50 -15.5419    193.7528    159.7293   4.2942487008e+01   1.0293259121e+01     1.509139    0.9384936 -45.20  0.007360843    1.639    0.390
        51  -9.8144    230.3797     52.2531   1.1014204299e+01   2.1750345232e+01    0.3360566    0.2252948  23.38  0.001588659    2.551    0.608
        52 -10.4596    227.6767     50.4213   1.0835966785e+01   2.2583416543e+01    0.3702952    0.3300278 -23.11  0.002275634    1.251    0.201
        53  -9.1241    236.9371     50.8784   1.0004941471e+01   2.0594340622e+01    0.2120338    0.1666077  87.82  0.001264047    1.452    0.311
        54  -9.4938    250.3724    194.9423   3.9877625596e+01  -3.5613943498e+00    0.1604239    0.1099184 -16.35  0.000281364    1.127    0.113
        55  -9.5273    205.0749     48.7344   1.2964125428e+01   2.7825164321e+01    0.1876513    0.1718591  89.40 0.0005084771    1.180    0.152
        56 -10.0388    166.8317    192.1946   5.4666007283e+01   8.8277174199e+00    0.3082267    0.2016847  35.22  0.000938625    1.452    0.311
        57 -13.2923    199.2577     37.9574   1.0647623064e+01   3.0727207687e+01    0.9689023    0.7051911  42.59  0.003305518    1.733    0.423
        58 -12.1969    210.0319     33.6891   8.2878793724e+00   2.8803486859e+01    0.7721413    0.4070095  52.73  0.002359006    2.270    0.560
        59 -12.8643    232.0218     25.7165   4.2529104136e+00   2.4984451145e+01     1.515936    0.2826616  68.26  0.004984918    5.164    0.806
        60 -10.5783    135.3885    249.0976   6.8963580303e+01   3.9437188164e+00    0.2934655     0.174317  56.53  0.001670756    2.179    0.541
        61  -9.9950    163.1484     32.3855   1.3741574043e+01   4.0388472345e+01    0.2626376    0.1862694  81.75  0.001276355    1.501    0.334
        62 -10.1109    250.2021    189.1109   3.8838646265e+01  -2.7649340400e+00    0.2776005    0.1348283 -21.80  0.001458154    1.877    0.467
        63 -12.3993    152.5089    183.4273   5.6190035172e+01   1.2793622574e+01    0.6618434    0.3929857 -52.26  0.002012299    1.846    0.458
        64 -11.6305    187.7062     42.0226   1.3270494628e+01   3.2916420286e+01    0.4791295    0.2979586 -52.89  0.002034883    1.535    0.348
        65 -12.1901    182.7791     29.4752   1.0136177372e+01   3.5850883641e+01    0.5690836     0.388768  42.57  0.002703175    1.805    0.446
        66 -10.1997     56.2706    185.0479   7.9036328047e+01   2.6872343237e+01     0.183747    0.1533362  80.54 0.0003206278    1.053    0.050
        67 -11.1443    246.4042    212.7773   4.3638241700e+01  -5.3580383301e+00    0.2583874     0.180044  21.00 0.0006992037    1.370    0.270
        68 -10.2546    174.7707     41.8914   1.5057037340e+01   3.6116608038e+01    0.3778133    0.1939186  58.95  0.001591939    2.014    0.503
        69 -11.7733    128.6162    171.7729   5.9588160976e+01   1.9226097680e+01     0.349113     0.256446 -51.31  0.001114992    1.386    0.278
