#   1 NUMBER                 Running object number                                     
#   2 MAG_AUTO               Kron-like elliptical aperture magnitude                    [mag]
#   3 X_IMAGE                Object position along x                                    [pixel]
#   4 Y_IMAGE                Object position along y                                    [pixel]
#   5 X_WORLD                Barycenter position along world x axis                     [deg]
#   6 Y_WORLD                Barycenter position along world y axis                     [deg]
#   7 A_WORLD                Profile RMS along major axis (world units)                 [deg]
#   8 B_WORLD                Profile RMS along minor axis (world units)                 [deg]
#   9 THETA_WORLD            Position angle (CCW/world-x)                               [deg]
#  10 FWHM_WORLD             FWHM assuming a gaussian core                              [deg]
#  11 ELONGATION             A_IMAGE/B_IMAGE                                           
#  12 ELLIPTICITY            1 - B_IMAGE/A_IMAGE                                       
         1  -8.5180     34.1695     23.1976   5.0231996064e+01   6.7769768526e+01    0.1505277    0.1349668  -2.75  0.001064549    1.331    0.249
         2  -9.5844    166.5471     13.4253   1.0197735847e+01   4.1581739628e+01    0.4002686    0.2101628  89.12   0.00181344    2.218    0.549
         3  -9.9913      2.6309     11.3950   6.1728355959e+01   7.2582871257e+01    0.2353306    0.1760764  11.76  0.001752768    1.411    0.291
         4 -10.4710      6.2221      8.6251   5.8349984881e+01   7.2721536271e+01    0.4017964    0.2061618  39.03  0.002167157    3.259    0.693
         5 -11.1871    237.4911      3.7990   1.1596472064e+00   2.6462642458e+01    0.6576028    0.2816623 -38.08  0.003533123    2.157    0.536
         6 -10.9578    245.3021      4.0522   6.8530373804e-01   2.4842235645e+01    0.6365324    0.2896827  85.01  0.003451647    2.070    0.517
         7  -8.1915     55.6266      9.8062   3.4702643192e+01   6.6299997486e+01    0.1515113     0.104829 -30.86 0.0004950655    1.651    0.394
         8  -8.6815     65.0017      7.0166   2.9977968050e+01   6.4926105791e+01    0.1512882    0.1192848  25.78 0.0005399575    1.016    0.016
         9  -8.5017     79.3250      4.4468   2.4302764599e+01   6.2395670443e+01    0.1991133    0.1101492 -20.22  0.001078488    1.976    0.494
        10  -8.5923     33.1887      4.9716   4.2032165962e+01   7.0250673558e+01    0.1597756    0.1305183 -43.99  0.001070721    2.011    0.503
        11  -8.4400     15.6848      3.5171   5.0379809687e+01   7.2536899720e+01    0.1872751   0.08629188 -34.62  0.001074441    1.987    0.497
        12  -9.3343    170.2943      2.3836   6.7924661126e+00   4.1713735284e+01    0.3511145    0.1590087  85.46  0.001547549    2.379    0.580
        13  -8.0938     62.5093      1.4463   2.8275977770e+01   6.5882772121e+01    0.1206315   0.09681855  26.94 6.965865e-05    1.046    0.044
        14  -9.1449      9.7113    246.3778   9.5802458596e+01   2.0897370308e+01    0.2799417   0.06368287 -70.75  0.001226723    3.750    0.733
        15 -10.0805    237.2149    242.5963   5.0245491798e+01  -1.0330842200e+01    0.4579914    0.2386924   3.92  0.002125884    2.438    0.590
        16  -9.7201    242.1660    249.3516   5.0477410777e+01  -1.1835268716e+01    0.3890549     0.159679 -27.53  0.001055368    2.471    0.595
        17  -9.4050    249.9545    249.1715   4.9071161753e+01  -1.2763223491e+01    0.2271131    0.1696449   0.23  0.001096144    1.035    0.034
        18 -10.3424    247.3150    242.6129   4.8441037790e+01  -1.1611638495e+01    0.4239987    0.2932137  13.91  0.001857456    1.199    0.166
        19  -8.7482    250.5243    236.9933   4.6921766274e+01  -1.1278309191e+01    0.1960628    0.1301788   1.79 0.0005856425    1.285    0.222
        20  -9.8261    245.7842    234.5121   4.7330861755e+01  -1.0351362621e+01     0.524562    0.2344038  23.11  0.002136206    2.303    0.566
        21  -9.7887    234.0496    249.2416   5.1922328818e+01  -1.0796415722e+01    0.3524276    0.2579397 -53.38  0.002095076    2.566    0.610
        22  -9.1150    222.7784    250.6556   5.4228905614e+01  -9.5064572225e+00     0.206829   0.09368649  29.34 0.0003708835    1.925    0.480
        23  -9.8329    215.8142    249.8880   5.5413531987e+01  -8.4604577493e+00    0.4203178    0.1987933  20.06  0.001426691    2.261    0.558
        24  -9.2063    185.5984    250.2553   6.1343454530e+01  -4.1837794682e+00    0.2299066    0.1414953  33.92 0.0006266996    1.380    0.275
        25  -8.9464    135.0502    250.4189   7.1654052194e+01   3.5349782038e+00    0.1998188    0.1446076  47.51 0.0006727034    1.260    0.206
        26  -9.2922    128.1025    248.5338   7.2849666260e+01   4.9364015477e+00    0.2434126    0.1027729  40.23 0.0006551807    1.948    0.487
        27  -8.4285    131.8229    247.5977   7.1959115686e+01   4.5253243355e+00    0.2412458    0.1539146  42.26 0.0008029841    1.325    0.245
        28 -10.3247     71.4357    238.3769   8.3463202989e+01   1.5210042709e+01     0.360974    0.2016478  45.69 0.0005121141    1.503    0.335
        29  -9.0070     88.4560    242.2081   8.0341917847e+01   1.2069247485e+01    0.3436147    0.2353716  21.60  0.001382422    1.835    0.455
        30 -10.2518     89.0355    246.9964   8.0717067889e+01   1.1067167190e+01    0.5936577    0.1733542  48.96  0.002238168    3.250    0.692
        31 -10.4105     82.9957    238.6672   8.1105837954e+01   1.3544855451e+01     0.488746    0.2226144  32.78  0.000732269    2.188    0.543
        32 -10.4840     76.8156    247.0163   8.3186586205e+01   1.2779409674e+01    0.3702764    0.2097147  48.12 0.0004149277    1.455    0.313
        33 -11.2424     81.3224    245.2132   8.2105754637e+01   1.2500853334e+01    0.8679177    0.3163264  54.27   0.00352317    2.983    0.665
        34 -10.0899     51.7899    249.1550   8.8266573887e+01   1.5645415531e+01    0.2116576     0.159025  52.43 0.0002529997    1.125    0.111
        35  -9.4204     27.0262    250.2398   9.2935639999e+01   1.8338712215e+01    0.2375427     0.132454  42.09 0.0009242586    1.573    0.364
        36  -9.7315    119.9188    245.3105   7.4150174953e+01   6.7767166425e+00      0.33349    0.2094024  75.76  0.001626209    2.444    0.591
        37  -8.9895    115.9030    242.6580   7.4665551660e+01   7.8835049114e+00    0.1889518     0.136739  43.66 0.0006221645    1.168    0.144
        38  -9.3488    159.4283    244.2013   6.5757764231e+01   7.8486672534e-01    0.2315555    0.1742385  29.58 0.0003344832    1.127    0.113
        39  -8.9998    159.9649    239.9553   6.5021259339e+01   1.4151569818e+00     0.243255    0.1806664 -88.23 0.0009082867    2.361    0.576
        40  -9.5510     45.4221    244.2017   8.9116841047e+01   1.7389566012e+01    0.2157718    0.1539805  49.83 0.0005003676    1.201    0.167
        41 -10.0421    196.4695    242.2006   5.7925004940e+01  -4.5887942374e+00    0.3833366    0.2644074  52.86  0.001953666    2.084    0.520
        42  -8.2403    168.9835    243.1672   6.3632621812e+01  -5.4043935843e-01    0.1623642    0.1451828  88.45 0.0004524606    1.596    0.373
        43  -8.9659    150.0827    242.8623   6.7509941228e+01   2.4847582892e+00    0.1971574    0.1552102  47.10    0.0004614    1.250    0.200
        44  -9.9379    180.7286    241.2381   6.0933491363e+01  -2.0529915708e+00     0.364027    0.2556525   9.76  0.001234361    1.462    0.316
        45  -9.3245    135.0060    242.0288   7.0560902379e+01   5.0158722841e+00    0.1979845    0.1648924  40.88 0.0003575423    1.044    0.042
        46 -10.7307      2.9932    239.9745   9.6673378854e+01   2.2793012702e+01     0.284988    0.1561972  66.75  0.000672681    1.420    0.296
        47  -8.2691    142.1189    241.3438   6.8968229399e+01   4.0118675903e+00    0.1887285    0.1013643  43.71 0.0004452033    1.656    0.396
        48  -9.5167     61.5647    240.9694   8.5696417092e+01   1.6005699627e+01    0.2327311    0.1408145  49.79 0.0005414995    1.371    0.270
        49  -9.5038     37.3261    240.5973   9.0409405093e+01   1.9060402410e+01    0.2327235    0.1607322  64.15 0.0005472458    1.159    0.137
        50  -9.8414    124.8862    239.1369   7.2320363282e+01   7.1397427523e+00    0.3029563    0.1719585  40.69 0.0005633532    1.496    0.332
        51  -8.6977    204.6008    239.1900   5.5832755474e+01  -5.3383259659e+00    0.2120361     0.147361  33.79 0.0008512284    1.354    0.262
        52  -7.8975    146.2976    239.6151   6.7843541419e+01   3.6522903827e+00    0.1307075   0.09707155  66.76 0.0007017766    1.774    0.436
        53  -9.8505     52.5044    238.3283   8.7281131728e+01   1.7690227296e+01    0.2426149    0.1671657  61.39  0.000660679    1.208    0.172
        54 -11.2811     18.1751    237.7963   9.3827696343e+01   2.1719230211e+01    0.3606099    0.1922183  38.68 0.0009008825    1.769    0.435
        55  -9.2824    230.6519    236.6783   5.0445880466e+01  -8.6566081595e+00    0.2385617    0.1939791 -59.62  0.001444475    2.292    0.564
        56  -9.6253    226.6895    237.0117   5.1238880048e+01  -8.1633981618e+00    0.2621325    0.1681623  20.49 0.0004120489    1.362    0.266
        57  -8.4936    217.2916    235.6810   5.2788830110e+01  -6.6573712975e+00    0.1804708    0.1118076 -43.14 0.0004893862    1.936    0.483
        58 -10.0793    213.6177    231.6816   5.2813562013e+01  -5.5340745087e+00    0.6516392    0.3459973 -55.07  0.002710988    3.891    0.743
        59  -8.5062    173.1035    238.5374   6.2075096698e+01  -4.2673018200e-01    0.1984656    0.1118227  34.67 0.0007347854    1.530    0.346
        60  -8.1677    156.1578    238.3390   6.5579181779e+01   2.2993645340e+00    0.1882919    0.1035488  42.84 0.0003495865    1.656    0.396
        61 -10.0654     29.2173    241.3515   9.1991944531e+01   1.9828202446e+01    0.2702852    0.1665765  44.32 0.0006262974    1.437    0.304
        62  -9.7426    106.8913    237.9827   7.6002820354e+01   1.0151732692e+01    0.2334183    0.2003466  55.59  0.000337301    1.053    0.051
        63  -9.1057    108.3515    234.1534   7.5224100321e+01   1.0672451497e+01    0.3493584    0.2021588  68.64  0.001279239    2.424    0.587
        64  -8.6839    114.0247    237.0299   7.4366199159e+01   9.2365282042e+00    0.2086583    0.1416447  64.41 0.0006620605    1.659    0.397
        65  -9.4121    175.1970    232.7767   6.0730456986e+01   2.0139706418e-01    0.4294707    0.3293407 -71.42  0.002346497    2.095    0.523
        66  -8.4532    149.2938    236.4461   6.6751286425e+01   3.7335117148e+00    0.1868288    0.1094989  44.20 0.0007842082    1.571    0.363
        67  -9.3120     44.2790    235.9750   8.8723461860e+01   1.9173161783e+01    0.2158841     0.140754  52.43 0.0004195585    1.276    0.216
        68  -8.7451    199.5174    235.4761   5.6221097639e+01  -4.0180213280e+00    0.2295755    0.1094619  30.55 0.0006036886    1.897    0.473
        69  -8.7769    202.6517    233.8621   5.5329978347e+01  -4.2404626354e+00    0.2481932    0.1907407 -56.21  0.001259666    1.964    0.491
        70  -8.8196    185.9174    234.9161   5.8867653966e+01  -1.8440332627e+00    0.1954793    0.1641468  19.34 0.0004149768    1.034    0.033
        71  -9.9591     94.5416    234.1584   7.8184453557e+01   1.2764488030e+01    0.4079101    0.2301863  58.82   0.00158342    1.854    0.461
        72  -9.7348      6.5285    234.7164   9.5787834966e+01   2.3496016851e+01    0.1937945    0.1247078  46.45 0.0007439237    1.415    0.293
        73  -8.3942     38.5123    234.5331   8.9748700610e+01   2.0147086029e+01    0.1207671    0.0938053  68.44 5.043491e-05    1.013    0.013
        74 -10.1392    235.1473    231.9995   4.8813680006e+01  -8.6087356182e+00    0.3796763    0.2429207 -12.97  0.001438322    1.465    0.317
        75  -8.5452    141.8790    233.3787   6.7889278524e+01   5.4869950884e+00    0.1888292    0.1495014  29.26 0.0005915003    1.144    0.126
        76  -8.7600     70.5130    233.4943   8.3185119273e+01   1.6323552663e+01    0.2264298    0.1528896  34.23  0.001305341    1.498    0.332
        77  -8.7487     67.3551    231.6516   8.3665381559e+01   1.7128808222e+01    0.2253373    0.1457295  75.20  0.001263426    1.568    0.362
        78  -7.9079    194.2653    232.6240   5.6797427912e+01  -2.7705317909e+00    0.1143465    0.1044975  76.95 0.0006987174    1.673    0.402
        79  -8.1614    165.3427    232.3383   6.2726517890e+01   1.8618137911e+00    0.1390626    0.0967183   1.79 0.0007049484    1.771    0.435
        80  -8.5096    155.7646    232.4004   6.4768639449e+01   3.4061157146e+00    0.1961433    0.1143348  28.02 0.0009553068    1.646    0.392
        81  -9.6357     11.1453    231.3917   9.4767518294e+01   2.3718315280e+01    0.2175911    0.1369765  70.42 0.0006352195    1.253    0.202
        82  -8.8943    186.0313    230.1625   5.8062609385e+01  -1.0858653166e+00     0.220857    0.1795658 -82.51  0.001004189    2.146    0.534
        83  -9.6186    246.6272    228.2464   4.6089897748e+01  -9.6059089585e+00    0.4182194    0.1687916 -31.94  0.002027437    2.307    0.567
        84  -9.5836    207.3899    230.0174   5.3742795702e+01  -4.3580162737e+00    0.3061393    0.1601397  32.76 0.0007691016    1.728    0.421
        85  -8.7858    126.1235    230.4810   7.0891400163e+01   8.5821254846e+00    0.2630103    0.1447387  37.83  0.000715833    1.587    0.370
        86  -8.8529    127.6529    227.0872   7.0081811844e+01   8.9932642478e+00    0.2950366    0.1940446 -70.95  0.001044906    1.994    0.499
        87 -10.2464     31.8257    229.6274   9.0708346632e+01   2.1917352299e+01      0.21794    0.1785485  63.67 0.0003614755    1.108    0.097
        88  -8.3432      1.3394    230.6509   9.6524380911e+01   2.4799164253e+01    0.1250396   0.05751167  64.21 0.0007045589    1.792    0.442
        89  -8.8634    151.4604    228.9684   6.5166747960e+01   4.7306161308e+00    0.2994319    0.2081186 -89.47   0.00139376    2.651    0.623
        90  -9.4156    145.8997    226.5329   6.6000573218e+01   6.1001023644e+00    0.3362979    0.2007346  37.32  0.000963813    1.475    0.322
        91  -9.0501    148.4638    223.9863   6.5047618670e+01   6.1531825451e+00    0.2884985    0.2167149  78.64   0.00147986    1.973    0.493
        92  -8.3054    135.6751    229.0029   6.8598908008e+01   7.3156031867e+00    0.1804795    0.1639483  43.86 0.0004994329    1.062    0.058
        93 -10.4578    115.4757    228.1187   7.2900518071e+01   1.0748617472e+01    0.5239015    0.2055381  39.05  0.001227921    2.195    0.544
        94  -9.0753    103.1448    229.1743   7.5735111058e+01   1.2465127964e+01    0.2320528    0.1673787  50.07 0.0006014546    1.229    0.186
        95  -9.3715     47.6209    228.2946   8.7441079973e+01   2.0355768968e+01     0.208559    0.1846377  65.15 0.0005334647    1.156    0.135
        96  -8.9766     39.5405    228.6429   8.9104366044e+01   2.1244519668e+01    0.2142286    0.1238887  43.93 0.0006177875    1.529    0.346
        97  -8.2243    197.4937    228.5472   5.5459913563e+01  -2.6178298134e+00    0.1307197    0.1111814  13.78  0.000133801    1.050    0.047
        98  -8.9307    161.4766    228.1190   6.2881820165e+01   3.2363369815e+00    0.2544556     0.180336  32.20  0.001396629    1.243    0.195
        99  -9.2164     95.3273    227.8424   7.7277559821e+01   1.3925569131e+01    0.2505791    0.2186752  36.37 0.0009636494    1.176    0.150
       100  -9.1859     93.6917    223.6971   7.7137553304e+01   1.5030078833e+01    0.3404316    0.1816417  71.26   0.00139476    2.870    0.652
       101 -10.1516     61.6600    227.6192   8.4473800818e+01   1.8723836411e+01    0.2771666    0.1880803  53.17 0.0005089335    1.265    0.209
       102  -8.8246     21.0238    227.9950   9.2700662222e+01   2.3417977871e+01    0.2260553     0.135983  40.84  0.001058115    1.580    0.367
       103  -9.7482    179.3161    225.9262   5.8747867899e+01   7.0311027936e-01    0.3386314    0.2295561 -20.37  0.001219595    1.689    0.408
       104 -10.2279      6.1438    225.4939   9.5378276330e+01   2.5404767297e+01    0.2433152    0.1738795  49.93 0.0004292064    1.312    0.238
       105  -9.7221     10.9325    225.2408   9.4463126053e+01   2.5001224994e+01    0.2260076    0.1374846  62.20 0.0006866617    1.332    0.249
       106  -8.5060    232.5896    225.1785   4.8087618946e+01  -7.2810671948e+00    0.1771034     0.101008 -22.83 0.0008970308    1.699    0.411
       107  -8.8702    191.4285    224.8544   5.6059319861e+01  -1.0626519890e+00     0.277016    0.1701255  18.84 0.0008673503    1.684    0.406
       108  -9.2108    192.0613    221.0506   5.5271387401e+01  -5.2692141589e-01    0.2897545    0.2561831  85.18  0.001195206    1.761    0.432
       109  -9.7855     74.2027    224.5999   8.1500279710e+01   1.7666623926e+01    0.2644553    0.2274121  40.95 0.0005977912    1.209    0.173
       110  -9.7417    238.7524    222.0240   4.6397377037e+01  -7.6737109438e+00    0.3795536    0.1790544 -38.53  0.001756757    2.105    0.525
       111 -10.1940    242.4578    217.5109   4.4915743274e+01  -7.5240717567e+00    0.2596875    0.2047127  -1.08  0.001082422    1.031    0.030
       112  -8.5811    122.9731    223.7399   7.0642490685e+01   1.0416210344e+01    0.1974332    0.1529405  40.28 0.0004566891    1.146    0.127
       113  -8.6472    104.8011    223.7093   7.4678695626e+01   1.3323444570e+01    0.2627895    0.1656924  81.52  0.001230748    2.233    0.552
       114  -9.5444    225.5300    222.2559   4.8885115793e+01  -5.8452330094e+00    0.2886074    0.1902403 -47.75    0.0014684    2.021    0.505
       115  -8.6520    216.3076    223.0475   5.0787335386e+01  -4.6124312032e+00     0.177489    0.1494551 -16.57 0.0008442756    1.166    0.142
       116  -9.2253     80.6506    222.7119   7.9891679116e+01   1.7155915370e+01     0.188838    0.1603728 -54.95 0.0005549568    1.373    0.272
       117  -9.0859     82.4852    220.0067   7.9179388952e+01   1.7468514533e+01    0.2301505    0.1428936  70.07  0.001150103    1.807    0.447
       118  -8.9726    202.1820    221.3520   5.3269870998e+01  -2.1832977184e+00    0.3019229    0.1360793 -27.85  0.001238355    2.792    0.642
       119  -9.5458     54.5901    221.1151   8.5359159536e+01   2.1017710227e+01    0.2517718    0.1879614  61.21 0.0006296872    1.148    0.129
       120  -8.9161     51.6469    217.3747   8.5640769923e+01   2.2197434188e+01    0.2289655    0.1340376  78.34   0.00099241    1.770    0.435
       121  -9.3690    209.7320    220.2077   5.1565682211e+01  -3.1696864543e+00    0.3543585    0.1789089 -19.67  0.001494345    2.741    0.635
       122  -9.4521     43.3238    220.2137   8.7652759823e+01   2.2590180733e+01    0.2275892    0.1576197  56.30 0.0005424017    1.243    0.196
       123  -9.9499     18.2952    220.5722   9.2757949249e+01   2.5253170767e+01    0.2732993    0.1653049  53.42 0.0006648858    1.411    0.291
       124  -8.1679    158.9331    220.4453   6.2193878706e+01   5.0611843379e+00    0.1913607      0.10712  54.84 0.0008060498    2.400    0.583
       125  -9.7877    133.2310    219.7446   6.7768699602e+01   9.5216243290e+00    0.2956317    0.2734257  29.29 0.0004575454    1.058    0.055
       126  -8.6591    132.0571    215.0534   6.7316114592e+01   1.0662686695e+01    0.2175908    0.1628936  72.66  0.000805181    1.702    0.413
       127  -8.4019    116.7226    220.3190   7.1557332711e+01   1.2124279419e+01    0.2227492    0.1225964  40.78 0.0004458492    1.610    0.379
       128  -9.5165    119.4058    218.2108   7.0653032161e+01   1.2120554227e+01    0.4772189    0.2511983  63.38  0.001828561    3.062    0.673
       129  -8.9077     62.8942    220.2289   8.3494153530e+01   2.0136109154e+01    0.2007148     0.145773  63.66 0.0005850981    1.225    0.184
       130  -8.2790     26.6682    220.6912   9.1101613858e+01   2.4360094091e+01    0.1076427   0.08843935 -47.75 0.0004287057    1.668    0.401
       131  -8.8445    219.0285    219.1797   4.9571611890e+01  -4.4167622147e+00    0.2239341    0.1691515  41.72 0.0009315462    1.574    0.365
       132  -8.6827    185.7794    218.7607   5.6172153268e+01   8.8548398206e-01    0.2312674    0.1483034  32.01 0.0005685274    1.417    0.294
       133  -9.5290    152.8519    218.1788   6.3157323873e+01   6.5175608112e+00    0.2451775    0.1982986  29.13 0.0003349992    1.122    0.109
       134  -8.9004    142.7638    217.6946   6.5319561868e+01   8.3231528917e+00    0.3473755    0.1960811 -60.05  0.001573538    2.238    0.553
       135  -9.9609     97.6190    218.6848   7.5636944058e+01   1.5488171573e+01    0.4352564    0.1948643  43.72 0.0009072304    1.978    0.494
       136  -9.4444      1.5653    219.0598   9.5897075685e+01   2.7159327325e+01    0.1709878    0.1095939  78.93 0.0003538801    1.217    0.179
       137  -9.5166    169.9490    223.9767   6.0401124793e+01   2.5785453696e+00    0.4767676    0.2011006  28.33  0.001703943    2.649    0.623
       138  -8.0938    176.4697    218.4685   5.8083065685e+01   2.4780243323e+00    0.1375562    0.1203144  16.15 0.0001295688    1.003    0.003
       139  -8.7922    164.3504    216.7102   6.0391716388e+01   4.8409244720e+00    0.2507089    0.1450202  43.26 0.0005955668    1.665    0.399
       140  -9.7045    108.0400    216.8368   7.3035295702e+01   1.4245510284e+01    0.3159786    0.1990029  48.07 0.0004283506    1.462    0.316
       141  -9.4120     76.2836    216.3168   8.0135508290e+01   1.9154667947e+01    0.3243023    0.2364258 -69.99  0.001287169    1.400    0.286
       142  -9.6257     67.8189    212.0430   8.1552153051e+01   2.1270387846e+01    0.3197534    0.1750541  34.61 0.0005478535    1.813    0.448
       143  -9.2507     71.7773    211.0089   8.0544626743e+01   2.0956724388e+01     0.377608    0.1844749  65.82  0.001451063    2.697    0.629
       144  -9.3191    231.1242    215.3946   4.6598127645e+01  -5.6118410401e+00    0.3607521    0.2232841  -2.36  0.001237356    1.791    0.442
       145  -8.5313    169.2117    215.9769   5.9211642633e+01   4.1516760867e+00    0.2019432    0.1601154 -84.93 0.0008183926    1.991    0.498
       146  -9.8412     86.9267    215.2396   7.7616909596e+01   1.7846194765e+01    0.3232354    0.1991529  51.49 0.0005656737    1.503    0.335
       147  -9.9944     11.8153    215.6976   9.3726701320e+01   2.6926113888e+01    0.2527005      0.17694  48.20 0.0006470036    1.352    0.261
       148  -9.4356     38.2644    215.2069   8.8295014909e+01   2.4266364057e+01    0.2417147    0.1156378  57.07 0.0008973683    1.949    0.487
       149  -9.4825    213.7710    212.3404   4.9347162219e+01  -2.5222424345e+00    0.3458792    0.3249967  10.73  0.001519651    1.265    0.210
       150  -8.1926    185.4244    214.2135   5.5444955040e+01   1.7414355631e+00    0.1737432    0.1321234 -52.87 0.0006134794    1.639    0.390
       151  -9.6283     92.7972    213.8480   7.6108532877e+01   1.7265888180e+01    0.3079194    0.1851592  62.13  0.001174932    1.844    0.458
       152 -10.0997     32.8766    213.4326   8.9282764463e+01   2.5259020243e+01    0.2827896    0.2342579  86.65 0.0005884371    1.094    0.086
       153  -8.6413     70.1586    220.3754   8.1931593053e+01   1.9127201671e+01    0.1835377    0.1006882  47.37 0.0003783641    1.608    0.378
       154  -8.3318    161.4260    212.2404   6.0271122336e+01   6.1859307673e+00    0.1759884    0.1377975 -61.20 0.0005109963    1.590    0.371
       155  -9.3675    146.3073    211.3786   6.3501209254e+01   8.9680104429e+00    0.4260874    0.2553071  27.04  0.001363917    1.745    0.427
       156 -10.2852      3.2548    211.6531   9.5167828028e+01   2.8577282457e+01    0.2361899    0.1774538  49.40 0.0004279847    1.324    0.245
       157  -8.8112    204.1578    210.7400   5.0960460210e+01  -7.3246085242e-01    0.2148042    0.1738494 -42.88 0.0006446301    1.428    0.300
       158  -9.2201    175.3318    209.8407   5.6814409013e+01   4.2427177141e+00    0.3469782    0.2549415  78.50  0.001598453    2.514    0.602
       159  -8.3752    172.0061    211.8098   5.7882649893e+01   4.4472932371e+00    0.2091938    0.1190126  27.74 0.0006608942    1.768    0.434
       160  -8.8005     45.0387    211.8598   8.6558441569e+01   2.4214956142e+01    0.1981831    0.1396525  64.55 0.0004287168    1.250    0.200
       161  -8.3341    125.9862    211.7405   6.8190600643e+01   1.2368897323e+01    0.1871338     0.112562  37.27 0.0007574453    1.523    0.343
       162  -9.0117    234.6776    210.3400   4.5011505560e+01  -5.3512271067e+00    0.2076684    0.1490889  26.94  0.000659485    1.360    0.265
       163  -9.2225    236.4661    207.9830   4.4245922785e+01  -5.2470120523e+00    0.2617999    0.1978451 -52.16  0.001060531    1.920    0.479
       164  -7.9700    192.2849    210.5853   5.3358809699e+01   1.2393935835e+00    0.1286018    0.1109917 -89.95 0.0003655321    1.821    0.451
       165  -8.7590    116.1327    210.0672   7.0210190201e+01   1.4368068377e+01    0.2700213    0.1627206  60.32 0.0008320766    1.999    0.500
       166  -9.7696     97.3218    209.1845   7.4450569821e+01   1.7588528066e+01     0.406688    0.2147583  50.46  0.001461926    1.853    0.460
       167  -9.3090     99.1660    205.7563   7.3546127263e+01   1.8057227833e+01    0.3891265     0.232682  76.04   0.00137885    2.448    0.591
       168  -9.7829     86.4361    209.6945   7.7036564718e+01   1.9137607436e+01    0.2943781    0.1978818  59.01  0.001088361    1.463    0.317
       169  -8.3607    110.1587    209.1208   7.1457503111e+01   1.5552937550e+01    0.1950533    0.1475522  55.80 0.0004913709    1.290    0.225
       170  -8.9189     58.0498    209.0413   8.3420786695e+01   2.3234366104e+01    0.1966414    0.1747568  74.69 0.0006737454    1.067    0.063
       171 -10.2296     25.0481    207.9667   9.0500968706e+01   2.7299436413e+01     0.298947    0.1868974  48.21 0.0004190254    1.464    0.317
       172  -9.5173    246.4725    207.1413   4.2295944710e+01  -6.5410657438e+00    0.2578713    0.1817166 -31.09 0.0007585873    1.315    0.239
       173  -9.5764    250.1300    202.5000   4.0788916752e+01  -6.3508370669e+00    0.3587066    0.1877122 -28.24  0.001261786    1.713    0.416
       174  -9.3209    136.0126    208.0081   6.5293622839e+01   1.1433825625e+01    0.4346493    0.1885055  31.38  0.001490384    2.455    0.593
       175  -8.6583    165.9406    207.2909   5.8410380274e+01   6.3523635100e+00    0.2072052    0.1879467  45.03 0.0004483894    1.181    0.153
       176  -9.4834    163.2085    202.6619   5.8188435408e+01   7.7358507264e+00    0.4415632    0.2567641  57.60  0.001061681    2.510    0.602
       177 -10.9548     12.4033    203.5077   9.2820824004e+01   2.9525767381e+01    0.4407976    0.2675159  69.88  0.001347932    1.424    0.298
       178  -9.7320    194.7012    202.9737   5.1447407152e+01   2.1861346923e+00    0.4738478     0.216326 -38.32  0.001816519    2.228    0.551
       179  -9.7443    192.4731    197.1463   5.0803742264e+01   3.6285622229e+00    0.3879262    0.2696502 -53.81 0.0009708664    1.796    0.443
       180 -10.3143     78.5711    205.7426   7.8361062695e+01   2.1177482107e+01     0.448512    0.1975661  40.65 0.0008604823    2.055    0.513
       181  -9.0287    130.3118    204.3870   6.6023915381e+01   1.3179052740e+01    0.3320186    0.2283026  21.85  0.001247625    1.649    0.394
       182  -9.6005     89.2120    205.0231   7.5783365605e+01   1.9764077687e+01    0.3282387    0.1743751  40.21 0.0008898131    1.733    0.423
       183  -8.3889     56.2858    205.5940   8.3458489164e+01   2.4239048849e+01    0.1433958   0.08440493  70.68 0.0006986159    1.798    0.444
       184  -9.2253     39.5300    205.1870   8.7155932689e+01   2.6351688070e+01    0.2328607    0.1792773  24.56 0.0009273078    1.614    0.380
       185  -9.3574      2.4418    205.2924   9.4961839795e+01   3.0021947908e+01    0.1907499    0.1402829  46.15 0.0006129166    1.388    0.279
       186  -9.0172    183.3537    203.7989   5.3991228471e+01   3.9803840720e+00    0.3339447    0.2268086  44.86  0.001070116    1.553    0.356
       187  -9.1588    178.5914    203.2716   5.4916743909e+01   4.9067619357e+00    0.3003195    0.2124714  49.85  0.001132011    1.610    0.379
       188  -8.8344    142.0045    203.9681   6.3239749825e+01   1.1226697049e+01    0.2222535    0.1710256  67.74 0.0005210405    1.616    0.381
       189  -9.2968    121.6426    204.0706   6.8004085587e+01   1.4733526505e+01    0.2711931     0.195742  29.77 0.0005980302    1.396    0.284
       190  -9.1624    239.5585    203.5210   4.2848311620e+01  -5.0043523524e+00    0.2359354    0.1188997  36.60 0.0007173769    2.057    0.514
       191  -8.8895    243.1270    200.8683   4.1708707012e+01  -5.1090307140e+00    0.2568954    0.1438519 -37.65 0.0008529032    1.676    0.404
       192  -8.4967    210.9525    201.7714   4.7923515464e+01  -3.0581501327e-01    0.1972586    0.1605536  66.55 0.0007770311    1.969    0.492
       193  -9.4881    113.7196    200.9096   6.9382979432e+01   1.6763106067e+01    0.3797961    0.2439991  39.12 0.0008370455    1.453    0.312
       194  -8.4393    112.3145    197.6481   6.9208067951e+01   1.7725925313e+01    0.2496262     0.172577 -89.37 0.0007684468    1.927    0.481
       195  -9.0878     50.7267    205.6563   8.4716026906e+01   2.4920014426e+01    0.2564847     0.159203  53.27 0.0006738332    1.474    0.321
       196  -9.0968     60.5588    200.8993   8.1971669095e+01   2.4762987108e+01    0.2505243    0.1670637  48.50 0.0006097724    1.392    0.282
       197  -9.1510     29.2029    200.2441   8.8991228446e+01   2.8602991621e+01    0.2344054    0.1558407  66.62  0.000639655    1.346    0.257
       198  -9.3797    149.4895    198.4397   6.0547088878e+01   1.1043033231e+01    0.3996535    0.2644356  80.82  0.001293369    2.996    0.666
       199  -8.8464    123.8415    199.3865   6.6730247843e+01   1.5375832450e+01    0.2857879    0.1941605 -79.49  0.001304797    2.007    0.502
       200  -7.9243     36.6756    200.2923   8.7344335551e+01   2.7786149732e+01     0.134145   0.07935017  65.19   0.00032594    1.616    0.381
       201  -8.9458    237.2231    198.5919   4.2333367855e+01  -3.8849338789e+00    0.2350194    0.1423092 -43.51 0.0009477272    1.788    0.441
       202  -8.6564    199.5694    199.6751   4.9817237843e+01   1.9519959200e+00     0.250684    0.1261592  33.75 0.0005396916    1.947    0.486
       203  -8.1492    202.2765    197.6258   4.8870637180e+01   1.8596211959e+00    0.1282046    0.1127394 -77.70 0.0007005963    1.694    0.410
       204  -8.8079    187.9401    198.9634   5.2106815326e+01   4.0811602287e+00    0.2109212    0.1863953   7.31 0.0003799711    1.023    0.022
       205  -8.6725    151.3114    204.5334   6.1204531443e+01   9.4698574196e+00    0.2575652    0.1283342  42.07 0.0007630592    1.886    0.470
       206  -8.9022    134.6487    199.4415   6.4182971170e+01   1.3476553514e+01    0.2644787    0.1295873  41.92 0.0007496237    1.905    0.475
       207  -9.4370    104.1064    198.2408   7.1275341929e+01   1.8951025242e+01    0.2859573    0.2050059  37.45 0.0004664574    1.341    0.254
       208  -9.1981     88.7670    198.6644   7.5024856610e+01   2.1278148054e+01    0.3594457    0.1889768  64.13  0.001431291    2.592    0.614
       209  -8.8606     44.3341    198.8261   8.5480997323e+01   2.7250793441e+01    0.2157182    0.1500702  53.74 0.0004879968    1.326    0.246
       210  -9.5307     21.5424    198.9327   9.0552740153e+01   2.9679263936e+01    0.2239641    0.1525597  51.57 0.0004631707    1.367    0.269
       211  -9.2414     51.8333    198.0004   8.3675602515e+01   2.6541368367e+01    0.2265704    0.1710067  49.94  0.000704765    1.253    0.202
       212  -8.8108     60.6960    196.6803   8.1459440286e+01   2.5724022436e+01    0.2697377     0.142006  85.58 0.0009219894    2.464    0.594
       213  -8.6019    215.7150    195.5074   4.5781252617e+01  -7.4910539034e-03    0.2137473     0.162691 -55.13 0.0006514549    1.775    0.437
       214  -9.0964    170.5938    195.9534   5.5302752418e+01   7.7389461553e+00    0.2705569      0.18622  22.14  0.000601667    1.531    0.347
       215  -8.7369    143.5492    196.2876   6.1544174714e+01   1.2562535332e+01    0.2692486    0.1569123  45.44 0.0008002791    1.683    0.406
       216  -8.8815     83.3044    196.5474   7.6047463246e+01   2.2591297221e+01    0.2516297    0.1225863  40.35 0.0007272749    1.913    0.477
       217  -8.9292    185.2359    194.7681   5.1879596697e+01   5.3450549807e+00    0.2424152    0.2165363 -75.05 0.0007544376    1.502    0.334
       218  -8.5548    180.1307    194.8863   5.3003845515e+01   6.2328006968e+00    0.2113549    0.1893422  44.63 0.0008034749    1.228    0.186
       219  -8.6019    224.5195    193.6170   4.3722005404e+01  -1.1088255648e+00    0.2310128     0.119532 -48.09  0.001023053    2.330    0.571
       220  -8.7122    160.7938    193.9990   5.7139993291e+01   9.9101614164e+00    0.2276909    0.1743023 -88.20  0.001035809    2.018    0.504
       221  -8.5539     76.8080    193.7617   7.7243084718e+01   2.4194178103e+01    0.1949271    0.1462644  67.45 0.0005516786    1.324    0.245
       222  -9.2035     43.9478    193.5574   8.5039884137e+01   2.8521175321e+01     0.350366    0.1729564  75.48  0.001507782    2.521    0.603
       223  -8.8694     25.5057    194.5576   8.9328615139e+01   3.0284620131e+01     0.125898    0.1015897  80.40 7.964197e-05    1.020    0.019
       224 -10.1031      5.6612    193.6552   9.3571077471e+01   3.2325510002e+01    0.2539805    0.2004758  44.70  0.000629028    1.372    0.271
       225  -9.3909    245.1364    192.8906   3.9828403093e+01  -4.1516158645e+00    0.1837814    0.1623127 -32.12 0.0005320891    1.312    0.238
       226  -9.1137    195.9790    193.0000   4.9267727293e+01   3.7827989007e+00    0.1777327    0.1445075  26.62 0.0005278088    1.178    0.151
       227  -9.3452    153.9372    192.9229   5.8513216476e+01   1.1385042113e+01    0.3339476    0.1943782  45.01 0.0007557268    1.705    0.414
       228  -8.7167    127.4247    193.1435   6.4823434305e+01   1.6124597390e+01    0.2643504    0.1925254  39.72 0.0006534557    1.297    0.229
       229  -8.9484     56.1670    192.9160   8.2098176129e+01   2.7189757372e+01    0.2128817    0.1569498  70.12 0.0004980536    1.289    0.224
       230  -8.5996     32.8105    193.0826   8.7555065582e+01   2.9870304477e+01    0.1918723    0.1430502  73.62 0.0004222738    1.181    0.154
       231  -8.0358    135.6650    192.2386   6.2688081627e+01   1.4853376437e+01    0.1457831    0.1086217  60.86 0.0002165179    1.542    0.352
       232  -9.6396    117.1552    191.7708   6.7080295588e+01   1.8227072395e+01    0.3598545    0.2278914  39.96 0.0008677109    1.494    0.330
       233  -9.9486     94.0885    191.6677   7.2723618908e+01   2.2072714761e+01    0.4612462    0.3803594  23.48  0.001405974    1.365    0.267
       234  -9.8211     90.2944    188.3366   7.3162754688e+01   2.3450539063e+01    0.3962896    0.2364864  64.29  0.001481271    2.058    0.514
       235  -8.7126     39.0313    192.4921   8.6072108885e+01   2.9330208960e+01    0.1790094    0.1184739  40.10 0.0004607641    1.520    0.342
       236 -10.3357     16.8840    191.1134   9.0959362078e+01   3.1910174865e+01    0.3015812    0.1821064  60.55 0.0005430166    1.526    0.345
       237  -8.0826    172.3260    191.6601   5.4098673745e+01   8.2763655680e+00    0.1431078    0.1176432  78.37 0.0007051413    1.730    0.422
       238  -8.9888    139.3683    190.3731   6.1468541347e+01   1.4590088483e+01    0.3244895    0.2189786  75.56 0.0009779169    2.395    0.582
       239  -8.8935    216.1975    187.2063   4.4051714502e+01   1.3585862610e+00    0.2352598    0.1735527 -44.58 0.0005880197    1.466    0.318
       240  -8.6622    164.5010    189.5464   5.5450664211e+01   1.0140745369e+01    0.2801637    0.1354069  41.86 0.0007693307    2.006    0.501
       241  -8.4983    164.5621    186.5048   5.4847003748e+01   1.0755126092e+01    0.2142905    0.1847061 -85.91 0.0006285751    1.516    0.340
       242  -8.4447    148.4445    188.9368   5.9051691411e+01   1.3236813520e+01    0.2010027    0.1339105 -78.39 0.0008076233    2.515    0.602
       243  -8.7531    129.1593    188.2731   6.3550136166e+01   1.6900330170e+01    0.2653509    0.1898611 -89.09 0.0005935127    1.995    0.499
       244  -9.1251    249.1648    185.2088   3.7639900485e+01  -3.5246816827e+00    0.2212828    0.1332024 -37.60 0.0008465035    1.504    0.335
       245  -8.0739    237.4305    188.4682   4.0333451700e+01  -2.2791878393e+00    0.1333506    0.1101995 -13.03 0.0001774178    1.012    0.012
       246  -9.0824    190.7135    187.6117   4.9309125715e+01   5.7278209785e+00    0.2891651    0.2582994   5.48  0.001645816    1.032    0.031
       247  -9.1923    156.0020    187.5216   5.7015177102e+01   1.2137334820e+01    0.2794119    0.2093231 -66.76 0.0009070106    1.695    0.410
       248  -9.4223    120.5648    185.7989   6.5220020952e+01   1.8991978173e+01    0.4494404    0.2461549 -71.79   0.00168404    2.752    0.637
       249  -9.6700     69.9345    188.1238   7.8175957744e+01   2.6501883039e+01    0.3168189    0.2141153  39.14  0.000497116    1.466    0.318
       250  -8.9022     66.6958    184.7088   7.8526858603e+01   2.7765441223e+01    0.3277922    0.1757211  67.75  0.001088049    2.434    0.589
       251  -9.2162     55.1038    187.0509   8.1670604449e+01   2.8716485610e+01    0.3989389    0.1885418  69.22  0.001516342    3.082    0.676
       252  -9.9329     48.8473    187.6984   8.3256035203e+01   2.9328127425e+01    0.4389091    0.1832672  42.82  0.001251604    2.249    0.555
       253  -9.7249     10.2144    187.7927   9.2176327029e+01   3.3270060884e+01    0.2185754    0.1538656  37.74 0.0005390586    1.548    0.354
       254  -8.1203    230.5172    187.4697   4.1393962138e+01  -1.0301105154e+00    0.1341865     0.115685 -12.52 0.0002254804    1.042    0.040
       255  -8.9459    109.3710    185.8124   6.8003438755e+01   2.0931062660e+01    0.3460267    0.2290985  82.18  0.001178505    2.177    0.541
       256  -9.1559     82.0098    186.4799   7.4953787628e+01   2.5155701063e+01    0.2510511    0.1870555  86.36 0.0005676495    1.437    0.304
       257 -10.0440     26.8253    186.4181   8.8317085461e+01   3.2046228718e+01    0.4205899    0.1592067  40.07  0.001927581    2.455    0.593
       258  -8.9815      3.3433    187.1835   9.3631523641e+01   3.3982827424e+01    0.1658188    0.1542114  72.40 0.0004371783    1.264    0.209
       259  -9.1012    210.1140    184.2119   4.4645392984e+01   2.9306905127e+00     0.238997    0.1988092 -44.55  0.000574998    1.330    0.248
       260  -8.3446    182.8479    184.7998   5.0434468930e+01   7.7047327361e+00    0.1865885    0.1767065  83.74 0.0004803931    1.317    0.241
       261  -8.7717    202.5089    184.1126   4.6154929462e+01   4.2800149952e+00    0.2086653    0.1337474 -40.99 0.0007363133    1.543    0.352
       262  -8.7830    174.2839    183.4122   5.2041572014e+01   9.5716842117e+00    0.2334031    0.1790846 -66.01 0.0005013169    1.726    0.421
       263  -9.1243    143.0259    184.0269   5.9414511931e+01   1.5305525381e+01    0.2235939    0.2098287  33.23 0.0003860171    1.023    0.022
       264  -8.4495    223.8871    183.5934   4.1856658479e+01   7.0827872227e-01    0.1694899    0.1286288  46.78  0.000498157    1.596    0.374
       265  -9.1779     44.4332    182.4245   8.3733646759e+01   3.1108706572e+01    0.3102346     0.156794  66.56 0.0009253481    2.366    0.577
       266  -8.4454    167.7997    181.8221   5.3183347433e+01   1.1116223086e+01    0.1965551    0.1708005  55.50 0.0004247505    1.293    0.227
       267  -8.9712    134.1069    182.2549   6.1242990995e+01   1.7351244149e+01    0.2235249    0.1968514  18.59 0.0005064799    1.186    0.157
       268  -9.5775     59.2535    181.1692   7.9923016960e+01   2.9606370112e+01    0.3545269     0.175804  46.27 0.0009105664    1.979    0.495
       269  -9.4017     38.4174    182.0844   8.5154482872e+01   3.1864638424e+01    0.2627022    0.1786885  41.12 0.0008400935    1.497    0.332
       270  -9.3283     36.7991    178.1828   8.5131364173e+01   3.2978114018e+01    0.4417008    0.1831141  80.68  0.001444886    4.338    0.770
       271  -9.1195    147.4569    180.3142   5.7636889369e+01   1.5289724300e+01    0.3130069    0.2345379  84.58  0.001010802    1.971    0.493
       272  -9.8198     85.3052    180.0500   7.3160911262e+01   2.6203088989e+01    0.4029804    0.2641337 -57.37  0.001390986    1.508    0.337
       273  -9.9587     26.3500    180.2681   8.7857228390e+01   3.3547849534e+01    0.7142964    0.2691084  78.42  0.002210012    5.133    0.805
       274  -8.6837     22.3132    179.0170   8.8694799329e+01   3.4232187703e+01    0.1870386    0.1580692  53.14 0.0004831718    1.238    0.192
       275  -9.2666     15.5097    180.9435   9.0447560319e+01   3.4397639567e+01    0.2230349    0.1426934  54.15 0.0005884569    1.501    0.334
       276  -9.1174    205.1550    178.9122   4.4558725335e+01   4.7762318306e+00    0.3496124    0.1773881 -42.53  0.001511704    1.933    0.483
       277  -8.7376    159.6777    180.0973   5.4707143392e+01   1.3018172804e+01     0.258643    0.1909461  46.16 0.0003898211    1.380    0.275
       278  -9.2151    113.9337    179.9827   6.5851609590e+01   2.1506570050e+01    0.3264942    0.2006763  45.57 0.0008087603    1.595    0.373
       279  -9.3561    191.2119    178.0517   4.7265701835e+01   7.4805930828e+00    0.2630682    0.2333222 -60.57 0.0006341067    1.367    0.268
       280  -8.4423    137.7076    179.1324   5.9769074424e+01   1.7385247123e+01    0.2527115    0.1638761  76.33 0.0009476542    2.756    0.637
       281  -9.9046     75.3638    178.6174   7.5490611234e+01   2.8028595537e+01    0.4953394    0.2213716  33.85  0.001889349    2.281    0.562
       282 -10.7353     76.0007    171.2376   7.4212743632e+01   2.9747189908e+01     1.327999    0.4995668 -74.60  0.003682898    4.968    0.799
       283  -8.8967    250.5312    172.5296   3.4902905174e+01  -1.6792103385e+00    0.2427015    0.1373514 -38.23 0.0001772174    1.550    0.355
       284  -9.3568    244.3803    169.1876   3.5264520388e+01  -1.6304278871e-01    0.3097017    0.2282174 -86.51  0.001429512    3.112    0.679
       285  -9.2733    248.9830    177.0515   3.6063382508e+01  -2.1814632700e+00    0.2291242    0.1887892 -34.03 0.0005012468    1.204    0.170
       286  -8.8525    247.2746    173.6490   3.5673217374e+01  -1.3610517143e+00    0.2497679    0.1118309 -41.01 0.0004249563    2.026    0.506
       287  -8.4815    230.8929    176.5836   3.9142155589e+01   7.6488193077e-01    0.2237478    0.1429507 -39.65 0.0004922217    1.471    0.320
       288  -8.3967    217.2402    177.1595   4.1816478293e+01   2.9706441676e+00    0.1792899    0.1632571 -53.28 0.0006235242    1.349    0.259
       289  -8.9319    177.8934    177.1714   4.9971280919e+01   1.0157761528e+01    0.2799238    0.1989524  16.57 0.0009560054    1.620    0.383
       290  -8.6958    128.9834    176.9858   6.1516060437e+01   1.9494555169e+01     0.239968    0.1835203  79.57 0.0006969528    1.698    0.411
       291  -8.3029     99.9914    177.4063   6.8961904945e+01   2.4497728408e+01    0.4331691   0.07595316  44.79 0.0009598305    6.574    0.848
       292  -8.6188     88.9247    176.9249   7.1737948613e+01   2.6399931765e+01    0.2400029    0.1652588  70.54  0.000927595    1.712    0.416
       293  -9.1693     58.7686    175.5336   7.9310445451e+01   3.1043731151e+01    0.4542343    0.2156316  68.94   0.00160666    3.448    0.710
       294  -9.1629     55.7939    170.4054   7.9390673665e+01   3.2683110722e+01    0.4336335    0.2180657  80.48  0.001596525    3.171    0.685
       295  -9.1000    183.0525    176.1277   4.8621762478e+01   9.3901367414e+00    0.2552708    0.2098981  63.30 0.0008046785    1.547    0.354
       296  -8.9212     12.6625    175.8740   9.0683539638e+01   3.5836713803e+01    0.2825488    0.1166005  78.09  0.001154396    2.976    0.664
       297  -9.0721    158.5779    174.5619   5.3845280244e+01   1.4414576134e+01    0.3103151    0.2259556  85.79 0.0009004184    2.261    0.558
       298  -8.7655    141.3721    174.3143   5.7928708926e+01   1.7777572912e+01    0.3594486    0.2515178 -11.14  0.001520156    2.087    0.521
       299  -9.3297    103.7931    174.2254   6.7429648802e+01   2.4624348028e+01    0.4462653    0.2555327  65.24  0.001691559    2.594    0.615
       300  -8.5828    224.3694    174.1829   3.9853686741e+01   2.2778468179e+00    0.1943539    0.1195976 -45.70 0.0006203285    1.689    0.408
       301  -9.1045    152.2513    174.1731   5.5265616605e+01   1.5721382778e+01     0.313042    0.1957293  39.11 0.0007007094    1.562    0.360
       302  -9.6582    175.6718    172.1636   4.9424478714e+01   1.1609978238e+01    0.3721989    0.2475699 -45.87   0.00116765    1.531    0.347
       303  -8.4005    131.9683    172.9936   5.9999034258e+01   1.9857651387e+01    0.2121513    0.1770397  63.50 0.0004375889    1.318    0.242
       304  -9.4128     45.3530    171.2500   8.2194591622e+01   3.3721857862e+01    0.3497277     0.178029  71.59  0.001438497    2.623    0.619
       305  -9.4249    230.7424    170.0781   3.7837850552e+01   1.9207868374e+00     0.237313    0.2066274 -16.97 0.0007715283    1.014    0.014
       306  -8.8927    195.5145    171.6735   4.5030338727e+01   7.9214643032e+00    0.2498167    0.1330899  40.33 0.0008686784    1.909    0.476
       307  -9.0743    187.1736    170.8902   4.6632111734e+01   9.6557490389e+00    0.3118147     0.157892  37.82 0.0009926935    2.008    0.502
       308  -9.4027    121.2855    170.3689   6.2198248369e+01   2.2452650025e+01     0.339132    0.2538462 -81.40  0.001018268    1.675    0.403
       309  -9.9642     39.0567    170.1366   8.3666682670e+01   3.4693474316e+01    0.3537282    0.1872855  46.72 0.0009531383    1.907    0.476
       310  -8.2524    198.4677    169.9761   4.4059122119e+01   7.6978310034e+00    0.1983536    0.1270713 -63.11 0.0007571014    2.470    0.595
       311  -9.0248    162.7693    170.2417   5.1968847933e+01   1.4529023418e+01    0.2685705    0.1923438  47.97 0.0007461628    1.458    0.314
       312  -9.5059    109.3691    169.8596   6.5188535861e+01   2.4712550721e+01     0.527227     0.200269  41.50  0.001661748    2.549    0.608
       313  -9.2058    111.6620    167.3351   6.4114269216e+01   2.4914890889e+01    0.2929567    0.1956846  80.14   0.00109363    2.250    0.555
       314  -8.6617     95.1494    170.1478   6.8976709015e+01   2.7054751879e+01    0.2152604    0.2009178 -11.95 0.0004880495    1.228    0.186
       315  -9.7075     19.0817    170.0939   8.8638216140e+01   3.6658573050e+01    0.2775046    0.1816352  26.52 0.0007822459    1.814    0.449
       316  -8.6973    237.2036    169.2442   3.6515700454e+01   9.8971895672e-01    0.1768156    0.1518185 -47.72 0.0006316054    1.344    0.256
       317  -9.0751    166.7703    168.2572   5.0622125396e+01   1.4168009171e+01    0.2680996    0.2271066  72.94 0.0006856079    1.483    0.326
       318  -8.3758    149.6908    169.1922   5.4859576886e+01   1.7319331327e+01    0.2327641    0.1940176 -73.93 0.0007852338    1.441    0.306
       319  -8.4611    218.8392    168.1719   3.9645293235e+01   4.3191083177e+00    0.2036733     0.184059 -46.21 0.0004995402    1.250    0.200
       320  -9.1235    138.2643    167.2979   5.7280890066e+01   1.9967837620e+01    0.4360693    0.2779092  17.89  0.001746797    2.165    0.538
       321  -9.0710    136.1935    163.9807   5.7116298031e+01   2.1132046670e+01    0.4229835    0.2310788  56.51  0.001516613    2.418    0.586
       322  -9.2156    180.0233    165.9869   4.7143907500e+01   1.2036581044e+01    0.2274667     0.214965   5.55 0.0005167541    1.023    0.023
       323  -9.9998     94.5557    162.2712   6.7729683854e+01   2.9088353480e+01    0.8043006    0.4313366  76.37  0.002263052    4.996    0.800
       324  -9.0228     20.5194    166.0364   8.7890245849e+01   3.7509936472e+01    0.4161497    0.1376408  56.80  0.001433667    4.271    0.766
       325  -8.6812     16.7929    162.8363   8.8504524580e+01   3.8605616695e+01    0.1851808    0.1670193  42.07 0.0006829422    1.298    0.230
       326  -8.3787    233.9765    164.9509   3.6198791453e+01   2.2716858353e+00     0.173515    0.1372648 -29.14 0.0004757038    1.108    0.097
       327  -8.3229    153.9421    165.2828   5.3012775320e+01   1.7351112930e+01    0.2191142    0.1914643  34.56 0.0004406311    1.129    0.114
       328  -9.9062     61.4831    163.0073   7.6830581850e+01   3.3798222668e+01    0.5143498    0.3302947  69.27  0.002199204    1.829    0.453
       329  -9.4870     34.0313    163.5257   8.4182477574e+01   3.6843513525e+01    0.5887929    0.1950092  53.34  0.001986166    4.150    0.759
       330  -8.9461    191.9657    166.4945   4.4673779832e+01   9.6139205826e+00    0.2712006    0.1998791 -53.99 0.0005320685    1.548    0.354
       331  -8.7364    212.8319    163.5300   3.9813807074e+01   6.2598754181e+00    0.2712473    0.1743001 -51.81 0.0006705822    1.787    0.440
       332  -8.5526    159.6096    164.2993   5.1450557503e+01   1.6441196969e+01    0.2302143    0.1864874  88.37  0.001046814    1.678    0.404
       333  -9.1473    246.1604    162.9191   3.3688010003e+01   6.0719023863e-01    0.1977347    0.1639254 -39.99  0.000476971    1.216    0.178
       334  -8.6358    114.2561    163.0181   6.2595641068e+01   2.5488372443e+01    0.2103979    0.2028276  87.60 0.0005787704    1.039    0.037
       335  -9.2629      3.2827    162.1452   9.1767446609e+01   3.9820009414e+01    0.3863469    0.1514031  58.07  0.001697683    2.903    0.655
       336  -8.5542    204.6933    162.2277   4.1136301705e+01   8.0221441397e+00    0.2219277     0.175501 -52.21   0.00061571    1.406    0.289
       337  -9.5754    126.5149    162.1237   5.9207689123e+01   2.3424183975e+01    0.3612512    0.2189214  43.34 0.0008533525    1.638    0.390
       338  -8.8734    177.3692    160.2811   4.6491694586e+01   1.3746591315e+01    0.2563491    0.1843146 -52.34 0.0005117512    1.501    0.334
       339  -8.4609    151.7680    160.9067   5.2600581896e+01   1.8758268262e+01    0.2461531    0.1817852 -78.25 0.0009992125    1.927    0.481
       340  -8.6548    194.3100    160.5861   4.2901986286e+01   1.0334604488e+01    0.2621693    0.1433164  46.86 0.0006566334    1.972    0.493
       341  -9.9409    250.1916    157.6889   3.1956056573e+01   8.3796509310e-01    0.3371355    0.1763404 -40.32 0.0007888934    1.666    0.400
       342  -9.5325    246.7195    155.6404   3.2099543811e+01   1.7499834605e+00    0.4512967    0.2140895 -19.44   0.00155288    3.895    0.743
       343  -8.7848    227.1145    159.0151   3.6179567599e+01   4.5119395572e+00    0.2140656     0.170478 -68.09  0.001122146    1.766    0.434
       344  -8.4430    162.7911    159.1970   4.9591566029e+01   1.6915588972e+01    0.2087454    0.1780955  -1.38 0.0003456497    1.288    0.224
       345  -9.5521    105.5998    157.8036   6.3883977321e+01   2.8304306730e+01    0.4462657     0.295516  81.10  0.001216124    2.312    0.567
       346 -10.0821     99.1116    155.5148   6.5206995328e+01   2.9993802947e+01    0.6107507    0.3305441  60.83   0.00140138    2.756    0.637
       347  -8.5491     98.2909    150.4696   6.4433455848e+01   3.1383082448e+01    0.2624945    0.1856689 -82.96 0.0008077048    1.792    0.442
       348  -8.6546    236.7246    158.6606   3.4407760057e+01   2.9047256339e+00    0.1391919   0.09742292 -10.83 0.0003307549    1.614    0.380
       349  -8.6181    196.5789    157.7440   4.1807986561e+01   1.0455716686e+01    0.2057265    0.1365075 -50.44 0.0007789999    1.618    0.382
       350  -8.9790    167.4739    157.1159   4.8039606771e+01   1.6416334558e+01    0.3332483    0.2430085 -71.24  0.000913643    1.915    0.478
       351  -9.6473    143.3311    157.9997   5.4051136385e+01   2.1103474045e+01    0.3406574    0.2659005  29.88 0.0007881685    1.328    0.247
       352  -9.8773     81.7627    154.6494   6.9863201392e+01   3.3023348264e+01    0.5100309     0.301682  72.07  0.001662248    2.634    0.620
       353  -8.2104    188.2753    157.6452   4.3529328752e+01   1.2112429864e+01    0.1473456    0.1201879 -74.87 0.0003613994    1.647    0.393
       354 -10.5168     39.7958    156.7815   8.1818656473e+01   3.7919068852e+01     0.649174    0.1675423  35.28   0.00160534    3.552    0.718
       355  -8.3239    217.7461    156.3589   3.7335852665e+01   6.6921699600e+00    0.1385308    0.1085702 -61.35 0.0002683765    1.614    0.380
       356  -9.1845    157.4111    156.1746   5.0200527155e+01   1.8671494736e+01    0.2646604    0.2307784  43.41  0.000768192    1.160    0.138
       357  -9.1063    119.5495    155.0789   5.9574306262e+01   2.6420853814e+01    0.4161064    0.2799501 -88.81    0.0015692    2.374    0.579
       358  -8.4977     64.9509    155.9216   7.4778151497e+01   3.5118508347e+01    0.2286048    0.1586593  67.13 0.0006574001    1.643    0.391
       359  -8.9198    242.7988    154.7708   3.2566014605e+01   2.5514356875e+00    0.1766233    0.1487953 -50.27 0.0004335017    1.319    0.242
       360  -9.7257    132.8279    152.9083   5.5615371306e+01   2.4371240518e+01    0.5068297    0.3811757 -58.79   0.00148545    1.409    0.290
       361  -9.2404    133.6798    147.6717   5.4230521800e+01   2.5429165123e+01    0.3093266    0.2321303 -39.67 0.0009141576    1.363    0.266
       362  -9.5030    136.8178    147.5925   5.3398860698e+01   2.4815593676e+01     0.439815    0.3020485  54.56  0.001712693    1.623    0.384
       363  -9.5801    138.6204    144.7353   5.2281618226e+01   2.5112204760e+01    0.4127576    0.2789425 -67.80  0.001376467    1.924    0.480
       364  -8.9613     49.2394    155.0552   7.9002000484e+01   3.7302885062e+01    0.2675423    0.1539239  59.72   0.00102428    2.041    0.510
       365  -8.6272    181.0307    154.5341   4.4405289469e+01   1.4206108537e+01     0.226056    0.1494814  41.35 0.0005721868    1.542    0.351
       366  -9.8901      9.1729    152.8556   8.9465319504e+01   4.1619857157e+01    0.5501102    0.1192029  21.75  0.001892719    5.447    0.816
       367  -9.6568    110.9813    151.9695   6.1234216650e+01   2.8764515059e+01    0.4602382    0.2155705  43.48 0.0007786267    2.159    0.537
       368  -8.9372    189.5099    150.2622   4.1615288318e+01   1.3363519927e+01    0.2535551    0.2091851 -62.03 0.0007381185    1.415    0.293
       369  -9.0295    161.6489    151.3011   4.8096316207e+01   1.8875445948e+01    0.3087428    0.2090923  15.93  0.001265334    2.014    0.503
       370  -9.8819    147.5745    150.9890   5.1441382667e+01   2.1844374595e+01    0.2543487    0.2008257  40.22 0.0005271277    1.267    0.211
       371  -9.3939     29.5274    150.8288   8.3843757780e+01   4.0424340252e+01    0.3640517    0.1832526  64.57  0.001575798    2.549    0.608
       372  -9.4902    248.8640    149.1367   3.0406595580e+01   2.5015575358e+00     0.302522     0.163835 -39.65 0.0007368429    1.586    0.369
       373  -8.7327    243.3739    149.7307   3.1417816127e+01   3.3241347503e+00    0.2672612    0.1116681 -41.83  0.001121058    2.113    0.527
       374  -9.5409    238.0516    150.0258   3.2364401014e+01   4.1893239674e+00    0.2937107    0.1734797  16.19  0.001231747    2.797    0.642
       375  -9.8689     67.9393    153.5029   7.3543077326e+01   3.5322035765e+01    0.4242655    0.2441606  73.92   0.00160443    2.648    0.622
       376  -9.6948     53.6975    149.1748   7.6866896613e+01   3.8255345532e+01    0.3773227    0.2538695  60.00  0.001317683    1.668    0.400
       377 -10.5515     55.0505    145.1532   7.5832981945e+01   3.9106465685e+01     0.750105     0.394515  69.64  0.002781239    3.157    0.683
       378  -8.2403    212.8194    149.6012   3.6790455926e+01   8.8872919847e+00    0.1804581    0.1405576  56.30  0.000384892    1.540    0.351
       379 -10.5498    148.8747    145.2283   4.9801037094e+01   2.2882338205e+01    0.6647902    0.4504584  88.37  0.002450155    2.743    0.635
       380  -9.4155    122.7212    148.3810   5.7286149513e+01   2.7421734788e+01    0.3505949    0.2540319  59.85  0.001115542    1.607    0.378
       381 -10.1006     89.3063    146.3706   6.6152562259e+01   3.3906271766e+01    0.6867967    0.3880031 -87.40  0.002240428    3.603    0.722
       382  -9.3752     86.6940    149.0823   6.7430084174e+01   3.3648677644e+01    0.2948839    0.2130985  37.22  0.000782644    1.430    0.301
       383  -9.7182     39.7826    147.8643   8.0608219796e+01   4.0150928570e+01    0.4510761    0.2248519  62.20  0.001841418    2.747    0.636
       384  -8.1489    198.5518    148.5482   3.9356154675e+01   1.1886069571e+01    0.1477191    0.1391904 -30.57 9.437063e-05    1.048    0.046
       385 -10.5366     75.4881    147.1900   7.0279707935e+01   3.5841289270e+01    0.8524999    0.2694771  32.45  0.002803872    3.357    0.702
       386 -11.2940     60.6693    135.5559   7.2499008574e+01   4.0824921047e+01    0.8757027    0.3503146  38.36  0.003075324    2.587    0.614
       387  -9.8907     66.0716    143.6997   7.2376401025e+01   3.8053231897e+01    0.5143413    0.3286026  87.06  0.002243988    2.087    0.521
       388 -10.9775     69.5775    141.0987   7.0870388941e+01   3.8226713548e+01    0.5261817    0.3890165 -81.23  0.001968752    1.469    0.319
       389 -10.8701     73.7156    133.8816   6.8228496451e+01   3.9451348539e+01    0.5697045    0.2602144  44.07  0.001603747    2.394    0.582
       390 -10.5035     73.0523    128.9908   6.7423747023e+01   4.0772077278e+01    0.4860407     0.311652 -88.36  0.001401072    2.310    0.567
       391  -8.9841    233.5037    147.1037   3.2513938297e+01   5.5093997938e+00    0.2156886    0.1228951 -37.92  0.001019677    1.551    0.355
       392 -10.1174    106.3622    144.1344   6.0848512621e+01   3.1521892445e+01    0.6856109    0.4044816  72.84    0.0022577    3.432    0.709
       393  -8.5820    101.8020    145.5970   6.2443210172e+01   3.1977668575e+01    0.2353598    0.1531437  37.82 0.0006657002    1.568    0.362
       394  -8.9029     24.1189    147.2276   8.4879344140e+01   4.1803876452e+01    0.2315936    0.1566337  54.73 0.0007191395    1.587    0.370
       395  -8.2878    223.4374    146.5600   3.4160524833e+01   7.4474299966e+00    0.1418648    0.1265354 -27.25 0.0001066546    1.004    0.004
       396  -9.7831     32.5966    144.6846   8.2193085321e+01   4.1664317580e+01    0.3983954    0.2219106  57.05  0.001681924    2.103    0.524
       397  -8.8576     13.1689    146.2335   8.7737686405e+01   4.2932697489e+01    0.2330589    0.1541487  56.49  0.001333008    1.616    0.381
       398  -9.3199    240.2072    145.1522   3.0972514728e+01   4.6672056987e+00    0.2180819    0.1686042 -48.50 0.0006331736    1.312    0.238
       399  -9.5482    242.9980    142.9993   3.0061378399e+01   4.5553518091e+00    0.2055935    0.1719512 -47.28 0.0004896492    1.210    0.174
       400  -8.2577    175.3409    145.7008   4.3654727574e+01   1.7230563344e+01    0.1539828    0.1251017  89.02 0.0007035363    1.667    0.400
       401  -9.2746      6.8109    145.4362   8.9350319536e+01   4.3582348098e+01    0.2026881    0.1155089  30.46  0.001120912    2.014    0.504
       402  -8.9996    247.0539    143.7092   2.9562281585e+01   3.7339542283e+00    0.2356344    0.1723354 -26.67 0.0006414987    1.251    0.201
       403  -8.6751    250.4766    140.9355   2.8446807962e+01   3.6261164711e+00    0.2140331    0.1695653 -12.07 0.0006753171    1.332    0.249
       404  -8.8356    165.4897    143.8135   4.5467314142e+01   1.9706700942e+01    0.2847798    0.2420201  88.64  0.000766561    1.476    0.323
       405  -9.6689    124.9604    142.6037   5.5389854837e+01   2.8362150948e+01    0.4873804    0.3287227 -87.05  0.001473485    2.493    0.599
       406  -9.1715     81.4962    142.6431   6.7668930652e+01   3.6080559441e+01    0.2775061    0.1815005  38.52 0.0006155747    1.584    0.369
       407  -9.2283      2.8807    141.8030   9.0034114942e+01   4.4718720319e+01    0.2531471    0.1304477  76.22  0.001244372    2.144    0.533
       408 -10.2450     45.4971    140.0255   7.7790246018e+01   4.1509495557e+01    0.4550349    0.2284842  37.45  0.001435904    2.113    0.527
       409  -9.4261    133.4022    139.0784   5.2323556091e+01   2.7494781812e+01    0.4694177    0.2515078 -67.98  0.001463135    3.434    0.709
       410  -9.7573    128.4331    134.7464   5.2618371124e+01   2.9521819820e+01    0.5166777    0.3138638  41.21  0.001629464    1.662    0.398
       411  -9.6558     23.6349    138.3103   8.3891257172e+01   4.4053000188e+01    0.4479282    0.2152628  59.04  0.001925256    2.739    0.635
       412  -9.4293     19.0313    138.9942   8.5286853382e+01   4.4258399014e+01    0.2873557    0.2111846  50.03  0.001096381    1.497    0.332
       413 -10.0357    112.7665    137.2639   5.7519640282e+01   3.2006897927e+01    0.6967658    0.3239665  53.95  0.001816409    2.987    0.665
       414  -9.0691    112.7924    133.0125   5.6524775449e+01   3.3026958298e+01    0.3491477    0.2247225 -67.06 0.0007786825    1.930    0.482
       415  -8.0495    169.3204    138.6898   4.3372864869e+01   1.9997218995e+01    0.1652425     0.153788  -7.52 0.0004034862    1.098    0.089
       416  -8.5346    172.2983    137.6784   4.2454724522e+01   1.9575409819e+01    0.2483728    0.2196735 -77.77 0.0007705833    1.320    0.242
       417  -9.7417     93.0533    136.6049   6.3034903347e+01   3.5716254767e+01    0.5183702    0.3232203  37.34  0.001662176    1.655    0.396
       418  -8.1388    207.4630    137.5388   3.5102076217e+01   1.2246741528e+01    0.1470228    0.1362839 -41.36 0.0008073554    1.066    0.062
       419  -8.5096    197.3892    137.2391   3.7003654348e+01   1.4363380839e+01    0.2157839     0.133886 -50.29 0.0005527186    1.679    0.404
       420  -9.4463    140.4936    136.7123   4.9914121955e+01   2.6573780296e+01     0.335544    0.1942729  28.85  0.001269886    2.130    0.531
       421 -10.5305     83.2919    133.3559   6.5232132428e+01   3.8124559994e+01    0.6050577    0.3639982 -60.11  0.001659369    1.635    0.388
       422  -9.4736    248.6255    135.0248   2.7492226330e+01   4.9518471282e+00    0.3130874    0.1924801 -33.69 0.0008702201    1.430    0.301
       423  -8.0381    162.6522    136.3165   4.4353749128e+01   2.1940791604e+01    0.1609496    0.1271626  89.41 0.0007047952    1.726    0.421
       424  -9.0277     38.9941    136.0278   7.9082636380e+01   4.3201842143e+01    0.2157403    0.1506213  71.37 0.0005846904    1.653    0.395
       425  -9.2719    153.0177    135.1197   4.6380819377e+01   2.4275824393e+01    0.5949555   0.09919631  40.94  0.001171741    7.327    0.864
       426  -8.6771    179.3369    133.8031   3.9966652370e+01   1.8877526827e+01    0.2429584    0.1874365 -59.36  0.001032495    1.453    0.312
       427  -8.6844     10.3431    133.6972   8.7110712339e+01   4.6194753879e+01    0.2040313    0.1269754  69.01   0.00109826    1.795    0.443
       428  -8.3293    237.3903    133.1999   2.8869496526e+01   7.2742378240e+00    0.1998406    0.1136448 -47.16 0.0005308831    1.676    0.403
       429 -10.1796    132.5160    131.3198   5.0697001627e+01   2.9480639344e+01    0.5312166    0.3701152  77.61  0.001834952    2.250    0.556
       430  -8.9773    142.9643    131.4794   4.8010236739e+01   2.7244126420e+01     0.294805    0.2205325 -64.22 0.0006034673    1.562    0.360
       431  -9.9939     30.1840    130.0981   8.0812206056e+01   4.5524667639e+01    0.5455168    0.2310976  43.65  0.002253866    2.711    0.631
       432  -8.8722    250.7809    129.4995   2.6003603313e+01   5.5186515789e+00    0.3661559   0.09851508 -35.78  0.001186068    3.615    0.723
       433  -8.3012    246.8462    129.8423   2.6667265740e+01   6.1527464262e+00    0.1853151    0.1407587 -51.42 0.0005591153    1.309    0.236
       434  -9.3447    168.1837    129.4020   4.1387875721e+01   2.2226063480e+01    0.3163463    0.2340778 -77.19  0.000889203    1.911    0.477
       435  -9.1751    161.6138    130.1983   4.3109595486e+01   2.3493130955e+01    0.2326824    0.1462075 -33.14 0.0008463757    1.722    0.419
       436  -9.4972    152.8133    128.8639   4.4896597888e+01   2.5705243481e+01    0.4169067    0.2147457 -54.22 0.0009504837    2.244    0.554
       437 -10.1620     99.3625    127.9453   5.9220361074e+01   3.6744388474e+01    0.6074257    0.3969811  88.31  0.001890635    2.736    0.634
       438 -10.7261     61.3020    126.1221   7.0489179715e+01   4.3111375593e+01    0.8344271    0.4489353  66.76  0.002907143    3.597    0.722
       439 -10.3654     35.5137    114.5109   7.6542453854e+01   4.8889491595e+01    0.8317634    0.1984417  35.34  0.002834839    4.159    0.760
       440 -10.8905     45.9277    124.9255   7.5094917293e+01   4.5251360431e+01     1.051907    0.5567657  75.64  0.003686556    3.816    0.738
       441  -9.5734     12.6234    128.8899   8.5871182704e+01   4.7211763388e+01    0.3737713     0.202261  75.36  0.001773966    2.303    0.566
       442  -8.3185    211.5058    129.0250   3.2393094922e+01   1.3053712851e+01    0.2140449    0.1171456 -58.38 0.0008101347    2.545    0.607
       443 -10.1142    117.6507    125.9399   5.3446056193e+01   3.3763388756e+01     0.576098    0.4476594 -64.56  0.001681485    1.429    0.300
       444 -10.0293     38.4059    126.9651   7.7799655887e+01   4.5527718750e+01    0.2146119    0.2009775  11.79 0.0008366801    1.235    0.190
       445  -8.9277    179.0889    124.6096   3.7788358273e+01   2.0829629934e+01    0.2569895    0.2089598 -57.75 0.0006279584    1.311    0.237
       446 -10.4005    136.3317    124.1297   4.7896870351e+01   3.0323743075e+01    0.4478678    0.3325085  47.08  0.001412811    1.374    0.272
       447 -10.2994     28.7565    122.6018   8.0089609610e+01   4.7508190440e+01    0.6524304    0.3164746  75.36  0.002275489    4.135    0.758
       448  -9.4268     77.3370    124.0495   6.5029159030e+01   4.1360290351e+01    0.2792765    0.2168235  45.29 0.0008886678    1.387    0.279
       449  -9.5958      4.5036    123.5276   8.7600731467e+01   4.9030277022e+01     0.352339    0.1619389  43.51   0.00164591    2.552    0.608
       450  -8.9529    171.9578    121.4537   3.8564984126e+01   2.3061199648e+01    0.2439619     0.202066 -43.88 0.0004824756    1.179    0.152
       451  -9.2242    155.6923    122.6896   4.2646129312e+01   2.6421066459e+01    0.2234468    0.1500213  53.58 0.0006404686    1.597    0.374
       452  -9.4245    158.4034    121.2066   4.1619936065e+01   2.6137856974e+01     0.319436     0.262434 -81.84 0.0008296195    1.515    0.340
       453  -9.6070     90.4773    121.0497   6.0265673451e+01   3.9973152688e+01    0.4491158    0.2270188  42.47 0.0009221332    2.082    0.520
       454  -8.4995     83.8080    122.3851   6.2638830504e+01   4.0754316897e+01    0.2045238    0.1463608  19.59 0.0009433607    1.632    0.387
       455  -9.8204    141.5296    118.4986   4.5099285670e+01   3.0459892831e+01    0.4400425    0.2949434 -67.48  0.001280777    2.046    0.511
       456  -9.4455     71.2035    120.0314   6.6068688479e+01   4.3262278045e+01    0.2779235    0.1830791  62.11  0.001135277    2.069    0.517
       457  -9.5624    130.7038    118.2510   4.7888161124e+01   3.2851331066e+01    0.3892612    0.2837795 -84.19  0.001403777    2.062    0.515
       458  -9.8775    105.7422    117.6749   5.4818106165e+01   3.8027577148e+01    0.4576148    0.2856256  32.81 0.0008945263    1.714    0.417
       459  -9.6321    109.3241    113.9302   5.2794660019e+01   3.8212344027e+01    0.4596738    0.3031126 -72.47  0.001507316    2.242    0.554
       460  -9.9835     20.3599    118.1889   8.2038091930e+01   4.9271164349e+01    0.3591028    0.2060426  34.33  0.001102675    1.993    0.498
       461  -9.3884    123.6118    118.1718   4.9809801984e+01   3.4357705964e+01    0.5044628    0.2239387  39.13  0.001256197    2.343    0.573
       462  -9.5881      2.8216    117.1922   8.7334374770e+01   5.0648077700e+01     0.325516    0.1673199  71.55  0.001530031    2.579    0.612
       463 -10.1540     63.5796    114.6485   6.7331609852e+01   4.5647381660e+01    0.5457745    0.2996826  44.72  0.001948163    2.093    0.522
       464 -10.0108     66.2816    110.2165   6.5426479109e+01   4.6353957170e+01    0.3447958     0.260467 -82.47  0.001108633    1.654    0.395
       465 -11.5578    248.8765    107.5316   2.1617721962e+01   9.5706892353e+00    0.7281666    0.2981505 -44.29  0.003125516    2.094    0.523
       466  -9.8714     48.7736    111.5993   7.1575542654e+01   4.8226868790e+01    0.3070245    0.2335618  51.46  0.001001731    1.550    0.355
       467  -8.5032    167.4055    114.2070   3.7744028323e+01   2.5583106418e+01    0.2231057    0.1438311 -52.28 0.0004413305    1.646    0.392
       468 -11.0340    134.1216    109.8310   4.4742808523e+01   3.3983243870e+01    0.8427121    0.3984846 -48.58  0.002829293    2.182    0.542
       469 -10.0653     92.6752    112.4262   5.7455524629e+01   4.1657751841e+01    0.4671992    0.3222248 -71.37   0.00140042    1.879    0.468
       470  -9.8170     78.8034    112.4549   6.1864284862e+01   4.3960324554e+01    0.4725952    0.3262341  74.55  0.001667543    2.270    0.560
       471  -8.9100     75.3400    114.7034   6.3520667967e+01   4.3951778864e+01    0.2334926    0.1517889  36.24 0.0009668129    1.628    0.386
       472  -9.7495    122.0069    112.4688   4.8760096781e+01   3.5985656466e+01    0.3075736    0.2563919  78.56 0.0005654973    1.484    0.326
       473  -8.4680    174.6505    111.7546   3.5520657235e+01   2.4436223962e+01    0.2244508    0.1379164 -49.70 0.0006112318    1.670    0.401
       474  -9.3023    159.2580    111.6635   3.8953418267e+01   2.7960921562e+01    0.2884934    0.1857729 -54.23 0.0006232018    1.706    0.414
       475  -9.4752     14.6858    111.5737   8.2841392723e+01   5.1280127878e+01    0.3239103     0.169536  61.16  0.001355511    2.768    0.639
       476 -10.4343      8.5607    109.6267   8.4527353349e+01   5.2133515582e+01    0.3998177    0.2320462  65.29  0.001421842    2.280    0.561
       477  -8.1862    189.2530    107.9521   3.1557054251e+01   2.1875094038e+01    0.1995291    0.1251021 -41.55 0.0004913801    1.524    0.344
       478  -9.3949    126.7436    106.5009   4.5831320858e+01   3.6308377870e+01    0.3066753    0.1536066  39.09  0.001138832    2.086    0.521
       479 -10.1367     84.2505    104.5868   5.8106975019e+01   4.4939680114e+01    0.6691955    0.3231796  41.70  0.002468033    2.200    0.546
       480  -9.0688     82.0187     99.5932   5.7507672829e+01   4.6461803438e+01    0.2827072    0.2056376 -67.14 0.0008021256    1.660    0.398
       481 -10.8936     22.3869    102.8475   7.8825771208e+01   5.2828676514e+01    0.5884027    0.4258123  74.02  0.002215985    1.745    0.427
       482  -9.2055    139.9424    104.5295   4.1778880502e+01   3.3831879597e+01    0.3276465    0.2563555 -87.69 0.0008419611    1.727    0.421
       483  -9.6582     69.8220    104.8217   6.2939508538e+01   4.7139308015e+01     0.595846    0.1914607  34.06  0.002023848    3.234    0.691
       484 -10.5249     45.6631    102.1730   7.0607623476e+01   5.0847724707e+01    0.6951228    0.4075445  70.69  0.002703152    3.378    0.704
       485  -8.2911    166.5967    103.8503   3.5223689897e+01   2.7866927342e+01    0.2229337    0.1405337 -52.79 0.0006965174    1.712    0.416
       486  -9.6246    150.4194    102.7973   3.8689406695e+01   3.1814182101e+01    0.3843237    0.2601756 -62.99 0.0009149071    1.874    0.466
       487  -9.3959     97.0095    103.0000   5.3611067219e+01   4.3060913021e+01    0.6405911    0.2511775  27.38  0.001771701    4.495    0.778
       488 -10.5700    113.5383    106.2710   4.9510740016e+01   3.9117654990e+01    0.7153944    0.2600732  45.01  0.002326191    2.849    0.649
       489  -9.4835    147.1995    110.5632   4.1574429655e+01   3.0922657119e+01    0.5395614    0.1534857  45.40  0.001530367    3.540    0.718
       490  -9.6592    128.3718    101.7951   4.4083335682e+01   3.6972304815e+01     0.286537    0.2454951 -85.44 0.0007068793    1.422    0.297
       491  -8.1807    159.6641    100.8289   3.5977448463e+01   3.0077180558e+01    0.2252382    0.1382084 -50.18 0.0005477556    1.712    0.416
       492 -10.1874    108.7530     98.6673   4.8806884190e+01   4.1762414068e+01    0.5284232    0.3700922  73.02  0.001348135    2.239    0.553
       493 -10.1011     63.9164     95.8159   6.2670002937e+01   5.0081693989e+01    0.6285751    0.3628876 -76.24  0.001992753    3.178    0.685
       494  -8.9732    144.0554     98.5350   3.9079488447e+01   3.4143876322e+01    0.2420056    0.1534505  47.58 0.0006258675    1.576    0.365
       495  -9.0314     94.9020     96.7125   5.2526542487e+01   4.4858887427e+01    0.2831615    0.2150038 -54.14  0.000542785    1.378    0.274
       496  -9.7749     11.0286     96.3994   8.1625551660e+01   5.5121286079e+01    0.4638939    0.1967303  26.39   0.00223173    2.693    0.629
       497 -10.0816    132.8783     96.3924   4.1348690252e+01   3.7111536609e+01    0.6445271    0.1476948  45.75  0.001668534    4.335    0.769
       498 -10.3155     53.5743     93.6300   6.5777482027e+01   5.1937376618e+01     0.762598    0.2406074  40.47  0.002597435    3.786    0.736
       499 -10.0830     29.9023     92.1243   7.4034220537e+01   5.4753327503e+01    0.5637426    0.3361875  81.19  0.002402663    3.083    0.676
       500  -9.3117     23.2385     89.5712   7.5941364925e+01   5.5885234642e+01    0.2961651    0.1949531  10.21   0.00166058    1.766    0.434
       501  -9.0048    153.8268     94.5233   3.5603186964e+01   3.2685348052e+01    0.3666789    0.1525543  58.98   0.00114238    3.193    0.687
       502  -9.1421      5.0438     92.0288   8.2992797825e+01   5.6470769180e+01    0.1829226    0.1572687 -86.91 0.0005888862    1.270    0.213
       503  -9.7325     52.4679    113.5133   7.0747279987e+01   4.7331063709e+01    0.3262815    0.2188688 -67.35  0.001019136    1.480    0.324
       504  -9.0440      1.7480     93.5668   8.4395442740e+01   5.6277965533e+01    0.2027554     0.153654 -86.01  0.001049602    1.366    0.268
       505  -9.6884    124.6226     90.7852   4.1959072270e+01   4.0087264031e+01    0.4049549    0.3039669 -70.28  0.001066933    1.780    0.438
       506 -10.4402    115.0474     91.1571   4.4777286048e+01   4.2068168212e+01     1.010747    0.3911195  53.40  0.003078802    3.535    0.717
       507  -8.1201    176.3008     92.7068   3.0218102369e+01   2.7749888800e+01    0.1522999    0.1175408 -76.46 0.0002092002    1.569    0.363
       508  -9.1784    138.7655     91.7835   3.8503053893e+01   3.6714184958e+01    0.2884759    0.2404519 -77.90 0.0006815764    1.460    0.315
       509  -9.6055     34.6755     89.5346   7.1695858498e+01   5.4924372198e+01    0.4066431    0.2442253 -87.49  0.001756179    2.821    0.646
       510  -7.7754    151.2820     89.2880   3.4734212221e+01   3.4296949914e+01    0.1503118    0.1217287  10.81 0.0002113818    1.525    0.344
       511  -8.4112    107.4949     92.4605   4.7395675554e+01   4.3349999423e+01     0.230084    0.1440627  31.07 0.0009730897    1.748    0.428
       512  -9.9919     86.3611     86.3821   5.2306364226e+01   4.8641708390e+01    0.4549861    0.3485206  85.44  0.001535656    2.099    0.523
       513  -9.6408     70.0375     86.0349   5.7826001358e+01   5.1391308851e+01     0.909793    0.2353421  30.05  0.002476146    5.263    0.810
       514  -9.2188    140.8460     82.7418   3.5357332462e+01   3.7983355458e+01    0.3669236    0.1984421 -54.72 0.0008187181    2.366    0.577
       515 -10.0789     13.2874     85.3538   7.8783801497e+01   5.7539456261e+01    0.5610028    0.1739107  30.93  0.002333221    3.585    0.721
       516  -9.5920     48.3214     83.9735   6.5201664252e+01   5.4755127874e+01    0.3839695    0.2694184  76.09  0.001573049    2.510    0.602
       517  -9.0954     43.7830     80.6049   6.6024084262e+01   5.6014842863e+01    0.5433542    0.1378077  31.67   0.00187781    3.950    0.747
       518  -8.2311    157.8766     83.8020   3.1685447483e+01   3.3766295632e+01    0.2063558    0.1759511 -71.31 0.0004327206    1.298    0.230
       519  -9.4733    104.7228     82.9994   4.5400410084e+01   4.5864970037e+01    0.3633186    0.2702779 -71.53 0.0008820377    1.942    0.485
       520  -9.3441    131.0664     82.5161   3.7775070859e+01   4.0278175389e+01    0.5678597    0.1488465  48.76  0.001603462    3.757    0.734
       521  -9.4766     24.6366     80.6962   7.3455949171e+01   5.7797200896e+01    0.3580287    0.2422502  86.81  0.001308618    2.249    0.555
       522  -9.4489    249.7579     79.9950   1.5652262604e+01   1.3861177236e+01    0.1767677   0.09563264 -39.97 0.0008816392    1.598    0.374
       523  -8.0878    150.3070     80.6173   3.2485561218e+01   3.6149811372e+01    0.1611407    0.1186736 -73.63 0.0007022422    1.794    0.443
       524  -8.3494    119.3982     80.1570   4.0222476788e+01   4.3333588090e+01    0.2153554    0.1406104 -51.95 0.0009353751    1.737    0.424
       525  -8.5689     74.6531     80.3240   5.4500291371e+01   5.1894634801e+01    0.2056647    0.1736433  87.88 0.0007523496    1.693    0.409
       526  -8.1625    184.3640     77.8320   2.4752381456e+01   2.8498129716e+01    0.2018543    0.1395039 -26.79 0.0006725453    1.649    0.393
       527  -9.1568     93.9131     78.3963   4.7371766985e+01   4.8906845968e+01    0.3585613    0.1332895  33.29  0.001140028    3.382    0.704
       528  -9.9614     54.7695     76.8395   6.0759298604e+01   5.5518180778e+01     0.616861    0.1822032  31.19   0.00215783    3.557    0.719
       529  -9.2081    127.9308     74.9687   3.6306516808e+01   4.2399919822e+01    0.3221748    0.2061951 -53.95 0.0007096443    1.870    0.465
       530  -9.2928    109.4593     76.0111   4.1795218958e+01   4.6257517360e+01    0.6519886    0.2039422  48.39  0.002027365    3.361    0.702
       531  -9.1138     16.2956     75.4542   7.5527379071e+01   5.9569213701e+01    0.3709902    0.1507603  43.71  0.001493098    3.957    0.747
       532  -9.8522     63.1987     73.5491   5.6580609069e+01   5.5051917611e+01    0.3964124    0.2383053 -57.25  0.001155126    1.957    0.489
       533  -9.5890     82.4260     72.5031   4.9327367380e+01   5.2174962462e+01    0.3355114    0.2499415 -64.44  0.001084237    1.849    0.459
       534  -8.1557     77.6375     74.2931   5.1569883569e+01   5.2642686892e+01    0.1376055    0.1159704  75.02 0.0007029335    1.704    0.413
       535  -8.3069    163.3947     73.1939   2.7523277339e+01   3.4320363978e+01    0.2183605    0.1334632 -48.45 0.0009479678    1.716    0.417
       536  -8.4895    115.6191     72.7590   3.8978363915e+01   4.5547092226e+01    0.2038681    0.1394571 -47.77 0.0005429059    1.590    0.371
       537  -9.5088      3.0049     72.0171   8.0084349078e+01   6.1079514704e+01    0.3284317    0.1872968  63.14  0.001588982    3.116    0.679
       538  -8.5734    105.8108     71.7623   4.1528139973e+01   4.7817445432e+01    0.1938983    0.1783652 -82.91 0.0005330915    1.334    0.250
       539  -8.9869     95.1200     71.0159   4.4614552666e+01   5.0107872211e+01    0.2935397     0.186277 -55.28 0.0009032796    2.009    0.502
       540  -9.3174     51.4704     69.6529   5.9873902171e+01   5.7443192244e+01    0.3777716    0.2356102 -69.90  0.001356547    2.668    0.625
       541  -8.6666     16.6877     70.0907   7.4111003994e+01   6.0713923473e+01     0.188568    0.1446566 -74.95 0.0007650527    1.518    0.341
       542  -9.2871     32.5924     68.4567   6.7132115621e+01   5.9775635966e+01    0.4021606     0.170039   3.31  0.001379352    4.597    0.782
       543  -9.2172    146.9185     67.6908   2.9464044214e+01   3.9221117059e+01     0.285704    0.2110223 -47.19 0.0006381311    1.425    0.298
       544  -8.9472    131.8537     68.3114   3.3237046374e+01   4.2676870561e+01    0.3976685    0.1033077  44.11  0.001085763    4.159    0.760
       545  -8.8198    138.5455     65.9948   3.0886772811e+01   4.1499989337e+01    0.2202843     0.146016 -38.43 0.0005559989    1.562    0.360
       546  -8.6896    121.6118     65.7951   3.5100362830e+01   4.5454000388e+01     0.204082     0.136648 -47.87 0.0005372672    1.660    0.398
       547  -9.2995    109.6100     64.2949   3.7961093818e+01   4.8354661328e+01    0.4425996    0.2878938  -6.60  0.001844062    2.229    0.551
       548  -8.6242     37.1860     63.9993   6.3927658899e+01   6.0244778308e+01     0.196182    0.1520954 -84.54  0.001068859    2.059    0.514
       549  -9.3047     97.5488     61.2769   4.0586864158e+01   5.1388339300e+01    0.4023781    0.2653199 -34.26  0.001555891    1.539    0.350
       550  -9.3316    149.9844     62.5378   2.7254473368e+01   3.9326421384e+01     0.229392    0.1398502  55.90 0.0005486507    1.569    0.363
       551  -8.4253     86.9557     63.0000   4.4617971762e+01   5.3142380928e+01    0.2346611   0.07840615  42.29 0.0008044408    2.956    0.662
       552  -9.7639     73.2063     59.5787   4.8250960431e+01   5.6196664642e+01    0.3973342     0.289685 -28.07  0.001352396    1.316    0.240
       553  -9.0868     68.0291     61.0000   5.0656797630e+01   5.6779444314e+01    0.5325826    0.2128829  25.39  0.001801756    3.710    0.730
       554  -9.1953      2.6003     60.5082   7.7750476736e+01   6.3565018139e+01    0.3216147    0.1920609  63.56  0.001593622    3.209    0.688
       555  -9.3586    147.0188     59.3167   2.6930402581e+01   4.0552275786e+01    0.2078426    0.1918039  60.62  0.000620132    1.036    0.035
       556  -8.5255    250.3104     58.3363   1.1067854930e+01   1.7001033997e+01    0.1132255   0.09981482   8.10 0.0004022564    1.682    0.406
       557  -8.9550     40.5321     58.2772   6.0724933825e+01   6.1025839204e+01    0.2811227    0.1107965  26.82  0.001206827    2.684    0.627
       558 -10.1434     23.4344     56.2537   6.7490103796e+01   6.3091388352e+01    0.3988239    0.2781098 -89.91  0.002019937    2.816    0.645
       559  -9.7116      7.2550     56.8501   7.4826715042e+01   6.4085263349e+01      0.25002    0.1807939 -85.71  0.001193366    1.963    0.491
       560  -8.1728    130.5561     57.4724   3.0143883214e+01   4.4762304107e+01    0.1440877    0.1381385  53.48 0.0002677884    1.046    0.044
       561  -8.2559    140.4746     56.4572   2.7501734543e+01   4.2569196709e+01    0.1453032    0.1369237  75.76 0.0001676923    1.084    0.078
       562  -8.6807    119.3438     55.6880   3.2407898521e+01   4.7626142872e+01    0.2141994    0.1692467 -75.84 0.0007974712    1.737    0.424
       563  -8.8813     62.9979     54.5611   5.0312440880e+01   5.8736012587e+01    0.2336275    0.1827183 -50.04 0.0005666326    1.521    0.343
       564  -8.4695     44.2041     55.2397   5.8163752037e+01   6.1183355089e+01    0.1636189    0.1530304 -52.58 0.0007982508    1.378    0.274
       565  -9.0524    247.5018     55.0000   1.0665436124e+01   1.8037776310e+01    0.2541527    0.0690927  65.02 0.0009368089    3.951    0.747
       566  -8.8412     54.0461     53.5575   5.3503834799e+01   6.0222644564e+01    0.2627975    0.1678908 -60.81  0.001174339    2.446    0.591
       567  -8.3512    105.7623     53.0438   3.5270939310e+01   5.1036652930e+01    0.1790301    0.1189608 -33.89 0.0003940329    1.566    0.361
       568  -9.2680     92.5017     50.4169   3.8374854257e+01   5.4195990450e+01    0.3111874     0.207715 -48.69  0.001114114    1.840    0.457
       569  -8.2370    144.6864     49.2984   2.4380516018e+01   4.2615570221e+01    0.1435632    0.1099364 -77.33 0.0002413966    1.605    0.377
       570  -8.2583    163.5793     48.2329   2.0401889934e+01   3.8157668627e+01    0.1897298    0.1410629 -15.88 0.0009516292    1.669    0.401
       571  -8.3180    112.4366     46.9268   3.1286826776e+01   5.0501006598e+01    0.1887856    0.1164632 -56.45 0.0008048812    2.381    0.580
       572  -9.5711     13.5088     47.5089   6.9352271146e+01   6.5564357496e+01    0.1849066     0.100711  29.55 0.0008979599    2.167    0.539
       573  -8.6642     82.0761     46.2585   4.0286363229e+01   5.6863514602e+01    0.1872838    0.1706712  15.89 0.0005927215    1.086    0.079
       574  -8.0554    174.3960     45.4761   1.7793565646e+01   3.5896579623e+01    0.1375783    0.1272248 -89.47 0.0001999414    1.022    0.021
       575  -9.1470     16.6902     44.5760   6.6926851432e+01   6.5894972894e+01    0.1797509    0.1421537 -67.37 0.0006880385    1.699    0.411
       576  -8.7883    132.7737     43.0359   2.4987115239e+01   4.6347497471e+01    0.1786967    0.1179833 -31.50 0.0003253669    1.636    0.389
       577  -9.6177     96.8895     42.7199   3.4219132278e+01   5.4458338902e+01    0.6148056    0.2049765  58.77  0.001540805    6.638    0.849
       578  -8.5040     58.2897     42.4382   4.7650521962e+01   6.1515329036e+01    0.2050406    0.1583602 -52.92  0.001159157    1.775    0.437
       579  -8.6525     32.6536     43.6825   5.9169560334e+01   6.4613038950e+01    0.1348681   0.08001134 -17.38 0.0005341781    1.725    0.420
       580 -10.0179      5.1402     42.0244   7.1673413308e+01   6.7143323307e+01    0.2565222    0.1768446 -66.23  0.001429308    1.729    0.422
       581  -9.2246     69.5620     41.3652   4.2876079783e+01   5.9861183963e+01    0.2529401    0.2114802 -72.34  0.001039453    2.003    0.501
       582  -8.4341    106.1227     41.1766   3.0993324906e+01   5.2705993931e+01    0.1798449    0.1670763 -82.24 0.0004746297    1.332    0.249
       583  -8.4949     36.8456     40.7927   5.6191436211e+01   6.4658181777e+01    0.1544732    0.1447279 -13.01 0.0006251625    1.325    0.245
       584  -9.8899    156.1353     39.6366   1.9251939347e+01   4.1140139437e+01    0.2347629    0.1858886 -50.65  0.000746018    1.344    0.256
       585  -8.3541     95.4801     37.9672   3.2887509892e+01   5.5413393078e+01    0.1797481     0.113584 -54.76 0.0008086697    2.428    0.588
       586  -9.3970     21.7285     37.2750   6.1979366478e+01   6.6813465943e+01    0.2514996    0.1558125  24.38  0.001513366    1.719    0.418
       587  -9.5015     26.1650     35.2943   5.9087900190e+01   6.6740669559e+01     0.252159    0.1973077 -60.18 0.0009012865    1.871    0.466
       588  -8.0969    126.2541     35.6267   2.4022650890e+01   4.8853892503e+01    0.1357951    0.1042626 -64.20 0.0006964073    1.645    0.392
       589  -9.0696     73.5681     35.1341   3.8960690236e+01   6.0070618948e+01    0.3253292    0.1790542  51.36  0.001434972    2.120    0.528
       590  -8.8088     72.3941     31.1578   3.7776805670e+01   6.0827311949e+01    0.2260578    0.1152711 -42.68 0.0009291224    2.424    0.587
       591  -9.8820      9.3183     34.5421   6.7170412495e+01   6.8272205085e+01    0.3668431    0.1324148  27.12  0.001790841    2.999    0.667
       592  -8.5407    111.5659     34.4942   2.7165686503e+01   5.2377638985e+01    0.1366527    0.1238385  38.09 0.0001062821    1.025    0.024
       593  -8.3129    119.3313     33.6166   2.4946082674e+01   5.0716233341e+01    0.1414325    0.1052177 -71.27 0.0007011021    1.871    0.466
       594  -8.7710     48.4913     33.1176   4.7987693871e+01   6.4410718643e+01    0.1796295    0.1663129   6.59 0.0006831107    1.313    0.238
       595  -8.5288     60.6522     32.3524   4.2667210442e+01   6.2677963085e+01    0.1667508    0.1582342 -76.14 0.0007143024    1.640    0.390
       596  -9.0534     13.1669     30.4541   6.3727642888e+01   6.8713127128e+01    0.2064108    0.1479458 -60.92  0.001079665    1.933    0.483
       597  -8.1221    101.6588     29.3359   2.7907849347e+01   5.5198320135e+01    0.1309066    0.1064034 -77.08 0.0007050732    1.760    0.432
       598  -9.0860      3.6682     27.5553   6.7636471587e+01   6.9872596587e+01    0.1658992    0.1360143 -64.41 0.0008230809    1.713    0.416
       599  -8.6956     81.5085     27.1785   3.3062753974e+01   5.9621494428e+01     0.188634    0.1772993  57.89 0.0008593312    1.342    0.255
       600  -8.6095     91.9726     26.0693   2.9399601993e+01   5.7642715849e+01     0.190216    0.1613466 -69.68 0.0006504771    1.688    0.408
       601  -9.2265     76.1038     25.8769   3.4324852631e+01   6.0818319678e+01    0.2678104     0.157109  46.62  0.001396049    1.613    0.380
       602  -9.3263    154.0962    248.9661   6.7536768800e+01   8.2628467703e-01    0.4156607    0.1943655  22.21   0.00168033    2.953    0.661
       603  -8.5938     48.6304     21.5123   4.2934820724e+01   6.6033453154e+01    0.1795831    0.1420911 -41.90 0.0006897844    1.703    0.413
       604  -8.6703     16.6539     22.3083   5.8659501544e+01   6.9765838574e+01   0.09748389   0.09171157  33.46 0.0007044011    1.701    0.412
       605  -8.4950    121.4187     21.5146   2.0324870256e+01   5.1603711519e+01    0.1333096    0.1173673  48.45  7.62198e-05    1.013    0.013
       606  -8.8416     63.7876     20.9257   3.6610525027e+01   6.3652533715e+01    0.2063732    0.1659759 -39.61 0.0008138782    1.607    0.378
       607  -8.8493     74.1301     19.4070   3.2293377367e+01   6.1949711347e+01    0.2302316    0.1577039 -43.48 0.0008221467    1.945    0.486
       608  -8.3665    104.3388     22.6581   2.4726067555e+01   5.5368968489e+01    0.1297809    0.1031952 -74.75  0.000704964    1.770    0.435
       609  -8.5095    212.9504     15.5077   5.5674476862e+00   3.0486373597e+01    0.1772291    0.1075953  76.11 0.0003715535    1.478    0.323
       610  -8.1351     30.3033     15.7013   4.8697071747e+01   6.9291451171e+01   0.09754165   0.09237308   6.20 0.0004052192    1.585    0.369
       611 -10.3499     64.7280    248.4532   8.5709108490e+01   1.4128027089e+01    0.2653949    0.1771141  52.52 0.0005019397    1.216    0.178
       612  -8.7758     77.6842     13.0354   2.8442756768e+01   6.1936750294e+01    0.2154365    0.1569286  52.94 0.0007458546    1.395    0.283
       613  -8.7010    175.5158    247.6400   6.2971806177e+01  -2.2636792316e+00    0.2269432    0.1773026  80.16  0.001258539    2.311    0.567
       614  -9.8089    144.7011    247.2249   6.9236648318e+01   2.5827925799e+00    0.3992486    0.2578697  21.64  0.001230066    1.633    0.388
       615  -9.1710    103.8514    246.8887   7.7670518096e+01   8.9218401100e+00    0.3492624    0.1994858 -84.45  0.001675166    2.661    0.624
       616  -9.5091     34.3779    247.6492   9.1434415623e+01   1.8012882348e+01    0.2295891    0.1552623  60.40 0.0006421874    1.154    0.134
       617  -9.9586     21.0425    247.7759   9.3870026649e+01   1.9459929685e+01    0.2244568    0.1485821  55.16 0.0003625731    1.203    0.169
       618 -10.1176    223.9989    243.9027   5.2897656669e+01  -8.7557124647e+00    0.4406063    0.2381787 -43.09  0.002380633    2.276    0.561
       619  -9.1036    220.6861    243.7071   5.3487229120e+01  -8.2763538455e+00    0.2055944    0.1337275  -9.74 0.0006384735    1.513    0.339
       620  -9.1841    210.8822    246.5317   5.5813014557e+01  -7.3084328804e+00    0.2080214    0.1606328 -51.73 0.0008560472    1.975    0.494
       621  -8.5168    203.6815    247.5959   5.7373327662e+01  -6.4369429458e+00    0.2360756    0.1010529  29.88  0.001047421    2.088    0.521
       622  -8.8738     57.6257    246.8516   8.6963060692e+01   1.5356625972e+01     0.192191    0.1444817  38.35 0.0003844223    1.353    0.261
