#   1 NUMBER                 Running object number                                     
#   2 MAG_AUTO               Kron-like elliptical aperture magnitude                    [mag]
#   3 X_IMAGE                Object position along x                                    [pixel]
#   4 Y_IMAGE                Object position along y                                    [pixel]
#   5 X_WORLD                Barycenter position along world x axis                     [deg]
#   6 Y_WORLD                Barycenter position along world y axis                     [deg]
#   7 A_WORLD                Profile RMS along major axis (world units)                 [deg]
#   8 B_WORLD                Profile RMS along minor axis (world units)                 [deg]
#   9 THETA_WORLD            Position angle (CCW/world-x)                               [deg]
#  10 FWHM_WORLD             FWHM assuming a gaussian core                              [deg]
#  11 ELONGATION             A_IMAGE/B_IMAGE                                           
#  12 ELLIPTICITY            1 - B_IMAGE/A_IMAGE                                       
         1 -15.2360      6.3236     71.4632   1.0671986629e+02   6.1562464202e+01     2.128272    0.6475736 -56.40  0.008824186    2.277    0.561
         2 -14.1249      8.1912     43.0800   9.8393408421e+01   6.7370019341e+01     1.847713    0.8827471 -19.75  0.009320021    2.348    0.574
         3 -13.6519      2.9489     10.5345   8.8568236347e+01   7.3384382076e+01    0.7757572    0.4553151 -45.61  0.005012951    1.707    0.414
         4 -13.3505      8.0164      2.5163   8.1375713807e+01   7.4076955678e+01    0.4759815     0.355563  33.93  0.003407942    1.831    0.454
         5 -16.0758     12.1701     21.7504   8.8322218644e+01   7.0865655237e+01     1.774776    0.9989829 -18.07  0.009088077    1.697    0.411
         6 -14.1303    122.3445     37.1087   5.3479600598e+01   4.9588905824e+01    0.9682062    0.4968799  37.04  0.002610812    2.286    0.563
         7 -13.3062    131.6411     32.7906   5.0036861065e+01   4.7921534880e+01    0.8085076    0.4381893 -49.07  0.003506269    2.186    0.543
         8 -14.7665    146.9853     29.5187   4.6127719012e+01   4.4592145954e+01     1.415275    0.8691573  76.40   0.00678119    1.683    0.406
         9 -14.0729    165.7798     30.8899   4.3530910898e+01   3.9830163285e+01    0.8898827    0.6504739  82.39  0.003448952    1.315    0.240
        10 -12.8440    119.8336     26.5772   5.0408705388e+01   5.1459938339e+01    0.7136396    0.4259999  34.57   0.00343147    1.871    0.465
        11 -13.5490    187.8530     25.2564   3.9110224576e+01   3.5175262060e+01     1.109355    0.4607023 -64.54  0.003978239    3.638    0.725
        12 -14.1010     25.0703     14.0127   7.7758083283e+01   7.0680299898e+01    0.7538757    0.2847226  30.09  0.003666447    2.602    0.616
        13 -12.8029     48.4081     20.5060   6.9911348837e+01   6.6583967932e+01     0.584076    0.2010058  40.24  0.002534547    2.735    0.634
        14 -12.9832    187.6745     10.1064   3.5325418177e+01   3.6878434661e+01    0.6918498    0.2865544 -50.23  0.003151349    2.381    0.580
        15 -12.2700     85.3830     14.2329   5.4196969535e+01   6.0450243684e+01    0.3725216    0.3157419  -0.60  0.001968127    1.211    0.174
        16 -12.4900     70.2900     16.6340   5.9859231464e+01   6.3226869611e+01    0.3766014     0.310614 -85.93  0.001784666    1.969    0.492
        17 -11.7466     46.6190     13.0623   6.7128052383e+01   6.7782962302e+01    0.2423481    0.2340356 -14.37  0.001753227    1.456    0.313
        18 -12.8500    214.6737     10.3081   3.2927744333e+01   3.0695439816e+01      0.33639    0.2742017 -76.63 0.0009853245    1.025    0.024
        19 -14.0198     41.6717      4.7502   6.5068768431e+01   6.9482921651e+01    0.7040307    0.4758039   8.26  0.003595089    1.347    0.257
        20 -11.4016    152.9489      8.8584   3.9023041812e+01   4.5306161129e+01     0.200021    0.1599899  53.11 0.0007781167    1.243    0.196
        21 -11.2358    120.1483      3.8359   4.2458868311e+01   5.3581068777e+01    0.1898952    0.1472724  63.75  0.000525722    1.107    0.096
        22 -10.9821    117.4802      1.4968   4.2117626187e+01   5.4387678570e+01    0.2230594    0.1080754  65.38 0.0007847297    1.752    0.429
        23 -12.0573     80.0178      2.0297   5.0504081243e+01   6.2655068913e+01     0.565152    0.1304669  50.52   0.00218718    3.017    0.669
        24 -11.6263     61.1548      1.7391   5.6069457193e+01   6.6402757435e+01    0.3579874    0.1390895  51.88  0.001699168    2.265    0.559
        25 -15.1590     99.1055     11.7365   4.9654983333e+01   5.7724889296e+01     1.386483    0.7235625  57.41  0.004843779    1.663    0.399
        26 -13.4916     17.5954     11.6678   8.0595386947e+01   7.1854378638e+01     0.446225    0.3464236 -56.14  0.001335751    2.261    0.558
        27 -12.3947    246.7311    149.8164   5.9749118787e+01   2.8626790402e+00    0.3283733    0.2486813 -54.05  0.001889025    1.488    0.328
        28 -12.3817     51.3229    247.3479   1.1611930051e+02   1.5944706336e+01    0.4194411    0.2707403  12.42  0.002189289    2.873    0.652
        29 -13.0096      2.8800    248.0391   1.2506878236e+02   2.1200742888e+01    0.5078705    0.2656072 -86.98  0.003270286    1.655    0.396
        30 -13.8230      9.0806    245.6978   1.2387282606e+02   2.1037142575e+01     0.742882    0.3524847  67.68   0.00359267    1.726    0.420
        31 -11.4055     59.0452    148.5268   1.0318877115e+02   3.7766109486e+01    0.2081335    0.1419127  33.82  0.001008676    1.585    0.369
        32 -11.6555      6.2097    145.5972   1.1764459985e+02   4.3815252748e+01    0.1982241    0.1802087   6.69  0.001349728    1.427    0.299
        33 -11.2315    103.1087    150.5303   9.1117009905e+01   3.0385650420e+01    0.3249552    0.1898136 -39.55   0.00131371    1.977    0.494
        34 -11.7702     40.4073    136.5284   1.0672162575e+02   4.3058645514e+01    0.2919472    0.1662815  61.16  0.001305115    2.181    0.541
        35 -13.0464     82.7266    114.3382   8.9023956047e+01   4.2872867985e+01     1.909493    0.8512558  55.54  0.005827301    4.021    0.751
        36 -13.8104    107.9386    123.0311   8.3565748694e+01   3.6217220573e+01     1.120692    0.9284343  47.25  0.005545318    1.247    0.198
        37 -14.8289    106.0743    105.4629   7.9547782694e+01   4.0695823093e+01     1.978251     1.669785 -25.39  0.009897285    1.269    0.212
        38 -13.2737     94.4132    110.3881   8.4382666471e+01   4.1776810233e+01    0.8883537    0.6102346  54.87  0.003995906    1.690    0.408
        39 -10.4440     59.4531    125.4781   9.8883655503e+01   4.3583284451e+01    0.1455545    0.1313168 -60.36 6.065431e-05    1.015    0.015
        40 -12.6769     29.0856    122.1832   1.0793265792e+02   4.7812920617e+01    0.4603793    0.2831847 -63.01  0.002394184    1.363    0.266
        41 -11.7773      3.5947    119.8696   1.1558382121e+02   5.0307165722e+01    0.4223548    0.1595205  17.95  0.001886522    3.263    0.694
        42 -11.5773     34.5800     86.7561   9.9005121422e+01   5.5902609227e+01    0.2526634    0.1978203 -19.20  0.001464261    1.341    0.254
        43 -13.4099      2.2243     97.1755   1.1295168283e+02   5.5859856623e+01    0.8398612    0.2387529 -72.24   0.00317904    3.094    0.677
        44 -13.9708     18.1928    110.7130   1.0962808403e+02   5.1569174685e+01     1.036461    0.5932718 -50.72  0.004085755    1.518    0.341
        45 -14.4128     10.8456    103.3890   1.1093734220e+02   5.3867442036e+01     0.970005    0.7094716 -54.51  0.005212205    1.150    0.131
        46 -14.5562     22.0307     95.7052   1.0563039720e+02   5.4911550194e+01     1.401941     1.017502  18.38  0.008216651    1.609    0.378
        47 -11.9060    120.6653    112.0763   7.7159208790e+01   3.6210465725e+01    0.3545644    0.1983099  60.32  0.001280712    2.486    0.598
        48 -11.9392     31.5197    111.3832   1.0528290775e+02   5.0278720846e+01     0.264308    0.2103931 -49.25 0.0006461064    1.145    0.127
        49 -12.1072     61.6527    108.7376   9.4548352662e+01   4.7451722677e+01    0.4840112    0.2898216 -59.58  0.002224177    1.576    0.365
        50 -13.3456     29.9208     90.0618   1.0153375438e+02   5.5575711029e+01     1.057585    0.5981831  69.36  0.004226484    3.510    0.715
        51 -11.9655    136.4790    103.3620   7.0588999109e+01   3.4694995963e+01    0.5140349    0.2667689  54.44  0.001721356    2.141    0.533
        52 -12.1148     42.8164     91.0568   9.6957665142e+01   5.4034354537e+01    0.4416058    0.2732795 -72.37  0.001192938    1.914    0.478
        53 -11.8295     47.0007     99.7376   9.7509038262e+01   5.1499263390e+01    0.4846656    0.3718092  75.68  0.002545343    1.695    0.410
        54 -11.6353     52.6874     97.9954   9.5077425063e+01   5.1224618047e+01    0.3437009    0.2050069 -22.34  0.001478852    2.305    0.566
        55 -12.2280     49.2485     94.3967   9.5425504845e+01   5.2501483084e+01     0.450491    0.3344568  76.05  0.001548875    1.892    0.471
        56 -12.0622     61.1275     97.6450   9.2016723311e+01   5.0187208934e+01    0.4240835    0.3023267 -86.99   0.00197965    2.004    0.501
        57 -12.1550    136.1145     95.2723   6.8417048266e+01   3.6469976710e+01    0.3906985    0.2771488  51.93  0.001163395    1.437    0.304
        58 -11.7977     90.2801     88.5726   7.9613927866e+01   4.7493585590e+01    0.4375553    0.2906132  50.91  0.001997858    1.702    0.412
        59 -12.0726    187.7644     84.7518   5.4537747532e+01   2.6385250464e+01    0.3584623    0.1820021  42.66  0.001404767    2.422    0.587
        60 -12.1409     47.2008     82.2242   9.3020624354e+01   5.5549566630e+01    0.5041436    0.2460399 -56.18  0.002234418    1.922    0.480
        61 -13.1361    163.8305     71.5877   5.5421012722e+01   3.4368815738e+01     1.132477    0.3678803  52.57  0.003775714    2.959    0.662
        62 -13.2948    160.8190     80.8704   5.8638425428e+01   3.3461246125e+01    0.9019252     0.551757  21.56  0.003230067    3.133    0.681
        63 -13.8555    169.6067     77.3980   5.5917465647e+01   3.1974826689e+01    0.8435423    0.5430521  40.66  0.003332184    1.799    0.444
        64 -12.4545     40.6901     67.9950   9.1497461281e+01   5.9408724061e+01    0.9348335    0.3707542  23.59  0.003814009    2.954    0.661
        65 -13.2108     61.7775     58.6509   7.9967116879e+01   5.8427893161e+01     1.703744         0.77 -21.38  0.004499215    6.572    0.848
        66 -13.2013     65.6596     49.3152   7.5064105202e+01   5.9475026485e+01    0.7347415    0.5706896 -39.82   0.00331511    1.333    0.250
        67 -12.8661     54.2215     82.4325   9.0423547252e+01   5.4613690683e+01    0.5581686     0.337651 -41.24  0.001924957    1.524    0.344
        68 -14.1344     60.9604     75.6211   8.5883990594e+01   5.5155265076e+01    0.8382602    0.4976664 -47.01  0.001695685    1.563    0.360
        69 -12.6912     52.1093     69.7459   8.7451079971e+01   5.7626598168e+01    0.7630058    0.5215638 -77.73  0.003514717    2.518    0.603
        70 -12.5709    135.5337     80.0671   6.4124157781e+01   3.9601766118e+01     0.636644    0.3390951  49.71  0.002589104    1.857    0.461
        71 -12.0103    114.4727     80.2841   6.9744693228e+01   4.4312147060e+01    0.3924558    0.2775469 -60.59 0.0006924584    1.722    0.419
        72 -10.5708     69.4572     80.4641   8.4255106204e+01   5.2829499908e+01      0.14322    0.1308935 -25.08  0.000172464    1.006    0.006
        73 -11.8277     42.0089     77.7133   9.3787065998e+01   5.7162117994e+01    0.4899312     0.188753 -58.48  0.001840833    2.610    0.617
        74 -12.8034     28.3458    245.5052   1.2035533313e+02   1.9025901713e+01    0.3950128    0.2388462  45.58  0.002537974    1.407    0.289
        75 -14.1146      4.0381     63.5377   1.0591033723e+02   6.3421152248e+01    0.6316251    0.4940789 -14.87  0.003064301    1.322    0.244
        76 -11.8462     27.2489     75.4873   9.9088047376e+01   5.9150248873e+01    0.4192963    0.2212742 -73.39  0.001842889    2.576    0.612
        77 -13.5476     91.5839     58.1008   6.9270807323e+01   5.3201436348e+01    0.4884931    0.4699091 -20.12  0.001637841    1.097    0.088
        78 -12.7345     87.3819     65.5247   7.3209797320e+01   5.2692906408e+01    0.5429975    0.3725878  -3.20  0.001905294    1.980    0.495
        79 -12.2348     80.9094     69.8556   7.6848575304e+01   5.3069573655e+01    0.4831904    0.3291446  45.29  0.002382572    1.566    0.361
        80 -12.5669     70.6720     75.5406   8.2295125965e+01   5.3675362264e+01    0.5692158    0.3312557  19.31  0.002204449    2.231    0.552
        81 -11.5974     76.9909     73.7201   7.9472958409e+01   5.2991661330e+01    0.2818038    0.2014799 -34.20 0.0007195154    1.361    0.265
        82 -12.8888    133.7004     67.1705   6.0632934499e+01   4.2357815154e+01    0.7509503    0.4858732  30.90  0.002054217    1.928    0.481
        83 -10.9156    117.0836     71.5006   6.6254824012e+01   4.5405643403e+01    0.2244643    0.1450844  49.40 0.0005961066    1.531    0.347
        84 -12.7827    199.7553     69.7012   4.8762553751e+01   2.6146147950e+01    0.4840159    0.2675304  63.48  0.001944263    1.873    0.466
        85 -12.1787     31.3793     63.0767   9.3911172204e+01   6.1434289626e+01    0.5464526    0.2711014 -62.50  0.002473483    2.372    0.578
        86 -12.1350     24.5842     59.9647   9.5929935880e+01   6.2720868038e+01    0.3820857    0.2563548 -38.99  0.001513855    1.245    0.197
        87 -11.4583     77.4853     54.4530   7.2668545150e+01   5.6529519445e+01    0.2789891    0.2212283 -11.56 0.0008115268    1.284    0.221
        88 -12.8321     78.7787     60.5699   7.4409231585e+01   5.5208322287e+01    0.4646353    0.4335859  -0.78  0.002769711    1.037    0.035
        89 -13.3053     82.3226     55.1769   7.1266418340e+01   5.5506944523e+01    0.5045793    0.3985238 -25.29  0.001725818    1.251    0.200
        90 -10.8318     38.4843     59.9887   8.9907132604e+01   6.1306726188e+01    0.2004857     0.117553 -50.92  0.001028777    1.603    0.376
        91 -14.5479    120.0874     54.5949   5.9933127151e+01   4.7606025659e+01    0.7920431    0.5752614  37.54  0.002443214    1.402    0.287
        92 -10.3850     47.3326     56.6259   8.5047466057e+01   6.0883252524e+01    0.1255906    0.1068737  84.68 7.055858e-05    1.846    0.458
        93 -13.7451    103.1833     50.8110   6.3181723098e+01   5.1980348253e+01    0.9560703    0.6123566 -60.32 0.0009938179    2.346    0.574
        94 -13.1688     97.9825     50.5024   6.4589751267e+01   5.3139749758e+01    0.4161642    0.3796772 -66.91  0.001578863    1.324    0.245
        95 -10.8729     36.6761     53.6802   8.8583024284e+01   6.2755558747e+01    0.1368962   0.08574121 -20.50 0.0005847065    1.675    0.403
        96 -11.9912    136.3672     49.7048   5.4519272302e+01   4.4507706799e+01    0.2967185    0.2410851  45.31  0.000647803    1.209    0.173
        97 -10.5580     23.4820     50.4345   9.3442341029e+01   6.4736427009e+01    0.1268073    0.1004896 -27.52 0.0001365521    1.041    0.039
        98 -13.4459    177.8330     57.8362   4.9104195757e+01   3.3196855664e+01    0.7714216    0.5129903 -53.18  0.002781361    1.511    0.338
        99 -12.3158    158.8021     43.3934   4.8241041686e+01   3.9930971759e+01    0.4252463    0.2703226  56.18  0.001763561    1.486    0.327
       100 -11.1943    108.2888    243.6781   1.0429478434e+02   8.7553161235e+00    0.1287381   0.08634112  63.51 0.0002816147    1.604    0.376
       101 -11.0667     95.1799    237.6573   1.0634586101e+02   1.1857097843e+01    0.2656879    0.1322369 -39.66  0.001104402    3.495    0.714
       102 -12.3048     24.2824    217.4999   1.1933669740e+02   2.5260158900e+01    0.5177441      0.38932  89.44  0.003450607    1.150    0.130
       103 -12.9127     14.1025    222.7973   1.2171739116e+02   2.5177554888e+01    0.4134462    0.2691603  70.07  0.002454933    1.222    0.181
       104 -13.4111    217.3796     42.2231   3.9879129486e+01   2.6209315635e+01     1.022662    0.3053664  61.92  0.003875079    3.165    0.684
       105 -13.0325    204.9979     40.1851   4.0795815433e+01   2.9284376815e+01     1.029557    0.4179235  88.74  0.003038782    5.404    0.815
       106 -12.2650    109.7057     42.2545   5.8356599717e+01   5.1807662499e+01     0.468802    0.1971924  54.93  0.001402109    2.278    0.561
       107 -13.4886     25.9076    226.9139   1.1964853383e+02   2.3073560906e+01    0.6687111    0.3478208 -62.36   0.00373831    2.058    0.514
       108 -12.7021    114.0027     38.2594   5.5852100394e+01   5.1376476219e+01    0.3615728    0.3301333 -39.29  0.001117075    1.192    0.161
       109 -13.4078     20.1722    225.3884   1.2068318553e+02   2.4007552188e+01    0.3856378    0.3781399 -85.25  0.002502818    1.445    0.308
       110 -10.3238     55.3414     41.2520   7.5975958903e+01   6.2472389762e+01    0.1315498   0.09060881   4.26 0.0003474219    1.575    0.365
       111 -12.5382     75.7480     37.2819   6.6699325323e+01   5.9576175615e+01    0.3391621    0.2388689  41.26  0.001009076    1.355    0.262
       112 -11.7602     70.2087     36.3950   6.8295441013e+01   6.0726384429e+01    0.3891234    0.1883468  40.07  0.001346436    1.960    0.490
       113 -11.9048    104.7887     35.7726   5.7309584268e+01   5.3785863230e+01    0.3917755    0.1906685 -17.45  0.001547354    2.909    0.656
       114 -12.1099    241.6310     36.0867   3.6173895014e+01   2.1843205129e+01    0.3337299      0.17069  69.03  0.001500291    1.995    0.499
       115 -13.0175     44.3503     32.6252   7.7072331783e+01   6.5461542272e+01    0.6067258    0.4816136  30.18  0.003092922    1.329    0.248
       116 -13.2132     65.1497    223.3662   1.1122797985e+02   1.9049256275e+01    0.6822366    0.5662075  36.77  0.004323398    1.304    0.233
       117 -13.2194    138.9921     21.8731   4.5125675775e+01   4.7396785531e+01    0.6710852    0.2365191  57.81  0.001943739    2.350    0.575
       118 -13.7909     64.2598    214.6741   1.1054083851e+02   2.1058369013e+01    0.5314627    0.3453099  56.56  0.002937943    1.386    0.279
       119 -12.6913    171.2417     28.4036   4.2057940315e+01   3.8797500385e+01    0.3311024    0.2448243 -80.99  0.001137951    1.350    0.260
       120 -11.5537    249.2086    216.3965   7.2183829959e+01  -7.9591960993e+00    0.1554887    0.1068896  37.66 0.0009588857    1.727    0.421
       121 -11.9851     72.4596    207.3908   1.0788815413e+02   2.1555274792e+01    0.3594376    0.2661949 -83.16  0.002030796    1.332    0.249
       122 -13.0603     55.5434     27.2949   7.0032033756e+01   6.4536582070e+01    0.6173072    0.3054415  42.39  0.002750259    1.991    0.498
       123 -11.5295     64.4826     24.5356   6.5379838784e+01   6.3370090277e+01    0.3899433    0.1957963  18.61  0.001580066    3.116    0.679
       124 -11.1264     97.9649     27.1747   5.5903988815e+01   5.6357819739e+01    0.2019608    0.1790973  72.95  0.001221532    1.290    0.225
       125 -11.0116     41.2082    206.2019   1.1482907234e+02   2.5876040220e+01     0.188073    0.1258114  68.15  0.001072794    1.340    0.254
       126 -12.1999    249.1343    199.2549   6.9076404002e+01  -5.4524596218e+00    0.2733088    0.2011646 -61.47  0.001490111    2.519    0.603
       127 -12.3294     16.3101    196.7959   1.1954347341e+02   3.0696011600e+01    0.4449496    0.1942059 -62.64  0.002207618    2.167    0.539
       128 -13.0401     30.1476    169.0981   1.1380411129e+02   3.5929861480e+01     1.031765    0.8273211  55.41  0.002128169    1.245    0.197
       129 -13.1263     22.2487    181.2682   1.1693387724e+02   3.3759520840e+01    0.7157552    0.3565641 -55.34  0.003420582    2.090    0.521
       130 -11.1628    223.9574     21.1752   3.4530451218e+01   2.7431878614e+01     0.196027    0.1256218  50.00    0.0010877    2.038    0.509
       131 -14.9670      7.6452    183.7677   1.2051780189e+02   3.4505224266e+01     1.344098    0.9569289  88.19  0.008560807    1.125    0.111
       132 -14.4220     15.8120    175.5290   1.1796349197e+02   3.5740353799e+01     1.966725    0.7749969  59.61  0.008329175    2.818    0.645
       133 -10.7512    200.6620    192.2999   7.6612396984e+01   3.1483785749e+00    0.1275929    0.1122712  81.53 0.0004812079    1.662    0.398
       134 -11.7028    249.5015    182.4824   6.5833422372e+01  -2.9204230032e+00    0.1285229    0.1043762 -18.07 -0.0002766666    1.003    0.003
       135 -11.1892     49.0163    182.0066   1.1051697288e+02   3.0641861334e+01      0.21494    0.1557571 -41.55  0.001145288    1.743    0.426
       136 -12.2060    124.2161    167.3009   8.8921639749e+01   2.2459494413e+01    0.5879705    0.3516549 -69.84  0.002335688    2.227    0.551
       137 -11.9509     76.8914    156.8854   9.9569250945e+01   3.3118390401e+01     0.387416      0.26311  35.51  0.001371903    1.546    0.353
       138 -12.9856     73.4313    153.6723   9.9977025698e+01   3.4448469455e+01    0.6263678    0.4965319  26.36  0.002881084    1.432    0.302
       139 -11.5295    109.8481    154.3507   9.0069642266e+01   2.8228434972e+01    0.3085482    0.2118187 -83.33   0.00129914    1.957    0.489
