#   1 NUMBER                 Running object number                                     
#   2 MAG_AUTO               Kron-like elliptical aperture magnitude                    [mag]
#   3 X_IMAGE                Object position along x                                    [pixel]
#   4 Y_IMAGE                Object position along y                                    [pixel]
#   5 X_WORLD                Barycenter position along world x axis                     [deg]
#   6 Y_WORLD                Barycenter position along world y axis                     [deg]
#   7 A_WORLD                Profile RMS along major axis (world units)                 [deg]
#   8 B_WORLD                Profile RMS along minor axis (world units)                 [deg]
#   9 THETA_WORLD            Position angle (CCW/world-x)                               [deg]
#  10 FWHM_WORLD             FWHM assuming a gaussian core                              [deg]
#  11 ELONGATION             A_IMAGE/B_IMAGE                                           
#  12 ELLIPTICITY            1 - B_IMAGE/A_IMAGE                                       
         1 -12.2560    204.4121      2.5955   6.1733846172e+01   3.2746852125e+01     1.132698    0.6750317  72.46  0.002711143    1.703    0.413
         2 -13.1750    183.3160     25.6858   7.2013870737e+01   3.6077003436e+01     1.896569     1.111334  -1.40  0.005737539    2.017    0.504
         3 -13.1443    190.7339     18.2237   6.8431747696e+01   3.4909385113e+01     1.965686     1.073776 -20.47  0.007048906    1.790    0.441
         4 -11.9613    197.1200     10.4477   6.5056908037e+01   3.3973818284e+01    0.6200516    0.5658252  20.26  0.001143617    1.094    0.086
         5 -11.1844     41.3989     17.7749   1.0828566975e+02   6.7620690791e+01    0.3955995    0.1841927 -34.95  0.001901741    1.949    0.487
         6  -9.9539     51.4957      7.4929   9.8694796396e+01   6.8044270036e+01    0.1308016    0.1045011 -18.64 1.510145e-05    1.013    0.013
         7 -10.2393    121.0092    237.3755   1.2979257560e+02   1.5248285844e+01     0.188268     0.134797 -82.49 0.0007639353    1.815    0.449
         8  -9.0050    217.4879    249.9755   1.1625053005e+02   4.5215885116e-01    0.1218358   0.09381246 -12.01  0.001028616    1.579    0.367
         9 -11.4687    139.7975    247.9411   1.2781563355e+02   1.1444017863e+01    0.3522902     0.258858  82.16  0.002794143    1.859    0.462
        10 -11.0670    126.9661    249.2005   1.2989861778e+02   1.3012464738e+01    0.2790596    0.2301081  33.58  0.001817293    1.345    0.256
        11 -15.0000     72.6655    155.8056   1.3031973683e+02   3.4808999058e+01     9.982561     4.554241  75.32   0.03818198    4.363    0.771
        12 -11.0970     80.6975    185.5077   1.3190022291e+02   2.8349985385e+01    0.2409139    0.2232791 -69.93  0.000910509    1.347    0.258
        13  -9.2908     65.9680    193.3172   1.3532495128e+02   2.8827470308e+01    0.1742236    0.1573087 -84.00 0.0008660028    1.324    0.245
        14  -8.3191    181.5366    192.4375   1.1415131352e+02   1.1931690954e+01    0.1200971   0.09661335  34.50 5.318524e-05    1.008    0.008
        15 -18.4201      4.0237    130.6308   1.4298676997e+02   4.6574528601e+01     15.42475     1.307775 -78.23   0.03710268   11.230    0.911
        16  -8.6989    184.6720    220.3149   1.1757816491e+02   8.0915188958e+00    0.1040297   0.07708008  59.31  0.000704436    1.673    0.402
        17 -10.6300     88.2888    173.9678   1.2921108296e+02   2.9376444179e+01    0.2140296    0.1963372  72.26 0.0004121092    1.147    0.128
        18 -10.3796     49.2124    172.8047   1.3677923776e+02   3.4337954559e+01    0.4003652    0.2016711  77.84  0.002306433    2.105    0.525
        19 -10.2139    126.0241    173.8416   1.2172499422e+02   2.3837846481e+01    0.2873792    0.1530586  36.70  0.001505194    1.835    0.455
        20 -10.6466    137.6094    171.8582   1.1915900692e+02   2.2289421397e+01    0.4201811    0.1712214  40.21  0.001916397    2.227    0.551
        21  -9.8724    104.9956    148.7628   1.2236700880e+02   3.1633411697e+01    0.2674824    0.2451541 -54.17 0.0007176871    1.217    0.178
        22  -9.1306    107.0126    145.2631   1.2137168563e+02   3.1990067820e+01    0.2671365    0.1728487 -35.15  0.001378695    2.149    0.535
        23 -11.5369     94.1248    148.5777   1.2472111136e+02   3.3296956313e+01    0.2301093    0.2205233  44.72  0.000556914    1.203    0.169
        24  -9.1736    134.4211    147.7082   1.1584185054e+02   2.6974167015e+01    0.3104355    0.1252357 -54.05  0.001260358    2.939    0.660
        25  -9.5475    113.8889    135.2812   1.1812544594e+02   3.2812974470e+01    0.2931575    0.2264608 -20.65  0.001094504    1.808    0.447
        26 -10.2202    102.2423    131.9444   1.2021769119e+02   3.5356718825e+01      0.37536    0.2671503  20.00  0.001083199    1.942    0.485
        27  -8.8981    160.7973    128.1408   1.0633807500e+02   2.5481632752e+01      0.30539    0.1035316 -46.67  0.001042587    3.429    0.708
        28  -9.8862    119.2878    127.1914   1.1535604630e+02   3.3476949504e+01    0.3802145    0.1973911 -29.76  0.001397224    3.669    0.727
        29  -9.1892    109.8612    122.6559   1.1668535747e+02   3.5989755605e+01    0.2029612    0.1750077 -44.15  0.000376655    1.225    0.184
        30  -9.4464    228.4648    204.9336   1.0827351319e+02   2.9079215556e+00    0.1787614    0.1681945  24.41 0.0008955753    1.478    0.324
        31  -9.9602    168.2585    113.0732   1.0127511865e+02   2.6535866229e+01    0.3264284    0.2751996 -80.12 0.0009069223    1.583    0.368
        32 -10.6744    192.6400    193.9939   1.1246335458e+02   9.8910403708e+00    0.6125857    0.3486003 -61.45  0.002519781    5.135    0.805
        33 -10.2071    247.2515    249.0863   1.1181843213e+02  -3.5135324340e+00    0.2340951    0.1265931  31.89  0.001722961    1.248    0.198
        34  -9.1906    208.4894    196.9978   1.1025575294e+02   6.9289608310e+00     0.159514   0.09110693  -0.41 0.0008104218    2.586    0.613
        35 -11.2132     76.7255    191.9277   1.3324511554e+02   2.7758760053e+01    0.3033085    0.2196916 -47.38  0.002112343    1.948    0.487
        36 -10.5033    133.9114    247.0947   1.2864563820e+02   1.2335119505e+01    0.2642781   0.09757552  48.34  0.001454609    2.070    0.517
        37 -15.3916     64.2252    215.5011   1.3728783598e+02   2.5455907392e+01     4.084216     2.041616  65.04   0.02400278    1.834    0.455
        38 -10.7543    125.9966    242.1604   1.2943316003e+02   1.3985415230e+01    0.1778238    0.1580531 -35.89  0.001570768    1.647    0.393
