#   1 NUMBER                 Running object number                                     
#   2 MAG_AUTO               Kron-like elliptical aperture magnitude                    [mag]
#   3 X_IMAGE                Object position along x                                    [pixel]
#   4 Y_IMAGE                Object position along y                                    [pixel]
#   5 X_WORLD                Barycenter position along world x axis                     [deg]
#   6 Y_WORLD                Barycenter position along world y axis                     [deg]
#   7 A_WORLD                Profile RMS along major axis (world units)                 [deg]
#   8 B_WORLD                Profile RMS along minor axis (world units)                 [deg]
#   9 THETA_WORLD            Position angle (CCW/world-x)                               [deg]
#  10 FWHM_WORLD             FWHM assuming a gaussian core                              [deg]
#  11 ELONGATION             A_IMAGE/B_IMAGE                                           
#  12 ELLIPTICITY            1 - B_IMAGE/A_IMAGE                                       
         1 -12.7979    192.2689     41.9805   4.6362652323e+01   3.1767858900e+01     1.106491    0.8823637  23.67  0.004680026    1.694    0.410
         2 -11.8911    221.1100     12.7734   3.6913123497e+01   2.8866146870e+01    0.9614026    0.4351903 -44.28  0.005275185    1.837    0.456
         3 -11.4931    215.8521     14.1155   3.7576630168e+01   2.9808669070e+01    0.7090709    0.2694367 -48.59   0.00347404    2.246    0.555
         4 -10.5283     48.8814    243.5333   1.2075307579e+02   1.6943351975e+01    0.3434125    0.1434847  50.06   0.00125705    2.118    0.528
         5 -10.4457    249.0231    249.5761   8.0402508358e+01  -8.6006127007e+00    0.6398581    0.1084664  29.17  0.002309382    5.677    0.824
         6  -8.2024     62.7682    251.0000   1.1833368120e+02   1.3980499823e+01    0.1771321   0.05661785  29.95 0.0007498135    2.590    0.614
         7  -8.7217     65.9825    207.1281   1.1358873814e+02   2.2488898109e+01    0.2021232     0.154421  57.49 0.0006666117    1.278    0.218
         8 -12.2065     31.8900    206.4094   1.2192186991e+02   2.6445358206e+01    0.3170044    0.1712811  45.89  0.001669412    1.629    0.386
         9  -9.6778     96.5200    202.9655   1.0535607142e+02   1.9320976594e+01     0.200071    0.1393904 -59.06 0.0006676415    1.587    0.370
        10 -10.4092     63.9793    202.2943   1.1357019141e+02   2.3816686983e+01    0.2152198    0.1944239 -65.25 0.0003504014    1.190    0.160
        11 -10.6197    134.9692    198.7544   9.5119702365e+01   1.4382259519e+01    0.4009527    0.1869549 -37.99  0.001623182    2.456    0.593
        12  -9.4318     52.2576    200.0172   1.1631676909e+02   2.5724790343e+01    0.1944698    0.1800654  27.89 0.0003830254    1.135    0.119
        13 -10.9698     56.7225    193.6943   1.1450443680e+02   2.6666704589e+01    0.5054032    0.2674779 -40.44  0.001594908    2.481    0.597
        14  -8.7875     60.6791    187.7297   1.1277481161e+02   2.7595027517e+01    0.2178896    0.1833199 -31.47  0.000236603    1.373    0.272
        15  -8.5391     38.4324    199.3650   1.1974972569e+02   2.7378469022e+01    0.1288234    0.1085285  56.07 8.370282e-05    1.066    0.062
        16  -8.4846     82.5136    194.9849   1.0788459422e+02   2.3063291088e+01    0.2034058    0.1364389 -58.49  0.001021818    1.582    0.368
        17  -9.4781    191.5697    192.2662   8.1206724183e+01   6.6956309596e+00    0.3418871     0.209656 -64.67   0.00121564    4.773    0.790
        18 -11.2704    108.7674    190.1532   1.0029371568e+02   2.0308401551e+01    0.3928417    0.2641872   7.73  0.001814942    1.802    0.445
        19 -10.4089     73.0118    187.7975   1.0945942790e+02   2.6009646555e+01    0.4448456     0.259251  63.92  0.001648823    2.231    0.552
        20 -11.3557     67.7358    181.1012   1.1001641186e+02   2.8293797681e+01    0.7466628    0.6365483 -20.57    0.0035808    1.349    0.259
        21 -10.7144    146.9805    187.1658   9.0174896295e+01   1.4783359543e+01    0.3949533    0.2738186 -67.41  0.001808399    2.220    0.550
        22 -11.2539    114.9604    184.1688   9.7685553936e+01   2.0660448129e+01    0.4308551     0.218605 -55.92  0.001715662    2.183    0.542
        23  -9.1458     92.4749    184.7902   1.0377155306e+02   2.3986786046e+01    0.2957506    0.1609075  43.91  0.000912916    1.816    0.449
        24 -10.2926     99.4329    180.9653   1.0128492802e+02   2.3824754384e+01    0.2858155    0.2101136  30.38 0.0005169327    1.282    0.220
        25  -8.8939     38.0386    176.6163   1.1772097043e+02   3.2821221534e+01    0.3083293    0.1483913  42.48  0.001394713    1.964    0.491
        26  -9.6501    186.3906    174.1091   7.8742055812e+01   1.0727833914e+01    0.3034647    0.2730314 -17.63  0.001052978    1.134    0.118
        27  -9.0420    148.1431    175.1458   8.7604499299e+01   1.7042354863e+01    0.1882906    0.1806778 -88.37 0.0005166095    1.322    0.244
        28  -9.3324    127.3334    174.3253   9.2680709987e+01   2.0794657983e+01    0.1576058    0.1126634  -8.97 0.0007051153    1.712    0.416
        29  -9.9691    118.3632    173.8138   9.4944029804e+01   2.2421447007e+01    0.2179583    0.1323114 -40.48 0.0007356099    1.744    0.427
        30 -11.2107    101.6295    171.5896   9.9093660297e+01   2.5668494925e+01    0.4480366    0.3222252  48.39  0.002154022    1.464    0.317
        31  -8.4357     71.5644    243.2715   1.1578944999e+02   1.4384987217e+01    0.1793536    0.1207214 -79.29 0.0007379032    1.790    0.441
        32  -9.1741     57.4779    242.5273   1.1881838092e+02   1.6176523613e+01    0.1433614    0.1154302 -87.76 0.0002391233    1.369    0.269
        33  -9.5682     56.3202    175.0589   1.1242783797e+02   3.1185827812e+01     0.295798    0.1812741  41.10 0.0009361983    1.561    0.359
        34 -10.1241     92.0867    166.8506   1.0095382892e+02   2.8294278989e+01    0.2392539    0.2027102  57.86  0.001240075    1.275    0.215
        35 -19.4592     14.3517    144.5460   1.2140712163e+02   4.2946960360e+01      20.7097     3.914109 -76.06   0.05659182    5.329    0.812
        36  -9.8471     89.1273    156.8309   1.0002451151e+02   3.1198455731e+01    0.2982478    0.2522468 -30.51 0.0005096887    1.246    0.197
        37 -10.6353     94.9443    150.6529   9.7112013143e+01   3.1788815343e+01    0.5926961    0.4085805 -25.10  0.001657669    1.770    0.435
        38 -10.0511    133.6286    144.2550   8.4763550540e+01   2.6355611645e+01       0.6061    0.2119463 -54.99  0.001685313    4.190    0.761
        39  -8.3842    109.7629    147.9750   9.2205755061e+01   2.9908850893e+01    0.2012255    0.1296901 -49.95 0.0003944332    1.573    0.364
        40  -9.9517    106.8852    137.2533   9.0698465140e+01   3.2982560290e+01    0.4479295    0.2755064 -21.18  0.001690016    2.369    0.578
        41 -10.9307     94.9818    136.5155   9.4154022490e+01   3.5256622202e+01    0.3143352    0.2782976 -11.61 0.0004272705    1.173    0.148
        42  -9.9939    106.0796    130.9295   8.9480791478e+01   3.4640112799e+01    0.3719667    0.3318356 -52.25  0.001368998    1.165    0.142
        43  -9.8797    114.1647    128.4544   8.6480590594e+01   3.3703379190e+01    0.3087595    0.2409792 -14.97 0.0009727227    1.466    0.318
        44  -9.2666    101.9515    124.2013   8.9134065746e+01   3.7005888872e+01    0.2909917    0.2200532 -33.21 0.0009010187    1.371    0.271
        45  -8.5108    109.7160    117.9713   8.5187275887e+01   3.6996947089e+01    0.2213002    0.1969206 -41.48 0.0003850693    1.128    0.114
        46  -8.8321    231.0588    113.9832   5.7944832080e+01   1.3389783649e+01    0.2006216    0.1691322 -33.89  0.000692156    1.015    0.014
        47 -10.0570    119.1149    110.3835   8.0396909607e+01   3.6821172754e+01    0.3176934    0.2397013 -50.98   0.00125641    1.402    0.287
        48  -8.1198    205.6763    110.3135   6.1038289835e+01   1.8648711957e+01    0.1375276    0.1046136 -66.24 0.0007040952    1.660    0.398
        49  -9.3784    249.1828    230.7957   7.7377418139e+01  -6.3600379485e+00    0.1457259    0.1361859 -87.56 0.0009665422    2.948    0.661
        50  -9.8216    147.4918    221.4897   9.5842759954e+01   8.1581882344e+00    0.1360776    0.1135749  14.46 0.0008105488    1.002    0.002
        51  99.0000     49.4170    217.0832   1.1858568492e+02   2.2260190121e+01     0.407085    0.1986512  53.07  0.001960259    1.999    0.500
        52 -11.4269    177.2010     55.5346   5.1930588431e+01   3.3422036071e+01    0.3919052     0.383131  66.26 0.0009202997    1.094    0.086
        53  -8.7107     75.6698    247.1290   1.1522909603e+02   1.3169025517e+01    0.1416584    0.1082032 -50.94 0.0004625291    1.595    0.373
        54 -11.6789    197.5045     36.4266   4.4389803912e+01   3.1279561467e+01    0.5446318    0.4596251 -39.59  0.001501186    1.203    0.169
        55  -9.1142     89.1431    210.9618   1.0825826123e+02   1.8633993502e+01        0.196    0.1794261  41.91 0.0005179989    1.046    0.044
        56  -9.0277     62.1137    246.1349   1.1809397106e+02   1.4959752397e+01    0.1619812    0.1374255 -68.36 0.0007571089    1.387    0.279
