#   1 NUMBER                 Running object number                                     
#   2 MAG_AUTO               Kron-like elliptical aperture magnitude                    [mag]
#   3 X_IMAGE                Object position along x                                    [pixel]
#   4 Y_IMAGE                Object position along y                                    [pixel]
#   5 X_WORLD                Barycenter position along world x axis                     [deg]
#   6 Y_WORLD                Barycenter position along world y axis                     [deg]
#   7 A_WORLD                Profile RMS along major axis (world units)                 [deg]
#   8 B_WORLD                Profile RMS along minor axis (world units)                 [deg]
#   9 THETA_WORLD            Position angle (CCW/world-x)                               [deg]
#  10 FWHM_WORLD             FWHM assuming a gaussian core                              [deg]
#  11 ELONGATION             A_IMAGE/B_IMAGE                                           
#  12 ELLIPTICITY            1 - B_IMAGE/A_IMAGE                                       
         1 -13.4075     24.4263     81.1332   1.0107362500e+02   5.7995324856e+01     2.038141    0.6057136 -54.77  0.008188763    2.540    0.606
         2 -14.1327      8.3634     64.2598   1.0376555507e+02   6.2868047435e+01     1.978644    0.9454128 -64.97   0.01010235    1.943    0.485
         3 -14.2089      6.3412     92.2797   1.1010807694e+02   5.6712161404e+01     1.897417    0.7887186 -66.37  0.009031758    1.938    0.484
         4 -15.0099      5.3024    125.4193   1.1505070628e+02   4.8832175916e+01     8.292081     1.315902 -75.23   0.02015363    7.299    0.863
         5 -13.5111     61.6697    114.8027   9.5259438681e+01   4.5880519345e+01     1.007701    0.8353691 -24.73  0.004992735    1.344    0.256
         6 -12.8257      2.5546     24.1700   9.4712902449e+01   7.0978276039e+01     1.548029    0.2927674 -50.65  0.006260249    3.673    0.728
         7 -12.4471     30.9142     20.5727   7.8219419159e+01   6.8834287412e+01    0.9975297    0.7880825 -37.36  0.006816448    1.430    0.301
         8 -13.4157     19.2743     19.7053   8.3749963120e+01   7.0285176693e+01     1.043449    0.5952806  18.50  0.006318076    1.705    0.414
         9 -12.9583     19.6032     12.1861   8.0128909807e+01   7.1345099095e+01    0.6122282    0.4482652   3.11  0.003558888    1.147    0.128
        10 -12.9536    230.7652     29.4532   3.6022474489e+01   2.5305624551e+01    0.7014246    0.6222529  65.87  0.004838957    1.397    0.284
        11 -12.8087     69.5276     29.6677   6.6003426571e+01   6.1626607051e+01    0.9229751    0.7731633  35.87  0.005117581    1.146    0.128
        12 -12.5297     46.1485     17.1639   6.9697296931e+01   6.7176817990e+01    0.8182337    0.5135474 -21.03  0.004867471    1.578    0.366
        13 -12.3244    184.2108     19.2007   3.8366276298e+01   3.6953147064e+01    0.4064119    0.2489282 -40.62  0.002225651    1.644    0.392
        14 -11.8535    204.7664     14.8693   3.5206752488e+01   3.2717116656e+01    0.5500932    0.2043686 -41.81  0.002547971    2.385    0.581
        15 -12.8080    198.3082      8.1257   3.4260038360e+01   3.4906104189e+01    0.5668827    0.2889831 -84.48  0.002833388    1.994    0.499
        16 -12.0931    216.6367     12.4463   3.3625129117e+01   3.0364229809e+01    0.5533705    0.3341255 -35.81  0.003227655    1.733    0.423
        17 -11.9805     95.5057     11.8924   5.1101912522e+01   5.8454597296e+01    0.7169717    0.3153929  34.31  0.003036699    2.756    0.637
        18 -12.1479     85.9939      8.7086   5.2296590125e+01   6.0775105737e+01    0.6902741    0.4316219  26.76  0.003472209    1.690    0.408
        19 -12.4415     35.8393      8.9968   7.0415839361e+01   6.9704761594e+01    0.5896928    0.3348932  41.89  0.003477763    1.831    0.454
        20 -13.2627    171.9384      4.4133   3.5985394220e+01   4.1375333659e+01     1.047688     0.411445  75.93  0.004622694    2.324    0.570
        21 -12.3193    153.9553      2.2702   3.7507415634e+01   4.5818582635e+01     1.068143    0.1784799  69.67  0.003174933    4.926    0.797
        22 -11.9532    111.4504      5.6051   4.5257625003e+01   5.5481710742e+01    0.3879093    0.2464919  73.23  0.002134017    1.553    0.356
        23 -11.8468    101.8685      2.7960   4.6206187662e+01   5.7867632990e+01    0.5196422    0.2385741  52.30  0.002592066    1.766    0.434
        24 -10.9806    143.9942    150.5763   7.9760500716e+01   2.2534266970e+01    0.3436229    0.2074037  41.98  0.001460014    1.669    0.401
        25 -11.3391    182.4553    250.2274   8.9119592441e+01  -3.5159608933e+00    0.5318104     0.145081  34.99  0.002045413    3.208    0.688
        26  -9.9380     11.9754    248.8353   1.2275126382e+02   2.0091275536e+01     0.257071     0.106393  75.83  0.001340419    2.295    0.564
        27 -12.6042     67.9297    143.5620   9.8980055423e+01   3.7793841029e+01    0.7540994    0.4427975  61.76  0.003196348    2.153    0.536
        28  -9.7255     90.0747    144.1820   9.2705924246e+01   3.4201436578e+01    0.2297643    0.2097449 -22.82 0.0008141978    1.250    0.200
        29 -11.8204     77.5154    142.1046   9.5915515267e+01   3.6741663823e+01    0.3201541    0.2968582 -76.62 0.0006064783    1.011    0.011
        30 -11.7617     60.3318    100.9687   9.2544833343e+01   4.9402046227e+01    0.5576376    0.2352759 -55.92  0.002206149    2.186    0.543
        31 -12.3078     58.3509    133.7688   1.0007357496e+02   4.1587134002e+01    0.8358327    0.3391489 -62.63  0.003218771    2.273    0.560
        32 -13.0813     62.8392    124.3725   9.6884150098e+01   4.3347564444e+01     1.230481    0.6392475  33.42  0.005335844    2.047    0.512
        33 -11.9547     67.8095    240.0323   1.1134102744e+02   1.5208269518e+01    0.6587994    0.4329453  67.42  0.002857824    1.422    0.297
        34 -10.1956     90.8634    128.2346   8.9122632671e+01   3.8025893259e+01    0.2412039    0.2331854 -72.68 0.0004742467    1.012    0.012
        35  -9.7633    103.0151    119.9927   8.3632412574e+01   3.7828072185e+01    0.2248608    0.2218366  79.79 0.0004127478    1.029    0.028
        36 -12.2521     49.2191    110.2900   9.8432317798e+01   4.8588822986e+01     0.671486    0.4513852 -60.23  0.002737137    1.345    0.257
        37 -12.3272     50.2672     99.0140   9.5588460200e+01   5.1176072201e+01    0.5212869    0.3026856  51.47  0.002356205    2.218    0.549
        38 -12.4707     52.1843     96.3989   9.4292156801e+01   5.1553235586e+01    0.5193607    0.3568491  48.48  0.002641308    1.710    0.415
        39 -15.0865     73.4012    214.9219   1.0762689481e+02   1.9734842731e+01     2.938715      1.99976  36.55   0.01291351    1.442    0.307
        40 -11.9395     37.7763     91.2360   9.8303829552e+01   5.4419954746e+01    0.4814709      0.36979  30.49  0.002544103    1.447    0.309
        41 -10.1571     52.5235     90.1402   9.2622264875e+01   5.2959017346e+01    0.2583515    0.2190404  71.92 0.0009850292    1.462    0.316
        42 -10.4379    105.2568    131.7188   8.5736585760e+01   3.4588937477e+01    0.3798222    0.3126244   4.84  0.001344487    1.530    0.346
        43 -10.7289     39.2884     84.5633   9.6144968792e+01   5.5789793119e+01     0.371258    0.1878721 -40.27  0.001704448    1.921    0.480
        44 -10.5691     77.5029     84.4782   8.2238460211e+01   5.0508459398e+01    0.2690922    0.2546673 -25.35  0.001554259    1.002    0.002
        45 -11.6044     58.4130     78.7767   8.7374256237e+01   5.4691192581e+01    0.4142317    0.2227285 -47.80  0.001916804    1.715    0.417
        46 -11.3862     38.1469     74.7889   9.4059220807e+01   5.8079456914e+01    0.4379775    0.3287107  -6.73  0.002088845    1.449    0.310
        47 -11.7771     56.4153     73.4471   8.6559467776e+01   5.6101414236e+01    0.3187136    0.2286174 -34.67   0.00171264    1.329    0.248
        48 -11.9538    102.5875     42.8457   6.0637168087e+01   5.3196028543e+01    0.5474955    0.3673119   6.69  0.002577445    2.118    0.528
        49 -12.1321    127.4038    231.0227   9.7683941112e+01   8.1846047346e+00    0.4316903    0.2476606  59.87  0.002000406    2.222    0.550
        50 -13.2183    145.8272    238.3303   9.4790220335e+01   3.9420741885e+00    0.7613819    0.5666316 -14.12  0.004316981    1.740    0.425
        51 -12.3878    132.6469    246.2999   9.8582926812e+01   4.5617150928e+00     0.491295    0.2859975  42.25  0.001865712    1.465    0.318
        52 -14.1983     15.1038    133.2210   1.1306218782e+02   4.6217492059e+01     1.249513     1.036892 -84.42  0.004826502    1.066    0.062
        53 -11.9208     17.7602     33.2434   9.0028216615e+01   6.8222486769e+01    0.6042565    0.3658497  26.98  0.003136587    1.759    0.432
        54 -13.0753    137.3646    241.8180   9.7024859489e+01   4.6336716203e+00    0.6758873    0.4877586 -68.25  0.003908476    1.779    0.438
        55 -11.6966     77.2464    243.9617   1.0976917577e+02   1.3143137801e+01      0.47528    0.2358717  44.95  0.002215615    1.650    0.394
        56 -14.0968     56.2743    213.1356   1.1127973765e+02   2.2448117776e+01     1.638431    0.9337205  43.35  0.008659753    1.573    0.364
        57 -14.0296     38.4023    203.1931   1.1435552087e+02   2.6897397497e+01     1.128931     0.756286 -76.60   0.00597265    1.374    0.272
        58 -11.6721    177.0006     18.7485   3.9100740630e+01   3.8702583057e+01    0.2861286    0.1677099  70.74  0.001505203    1.513    0.339
        59 -15.2469     38.9099    191.7902   1.1317422200e+02   2.9501424951e+01     3.386325      1.09335  48.81   0.01120247    2.948    0.661
        60 -14.2480     19.4152    201.0883   1.1840780434e+02   2.9428045181e+01     1.121682     1.029208  -3.53  0.005132214    1.569    0.363
        61 -11.3671     44.6573    181.1838   1.1067373941e+02   3.1380380453e+01    0.2832485    0.2495271 -56.14 0.0004930659    1.290    0.225
        62 -11.4746     52.4576    174.5850   1.0791697649e+02   3.2048130310e+01    0.2623791    0.2468067 -53.06 0.0002962051    1.239    0.193
        63 -10.5832     64.9489    164.4286   1.0322566221e+02   3.2936158031e+01    0.2542419    0.2068735 -66.48 0.0003805446    1.165    0.142
        64 -10.3587    135.0284    163.0721   8.4579519325e+01   2.1429630896e+01    0.2405035    0.2152604 -62.20 0.0003665001    1.136    0.119
        65 -12.9781     50.5042    160.7554   1.0661683566e+02   3.5742099460e+01    0.5257175    0.3124845 -39.77  0.001720416    2.163    0.538
        66 -11.7747     73.8678    157.3505   9.9668719286e+01   3.3443176148e+01    0.5256323     0.467474 -32.22  0.002907124    1.312    0.238
        67 -13.2413     11.6549    207.8922   1.2053693207e+02   2.8657063276e+01    0.5067266    0.3717944  39.80 0.0009747023    1.445    0.308
