#   1 NUMBER                 Running object number                                     
#   2 MAG_AUTO               Kron-like elliptical aperture magnitude                    [mag]
#   3 X_IMAGE                Object position along x                                    [pixel]
#   4 Y_IMAGE                Object position along y                                    [pixel]
#   5 X_WORLD                Barycenter position along world x axis                     [deg]
#   6 Y_WORLD                Barycenter position along world y axis                     [deg]
#   7 A_WORLD                Profile RMS along major axis (world units)                 [deg]
#   8 B_WORLD                Profile RMS along minor axis (world units)                 [deg]
#   9 THETA_WORLD            Position angle (CCW/world-x)                               [deg]
#  10 FWHM_WORLD             FWHM assuming a gaussian core                              [deg]
#  11 ELONGATION             A_IMAGE/B_IMAGE                                           
#  12 ELLIPTICITY            1 - B_IMAGE/A_IMAGE                                       
         1 -11.6500     13.9841     72.9440   1.2358785554e+02   6.0156861017e+01    0.8018557    0.7632733 -27.52  0.006017205    1.241    0.194
         2  -9.3815     39.6441      7.3357   9.0196301781e+01   6.7727556520e+01    0.3268113    0.2094852  23.41  0.001745523    1.278    0.217
         3 -10.4757     51.0485     36.2048   9.7458356163e+01   6.2684586619e+01    0.6145196    0.5031206 -65.49  0.003764814    2.221    0.550
         4 -10.6545     39.6184     29.7030   9.9466714483e+01   6.5096200829e+01    0.5931835    0.3297546 -43.34  0.003378037    2.113    0.527
         5 -11.5197    128.3852     15.7345   6.8616533288e+01   5.0264938492e+01     1.208503    0.7967732 -37.66  0.007013605    1.758    0.431
         6 -11.5273    109.2019      4.4057   6.8809293935e+01   5.5426589372e+01     1.543602     0.575327  53.40  0.007383083    2.027    0.507
         7 -11.9643     84.3931      3.8729   7.4303286058e+01   6.0512041888e+01     1.647393    0.8827394  18.39  0.008202999    2.256    0.557
         8 -10.2931     70.8059      5.5374   7.8687999510e+01   6.2909094473e+01    0.4813281    0.3041363  40.28  0.002043893    1.275    0.216
         9 -11.3707    156.0450     20.4669   6.5263397309e+01   4.3449303498e+01    0.9488994     0.386021  59.06  0.003049102    2.011    0.503
        10 -13.8426    166.4213     10.6312   6.1246643181e+01   4.2019140819e+01     3.166193     1.646996  68.13   0.01668096    1.587    0.370
        11  -9.9801    117.0024     17.3310   7.1362159233e+01   5.2633439744e+01     0.730407    0.2780834 -33.26  0.003292356    2.900    0.655
        12  -9.6794    111.9274     15.6519   7.1900610937e+01   5.3888736263e+01    0.4952915    0.2211458  41.49  0.002339798    2.124    0.529
        13 -10.6882    121.4587      4.2199   6.6394900517e+01   5.2793277332e+01    0.5854945    0.3721068  66.02  0.002724676    1.361    0.265
        14  -9.5302     93.6570     17.2979   7.6768332723e+01   5.7527402657e+01    0.4077687    0.3387769 -77.07  0.002111717    1.739    0.425
        15 -10.2309    248.7260     15.1159   5.4016645842e+01   2.3388357056e+01    0.3909709     0.295486 -23.59   0.00254724    2.107    0.525
        16  -9.9274    249.6836      6.2101   5.2363356541e+01   2.4230569110e+01    0.4552763    0.2171071 -40.69  0.002646707    2.061    0.515
        17  -9.9071    245.8620      2.3515   5.1947101733e+01   2.5423452729e+01    0.3496824    0.1781247  70.08  0.002110529    1.804    0.446
        18  -8.5642     19.3978     14.4699   1.0202939496e+02   6.9382473275e+01    0.4754941    0.2112978 -15.18  0.002295994    3.062    0.673
        19  -8.7474     62.5867     15.6597   8.5301114913e+01   6.3393277934e+01     0.456047    0.2193948  55.93  0.002170192    2.894    0.654
        20  -9.2364     69.5627     14.2460   8.2480958425e+01   6.2344980609e+01    0.2695535    0.2150039  86.01  0.001638131    2.286    0.563
        21 -11.1278    131.5546      3.2168   6.4352181158e+01   5.0635971435e+01     1.186388    0.2965496  64.98  0.004442816    3.255    0.693
        22 -10.3694    200.1918      7.8455   5.6768238300e+01   3.4572913148e+01    0.2555997    0.1835965  79.42  0.001194563    1.145    0.127
        23  -9.6797     60.5749      2.6230   8.0670153955e+01   6.4928338077e+01    0.4913401    0.2657994  37.33  0.002991512    1.487    0.327
        24  -9.2023     59.7150      8.7759   8.3481288468e+01   6.4535221248e+01     0.294988    0.2527339  43.39  0.001917116    1.372    0.271
        25  -8.4672     54.8901      7.7321   8.4694101354e+01   6.5414020174e+01    0.2185567    0.1906971 -69.33  0.001504077    2.119    0.528
        26  -8.2675     49.2441      6.5559   8.6206209096e+01   6.6403823019e+01    0.2843852    0.1479399  26.52  0.001532239    1.746    0.427
        27  -8.5945     52.4858      1.9517   8.3087678822e+01   6.6308801684e+01    0.2824861    0.1605765  34.05  0.001690484    1.417    0.294
        28 -11.9084     44.5165     21.7746   9.4355956531e+01   6.5464588712e+01    0.9792335    0.8895608 -82.16  0.006746378    2.158    0.537
        29  -9.5174    230.1432      6.0114   5.3766433692e+01   2.8251006516e+01    0.2088588    0.1398812  83.87 0.0008682107    1.229    0.186
        30  -8.8518     26.6437      2.9224   9.3645241263e+01   6.9870055870e+01     0.250132    0.1744758 -31.27  0.001810265    1.710    0.415
        31  -8.9614     17.0678      2.1973   9.7667440021e+01   7.1049833074e+01    0.2216744    0.2036554 -14.23   0.00183648    1.754    0.430
        32 -10.1675    214.4570      3.7187   5.4605124337e+01   3.1848945800e+01    0.3489271    0.1498763  59.88  0.001749438    2.255    0.557
        33  -8.4189     39.5565      1.5887   8.7688688326e+01   6.8288171181e+01    0.2089948    0.1050089  34.97  0.001083101    1.653    0.395
        34  -8.9542     83.3014     68.9257   9.7463088212e+01   5.2455318585e+01    0.2968571      0.22396  71.24  0.001482978    2.108    0.526
        35 -10.6596      3.9469     76.0214   1.2803191702e+02   6.0163487782e+01     0.519623    0.4254018 -65.91  0.002803953    1.283    0.221
        36  -7.8418     88.5022     61.5059   9.3441835419e+01   5.2787672775e+01    0.1342651    0.1246624  11.13 0.0002312329    1.048    0.046
        37  -8.6994     76.7211     60.3922   9.6853180433e+01   5.5043953466e+01    0.2366085    0.1646246 -47.50  0.001267808    1.637    0.389
        38  -8.8977     69.6322     60.8401   9.9389627844e+01   5.6123144693e+01    0.2649684    0.2074973 -64.03  0.001464644    1.878    0.467
        39  -8.4489     92.2106     56.8107   9.0772417110e+01   5.2846763876e+01     0.240768    0.2204298  14.84  0.001188671    1.022    0.022
        40  -9.3354    198.8842     55.1509   6.7586029657e+01   2.8962861552e+01    0.2790463    0.2101097  60.70 0.0005387617    1.322    0.244
        41  -8.9415     66.4943     54.2779   9.8282484327e+01   5.7695821256e+01    0.2996518    0.1204315 -42.23  0.001289913    2.523    0.604
        42  -8.0414     23.2328     52.6519   1.1432815299e+02   6.3258156291e+01    0.1648241    0.1281141 -33.68  0.001123411    1.110    0.099
        43  -7.9064     35.0167     52.4928   1.0950261203e+02   6.2132735792e+01    0.1748674    0.1106458  21.27  0.001035622    1.599    0.375
        44  99.0000     78.4717     47.5326   9.1927153847e+01   5.6750191063e+01    0.4024992    0.2901598  17.59  0.001530255    1.389    0.280
        45  -9.5040     86.6733     48.3391   8.9618817357e+01   5.5157011697e+01      0.36432    0.2253456 -38.76   0.00189221    1.735    0.423
        46  -9.7661     83.4960     47.4793   9.0309336959e+01   5.5863305158e+01    0.4493965     0.335186 -31.23  0.002624468    1.385    0.278
        47  -8.4075    111.4946     45.8802   8.1826379420e+01   5.0546849238e+01    0.2706174    0.1948548  26.93  0.001452498    1.475    0.322
        48 -10.3481      4.0581     39.8707   1.1852537275e+02   6.6910325594e+01    0.5249841    0.3913209 -28.39  0.002986174    1.017    0.017
        49  -8.6434     97.5089     43.9890   8.4954703068e+01   5.3682324365e+01    0.1906624    0.1284691 -31.00  0.001028362    1.579    0.367
        50  -9.0299     91.8011     43.9485   8.6579940450e+01   5.4805066443e+01    0.2377863    0.1887233 -52.20  0.001374018    1.628    0.386
        51  -9.6064     81.7867     38.9953   8.7877369558e+01   5.7342746865e+01    0.4180192    0.3244804 -21.27  0.002565991    1.314    0.239
        52  -9.8136    169.9924    242.5266   1.1376066242e+02  -1.6369187082e+00    0.2369117    0.1937493 -71.06  0.001242833    1.620    0.383
        53  -9.6809    160.8763    240.1258   1.1527851848e+02   3.3236828019e-01    0.2071461    0.1803855  56.11  0.001245086    1.215    0.177
        54 -10.4910    206.9067    223.5031   1.0299299347e+02  -4.4352977128e+00    0.6761332    0.3348668  11.85  0.001928737    6.044    0.835
        55  -8.7081     38.3207     37.3302   1.0288500225e+02   6.4175723247e+01    0.2247511    0.2029751 -48.31  0.001588484    1.617    0.381
        56  -8.5456     27.5972     35.4796   1.0667612838e+02   6.5647273104e+01    0.2099803    0.1770725   8.03  0.001540559    1.251    0.201
        57  -9.2930     12.2410     33.3138   1.1265879929e+02   6.7385222950e+01    0.3499706    0.1934949 -46.36  0.002179579    1.724    0.420
        58  -8.9914     69.2287     36.7345   9.1131170776e+01   5.9826480429e+01    0.2883065    0.2658322  64.03  0.001923329    1.534    0.348
        59  -9.3828     97.3362     28.4926   7.9716008353e+01   5.5628113339e+01    0.5260079    0.2626539  -3.43  0.002008054    4.001    0.750
        60  -9.7187     86.3448     31.0529   8.3673511258e+01   5.7485903277e+01    0.3166862     0.235694   9.89  0.001662244    1.380    0.275
        61 -10.1945    225.0219     28.9748   5.8725057439e+01   2.6645455210e+01    0.4253288    0.3132836  75.13  0.001539584    1.261    0.207
        62  -9.0863    238.9748    202.5336   9.2954292340e+01  -5.9393870425e+00    0.2151345     0.162366 -32.09  0.001259271    1.196    0.164
        63  -8.1293     20.4829    156.5030   1.3608833415e+02   4.0639017658e+01    0.1301881     0.105658 -74.40 0.0001044956    1.022    0.022
        64 -11.6456     11.3352    139.8853   1.3638435090e+02   4.5381476346e+01    0.6434042    0.4665301 -64.63  0.004021202    1.117    0.105
        65 -12.6335    240.9499    132.6341   7.8471736764e+01   6.4347747200e+00     1.497957     1.167906  56.58  0.005690095    1.467    0.318
        66  -9.0407     40.9160    142.5225   1.2862625290e+02   4.2040021206e+01    0.1880259    0.1375809  26.64  0.001037187    1.611    0.379
        67 -11.3041     12.1679    117.9460   1.3302357701e+02   5.0478549507e+01    0.6054603    0.2903948 -55.27  0.003144384    1.625    0.385
        68  -8.8503    125.3466     28.8954   7.3232555338e+01   4.9602438147e+01    0.3101679    0.2484657  22.30  0.001861042    1.382    0.276
        69  -9.0023    104.2716     25.5832   7.6956133350e+01   5.4523070578e+01    0.3376326     0.258904  63.31  0.002037653    1.359    0.264
        70  -8.3657      9.7264     26.6207   1.1139207606e+02   6.8602845760e+01    0.1529061    0.1073366 -19.85 0.0009575204    1.073    0.068
        71  -7.5404    192.4891    116.5248   8.3329625076e+01   1.9638764341e+01    0.1509066    0.1431925 -63.25 8.563115e-05    1.026    0.025
        72  -8.3227     43.3231    116.3275   1.2313791969e+02   4.8091910707e+01    0.1428945   0.09085663 -33.97 0.0006206034    1.692    0.409
        73  -8.0410     19.2898     22.0968   1.0522306246e+02   6.8399473546e+01     0.154186    0.1160428 -16.13 0.0008351285    1.090    0.083
        74  -8.1698     74.0000    119.0109   1.1419517450e+02   4.3485457253e+01    0.2496192   0.07737847 -54.43 0.0008089317    2.988    0.665
        75  -9.6474     16.3652    103.7796   1.2929743293e+02   5.3413904626e+01    0.3328877    0.3051789  68.40   0.00230893    1.324    0.245
        76  -8.9156     68.8660    104.6314   1.1232988438e+02   4.7549802673e+01    0.4379189    0.2089845 -33.01  0.001638381    2.794    0.642
        77  -9.8260     47.0033     98.9766   1.1811729644e+02   5.1645052618e+01     0.343773    0.2241548 -44.82  0.001686374    1.342    0.255
        78  -9.3889     29.9545    101.9836   1.2448569683e+02   5.2713258830e+01    0.3714721    0.1844784 -39.68  0.001569177    1.932    0.482
        79 -11.8710     43.7652     82.2696   1.1501671524e+02   5.5573457108e+01     1.149951    0.7646519 -33.71  0.005915914    1.378    0.274
        80  -8.0703      7.8096     16.7824   1.0848909494e+02   7.0155649832e+01    0.1888003   0.08404344 -14.44 0.0009499787    2.804    0.643
        81  -9.1626      2.4619     88.8781   1.3114490368e+02   5.7560367490e+01    0.3267814    0.2127999 -77.90  0.001397671    1.658    0.397
        82  -7.8993     83.3043     89.6578   1.0369086088e+02   4.8497851501e+01    0.1384426     0.114724  89.94 0.0007040649    1.682    0.406
        83  -7.7375     13.6241     15.2418   1.0505985258e+02   6.9850190140e+01    0.0910246   0.07682568  23.95 0.0002645031    1.628    0.386
        84  -9.7289     18.9052     87.9353   1.2524856303e+02   5.6700172300e+01    0.3596163    0.1766708 -65.64  0.001777235    2.031    0.508
        85 -10.3366     24.7256     65.6141   1.1755485889e+02   6.0752916053e+01    0.6634997     0.303078 -51.45  0.003247103    1.890    0.471
        86  -9.1015      9.6456     80.3707   1.2689789532e+02   5.8930642451e+01    0.2792192    0.1853552 -73.74  0.001332214    1.707    0.414
        87 -10.4039    182.3755    245.9500   1.1177254842e+02  -4.2686165194e+00    0.3420872    0.2075462  27.29  0.001770361    1.592    0.372
        88  -9.1164    227.9389     78.6207   6.8837865538e+01   1.8725527743e+01     0.412472    0.2785859 -20.79  0.001597835    2.300    0.565
        89  -9.4781     35.4873     79.9564   1.1738654859e+02   5.6921637502e+01    0.3303014    0.2102415 -57.99   0.00182579    1.572    0.364
        90  -8.2035     71.5858     80.2138   1.0476963370e+02   5.2281039521e+01    0.1970956    0.1183043 -34.92 0.0009443004    1.643    0.391
        91  -8.7628    138.5066     77.7909   8.4819894727e+01   3.9568351239e+01    0.3890693    0.2487691  72.65  0.001647842    2.097    0.523
        92  -8.0598     77.5051     78.0185   1.0215348994e+02   5.1763896600e+01    0.2131924    0.1296955 -43.09   0.00103439    1.594    0.373
        93 -10.4767     75.2913     26.6329   8.5410081868e+01   6.0028253030e+01     0.693543    0.3635183  55.85  0.003418111    2.336    0.572
        94  -8.8688     66.5028     29.3188   8.9290204371e+01   6.1219781691e+01    0.3657121    0.2105172  -0.66   0.00162685    2.303    0.566
        95  -9.5823     74.1167     68.4556   1.0032455506e+02   5.4082833141e+01    0.4645603    0.3276035  17.14  0.002399089    1.515    0.340
        96  -8.8144     33.8563     69.1679   1.1504900455e+02   5.9221880463e+01    0.2256042     0.188912 -27.36  0.001497292    1.022    0.022
        97  -9.5695     47.9522     61.8896   1.0752772646e+02   5.8997153626e+01    0.4589077    0.2597932  28.05  0.002450536    1.814    0.449
        98  -8.2782     62.4833     29.9791   9.0924925000e+01   6.1791571956e+01    0.1895407    0.1599598  55.52  0.001192722    1.646    0.393
