#   1 NUMBER                 Running object number                                     
#   2 MAG_AUTO               Kron-like elliptical aperture magnitude                    [mag]
#   3 X_IMAGE                Object position along x                                    [pixel]
#   4 Y_IMAGE                Object position along y                                    [pixel]
#   5 X_WORLD                Barycenter position along world x axis                     [deg]
#   6 Y_WORLD                Barycenter position along world y axis                     [deg]
#   7 A_WORLD                Profile RMS along major axis (world units)                 [deg]
#   8 B_WORLD                Profile RMS along minor axis (world units)                 [deg]
#   9 THETA_WORLD            Position angle (CCW/world-x)                               [deg]
#  10 FWHM_WORLD             FWHM assuming a gaussian core                              [deg]
#  11 ELONGATION             A_IMAGE/B_IMAGE                                           
#  12 ELLIPTICITY            1 - B_IMAGE/A_IMAGE                                       
         1 -14.8447      7.4946    148.9773   1.4338261938e+02   4.2692300344e+01     9.564506     3.373281  66.93   0.04902068    2.835    0.647
         2 -13.7061    193.5811     26.9994   7.0940787587e+01   3.3219221840e+01     1.675161     1.482584  11.85  0.006444717    1.120    0.107
         3 -13.6830    209.3394      6.9480   6.2588328463e+01   3.1081987295e+01     1.601711     1.070721  43.70  0.005570929    1.540    0.351
         4 -12.1606      2.7545     19.6336   1.2771042144e+02   7.0481558723e+01    0.8983023    0.1295332 -62.23  0.003187133    4.085    0.755
         5 -12.3285      2.6145     11.5355   1.2514701709e+02   7.2143028507e+01     1.138845    0.2705991 -47.51  0.005127715    2.659    0.624
         6 -11.1714      2.7376      3.3640   1.2192850025e+02   7.3749299955e+01    0.4456168    0.2840137 -27.36  0.003006728    1.489    0.328
         7 -12.7098      4.8948    170.2355   1.4498606496e+02   3.8910441936e+01    0.9375184    0.3275779 -73.77   0.00556202    2.413    0.585
         8 -11.3473    173.2589    248.4323   1.2272524296e+02   6.7715529944e+00    0.4020984    0.1949737  58.11   0.00215815    3.173    0.685
         9 -11.9281    139.0081    250.1781   1.2814205050e+02   1.1296262914e+01     0.498787    0.1528185  39.12  0.002591074    2.609    0.617
        10  -9.7076     81.9860    242.7799   1.3630000266e+02   1.9472123029e+01    0.1411525   0.08005138  67.45  0.001046051    1.646    0.392
        11 -13.0635     50.6688    217.5564   1.3963900326e+02   2.6641180420e+01     1.961614    0.7656311  43.31   0.01251121    1.973    0.493
        12 -11.5806    185.6883    238.8610   1.1972868868e+02   5.9722522290e+00    0.3059663    0.2317403 -83.99  0.002097921    2.742    0.635
        13 -11.8113    238.6195    246.5269   1.1272287560e+02  -2.1672535854e+00    0.2947956    0.1388501  38.24  0.001983566    1.512    0.338
        14 -10.4828    140.0137    231.3100   1.2615938103e+02   1.3392704542e+01    0.1571889    0.1063545  44.59  0.000652748    1.103    0.093
        15  -9.8857    248.5104    230.5240   1.0908053765e+02  -2.2944841808e+00    0.1073335   0.07305968  24.04 9.118558e-05    1.001    0.001
        16 -10.1106    155.9831    228.4899   1.2326042959e+02   1.1440511940e+01    0.1718328   0.08109758  41.77  0.001032382    1.592    0.372
        17 -10.7493    172.5156    222.1581   1.1980483643e+02   9.7290799026e+00    0.2731452    0.1762615  19.90  0.001765419    1.815    0.449
        18  -8.7230     94.1567    216.1956   1.3232687954e+02   2.1702874977e+01    0.1446007   0.09285668  61.67  0.000231391    1.346    0.257
        19  -8.4477    221.5446    213.5323   1.1068988592e+02   3.1375341087e+00    0.1127863   0.08388242  27.51 9.611373e-05    1.028    0.027
        20  -9.1571    152.4021    212.9949   1.2204198674e+02   1.3906482508e+01    0.1385709    0.1233035  45.46 0.0004679313    1.142    0.124
        21 -12.4996      9.8062    206.8638   1.4567573741e+02   3.2265276093e+01    0.5347588    0.2983218  35.92  0.003001415    1.902    0.474
        22 -11.7397     62.6708    200.8501   1.3650239142e+02   2.7959153842e+01    0.2075531    0.1900236 -82.86 0.0005600304    1.387    0.279
        23 -11.2645     18.7656    199.1632   1.4390284577e+02   3.2730580615e+01    0.3438893    0.1114524  52.83  0.002088683    2.244    0.554
        24  -9.9964    193.2784    195.4643   1.1258294142e+02   9.6072211231e+00    0.5605778    0.3060881 -61.26  0.001991903    6.976    0.857
        25 -12.0277     68.7836    192.3749   1.3473562321e+02   2.8652495507e+01    0.2078069    0.1893544  86.07 0.0003920634    1.279    0.218
        26 -13.2248     65.6133    177.3846   1.3400445269e+02   3.1644803896e+01    0.3903303    0.2376998 -47.58  0.001650981    2.329    0.571
        27 -10.9749     78.7749    179.1470   1.3163158894e+02   2.9705854758e+01    0.1912077    0.1648902  66.23 0.0003589421    1.092    0.084
        28  -9.1462    102.5156    178.8452   1.2698676458e+02   2.6538917242e+01    0.1830038    0.1282209  63.56 0.0005370512    1.350    0.259
        29 -11.9491     86.1744    169.4736   1.2911744572e+02   3.0472966684e+01    0.5375967    0.5004191 -56.33   0.00401298    1.341    0.254
        30 -12.9425     36.7180    235.7746   1.4274261630e+02   2.5382980275e+01    0.2883071    0.1958975 -74.73 0.0007625393    1.702    0.413
        31 -14.0705     42.1598    228.4327   1.4157326667e+02   2.5897776886e+01    0.7562777    0.4191281  55.78   0.00296146    1.285    0.222
        32 -12.4953     67.1670    143.6777   1.3005150337e+02   3.7891535570e+01    0.6113274    0.3656951  63.77  0.003129358    1.719    0.418
        33  -9.0821    134.0000    145.9748   1.1562088797e+02   2.7359762406e+01    0.3453204    0.0746341 -48.55  0.001055508    4.972    0.799
        34  -8.6924    183.4458    146.5018   1.0566144127e+02   1.8038566544e+01    0.1330879    0.1209674  29.32 0.0001076053    1.059    0.056
        35 -10.2100     98.2938    153.5136   1.2452720835e+02   3.1738827699e+01    0.2631969    0.2224929 -69.76 0.0008500476    1.205    0.170
        36  -8.5059    192.2155    144.0101   1.0348265710e+02   1.6702601730e+01    0.1608883    0.1080347 -30.81 0.0004628316    1.576    0.366
        37 -10.0047    109.8847    137.8678   1.1949289044e+02   3.2964924208e+01    0.3391984    0.2351389 -19.47  0.001657974    2.473    0.596
        38 -10.6180     97.2029    135.3657   1.2197363646e+02   3.5448381520e+01    0.2162242    0.2023165 -48.86 0.0004732074    1.207    0.171
        39  -9.4508     82.8901    134.0661   1.2510293245e+02   3.7790577005e+01     0.192333    0.1465985  74.30 0.0005333726    1.321    0.243
        40 -12.0049    130.6217    245.6567   1.2902509006e+02   1.2945367479e+01    0.3640926    0.1437306  50.21  0.002156639    2.043    0.511
        41  -9.2723    101.1812    149.1181   1.2325467864e+02   3.2147098680e+01    0.1680968    0.1666059  21.54 0.0003955298    1.212    0.175
        42 -12.0438     87.0865    152.7276   1.2683591554e+02   3.3492895369e+01    0.2329897    0.2180282 -51.47 0.0005160928    1.296    0.228
        43  -9.5394     56.3049    128.6537   1.3064979498e+02   4.2274498961e+01    0.1263588   0.07934823  74.47 0.0007041579    1.693    0.409
        44  -9.1668    106.9804    124.3701   1.1770783080e+02   3.6121544839e+01    0.1741615    0.1507193  46.58 0.0003001635    1.159    0.137
        45  -9.6901     53.5974    119.7873   1.3011603932e+02   4.4461391337e+01    0.1751126    0.1018294 -79.98 0.0009423236    1.673    0.402
        46  -9.8374    167.8945    112.9587   1.0132367293e+02   2.6632765205e+01    0.2990507    0.2511991 -66.78  0.001405812    1.504    0.335
        47  -9.5391    203.0258    111.3091   9.3998854823e+01   1.9307825064e+01    0.2064019    0.1788216  29.42 0.0006797572    1.091    0.084
        48 -10.5268    197.8522    246.1727   1.1872690507e+02   3.5275051758e+00    0.1449586   0.09402405  25.20 0.0006651577    1.344    0.256
        49  -9.8312    156.9688     75.7080   9.3546832808e+01   3.5521987669e+01    0.2163864    0.2008802  36.01 0.0005387184    1.085    0.078
        50 -11.3272      2.2506     61.2320   1.3668247837e+02   6.1530970384e+01    0.3165504    0.1373289 -72.32  0.001643006    1.714    0.417
        51  -9.1213     32.9903     62.6559   1.2621018594e+02   5.9139930951e+01    0.1895516   0.07038001  49.81 0.0007050051    4.477    0.777
        52  -9.8851     17.4558     56.2322   1.3041121942e+02   6.1759997089e+01    0.2202982   0.05544944  37.06 0.0008862289    4.474    0.777
        53 -11.8017      2.7350     38.0272   1.3238575710e+02   6.6581035833e+01    0.4600053     0.175174 -71.53  0.002279887    2.153    0.536
        54  -9.1335      2.4710    249.5282   1.4805262720e+02   2.6615427148e+01   0.08372831   0.05400858  63.45  0.000197029    1.045    0.043
        55 -10.1896     81.3249    248.0091   1.3673894404e+02   1.8861800470e+01    0.1806036   0.08995382  57.53  0.001309204    1.581    0.368
        56 -11.5869    124.8004    249.9129   1.3029034434e+02   1.3213169819e+01    0.4341807    0.1200165  41.91  0.002255812    2.600    0.615
        57 -11.8114    100.0426    248.3947   1.3394178963e+02   1.6557148059e+01    0.2909525    0.2499961  28.41  0.002619833    1.570    0.363
