#   1 NUMBER                 Running object number                                     
#   2 MAG_AUTO               Kron-like elliptical aperture magnitude                    [mag]
#   3 X_IMAGE                Object position along x                                    [pixel]
#   4 Y_IMAGE                Object position along y                                    [pixel]
#   5 X_WORLD                Barycenter position along world x axis                     [deg]
#   6 Y_WORLD                Barycenter position along world y axis                     [deg]
#   7 A_WORLD                Profile RMS along major axis (world units)                 [deg]
#   8 B_WORLD                Profile RMS along minor axis (world units)                 [deg]
#   9 THETA_WORLD            Position angle (CCW/world-x)                               [deg]
#  10 FWHM_WORLD             FWHM assuming a gaussian core                              [deg]
#  11 ELONGATION             A_IMAGE/B_IMAGE                                           
#  12 ELLIPTICITY            1 - B_IMAGE/A_IMAGE                                       
         1 -14.4893    150.1091     55.4772   2.9047224568e+02   6.2200398690e+00   0.05481349   0.04932399   6.60 0.0009473577    1.156    0.135
         2 -14.8589    161.2711     40.4747   2.9025151624e+02   6.3238744409e+00   0.06476201   0.04058621 -53.75  0.004105951    1.549    0.355
         3 -14.4877    174.0174      7.6087   2.8990177500e+02   6.6216201877e+00   0.04769011   0.04526231 -29.50  0.003759959    1.062    0.059
         4 -12.3267    125.0726    245.4991   2.9193158900e+02   4.2004756846e+00   0.02744605  0.008619877 -60.82  0.001996358    3.081    0.675
         5 -20.0856     77.5538    176.7393   2.9205168414e+02   5.2713912300e+00    0.8988306    0.3519387 -63.90   0.07121775    2.669    0.625
         6 -12.4558    153.4869    189.9727   2.9126494418e+02   4.6641135595e+00   0.02908805  0.009035389 -61.51  0.001802517    3.181    0.686
         7 -12.5573    157.1736    191.8802   2.9123457827e+02   4.6201506087e+00   0.01545634   0.01187463 -69.78  0.000407849    1.353    0.261
         8 -11.9893    160.9215    194.5016   2.9120791978e+02   4.5676643502e+00   0.01295944   0.01160157  46.27 0.0007417535    1.142    0.124
         9 -10.7170    150.8549    246.1103   2.9164087943e+02   4.0386477453e+00   0.01082863  0.008789771 -61.63 0.0004508022    1.226    0.184
        10 -14.3828    206.2999    179.9599   2.9059981912e+02   4.4605615669e+00   0.04029918   0.03709518  28.68  0.003292128    1.092    0.084
        11 -13.6994    197.2725    173.6139   2.9066371783e+02   4.5874000512e+00   0.04080935   0.02436506 -82.48  0.002399239    2.268    0.559
        12 -10.9534     14.0000    240.4909   2.9317022304e+02   4.9231508424e+00   0.01559213   0.00371305 -61.87 0.0009631439    4.167    0.760
        13  -9.9605     25.5933    185.1447   2.9269795988e+02   5.4865584051e+00  0.009022268  0.006418599 -59.79 0.0002644538    1.385    0.278
        14 -10.1998     25.4384    181.5912   2.9267789467e+02   5.5281067814e+00   0.01050352  0.007791935  -8.95 4.419325e-05    1.626    0.385
        15 -10.6001     28.4644    179.4625   2.9263017885e+02   5.5343362527e+00   0.01128708  0.009684409   5.53 0.0008599889    1.242    0.195
        16 -12.3862      5.5635    177.5647   2.9288063496e+02   5.6929705896e+00   0.02081801   0.01701794  51.25  0.001372654    1.289    0.224
        17 -13.1500    178.9814    173.9889   2.9087498493e+02   4.6932681129e+00   0.01978502   0.01515647  68.96  0.001848229    1.542    0.352
        18 -12.7789    177.4925    169.5085   2.9086433291e+02   4.7533981696e+00   0.01866701   0.01167182  35.16  0.001902893    1.579    0.366
        19 -10.2173     13.4953    233.1597   2.9313105689e+02   5.0099799794e+00  0.008468091  0.006434537 -61.56 0.0003151222    1.307    0.235
        20 -11.2764    168.3017    176.0322   2.9100963119e+02   4.7342178256e+00  0.009403886  0.008355878 -63.07 0.0004069224    1.124    0.111
        21 -12.0452    123.5325    166.3763   2.9146186251e+02   5.1137660195e+00   0.01970528   0.01040012  52.50   0.00111312    2.358    0.576
        22 -13.2096    138.4483    172.1128   2.9132668390e+02   4.9585688923e+00   0.02923319   0.01869388  70.52  0.002743989    2.198    0.545
        23 -11.2924     29.1120    227.4085   2.9291722133e+02   4.9823535943e+00   0.01027588  0.008327082 -45.11 0.0004018005    1.235    0.190
        24 -12.8363    148.0143    172.9993   2.9122278994e+02   4.8909167667e+00   0.01951888   0.01254491  39.08  0.001639469    1.557    0.358
        25 -13.2284    144.4573    168.9141   2.9123824712e+02   4.9589754281e+00   0.02293244   0.01653254  23.29  0.002094381    1.426    0.299
        26 -10.2116     11.9215    173.9846   2.9278586108e+02   5.6958945520e+00  0.009734815  0.007248319 -29.24 0.0002808657    1.503    0.335
        27 -12.3532    157.3324    178.1968   2.9114835022e+02   4.7754974310e+00   0.01340894   0.01136334 -80.83 0.0007933383    1.265    0.209
        28 -11.2906     25.1776    225.3348   2.9294948721e+02   5.0295921239e+00   0.01646718  0.007768228 -51.33  0.001218526    2.042    0.510
        29 -12.2584    202.7813    166.4001   2.9055623318e+02   4.6365748529e+00   0.02276945   0.01785787  42.15  0.001656389    1.295    0.228
        30 -11.6008    223.9698    164.1154   2.9030016074e+02   4.5349480853e+00   0.01421092   0.00974352 -74.87 0.0006938531    1.632    0.387
        31 -10.5717    219.1821    224.1472   2.9072554282e+02   3.8784943915e+00  0.009023124  0.007631943  75.28 0.0004077927    1.323    0.244
        32 -11.8348    139.2823    249.6881   2.9179505512e+02   4.0672936467e+00   0.01663768   0.01358595  46.73  0.001411316    1.264    0.209
        33 -11.3044    237.4288    159.2390   2.9011637425e+02   4.5094420626e+00  0.009100955  0.006432574 -78.26 0.0009411515    1.617    0.381
        34 -11.8352    163.4845    209.5058   2.9127115534e+02   4.3808630643e+00   0.01360685   0.01064037  61.41  0.001087672    1.441    0.306
        35 -13.0787     11.8306    205.8908   2.9298283658e+02   5.3316840423e+00   0.03020974   0.01842197  11.23  0.002724672    2.008    0.502
        36 -10.4013     22.9666    156.2888   2.9255060990e+02   5.8321145942e+00  0.009070508  0.008356035  25.90 0.0004358875    1.093    0.085
        37 -14.2884    134.1971    145.7210   2.9121242473e+02   5.2856101559e+00   0.06339425   0.02063751 -68.43  0.004000819    4.359    0.771
        38 -14.4892    143.8744    143.5775   2.9108850604e+02   5.2518832796e+00   0.04621122   0.02843205  89.50  0.004180828    2.375    0.579
        39 -11.6171    174.3206    148.6709   2.9077186833e+02   5.0104514747e+00   0.01599638   0.01195204  73.75  0.001341769    1.636    0.389
        40 -14.4129    135.9324    129.0350   2.9108952534e+02   5.4657498385e+00   0.08204606   0.01932073 -64.70  0.004580613    5.408    0.815
        41 -13.3517    152.9288    145.7187   2.9099818820e+02   5.1729466858e+00   0.02147906   0.01613996  41.37  0.002335143    1.348    0.258
        42 -13.5376    163.3673    203.2661   2.9123402435e+02   4.4528403560e+00   0.03512131   0.02378806  61.55  0.002865478    1.811    0.448
        43 -10.3775    176.3298    142.6868   2.9071192322e+02   5.0666796679e+00  0.006939669  0.004956936  62.61  0.000658099    1.674    0.403
        44 -11.3756      8.4232    137.9048   2.9260406325e+02   6.1292027416e+00   0.01811551    0.0100516  16.05   0.00129154    2.145    0.534
        45 -12.5487    148.3952    132.7211   2.9096973900e+02   5.3486669304e+00    0.0160951    0.0116226 -47.84  0.001753402    1.376    0.273
        46 -12.3833    160.6582    128.0873   2.9080085710e+02   5.3277594310e+00   0.01698627   0.01389804  84.24  0.001684959    1.396    0.284
        47 -12.3028    159.2761    205.2366   2.9129291381e+02   4.4549374760e+00   0.02264748   0.01300872  53.11  0.001630078    2.095    0.523
        48 -10.3976    120.0367    205.6408   2.9174382739e+02   4.6861401062e+00  0.008728033  0.008018397  23.69    0.0002631    1.097    0.089
        49  -9.8596    137.8099    242.1474   2.9176547680e+02   4.1622840673e+00   0.02239768   0.01696777 -44.51  0.001460201    1.330    0.248
        50 -10.8466    205.3589    110.2195   2.9017933459e+02   5.2623102850e+00   0.01365225  0.009542689  19.29 0.0009277391    1.521    0.343
        51 -10.9032    157.0231    105.9989   2.9070585368e+02   5.6018346721e+00  0.009468953  0.009414682  59.24  0.001202393    1.021    0.020
        52 -11.9479    169.0047    202.5528   2.9116522469e+02   4.4270782027e+00   0.01171494  0.009221476 -88.06 0.0001181465    1.457    0.314
        53 -11.7954    137.6711    198.0214   2.9149532126e+02   4.6672509372e+00   0.03025479    0.0136858  50.70  0.002383308    2.878    0.653
        54 -10.2656    123.9083    196.2618   2.9164179676e+02   4.7700520753e+00  0.008623546  0.008253611   8.25  0.000245778    1.059    0.055
        55 -10.6031    143.2105     79.8033   2.9070182863e+02   5.9840241242e+00  0.009236396   0.00760037 -26.76  0.000592509    1.312    0.238
        56 -11.4841    148.1230     35.3409   2.9037021134e+02   6.4616763587e+00   0.05557711   0.01674897  46.70  0.003108438    4.802    0.792
        57 -10.8240    159.9760    248.1670   2.9154938765e+02   3.9603484006e+00   0.01339318  0.008801236 -61.47 0.0008403728    1.512    0.339
        58 -12.4782    133.7341    247.5468   2.9184524934e+02   4.1250751527e+00   0.01145234   0.01011988 -59.41 0.0004457215    1.122    0.109
        59 -13.0102    164.9479     32.2177   2.9015824246e+02   6.3958519949e+00   0.01911075   0.01722857 -64.74 0.0008056955    1.113    0.101
        60 -10.9324     13.6573     60.0364   2.9206416229e+02   6.9873943201e+00    0.0108519  0.008876017  44.73 0.0004678757    1.254    0.202
