#   1 NUMBER                 Running object number                                     
#   2 MAG_AUTO               Kron-like elliptical aperture magnitude                    [mag]
#   3 X_IMAGE                Object position along x                                    [pixel]
#   4 Y_IMAGE                Object position along y                                    [pixel]
#   5 X_WORLD                Barycenter position along world x axis                     [deg]
#   6 Y_WORLD                Barycenter position along world y axis                     [deg]
#   7 A_WORLD                Profile RMS along major axis (world units)                 [deg]
#   8 B_WORLD                Profile RMS along minor axis (world units)                 [deg]
#   9 THETA_WORLD            Position angle (CCW/world-x)                               [deg]
#  10 FWHM_WORLD             FWHM assuming a gaussian core                              [deg]
#  11 ELONGATION             A_IMAGE/B_IMAGE                                           
#  12 ELLIPTICITY            1 - B_IMAGE/A_IMAGE                                       
         1 -14.0526      5.5499     75.9120   1.1486716826e+02   5.9732455597e+01     2.143445    0.6866335 -65.90   0.00960614    2.332    0.571
         2 -13.3166     30.6419     10.5311   8.2233878370e+01   7.0313721519e+01     1.430679    0.4887077 -33.81  0.006568395    2.619    0.618
         3 -13.8341     24.3359     49.6189   1.0103477154e+02   6.4144028824e+01     1.199376    0.7101058 -26.22  0.006754134    1.695    0.410
         4 -15.5190      9.1513     26.7350   1.0037227073e+02   6.9677335765e+01       2.7535    0.9714032 -47.87   0.01394767    2.064    0.515
         5 -14.5262     96.8488     71.4488   8.1163077529e+01   4.9653847929e+01     1.752112     1.333869  -0.62  0.001937611    1.593    0.372
         6 -14.6222     44.1647     41.7537   8.9785892095e+01   6.3641484509e+01     2.067573     1.328038 -31.04  0.008846955    1.365    0.268
         7 -14.7099     37.4100     81.1550   1.0448175015e+02   5.6172787603e+01     2.598736      1.02539 -53.76    0.0115246    1.996    0.499
         8 -14.9651     57.6311     71.3161   9.4482221444e+01   5.6053515340e+01     2.237766     1.563542  53.85  0.004498009    1.947    0.486
         9 -14.2087     70.1087     56.5929   8.5088447502e+01   5.7247672852e+01     1.416245     1.201645 -30.20  0.008345187    1.067    0.062
        10 -14.4137     79.8656     69.9801   8.6220465114e+01   5.3009472710e+01     2.789219     1.469934 -23.54    0.0083112    2.990    0.666
        11 -12.6810     80.5471     32.0227   7.1812550726e+01   5.9590573975e+01    0.7317641    0.5830785  45.41   0.00278017    1.357    0.263
        12 -12.6730    138.3967      4.2288   4.6603152172e+01   4.9688996534e+01     1.164105    0.3251028  60.22  0.004301871    2.741    0.635
        13 -11.7338     73.4183      1.4677   6.0304308954e+01   6.4542046043e+01    0.2751518    0.1362499  50.83 0.0005727211    1.854    0.461
        14 -13.1850     83.6610     22.6969   6.6802408416e+01   6.0254383500e+01    0.7304411    0.4987214  52.15 0.0005249468    1.568    0.362
        15 -13.4822    120.7279     10.8325   5.2261067823e+01   5.3397611114e+01     1.538445    0.5352888  57.68  0.006095266    2.398    0.583
        16 -12.5051     75.7669     13.6965   6.5336616211e+01   6.2853484159e+01    0.3391372    0.3037465  21.58 0.0009887832    1.133    0.117
        17 -14.7301     87.2052      6.8645   5.8720945393e+01   6.1278152123e+01     2.344465     1.063007  54.19   0.01099123    2.031    0.508
        18 -13.2209    185.9020     12.8969   4.2717187659e+01   3.6904939309e+01    0.9479152    0.5970969 -22.88  0.004823343    1.796    0.443
        19 -12.6180    193.0590      6.2214   4.0091988431e+01   3.5791385013e+01     0.561421    0.4077892 -42.18  0.002249792    1.384    0.277
        20 -11.6026    188.2706      5.4839   4.0395185249e+01   3.7053445059e+01    0.2945196    0.2670748 -58.16  0.001013904    1.128    0.114
        21 -11.7868     64.6301     17.9936   7.1254403194e+01   6.4354888619e+01    0.4243927    0.2786403  24.50  0.001332509    1.457    0.314
        22 -12.4673    175.9101     13.1507   4.4019659339e+01   3.9402979686e+01    0.6275762    0.3590183  32.15  0.002785792    2.399    0.583
        23 -13.2177    104.5281      5.0740   5.3522724606e+01   5.7676932922e+01    0.7029476    0.6172834 -18.22  0.003600197    1.245    0.197
        24 -11.9178    169.6175     10.5760   4.4073270022e+01   4.1256762555e+01    0.3183894    0.2675097  83.76  0.001229124    1.103    0.093
        25 -10.8846    156.0072     10.0145   4.5797320366e+01   4.4760160553e+01    0.2830139    0.2111639 -86.17  0.000958337    1.417    0.294
        26 -12.0718    149.5395      8.3817   4.6241072871e+01   4.6543233019e+01    0.6906307    0.3509881  71.95  0.002602047    1.891    0.471
        27 -10.4251     49.2154      4.9253   7.0853599254e+01   6.8450194209e+01    0.3027365    0.1719777 -23.54  0.001615046    1.630    0.387
        28 -11.3801    168.3132      2.3334   4.1768215017e+01   4.2352313196e+01    0.3155261    0.2062944  57.59  0.001399291    1.401    0.286
        29 -10.1325    211.9925      1.5280   3.7113134534e+01   3.1643025209e+01    0.1922651    0.1134308  77.87 0.0004918955    1.539    0.350
        30 -10.8989    203.3998    172.8294   8.1160261649e+01   6.3318044284e+00    0.2040061     0.127871 -25.89 0.0008849324    1.718    0.418
        31 -11.4105    214.6427    163.6147   7.7044824974e+01   5.7897079570e+00    0.3302986    0.1965166   4.67  0.001283438    2.852    0.649
        32 -11.8255    233.3498    154.2009   7.1595321447e+01   3.8550566837e+00    0.2972959    0.2593111  26.42  0.001754067    1.180    0.153
        33 -11.1625     18.7364    153.9988   1.2129764664e+02   4.0582748430e+01    0.1814369    0.1360826 -85.82  0.001177246    1.053    0.050
        34 -11.6888    135.5053     96.6231   7.7922260616e+01   3.6333565516e+01    0.8419844    0.4620422 -35.90  0.003296347    1.909    0.476
        35 -10.6721    114.2350     97.1714   8.3842627220e+01   4.0786897975e+01    0.3293275    0.2589458 -58.41 0.0009237844    1.340    0.254
        36 -10.8163    188.6728     94.5649   6.5361615695e+01   2.4151136833e+01    0.2982356    0.2539049 -65.15 0.0004731327    1.267    0.211
        37 -10.2995    189.6100    153.2038   7.9727677694e+01   1.2665807257e+01    0.2194995    0.1371159 -29.05 0.0009575426    1.738    0.425
        38 -10.2222     29.6796    153.6955   1.1863578765e+02   3.9645016381e+01    0.1215451   0.08609242 -48.44 0.0007029532    1.633    0.388
        39 -11.3995    117.1249     91.0955   8.1267000967e+01   4.1504557308e+01    0.2413695    0.2087248  -9.65 0.0006542009    1.279    0.218
        40 -10.8485    249.2828     86.2213   5.3528935484e+01   1.1863603212e+01    0.3999676    0.2661824 -46.61  0.002091421    1.353    0.261
        41  -9.3756    236.0000     86.9769   5.5518847955e+01   1.4553347036e+01    0.2354955   0.07386389 -34.79 0.0007913248    2.866    0.651
        42 -11.8343    127.9449     82.1307   7.5587957811e+01   4.1004928873e+01    0.4175125    0.4053842  84.84  0.000988403    1.100    0.091
        43 -12.7722    121.6756     81.2150   7.7001584795e+01   4.2577757525e+01    0.4914941    0.4695574  12.62  0.001092459    1.056    0.053
        44 -13.0002    115.9588     77.0876   7.7297751773e+01   4.4640244452e+01     1.025577    0.5009036 -40.07  0.004006322    2.002    0.501
        45 -11.6745    118.5972     63.6538   7.2138107285e+01   4.6609319218e+01    0.4769688    0.2472991 -30.70 0.0007128023    2.074    0.518
        46 -10.0398    148.5062     80.5649   6.9940431170e+01   3.6518429895e+01     0.270996    0.2310822  44.89 0.0005686177    1.184    0.155
        47 -12.0911    144.3997     75.7753   6.9448332291e+01   3.8402319503e+01    0.6114197    0.4893565 -52.32  0.001787601    1.318    0.241
        48 -12.0328    249.5172    146.5066   6.7201377312e+01   2.1574129435e+00    0.3825204    0.1832009 -44.53  0.001668612    2.201    0.546
        49  -9.2365    207.3345     77.7237   5.7522472844e+01   2.2620877562e+01    0.1517803     0.111194 -70.90 0.0003269229    1.605    0.377
        50  -9.2589    152.5271     88.4968   7.1359309900e+01   3.4028025908e+01    0.1562311    0.1532888 -53.21 2.207844e-05    1.021    0.020
        51 -12.6761    125.8176     72.8895   7.3237088245e+01   4.3282431372e+01    0.7900352    0.3759604  57.63  0.002834281    2.580    0.612
        52 -10.0514    171.1511     72.6824   6.2634593571e+01   3.2379467334e+01    0.3548234    0.1997922  69.92  0.001352185    2.264    0.558
        53 -10.8604    152.8360     73.2012   6.6688553437e+01   3.6827200814e+01    0.4189742    0.2168871  48.83  0.001642392    1.920    0.479
        54  -9.0528    182.3517     71.7139   6.0195605037e+01   2.9748327872e+01    0.1584228    0.1167207 -74.38  0.000453678    1.663    0.399
        55  -9.4475    198.0448     69.9893   5.6961873542e+01   2.6145454094e+01    0.1727435    0.1635125 -58.84            0    1.004    0.004
        56 -10.0385    146.6114     66.3870   6.5976474501e+01   3.9554687645e+01    0.3203135    0.2202867  17.13  0.001337494    2.039    0.510
        57 -12.2624    141.1226     96.0780   7.6335035962e+01   3.5172666205e+01     0.790228    0.6012201 -47.81  0.003692688    1.314    0.239
        58 -11.0244    214.4308     61.0227   5.2052438410e+01   2.3577574607e+01    0.3684734    0.2795542 -27.91   0.00190311    1.370    0.270
        59 -10.6629    169.5684     62.9503   6.0046970972e+01   3.4413354350e+01    0.4546871    0.2040732  59.66   0.00167893    2.276    0.561
        60  -8.9558    250.7334     58.3233   4.6871071121e+01   1.5748449949e+01     0.139098   0.08658508 -57.49  0.000189088    1.564    0.361
        61 -10.6231    227.2494     57.6230   4.9469546256e+01   2.1067829997e+01    0.2626172    0.2263813 -48.92   0.00062228    1.058    0.054
        62 -11.7041    124.8948     57.2977   6.8282246096e+01   4.6286734491e+01    0.3443483    0.2880953  40.91 0.0006284975    1.176    0.150
        63 -11.2337    174.5975     56.4487   5.7152954993e+01   3.4173213480e+01    0.2687332    0.2461087 -74.40 0.0004795735    1.103    0.093
        64  -9.3506    208.6428     55.7008   5.1470826685e+01   2.5773866970e+01    0.1454848    0.1104124  29.40 0.0007036095    1.706    0.414
        65 -11.8721    133.3834     53.7930   6.4954781715e+01   4.4864089913e+01    0.5227591     0.306275  63.05  0.001410555    1.934    0.483
        66 -10.6427    153.6540     53.1752   6.0204024237e+01   3.9977429078e+01    0.4277565    0.2479175  29.21  0.001645448    2.454    0.592
        67 -11.3487    145.3263     50.4494   6.1087486768e+01   4.2473761695e+01    0.3510377    0.2847425 -39.55 0.0007787201    1.263    0.208
        68 -11.3610     97.9933     49.9191   7.3251851803e+01   5.3389249331e+01     0.770681    0.2925486  49.66  0.002822763    2.793    0.642
        69 -10.8711    137.5671     48.3513   6.2116673272e+01   4.4700851379e+01    0.3540315    0.2681055 -56.09  0.001448908    1.530    0.346
        70 -10.7648    139.7626     43.8296   6.0082138358e+01   4.4830482634e+01     0.425333    0.2604608  67.36  0.001775414    1.816    0.449
        71 -10.7351    175.7251     44.3216   5.3327758911e+01   3.5673508406e+01    0.4025288    0.2509733 -45.06  0.001847721    1.625    0.385
        72 -11.0534    181.8421     43.2433   5.2013518924e+01   3.4264315995e+01    0.3483507    0.2501311  63.02 0.0003854141    1.348    0.258
        73 -11.3419    157.2558     43.5262   5.6386688402e+01   4.0493406877e+01    0.3520297    0.2630322  50.81 0.0008197845    1.296    0.228
        74 -11.4481    122.3092     43.6378   6.4131157825e+01   4.9049425121e+01    0.2978898    0.2622875   0.97 0.0006396146    1.159    0.137
        75 -10.7925    203.2701     43.5599   4.8962819708e+01   2.8831552171e+01    0.3475105    0.1246403  61.08  0.001283044    2.639    0.621
        76 -12.5824    216.5490     38.7112   4.6003131066e+01   2.6246984632e+01    0.7189463    0.2876745  61.26    0.0029331    2.414    0.586
        77 -11.2607    197.1176     40.4363   4.8952677708e+01   3.0788153257e+01    0.4341012    0.2736982 -53.10   0.00204594    1.609    0.379
        78 -11.5778    203.1814     37.5551   4.7355835526e+01   2.9662634514e+01    0.6567464    0.3427018  61.73   0.00295396    1.852    0.460
        79 -10.6249    159.9140     36.2243   5.3558450469e+01   4.0808930375e+01    0.2265791    0.2131006  69.54 0.0003003749    1.014    0.014
        80  -9.6329    140.7775     34.8004   5.6771113031e+01   4.5818061045e+01    0.2537519    0.1356527  27.95 0.0009458066    2.751    0.637
        81  -9.7277    138.5377    152.4891   9.1047030203e+01   2.3353275429e+01    0.1488407    0.1465094  66.83 0.0008093584    1.009    0.009
        82 -13.0251     49.7573    141.9564   1.1203529971e+02   4.0313632262e+01    0.9147764    0.5750784  34.50  0.004820405    1.778    0.438
        83  -9.9764     90.4909    145.5062   1.0180809995e+02   3.3775038144e+01    0.1446431    0.1340513 -80.76 0.0008105549    1.014    0.014
        84 -11.5377    213.9272    142.3070   7.2449808171e+01   9.6821738716e+00    0.5764073     0.333759  60.10  0.002399903    2.382    0.580
        85 -11.5534     75.8285    140.9948   1.0489173917e+02   3.7126693181e+01    0.4007987    0.2409456 -86.89  0.001726027    2.176    0.540
        86 -11.6227     76.4783    137.5030   1.0408319544e+02   3.7879739137e+01     0.315242      0.21976 -60.33  0.001096199    1.316    0.240
        87 -11.2051     33.6249    135.9095   1.1548978353e+02   4.3497917616e+01    0.2365378    0.1806306  54.41  0.001441846    1.389    0.280
        88 -10.8415    176.5339     33.4523   4.9948116111e+01   3.6918269242e+01    0.2748497    0.2428863  59.23  0.000630484    1.113    0.101
        89  -9.7943     97.2511     33.9831   6.7319984455e+01   5.5996280476e+01    0.1957862    0.1739066   3.93 0.0009439742    1.046    0.044
        90 -10.4412    151.4730     31.8264   5.3669502788e+01   4.3515221756e+01    0.3586876    0.2328287  73.93  0.001675311    1.649    0.394
        91  -9.8602    104.7569     29.3937   6.3350961675e+01   5.5004320145e+01    0.2721873    0.1528368  42.01 0.0009597788    1.685    0.406
        92  -9.8458    109.0326     27.9510   6.1639743195e+01   5.4237664591e+01     0.270628    0.1577557  39.48  0.001270305    1.659    0.397
        93  -9.5605    216.4812     28.4753   4.3405291751e+01   2.7575496575e+01    0.1347308    0.1217525 -75.02 0.0001789906    1.036    0.035
        94 -11.4701    241.8022     22.6957   3.9565478216e+01   2.2418134968e+01    0.3744363    0.2433412 -68.99  0.001025819    1.449    0.310
        95 -10.3283    235.3091     21.4225   3.9840405084e+01   2.4029259009e+01    0.3230103    0.1116802  68.29  0.001329463    2.769    0.639
        96 -11.6784    149.7596     21.7372   5.0632446320e+01   4.5136843307e+01    0.4088013    0.3303422  71.95  0.001648809    1.194    0.162
        97 -11.2991    153.7119     20.9818   4.9709317131e+01   4.4220008845e+01    0.3613973    0.2351325 -44.38  0.001341743    1.650    0.394
        98 -10.3090    139.2248     20.9766   5.2288470110e+01   4.7860583380e+01    0.2470837    0.1898187  60.13 0.0005776862    1.202    0.168
        99 -10.8989    208.9851     19.1045   4.1816192809e+01   3.0503058028e+01    0.3441533    0.2548779 -58.79  0.001442459    1.264    0.209
       100 -11.4725     82.1492    134.4928   1.0195620773e+02   3.7755845566e+01     0.251454    0.1945475 -43.88  0.001305185    1.362    0.266
       101 -10.8828    224.9858    134.1829   6.8565960878e+01   8.8716579876e+00    0.2461796    0.1632404  17.03  0.001102512    2.018    0.505
       102 -11.3313    248.5286    130.0131   6.3711944997e+01   4.9800918527e+00    0.2481283    0.2072543  77.34  0.001402864    1.645    0.392
       103 -10.9438    122.1054    127.3080   8.9534044122e+01   3.2361701912e+01    0.3824697    0.3630753 -83.80  0.001264079    1.064    0.060
       104 -12.2349    204.1392    124.9306   7.0188076100e+01   1.4930125204e+01    0.4278187    0.3738428 -66.90  0.002239417    1.322    0.243
       105 -12.3738    218.9396    120.6003   6.6420483965e+01   1.2517185944e+01    0.3550173    0.2936125 -12.89  0.001867662    1.261    0.207
       106  -9.8097    193.3070    113.3358   6.9394623504e+01   1.9541037925e+01    0.1578666    0.1211016   4.87 0.0002898828    1.673    0.402
       107 -10.2201    250.4663    108.5106   5.8532295262e+01   8.0835421960e+00    0.1391609    0.1206258 -32.47 0.0008096127    1.008    0.008
       108  -9.9872    123.9994    206.0016   1.0379013834e+02   1.4753263631e+01    0.1842595    0.1636748  53.13            0    1.019    0.019
       109  -9.7537    240.6482     34.1090   4.2297911831e+01   2.1254328999e+01    0.1830153    0.1504435 -47.16  0.000566985    1.120    0.107
       110  -9.2694    246.4878    183.4924   7.5417633639e+01  -2.9666011015e+00     0.129874    0.1086205  -4.29 0.0008104133    1.023    0.022
       111 -10.2693     33.9766    177.4886   1.2003550837e+02   3.3721023065e+01    0.1709966    0.1157301  38.83  0.001034916    1.599    0.374
