#   1 NUMBER                 Running object number                                     
#   2 MAG_AUTO               Kron-like elliptical aperture magnitude                    [mag]
#   3 X_IMAGE                Object position along x                                    [pixel]
#   4 Y_IMAGE                Object position along y                                    [pixel]
#   5 X_WORLD                Barycenter position along world x axis                     [deg]
#   6 Y_WORLD                Barycenter position along world y axis                     [deg]
#   7 A_WORLD                Profile RMS along major axis (world units)                 [deg]
#   8 B_WORLD                Profile RMS along minor axis (world units)                 [deg]
#   9 THETA_WORLD            Position angle (CCW/world-x)                               [deg]
#  10 FWHM_WORLD             FWHM assuming a gaussian core                              [deg]
#  11 ELONGATION             A_IMAGE/B_IMAGE                                           
#  12 ELLIPTICITY            1 - B_IMAGE/A_IMAGE                                       
         1 -11.5848      9.5198     24.6934   1.1936460044e+02   6.8272632853e+01    0.4943917    0.3430269 -49.82  0.003558858    1.530    0.346
         2 -10.9041     34.7312     20.2648   1.0698107500e+02   6.6664042876e+01    0.4985892    0.2294014 -44.11  0.002670248    2.375    0.579
         3 -10.5463    107.8971     18.6664   8.2421839371e+01   5.4966229027e+01     0.303374      0.19999  -4.67  0.001163924    1.711    0.415
         4 -12.2595    130.8219     14.4583   7.5855021267e+01   5.0370689806e+01    0.4793386    0.2923396  28.70  0.001805187    1.837    0.456
         5 -10.6186     75.9433     16.7841   9.0616592031e+01   6.1260438359e+01    0.3000053    0.1803847  18.94  0.001159476    1.731    0.422
         6 -12.3035     26.1461     13.5429   1.0778070283e+02   6.8479193244e+01      0.26509    0.1844801   8.97 0.0003724284    1.303    0.232
         7 -10.5165     23.0542      9.2402   1.0727401515e+02   6.9349991426e+01    0.1782642    0.1256223 -14.48 0.0003835518    1.064    0.060
         8 -10.4434     19.6270     16.2298   1.1172056442e+02   6.8732420754e+01    0.3236999    0.1246655 -29.59  0.001097723    2.434    0.589
         9  -9.6239    175.5980     12.2027   6.7695046121e+01   3.9884529665e+01    0.1601533    0.1308793  -1.60 0.0003669685    1.554    0.357
        10 -11.4172    119.8613     11.5963   7.7155675479e+01   5.3101694452e+01    0.2689927    0.2052153  23.73 0.0002848388    1.308    0.236
        11 -11.0781     75.0070      4.9963   8.6079121192e+01   6.2620833356e+01    0.4598474    0.1968412 -26.78  0.002343091    2.362    0.577
        12 -11.0325     78.4676      9.6688   8.6962256368e+01   6.1565716776e+01     0.357431    0.1876828  47.33   0.00157834    1.767    0.434
        13  -9.5224     59.0063     10.0000   9.3402540497e+01   6.4738153953e+01    0.1501159    0.0950533  36.10 0.0007416823    1.472    0.321
        14  -9.9381      3.1328     10.2157   1.1677607099e+02   7.0881178969e+01    0.1939244    0.1181499 -61.60  0.000989329    3.443    0.710
        15 -10.0955    107.8258      9.5845   7.9137693716e+01   5.5873538802e+01    0.1923599     0.152009  19.51 0.0003813617    1.210    0.174
        16 -11.7130     81.3826      6.0775   8.4648496662e+01   6.1383354737e+01     0.259731    0.2017234  10.57  0.000215248    1.146    0.127
        17 -11.1768    129.4511      7.5859   7.3845221489e+01   5.1320567216e+01    0.3181049    0.2059735  83.69 0.0008628864    1.968    0.492
        18  -9.4962     37.1844      8.5858   1.0101550584e+02   6.7875637543e+01    0.1448499   0.08653303  17.29 0.0004283765    1.565    0.361
        19 -10.5745      9.5437      6.9457   1.1240576552e+02   7.0859076590e+01    0.2603092    0.1196454 -31.78  0.001434373    1.700    0.412
        20  -9.9466    115.5580      4.4204   7.5565454017e+01   5.4676104950e+01     0.239461    0.1233117 -18.39  0.001207027    2.188    0.543
        21  -9.4960     59.1816      5.3029   9.1310316584e+01   6.5198518725e+01    0.2372159   0.07969425  39.50  0.001099529    2.655    0.623
        22  -9.5079    120.5178      4.5011   7.4566849709e+01   5.3584993590e+01    0.1257286    0.1100649  48.91 -7.993723e-05    1.056    0.053
        23  -9.4565    100.6440      3.7729   7.8687159510e+01   5.7865196923e+01    0.1446013    0.1109763 -22.26 0.0003523582    1.439    0.305
        24 -10.6675     91.8049      3.9573   8.0960270262e+01   5.9608056681e+01    0.1964091    0.1478914  39.73 0.0003795329    1.128    0.113
        25 -11.6393     27.0742      3.2742   1.0284952775e+02   6.9660597190e+01    0.3651968    0.2053658  39.37  0.002270622    2.261    0.558
        26 -10.6440     31.0147      2.5061   1.0081435346e+02   6.9305038052e+01    0.2290388    0.1764552  45.76  0.001392501    2.139    0.533
        27 -10.1813     18.7368      3.9534   1.0684859347e+02   7.0435227780e+01    0.1452544     0.101636 -16.60 0.0003022466    1.081    0.075
        28  -9.5175    124.4456      1.4162   7.2741651690e+01   5.2964577116e+01    0.1246127     0.107712  53.93 9.968546e-06    1.060    0.056
        29 -10.3077     88.1208    227.1540   1.3635957819e+02   1.6523197019e+01    0.1785243    0.1656701  71.51  0.001228355    1.285    0.222
        30 -11.2563    246.9359    250.1577   1.0993277693e+02  -1.3635061856e+01    0.4212214    0.2027874  30.48  0.002310903    1.810    0.447
        31 -12.5094    227.0862    246.6503   1.1284595159e+02  -1.0205565380e+01    0.6472636    0.4786141  24.67  0.004252706    1.113    0.101
        32 -10.1418    127.9126    249.6243   1.3152773297e+02   5.9848978739e+00    0.1847887    0.1677903 -59.20  0.001002601    1.380    0.275
        33  -9.7911     72.8269    250.1048   1.4135647445e+02   1.4444449129e+01    0.1491585    0.1422607 -47.31  0.001110208    1.714    0.416
        34 -10.2313     31.4459    250.2534   1.4814305150e+02   1.9791476415e+01    0.1672276   0.09126446  67.98 0.0008288231    1.401    0.286
        35 -12.5907     19.4072    247.9402   1.4986880320e+02   2.1585525331e+01    0.7668397    0.1933125  54.62  0.003720694    3.011    0.668
        36 -11.6245     27.8700    246.0589   1.4844114606e+02   2.0973606028e+01    0.4994668    0.1739147 -74.13  0.002686319    2.553    0.608
        37 -11.5784     34.1690    241.4038   1.4712938813e+02   2.1099889277e+01    0.4682195    0.2280254  45.26  0.002874895    1.876    0.467
        38 -10.4076     31.8133    237.2992   1.4723394668e+02   2.2151319635e+01    0.2894245    0.1804429  82.64  0.001155325    1.245    0.197
        39 -10.4392     29.1830    233.1460   1.4738274029e+02   2.3249060720e+01    0.5094918   0.09263072  43.85  0.002170756    3.800    0.737
        40 -10.6924     10.9383    250.2786   1.5127563690e+02   2.2080251737e+01    0.3286366    0.1408559  47.30  0.002109439    1.971    0.493
        41 -10.7349      6.1849    244.9751   1.5171120956e+02   2.3532197447e+01    0.2811977    0.1373925  75.29  0.001014307    1.563    0.360
        42 -11.7263      8.5183    241.7437   1.5118956431e+02   2.3882583436e+01     0.397098     0.175756  73.84  0.002432991    1.854    0.461
        43 -10.4920     66.4292    226.4369   1.4032838161e+02   1.9840177520e+01     0.255369    0.1564052  50.03  0.001029285    1.452    0.311
        44  -9.6245      6.6640    227.3048   1.5067787663e+02   2.6783516116e+01    0.1150558   0.05539736  69.17 0.0004965612    1.669    0.401
        45 -10.4067    144.0478    226.5184   1.2541368858e+02   7.2567284800e+00    0.2012826    0.1147506  45.11 0.0004104115    1.517    0.341
        46 -10.3882     81.3385    224.7261   1.3737816041e+02   1.8030072959e+01    0.2379168     0.156289  80.87 0.0009248391    1.453    0.312
        47 -10.3291    181.0017    223.9836   1.1774687360e+02   9.8798995442e-01    0.2047814    0.1555394   8.17 0.0006160578    1.641    0.391
        48 -10.8004     13.1164    222.1302   1.4931564823e+02   2.7135623828e+01    0.1816944    0.1410902 -88.92 0.0003724312    1.232    0.188
        49 -11.2149    141.4355    221.3629   1.2517817525e+02   8.6761851872e+00    0.2890012    0.2295299  19.71  0.001333498    1.622    0.384
        50 -10.9492    123.3741    221.5161   1.2880480125e+02   1.1847194901e+01    0.2653808    0.2234954  59.84 0.0009603842    1.023    0.023
        51 -10.2399    174.1893    219.9035   1.1841527913e+02   2.9319818979e+00     0.246263    0.1849438  33.67 0.0007692435    1.258    0.205
        52  -9.5457    250.2827    219.0526   1.0393230478e+02  -1.0185483742e+01    0.1726357    0.1405879  -7.03 0.0007078373    1.102    0.092
        53  -9.7023     50.4585    218.3083   1.4250084916e+02   2.3612449580e+01    0.1952919    0.0964039  42.63  0.001017774    1.974    0.493
        54 -10.8533     10.0384    217.0251   1.4950403026e+02   2.8452728198e+01    0.2704551    0.1510582  66.29  0.000997084    1.443    0.307
        55 -10.5694    191.5385    216.9748   1.1449999958e+02   2.2818542216e-01    0.2254316    0.1768541  20.43  0.001280063    1.310    0.237
        56  -9.4598     37.8195    217.2130   1.4469850859e+02   2.5392031801e+01    0.1452534     0.119995 -79.13 0.0005271689    1.323    0.244
        57 -10.0134     24.5594    216.9110   1.4701696481e+02   2.6962377908e+01    0.2379714    0.1042626  57.64  0.001327644    1.982    0.495
        58 -10.5544    201.5188    215.9010   1.1236957682e+02  -1.4199201940e+00     0.248272     0.169521  24.57   0.00131026    1.511    0.338
        59 -10.1139    234.7760    216.5965   1.0624987730e+02  -7.3371662199e+00    0.1751306    0.1132622  47.39 0.0008518254    1.707    0.414
        60 -10.4186    208.9746    212.1438   1.1025706685e+02  -2.1643322373e+00    0.2125363    0.1900093 -16.62 0.0004959691    1.158    0.136
        61 -10.1420    170.2041    213.1667   1.1808802088e+02   4.8668077768e+00    0.1877219    0.1556537  65.95 0.0009666668    1.306    0.234
        62  -9.7124    142.8353    213.2041   1.2365968753e+02   9.9702172725e+00    0.1786535    0.1588859  21.69 0.0005574466    1.327    0.247
        63 -10.8322     20.6429    211.6008   1.4731351105e+02   2.8457316179e+01    0.2919275    0.1477529  75.82 0.0008713537    1.750    0.429
        64  -9.3687    213.0258    212.0259   1.0946077954e+02  -2.8755935688e+00    0.1587286    0.1409138  17.51  0.000505688    1.013    0.012
        65 -11.9967      4.4863    207.4654   1.4983378992e+02   3.0899614603e+01    0.4240072    0.2354188  85.76  0.002795406    1.377    0.274
        66  -9.2869    238.5258    201.4418   1.0271443447e+02  -5.7086029055e+00    0.1331376     0.112431   6.11 0.0001355345    1.061    0.058
        67  -9.1020     34.6645    200.7474   1.4387241533e+02   2.9180966724e+01    0.1003512   0.08730105 -56.59 0.0002390562    1.565    0.361
        68 -10.5587    227.1956    196.7630   1.0388990503e+02  -2.9762074969e+00    0.2697202    0.1982859  -3.17  0.000763892    1.506    0.336
        69 -11.5843    192.2197    194.7486   1.1030587636e+02   3.9781502915e+00    0.3483663    0.2941494 -75.71  0.001899336    1.519    0.342
        70  -9.7768    203.0058    195.9572   1.0838367465e+02   1.6727844110e+00    0.2114327    0.1965374  16.36 0.0006059317    1.018    0.018
        71  -9.9958    206.0000    205.9953   1.0969944757e+02  -6.1034688379e-01     0.211648   0.07717454 -41.23 0.0008016339    2.937    0.660
        72 -11.1943    215.4541    194.0831   1.0559099385e+02  -3.6833261380e-01    0.3628394     0.185404 -38.60  0.001516671    2.017    0.504
        73 -10.9710    232.5485    191.3074   1.0181998831e+02  -3.0577216854e+00    0.3165925    0.2006908  22.78  0.001562906    1.762    0.432
        74  -9.9643    163.0000    191.4461   1.1574341893e+02   1.0386810972e+01    0.3106883   0.08310178 -47.74 0.0009427741    4.000    0.750
        75 -11.3445    187.5770    189.3388   1.1020553271e+02   5.8947141540e+00    0.3761148    0.1794046 -36.12  0.001496281    2.438    0.590
        76  -9.7299    250.4692    190.0159   9.8342771608e+01  -5.9910521842e+00    0.1955629    0.1192558 -34.18 0.0005195271    1.561    0.359
        77  -9.5424    205.6042    190.2381   1.0675308570e+02   2.1803700143e+00    0.1872359    0.1309904 -27.01 0.0005650265    1.560    0.359
        78 -10.7113    225.6487    188.9654   1.0263625664e+02  -1.4095123010e+00    0.3209032    0.1751337  11.62  0.001086165    4.008    0.751
        79 -10.2529    218.3508    187.3557   1.0369779160e+02   2.3450243245e-01    0.3390985    0.1242282 -44.37  0.001245395    2.943    0.660
        80 -11.9095     16.3979    183.7314   1.4589765552e+02   3.4734981276e+01    0.4430095    0.2029525 -86.13  0.002352022    1.927    0.481
        81 -11.3633    248.2160    182.5606   9.7238081369e+01  -4.4354582219e+00     0.493391    0.2032919  30.14  0.001793081    3.498    0.714
        82 -10.0484    236.4876    182.4670   9.9315282384e+01  -2.3243279317e+00     0.135891    0.1230829  -2.02 0.0003073841    1.012    0.012
        83 -10.4582    167.8725    184.1205   1.1331971785e+02   1.0877196704e+01    0.4552566    0.2389612  64.30  0.001567119    3.262    0.693
        84  -9.8587    188.6143    180.6926   1.0827500395e+02   7.3290296891e+00    0.1538143    0.1127227  10.01 0.0007018778    1.804    0.446
        85 -10.3796      2.1376    180.1289   1.4835199230e+02   3.6777223731e+01    0.1845785    0.1320954  74.18   0.00055837    1.197    0.165
        86 -11.3704    244.6321    177.9309   9.6922877818e+01  -3.0541008333e+00     0.307586     0.158878 -25.21  0.001338173    2.190    0.543
        87 -11.3777    224.2460    178.3373   1.0073459578e+02   6.6883851378e-01    0.2870847    0.2610367  15.46 0.0005341058    1.048    0.046
        88  -9.3288     36.2333    178.4473   1.4139028256e+02   3.3863457474e+01    0.1532766   0.09967419  58.27 0.0005169031    1.487    0.327
        89 -10.7326    200.2481    176.5953   1.0505874621e+02   5.7384037960e+00    0.2464701     0.178729 -14.73 0.0008354889    1.710    0.415
        90  -9.4761     70.2155    177.5987   1.3395278988e+02   2.9795936289e+01    0.1534172    0.1285605  32.96 0.0004239748    1.490    0.329
        91  -9.7741    211.3642    174.8352   1.0248164643e+02   3.8204534420e+00    0.2095236    0.1307046 -28.36 0.0009462851    1.769    0.435
        92  -9.9136    241.6897    173.6575   9.6560187579e+01  -1.8142057777e+00    0.1429735    0.1010012   0.45 0.0004619519    1.697    0.411
        93  -9.4349     61.7670    184.9886   1.3674862396e+02   2.9283837791e+01    0.1741572   0.09463493 -68.77 0.0008838265    1.648    0.393
        94  -9.5519    193.3433    172.3279   1.0557500295e+02   7.9712872997e+00    0.1539236    0.1153933   5.97 0.0007050976    1.744    0.427
        95  -9.6225     59.6173    171.7640   1.3552876272e+02   3.2571617615e+01    0.1879091    0.1088633 -78.52 0.0009460008    1.642    0.391
        96  -9.6803     74.4953    171.4796   1.3212276137e+02   3.0589686561e+01    0.1356583    0.1171987 -86.98 5.448669e-05    1.022    0.022
        97  -9.9496    197.2969    169.3438   1.0413438940e+02   7.7265670102e+00    0.1510591    0.1153848   0.71 0.0007033597    1.669    0.401
        98  -9.8014      4.5200    168.0133   1.4691102246e+02   3.9183914925e+01    0.1831077   0.08603771 -75.69  0.001038777    1.610    0.379
        99  -9.7589    209.9855    166.3185   1.0094378977e+02   5.6750014722e+00    0.2057506    0.1858453  29.03 0.0005382351    1.094    0.086
       100 -10.6049     52.4764    163.5354   1.3604669706e+02   3.5370158551e+01     0.499512    0.2576315 -33.90  0.001813983    4.677    0.786
       101 -10.3180     40.9908    165.0493   1.3883953049e+02   3.6362544188e+01     0.201103    0.1252668  75.91  0.000473016    1.646    0.392
       102 -10.0719     10.1123    165.1974   1.4551664042e+02   3.9337054113e+01    0.1596544    0.1060523  80.90 0.0003896485    1.299    0.230
       103  -9.0937    229.4873    164.5436   9.6843707586e+01   2.0735160260e+00    0.1424695    0.1303543  -5.27  0.000180896    1.042    0.040
       104 -10.5938     36.3015    161.4143   1.3944906211e+02   3.7702296569e+01    0.4222095    0.1318176 -64.78   0.00178534    2.520    0.603
       105 -10.9737    246.5016    162.4790   9.3359122144e+01  -8.2617552588e-01    0.1975231    0.1700623 -66.46 2.302805e-05    1.488    0.328
       106 -11.1536    248.1167    159.1076   9.2361664572e+01  -5.5678928074e-01    0.2860171    0.2415264 -42.59  0.001653107    1.206    0.171
       107 -10.2227    238.4852    158.4957   9.3910108988e+01   1.3810951188e+00    0.1421668    0.1277175 -10.37 0.0008097084    1.062    0.059
       108 -10.0503      8.0457    158.4469   1.4531819709e+02   4.0992453271e+01    0.1367581    0.1136493  40.11 0.0005618986    1.527    0.345
       109 -10.8900     21.9401    156.2377   1.4206389373e+02   4.0293816597e+01    0.3472553    0.2266013  51.68  0.002176083    1.632    0.387
       110  -8.6118     23.7046    152.6641   1.4126150283e+02   4.0939447536e+01    0.2186919   0.08210347 -62.43 0.0006275918    2.075    0.518
       111  -9.4504    178.6213    155.6763   1.0508412205e+02   1.4451089860e+01    0.1612972     0.121842   7.21 0.0007023644    1.832    0.454
       112  -9.2512    235.6677    154.6908   9.3584240137e+01   2.6017294232e+00    0.1458041    0.1081152   4.40 0.0005090314    1.670    0.401
       113  -9.6095    217.2565    154.6252   9.6973246387e+01   6.3577317773e+00     0.284253    0.1409734  50.72  0.001139863    2.156    0.536
       114 -10.0069    205.4205    152.2972   9.8760573688e+01   9.3087456956e+00    0.2894123    0.1436928 -36.04  0.001126236    2.093    0.522
       115 -10.0425    197.2245    153.6112   1.0070905887e+02   1.0820706498e+01    0.2183625     0.139622  36.88 0.0008932803    1.667    0.400
       116  -9.3566    151.6684    153.3313   1.1059749595e+02   2.0772925583e+01    0.1610153     0.120951  86.43 0.0007052066    1.723    0.419
       117 -10.3505     11.5144    152.6911   1.4399567185e+02   4.1987441179e+01    0.3915591    0.1483961  45.08  0.001970284    2.804    0.643
       118 -10.4367    178.2320    151.4300   1.0421779827e+02   1.5418750339e+01    0.3312463    0.2716575  78.01  0.001605832    1.442    0.306
       119  -9.3867     46.1722    151.3271   1.3584285618e+02   3.8943881823e+01     0.168833    0.1054683  50.02 0.0004316451    1.713    0.416
       120  -9.7072     92.9778    148.2353   1.2378949407e+02   3.3181669565e+01     0.184136    0.1194861  41.99 0.0008792681    1.622    0.383
       121  -9.3941    233.5231    146.9552   9.2259414981e+01   4.4141256230e+00    0.2231008     0.134595 -36.88  0.001022472    1.565    0.361
       122 -10.6087    206.8930    145.9685   9.7032486572e+01   1.0218747835e+01    0.2578651    0.2171715  44.90 0.0007520563    1.209    0.173
       123 -10.6562      7.6187    145.2424   1.4408801315e+02   4.3948714128e+01    0.2212032     0.125377  54.44  0.001023827    1.935    0.483
       124 -10.9477      4.3065    142.1533   1.4451435914e+02   4.4876483419e+01    0.3193505    0.1542894 -59.03  0.001834542    1.716    0.417
       125 -11.6929      3.7597    136.1152   1.4399421761e+02   4.6250236200e+01     0.528197    0.1835054 -53.37  0.001879218    2.541    0.606
       126 -11.7035      9.0798    136.7710   1.4281681456e+02   4.5725355485e+01    0.2171739    0.1930066 -52.58 0.0002470761    1.325    0.245
       127  -9.9126     37.5256    142.2904   1.3666041531e+02   4.1972682901e+01    0.1961364    0.1145558  32.03  0.001067926    2.057    0.514
       128 -10.4114    212.3851    141.8647   9.5020200438e+01   9.8154573755e+00     0.388557    0.2775253  15.82  0.001733569    1.908    0.476
       129  -9.6244     49.9896    141.4961   1.3344710075e+02   4.0797226638e+01    0.1679671    0.1130482 -13.37 0.0008104911    2.641    0.621
       130 -10.6800    236.1716    138.7339   8.9951256760e+01   5.3545403982e+00    0.2434237    0.2235068 -44.09 0.0006028815    1.074    0.069
       131 -10.9786     57.5838    138.5734   1.3104529739e+02   4.0571902640e+01    0.3169139    0.2139953  76.48 0.0006215525    1.745    0.427
       132  -9.4419     16.6489    139.6910   1.4136649750e+02   4.4483728278e+01    0.1200297   0.07538803 -47.13 0.0004572812    1.715    0.417
       133  -9.2493     44.3076    137.9469   1.3432711910e+02   4.2262462141e+01    0.2168212   0.09449903 -85.19 0.0007040213    4.349    0.770
       134 -10.2301     21.9116    136.1441   1.3965119391e+02   4.4847122953e+01    0.1874938    0.1407749  84.51  0.001027996    1.280    0.219
       135  -9.8978    138.3341    135.2717   1.0968570772e+02   2.7631045019e+01     0.283064    0.1889571  33.67 0.0007433451    1.716    0.417
       136  -9.5984     40.9518    135.5510   1.3480937053e+02   4.3176879324e+01    0.1641295    0.1282873  32.60  0.001013638    1.553    0.356
       137  -9.7782     80.0061    133.4838   1.2426352755e+02   3.8702210740e+01    0.1919917    0.1397789  40.42  0.000453951    1.501    0.334
       138 -12.1420     36.6198    130.8882   1.3520125995e+02   4.4695410386e+01     0.373536    0.2758627 -64.86   0.00167564    1.111    0.100
       139 -10.2911    124.7973    130.3429   1.1189918698e+02   3.1536890973e+01    0.4304235    0.2732942   6.40  0.001407772    3.797    0.737
       140  -9.6636     29.0211    130.7349   1.3712830471e+02   4.5452665583e+01    0.1643406    0.1371676 -67.93            0    1.072    0.067
       141 -10.3516    249.5813    129.9125   8.5731441868e+01   4.1989576075e+00    0.2556182     0.216398  65.53 0.0009888449    1.371    0.271
       142  -9.9162     73.9368    129.4921   1.2508656197e+02   4.0527998439e+01    0.2193128    0.1696271 -59.50   0.00061184    1.152    0.132
       143  -9.4059    243.0095    128.4716   8.6476801662e+01   5.7843483133e+00    0.1956332    0.1430224  51.69 0.0004760549    1.495    0.331
       144  -9.5061     60.0734    128.5399   1.2862066139e+02   4.2610694562e+01    0.1723652    0.1334883  38.47 0.0003881087    1.470    0.320
       145 -10.4132    219.6581    124.5428   8.9607985119e+01   1.1508875882e+01    0.2772294     0.255566 -41.83  0.000562469    1.033    0.032
       146  -9.5973     44.6590    125.7003   1.3224304761e+02   4.5063793148e+01     0.129862   0.08833198 -38.19 0.0007035936    1.669    0.401
       147 -10.4525     10.6623    102.1194   1.3770524843e+02   5.3280986058e+01    0.3835188    0.1985431  83.32  0.001795034    3.064    0.674
       148 -11.6333     10.7038    122.3372   1.4063530879e+02   4.8825125222e+01    0.4408311    0.2798391 -21.43  0.002618308    2.320    0.569
       149 -10.6792     17.7112    116.0067   1.3790908019e+02   4.9723871306e+01    0.2882806    0.1850498 -81.14  0.001329598    1.457    0.314
       150 -10.3500     19.9968    112.7765   1.3679366357e+02   5.0269458823e+01    0.1970517    0.1488975 -38.19 0.0009059283    1.431    0.301
       151 -12.1336     16.7246    108.4814   1.3701631521e+02   5.1468132391e+01    0.3338322    0.2903608 -55.98 0.0005527785    1.148    0.129
       152  -9.6464    221.5487    120.0043   8.8191826672e+01   1.1937061683e+01    0.2345732    0.1413931 -37.90  0.001025764    1.589    0.371
       153  -9.3811    209.6601    118.3017   8.9955808955e+01   1.4956361127e+01    0.1566236    0.1188455 -77.97 0.0007037652    1.671    0.401
       154  -9.9573    179.1828    116.2661   9.5560950217e+01   2.2499473535e+01    0.2293237    0.2134927  28.32 0.0005563471    1.153    0.133
       155  -9.3532     86.2859    116.6328   1.1895710098e+02   4.1654224561e+01    0.1458185    0.1089585 -88.77  0.000702033    1.699    0.411
       156  -9.1932     63.3225    114.6922   1.2499210092e+02   4.5403614352e+01    0.1412065    0.1217835 -52.54 0.0004290257    1.055    0.052
       157 -10.5847     66.8123    113.0018   1.2363868429e+02   4.5332233252e+01    0.1956744    0.1892822 -75.72 0.0002591696    1.107    0.097
       158 -11.4152     36.0055    110.9834   1.3202531474e+02   4.9296921338e+01    0.5427595    0.2491536 -60.19    0.0018522    1.740    0.425
       159  -9.4870      5.3137    113.4363   1.4083818464e+02   5.1151069854e+01    0.1403713    0.1015749  48.73 0.0009487545    1.684    0.406
       160  -9.7161     54.7489    117.4433   1.2796626768e+02   4.5831707651e+01    0.1632054    0.1303104   3.82 0.0008132766    1.635    0.388
       161  -9.6335    106.5518    110.5471   1.1188011315e+02   3.9542365668e+01    0.1473581    0.1396501 -48.18 9.001087e-05    1.013    0.013
       162  -9.7416     42.5065    110.4778   1.3007953614e+02   4.8769965835e+01    0.1291537    0.1075686 -60.68  0.000260454    1.008    0.008
       163  -9.5082    167.3864    108.8276   9.6217119874e+01   2.6804297760e+01    0.2179472    0.1500024 -30.52 0.0004630948    1.620    0.383
       164 -10.3986    242.0082    108.1890   8.2005351069e+01   9.5826306561e+00    0.2312701    0.1627801 -83.25  0.000690301    1.941    0.485
       165 -11.8571     62.1626    106.7308   1.2360520120e+02   4.7360471173e+01     0.400221    0.2018126 -48.38 0.0005470467    1.744    0.427
       166 -11.1548     23.2778    107.0264   1.3493610160e+02   5.1290463784e+01    0.2243381    0.1817182 -61.03 0.0004869497    1.029    0.028
       167  -9.5056    133.4568    107.5056   1.0397089709e+02   3.4800153709e+01    0.1531062    0.1490089 -25.03 0.0001000446    1.053    0.051
       168  -9.0563     49.6041    107.2983   1.2739660069e+02   4.8729441236e+01    0.1309543   0.09507228  74.60 8.063552e-05    1.806    0.446
       169 -10.4072      6.3807    106.2170   1.3952913614e+02   5.2661871893e+01     0.243677     0.147947 -64.68 0.0007710234    1.232    0.188
       170 -10.8472      2.8275    105.1516   1.4034909062e+02   5.3106891790e+01    0.2425111    0.1541183 -79.20 0.0004495868    1.390    0.281
       171  -9.9061    223.3323    103.9929   8.4045755319e+01   1.4480850693e+01    0.2144665    0.1792067 -45.19  0.000532098    1.127    0.113
       172 -10.2454     91.6217    101.2027   1.1367661648e+02   4.4243729195e+01    0.2071899    0.1234922 -40.71 0.0003150105    1.642    0.391
       173 -11.1754     70.5670    102.4327   1.2014000688e+02   4.7202567491e+01    0.3622362    0.2659573  10.32  0.001240256    1.757    0.431
       174 -10.8202    247.9709    102.2998   7.9751302276e+01   9.3309981771e+00    0.1958245    0.1851861 -78.12 0.0008281836    1.095    0.087
       175  -9.9056    120.1395    101.5408   1.0583842302e+02   3.8863362350e+01    0.2822551    0.1964274  -7.57  0.001164124    2.258    0.557
       176 -10.1410     36.0152    101.2613   1.3017207708e+02   5.1466105270e+01    0.2863707    0.1477651  40.15  0.001477048    2.326    0.570
       177 -10.4904     27.6601    100.9098   1.3257529146e+02   5.2283714858e+01    0.1818929    0.1705159  53.91 0.0006623625    1.300    0.231
       178  -9.3187     20.5335    121.5431   1.3798103785e+02   4.8263345660e+01    0.1222885   0.09570953 -67.78 0.0001351049    1.014    0.014
       179 -10.9315      3.7805    100.4761   1.3939551984e+02   5.4060611126e+01     0.264874    0.2192878 -82.88  0.001289486    1.214    0.176
       180 -10.9127     50.4416     99.3065   1.2543864601e+02   5.0417363498e+01    0.2149117    0.1887944 -64.22 0.0003485413    1.112    0.101
       181 -11.0108     20.7545     97.6071   1.3400536558e+02   5.3554186388e+01    0.5111663    0.1536042 -70.69  0.001723743    4.427    0.774
       182 -10.7354     62.0256     98.4752   1.2174963116e+02   4.9214582446e+01    0.2727212    0.1735581  13.86  0.001288621    2.147    0.534
       183 -10.0970     92.5583     95.9026   1.1200801994e+02   4.5231598012e+01    0.2250713    0.1316264 -46.59 0.0009973748    1.589    0.371
       184 -10.5980     38.7925     96.0775   1.2827221808e+02   5.2340603665e+01    0.1853422    0.1794423 -25.42 0.0003893642    1.190    0.159
       185  -9.7948      3.2175     85.7945   1.3717633966e+02   5.7208943760e+01    0.2536623    0.1611469  24.72  0.001684658    2.015    0.504
       186 -11.3473      8.3447     94.8802   1.3719144223e+02   5.4989503409e+01    0.3425608    0.1979375 -38.59 0.0003257332    1.731    0.422
       187 -10.7757     10.5962     91.1915   1.3588658854e+02   5.5636632878e+01    0.2241385    0.1675443   5.62  0.001547552    1.717    0.418
       188 -10.5947      7.0863     88.8454   1.3653282626e+02   5.6348317631e+01    0.1718472    0.1465022 -74.30 0.0003376721    1.198    0.165
       189 -10.5383    109.4281     92.9202   1.0638025466e+02   4.2798020867e+01    0.3646216    0.1377574 -42.91  0.001119394    2.571    0.611
       190 -10.2544      1.5227     93.9325   1.3903014238e+02   5.5586321449e+01    0.2227677   0.07752809 -62.41  0.001117507    1.985    0.496
       191  -9.9541    227.0666     93.3156   8.0858070632e+01   1.5527268569e+01    0.2000271    0.1825031  83.85 0.0003797438    1.115    0.103
       192  -9.4019    171.3253     91.3164   9.0664171037e+01   2.9312412000e+01     0.157948    0.1239999  15.24 0.0007044086    1.671    0.401
       193 -10.5928     96.5026     90.3575   1.0934048829e+02   4.5717853099e+01     0.329143    0.2146298  -0.89   0.00134547    2.623    0.619
       194  -9.1001     21.2924     91.3416   1.3266314799e+02   5.4866171945e+01    0.1270682   0.07049454 -41.70 0.0004706392    1.654    0.395
       195  -9.6160     73.1499     88.8058   1.1591429709e+02   4.9789428913e+01    0.1765766    0.1453456 -22.49  0.000308445    1.248    0.199
       196 -10.1163     49.4372     87.9869   1.2312315375e+02   5.2982752889e+01    0.2498122    0.1456063 -63.91 0.0006311102    1.785    0.440
       197 -10.6867     46.3554     82.9069   1.2285987224e+02   5.4388750616e+01    0.4849891    0.2335095 -58.80  0.002315301    1.969    0.492
       198 -10.3997    113.0867     86.6770   1.0358243175e+02   4.3354643552e+01    0.3050679    0.1840837  51.40 0.0009482545    1.818    0.450
       199 -10.1197     23.4986     86.2202   1.3094693754e+02   5.5788549659e+01    0.2923868    0.1281791 -30.82  0.001293896    3.101    0.677
       200 -11.3458    118.3217     82.9610   1.0106183798e+02   4.3029088859e+01    0.3778721    0.2948676 -13.29  0.001549847    1.499    0.333
       201 -11.1380     77.8913     71.9607   1.0962414668e+02   5.2480071797e+01    0.3461955    0.2750042  52.50  0.000697328    1.560    0.359
       202 -11.0686     85.2380     81.0900   1.1005176705e+02   4.9522934871e+01    0.3578456    0.2049283 -46.46  0.001223567    1.635    0.388
       203 -11.3080     23.6677     78.9641   1.2932931406e+02   5.7292840417e+01    0.3428541    0.1703113 -50.31  0.001300998    1.545    0.353
       204 -11.7952     19.8072     81.8191   1.3120236621e+02   5.6989360814e+01    0.3814931    0.2851786  24.75 0.0002319892    1.651    0.394
       205 -10.9210     15.5774     81.5165   1.3249750335e+02   5.7348890418e+01    0.3348729    0.1347836 -47.95   0.00172569    1.915    0.478
       206  -9.6528    132.8408     82.1627   9.7019800937e+01   4.0077130324e+01    0.2064016    0.1787698  -0.31 0.0006169759    1.294    0.227
       207  -9.8771    126.0237     80.3620   9.8241151819e+01   4.1907313345e+01     0.204626    0.1821747  44.52 0.0003444817    1.131    0.116
       208 -10.2385      2.4019     71.8175   1.3482866169e+02   6.0121243921e+01    0.2477371    0.1217738 -42.00  0.001363084    1.691    0.408
       209 -12.0792      3.3236     77.1121   1.3556116986e+02   5.8998643263e+01    0.4433904    0.3155386 -58.56  0.001486949    1.075    0.070
       210 -11.3726      7.7026     73.6523   1.3344782428e+02   5.9458691593e+01    0.3044297    0.2180164  -6.10   0.00211988    1.671    0.402
       211  -9.3504     92.5026     79.4967   1.0739020089e+02   4.8617950714e+01    0.1396731    0.1307034 -28.90 0.0008104196    1.036    0.035
       212 -11.1640    150.9442     78.5273   9.1572753112e+01   3.6597210971e+01    0.2823583     0.250032 -69.47 0.0004070406    1.229    0.186
       213 -11.2656    108.2854     75.7090   1.0165570286e+02   4.6434056870e+01    0.3644753    0.2617444 -10.69  0.001163903    1.753    0.429
       214 -12.4451     62.0029     72.9897   1.1506546619e+02   5.4546673184e+01    0.6061873    0.4186725 -21.64  0.002074429    1.556    0.357
       215 -10.3064     54.6940     72.2948   1.1728942094e+02   5.5601448169e+01    0.2131142    0.1822152 -77.08 0.0004098694    1.525    0.344
       216 -12.5714     72.1293     78.8904   1.1349365920e+02   5.1979133153e+01    0.4655603    0.3536641 -30.61 0.0005141527    1.247    0.198
       217 -12.1750     49.0756     70.2690   1.1860833788e+02   5.6654748162e+01    0.5586925    0.2948896 -33.92  0.001463584    1.881    0.468
       218 -10.7678     40.4157     72.9884   1.2228384645e+02   5.7033442966e+01    0.2864002    0.2116822 -61.35 0.0007296515    1.399    0.285
       219 -10.8596     36.9347     67.5239   1.2201563989e+02   5.8457539253e+01    0.3703644     0.204801 -45.27  0.001561491    1.462    0.316
       220 -11.2328     26.0465     69.3001   1.2624737003e+02   5.9066517218e+01    0.4762332    0.2925682 -72.10  0.002638613    2.064    0.515
       221 -10.8959     21.3489     65.8926   1.2702916848e+02   6.0106007268e+01    0.2506145    0.1663786  14.45  0.001291713    1.785    0.440
       222 -10.6662    152.4080     72.0824   8.9353142312e+01   3.7396732927e+01    0.2909452    0.2025676  38.58 0.0007448812    1.526    0.345
       223 -10.6421    115.9906     71.2999   9.8159615055e+01   4.5701340771e+01    0.3156356    0.2090847 -40.91  0.000582832    1.502    0.334
       224  -9.8667    175.0698     70.7267   8.4193888551e+01   3.2092166671e+01    0.2052943    0.1920773  57.78 0.0003221577    1.060    0.056
       225 -11.4110     68.9708     67.1810   1.1103896848e+02   5.4713552604e+01    0.4946736    0.2278648 -36.94  0.001168412    2.101    0.524
       226 -10.8884     70.4751     58.4957   1.0778392657e+02   5.6082257483e+01     0.268537     0.166014 -23.64 0.0007379252    1.723    0.420
       227 -10.4437    159.8049     69.4371   8.6955692254e+01   3.6067225937e+01    0.2979098    0.1477346  60.42  0.001138268    2.147    0.534
       228 -11.4042    130.2908     65.7296   9.2682765549e+01   4.3610762095e+01     0.642007      0.27428 -39.04  0.002457841    2.355    0.575
       229 -10.6864     96.1923     67.1755   1.0249954203e+02   5.0292456787e+01    0.5183162    0.2978525   8.54  0.001836797    3.690    0.729
       230 -11.4333     42.8541     65.8821   1.1950399980e+02   5.8184735642e+01    0.3566644    0.2476921 -62.71  0.002082846    1.665    0.399
       231 -11.3901     31.1755     66.2903   1.2369087983e+02   5.9228164652e+01    0.2813321    0.1889075 -53.83 0.0004600525    1.311    0.237
       232 -10.2356      6.6925     67.8820   1.3256727153e+02   6.0674973874e+01     0.175816    0.1284561 -30.60 0.0007393385    1.310    0.237
       233 -11.2555      2.2262     63.4675   1.3314516896e+02   6.1787698596e+01    0.4150119    0.2036416 -66.34  0.002383775    1.858    0.462
       234 -10.4695    121.2674     62.7322   9.4051583601e+01   4.6089410938e+01    0.3734362    0.2326282 -16.74   0.00161808    2.100    0.524
       235 -10.7827    106.0051     64.3457   9.8738320924e+01   4.8942523122e+01    0.3112806    0.1864267 -45.27  0.001286679    1.748    0.428
       236 -10.6406     86.0266     58.2742   1.0270216328e+02   5.3650001933e+01    0.2786448    0.1911563 -34.12 0.0006555296    1.378    0.274
       237 -11.0187     76.9130     65.3622   1.0789127028e+02   5.3871062870e+01    0.2780247    0.1597185  48.07  0.001327122    2.148    0.534
       238 -10.5296    174.0695     63.6268   8.2392526260e+01   3.3513834376e+01    0.3153765    0.2360184 -57.88   0.00132482    1.446    0.309
       239  -9.5572    165.6872     64.6982   8.4355044682e+01   3.5416105198e+01    0.1508628    0.1154397  24.29 0.0002175467    1.611    0.379
       240 -10.5663    141.7229     63.6141   8.9260028687e+01   4.1359110370e+01    0.2362948    0.2163809  78.63 0.0001960286    1.178    0.151
       241 -11.1867     83.7158     62.5071   1.0481485026e+02   5.3297908666e+01    0.4090631    0.3047116 -58.39  0.001423537    1.712    0.416
       242 -10.8256     51.6916     62.5402   1.1545320723e+02   5.7838047908e+01     0.244136    0.1775322 -21.45  0.000852373    1.326    0.246
       243 -11.4768     10.8686     62.5926   1.2991377141e+02   6.1468201425e+01    0.2127926    0.1670268 -42.99 0.0003565072    1.048    0.045
       244 -11.3530     57.5844     59.0076   1.1231730971e+02   5.7765167846e+01     0.301857    0.2437942 -22.37  0.001557796    1.086    0.079
       245 -11.2293     27.1270     61.3579   1.2380006829e+02   6.0530099113e+01    0.3331805    0.1889697  14.69  0.001932597    2.110    0.526
       246 -10.3534     33.1273     60.0752   1.2128977246e+02   6.0249485191e+01    0.2966209    0.1848488 -19.09  0.001509218    1.743    0.426
       247  -9.8795     93.0554     61.2392   1.0152395572e+02   5.1910408030e+01    0.1871293    0.1710369   2.67 0.0004042513    1.034    0.033
       248 -10.1619     18.3845     59.7751   1.2652514446e+02   6.1510603072e+01    0.2368004    0.1485994 -72.85  0.001146407    2.122    0.529
       249 -11.4968     64.6152     59.9886   1.1022958096e+02   5.6652078729e+01    0.2712989    0.1839129  34.01 0.0009117354    1.595    0.373
       250 -10.5527    137.8275     54.8029   8.7434171350e+01   4.3672799854e+01    0.3311371    0.2297952 -21.82  0.001599504    1.618    0.382
       251 -11.1556    134.8178     49.5953   8.6484422808e+01   4.5151811963e+01    0.3792879    0.2766894 -73.62  0.001097793    1.971    0.493
       252 -10.5765    122.6757     56.5752   9.1708769272e+01   4.6794745943e+01    0.3381261    0.2292057  86.55  0.001403287    2.705    0.630
       253 -10.5586    113.9717     57.2805   9.4231746774e+01   4.8527026370e+01    0.3455646    0.1803922  49.16  0.001378942    1.913    0.477
       254  -9.6748     80.9515     57.0440   1.0389276920e+02   5.4707297812e+01    0.1577136    0.1398415 -12.29 0.0004182051    1.007    0.007
       255 -10.6666     45.6814     57.4595   1.1601199634e+02   5.9467204963e+01    0.3083212    0.1034621  37.32   0.00129886    3.472    0.712
       256 -11.0803     98.6290     55.6311   9.8005208423e+01   5.1832552476e+01    0.4394004    0.2622052  44.10  0.001689579    1.687    0.407
       257 -12.3015    127.8460     52.0973   8.8959409869e+01   4.6354783130e+01    0.4030717     0.304868 -24.10 0.0007629471    1.391    0.281
       258 -11.6985     38.4267     51.6344   1.1682559768e+02   6.1290749816e+01    0.5507323     0.309211 -33.33  0.003128936    1.562    0.360
       259 -10.7444     44.7596     51.4442   1.1444168762e+02   6.0650663501e+01    0.2274489    0.1791104 -13.99 0.0006248603    1.157    0.136
       260 -11.3324     46.1515     47.1072   1.1249917009e+02   6.1244789822e+01    0.2385228    0.1714926 -35.87 0.0002541606    1.195    0.163
       261 -11.5476      4.3402     52.8676   1.2990836153e+02   6.3706969353e+01    0.4755609    0.1878812 -36.83  0.002559331    2.187    0.543
       262 -11.1738     13.0982     49.7871   1.2580171019e+02   6.3747713770e+01     0.367239    0.1562257 -46.07  0.001995682    1.721    0.419
       263 -12.2093      9.5779     45.5812   1.2597696040e+02   6.4738848385e+01    0.4476178    0.2770638 -21.27  0.001514642    1.556    0.357
       264 -10.0788      6.9824     40.9695   1.2567437131e+02   6.5719486695e+01    0.2270771    0.1140731 -47.02 0.0008198486    1.466    0.318
       265 -10.8322     73.1526     52.0538   1.0474037064e+02   5.6787290892e+01    0.3356886    0.3005117  57.89  0.001583088    1.506    0.336
       266  -9.6199    157.8043     52.1568   8.2273460267e+01   3.9311213851e+01    0.1995326    0.1651132  27.22 0.0003954078    1.342    0.255
       267 -10.6764     87.0214     52.4958   1.0044394465e+02   5.4445685606e+01    0.1955218    0.1271946  39.21  0.001020808    1.554    0.356
       268 -10.6332    114.7548     49.6026   9.1477700125e+01   4.9566525662e+01    0.3145006    0.2335312  -6.34  0.001632733    1.527    0.345
       269 -10.7113     51.6098     47.8113   1.1074846146e+02   6.0477142244e+01    0.4045972    0.1661926 -46.48   0.00187398    2.325    0.570
       270 -11.4635    143.3812     46.4949   8.3572079881e+01   4.3604933064e+01    0.3882917    0.3174496  41.02  0.001408322    1.181    0.153
       271 -10.9577    137.7479     43.4509   8.3850130654e+01   4.5352831589e+01    0.3625917    0.2536408  88.17 0.0008561391    2.064    0.516
       272 -11.0600    101.4765     47.9794   9.4578685288e+01   5.2496130878e+01    0.4345073    0.2775625  30.88  0.002161124    1.619    0.382
       273  -9.8509     99.0227     44.2901   9.4000967647e+01   5.3521211682e+01    0.1922694    0.1616893  25.65 0.0006561747    1.113    0.101
       274  -9.4973    217.4028     48.2046   7.1289667541e+01   2.5112797681e+01    0.1889872    0.1191785 -49.56 0.0001423544    1.527    0.345
       275 -10.6159    157.6162     45.3041   8.0259606180e+01   4.0346437704e+01    0.2784465    0.1313808 -36.55  0.001144716    2.188    0.543
       276 -10.3002     22.9036     46.1451   1.2097616101e+02   6.3682468354e+01    0.1685465    0.1288069 -35.12 0.0005220479    1.035    0.034
       277  -9.5170    233.3653     45.2451   6.8564345520e+01   2.1737503807e+01    0.1805607    0.1138716 -47.69 0.0004348433    1.466    0.318
       278 -10.8690    122.9180     43.8819   8.7475404149e+01   4.8648200339e+01    0.3867696    0.3129291 -10.51  0.001495948    1.313    0.238
       279  -9.9678     85.8241     45.1599   9.8260535112e+01   5.5810720478e+01    0.1817427    0.1391143  10.03 0.0003058623    1.314    0.239
       280  -9.5333     75.0461     44.0000   1.0129577979e+02   5.7786585582e+01    0.1953974   0.07005913  41.21 0.0007890987    2.851    0.649
       281 -10.6330     64.0696     41.4711   1.0409502823e+02   5.9843305321e+01    0.2492244    0.1744157 -30.35  0.001026782    1.291    0.225
       282 -11.0443     70.0927     36.8127   1.0032062683e+02   5.9643196698e+01    0.4519723    0.2464706  -8.11  0.001692284    2.781    0.640
       283 -10.3459    162.8848     42.1669   7.8316761617e+01   3.9485280017e+01    0.2187888    0.1870536 -79.81 0.0006125694    1.262    0.208
       284  -9.3397     52.2868     42.3152   1.0859282450e+02   6.1300940179e+01    0.1249866   0.08131503 -13.33 0.0001994057    1.586    0.369
       285 -10.1612     23.8666     41.4547   1.1912109826e+02   6.4420277743e+01    0.1942385    0.1615329  12.02  0.001440087    1.365    0.267
       286 -10.3533    226.3938     40.3599   6.8263564879e+01   2.4062692499e+01    0.2524957    0.2040875 -75.34  0.000527475    1.120    0.107
       287 -10.4199     95.4204     40.2368   9.3611301279e+01   5.4792156268e+01    0.3202906    0.2282265  69.21  0.001167827    2.169    0.539
       288 -10.2531     96.6061     37.1770   9.2169887606e+01   5.4992730504e+01    0.2370989    0.1722538  -2.62 0.0003390859    1.467    0.319
       289 -10.2144     43.9733     39.4890   1.1067160066e+02   6.2755751032e+01     0.294938    0.1520442 -43.83  0.001101853    1.798    0.444
       290  -9.2862    235.6034     40.4943   6.7216149141e+01   2.1882755315e+01    0.1326702    0.1170866 -73.07 0.0002330902    1.054    0.051
       291 -10.3221    159.3138     39.3734   7.8157232382e+01   4.0737794544e+01    0.2501966      0.17485 -37.54 0.0002163444    1.518    0.341
       292 -10.8261     88.7429     38.6047   9.5010079813e+01   5.6255825411e+01    0.3078665    0.2574762 -84.89  0.000796295    1.951    0.488
       293 -11.7112     82.3704     36.5327   9.6217879270e+01   5.7672199639e+01    0.3341787    0.2738953   5.58  0.001490547    1.104    0.094
       294  -9.9734    119.5304     39.0977   8.6705883500e+01   5.0045590244e+01    0.1956569        0.134 -25.55 0.0004777269    1.532    0.347
       295 -10.8961     19.1821     37.9319   1.1983926059e+02   6.5399314711e+01      0.18726    0.1380824 -23.53 0.0003044891    1.109    0.099
       296 -11.4143     24.9315     35.6834   1.1677021286e+02   6.5296989752e+01    0.2724067     0.221273  27.71  0.001141165    1.562    0.360
       297 -10.6226      1.4457     31.8171   1.2518767048e+02   6.7616807692e+01    0.2158332    0.1284661 -43.79 0.0009208668    1.237    0.191
       298 -10.2672    137.0626    247.6986   1.2960759234e+02   4.7751715639e+00    0.1773005     0.138947  48.98 0.0004962125    1.072    0.067
       299 -11.1330     13.4603     33.3009   1.2064950903e+02   6.6603684439e+01    0.2687466    0.2313105   7.41  0.002135268    1.381    0.276
       300 -10.6653      9.4063     33.6972   1.2245895875e+02   6.6816925222e+01    0.2611287    0.1408084 -42.71  0.001690693    1.386    0.279
       301 -10.8147      5.4553     31.8033   1.2349972050e+02   6.7384973906e+01    0.3815659    0.1307684 -42.28   0.00173788    2.071    0.517
       302 -10.0394    103.5426     37.0000   9.0155873329e+01   5.3660866858e+01    0.2295219    0.1581551  44.66  0.001240852    1.377    0.274
       303 -10.7056    106.3409     34.1409   8.8382405180e+01   5.3473515180e+01    0.2754234    0.2363543  20.57 0.0009778644    1.065    0.061
       304  -9.3533     56.7613     35.9898   1.0466597354e+02   6.1701279647e+01    0.1699044    0.1068417 -43.31 0.0009646974    1.705    0.413
       305 -11.0986     55.5359     31.9025   1.0356558556e+02   6.2469482572e+01    0.4479216    0.2359983  -8.25  0.002013588    2.907    0.656
       306 -10.8509    111.0671     34.1123   8.7130498593e+01   5.2502192244e+01    0.3990256    0.2119951 -27.34 0.0007553244    1.979    0.495
       307 -10.3669     76.7607     33.7697   9.6976673220e+01   5.9005445247e+01    0.2238018     0.150196  26.99  0.001276581    1.436    0.303
       308 -10.4684     78.6316     29.9691   9.4935790417e+01   5.9203493355e+01    0.2222323    0.1546824  -9.27 0.0007354734    1.429    0.300
       309 -10.1941     32.0112     33.9155   1.1331264586e+02   6.4922216578e+01    0.2337292    0.1409889  17.40  0.001215188    1.748    0.428
       310 -10.8723    145.2091     31.7070   7.8543996316e+01   4.5122174881e+01    0.2209247    0.2086817  31.61 0.0002724168    1.075    0.070
       311 -10.0238     97.7297     31.9418   8.9951912647e+01   5.5469101296e+01    0.1830263    0.1569741  -2.40 0.0004638515    1.105    0.095
       312 -10.3481     18.1060     30.6331   1.1781059570e+02   6.6687251305e+01    0.1480377    0.1332703  10.03 0.0005814916    1.427    0.299
       313 -10.2682     50.1785     27.7004   1.0391609264e+02   6.3778729578e+01    0.3096788    0.1351606 -22.66  0.001373965    2.851    0.649
       314 -10.3187    124.8576     27.8364   8.1617090315e+01   5.0286234644e+01    0.2006696    0.1606953  30.73 0.0002980995    1.198    0.165
       315  -9.9473    172.7586     27.5402   7.2382832040e+01   3.8900051305e+01    0.1939242    0.1250256  79.67 0.0009366379    1.622    0.383
       316 -10.9033     70.8577     26.0757   9.5956863607e+01   6.0993181503e+01    0.4108991    0.2104084  28.54  0.002066803    2.045    0.511
       317  -9.9719    179.7455     25.9359   7.0859702060e+01   3.7356332383e+01    0.1862099    0.1701632 -80.59 0.0002897302    1.085    0.078
       318 -10.1313    149.7297     26.5535   7.6064709647e+01   4.4650463009e+01    0.3833716   0.07382247  53.05  0.001167699    3.822    0.738
       319 -11.4068     61.0722     24.1219   9.8531745783e+01   6.2752873905e+01    0.3807147    0.2184598 -45.09  0.002032773    2.298    0.565
       320 -10.0614    113.0591     25.0713   8.3444477639e+01   5.3177810858e+01    0.1951327    0.1770591  39.24 0.0005393145    1.079    0.073
       321 -10.6580     54.4181     23.3174   1.0060044872e+02   6.3808373236e+01    0.2341809    0.1599532   7.33 0.0006324464    1.391    0.281
       322  -9.5459     17.6165     23.8231   1.1555282978e+02   6.7792222534e+01    0.1496625    0.1052288 -17.36 0.0005301091    1.144    0.126
       323 -10.4116    100.1336     22.2323   8.5720991986e+01   5.6162282249e+01     0.230384    0.2024758 -51.90 0.0007863433    1.477    0.323
       324 -10.9850     84.7205     22.1310   9.0038884272e+01   5.9106429149e+01    0.3301647    0.2068808  10.69   0.00176361    1.799    0.444
       325  -9.4166     48.6811     23.3036   1.0273206357e+02   6.4578182068e+01   0.09843078    0.0942205 -44.67  0.000544285    1.628    0.386
       326 -11.3280    250.3839    243.5694   1.0823676684e+02  -1.3352443672e+01    0.4933622    0.2011915 -36.77  0.001639832    2.681    0.627
       327 -10.8384     24.0000     20.9546   1.1172513165e+02   6.7658282404e+01    0.3337806    0.1234339 -37.54  0.001147712    2.210    0.548
       328 -10.3807     27.1999     19.1638   1.0965617327e+02   6.7605638729e+01    0.1903408    0.1476833  17.74  0.001339694    1.388    0.279
       329 -10.7572     66.3275     21.4123   9.5624516654e+01   6.2296372579e+01    0.2585769    0.1937905  11.57  0.001188449    1.174    0.148
       330 -10.8033      2.1693     37.6682   1.2664787779e+02   6.6574845300e+01    0.2771023    0.1368606 -18.91  0.000664962    2.180    0.541
       331 -11.3961    178.2229    243.6280   1.2135081720e+02  -1.6589504685e+00    0.3734165    0.1325302  45.59  0.001567293    2.420    0.587
       332 -10.0653    104.4655     18.4872   8.3214297401e+01   5.5694088851e+01     0.244474    0.1820639  21.09   0.00089945    1.297    0.229
       333  -9.1043     45.4963     20.5295   1.0282061509e+02   6.5355628487e+01    0.1176379   0.09110937  -5.71 0.0001784405    1.019    0.018
       334 -10.8262    217.4138     16.2655   6.3646327738e+01   2.9257425166e+01    0.4629274    0.1425247  57.80  0.001790072    2.960    0.662
       335 -10.2705    115.6047    244.6937   1.3320889027e+02   8.8666729195e+00    0.1973661     0.145983 -85.34    0.0012209    1.455    0.313
       336 -10.7144    147.4640    244.3160   1.2723030094e+02   3.5629273224e+00    0.2386326   0.09816279  43.64  0.001082706    2.014    0.504
       337 -10.2934     55.6303     15.7018   9.7023274871e+01   6.4591514210e+01    0.2018245    0.1309343 -46.28  0.001111212    2.295    0.564
       338 -10.2897     10.4483     15.7071   1.1559139614e+02   6.9565383945e+01    0.2641406    0.1313834  -2.86  0.001527674    2.389    0.581
       339 -10.2088    109.8976    243.0917   1.3407583097e+02   1.0079873960e+01    0.2701087    0.1477269  70.61   0.00122066    2.210    0.548
       340 -11.9201    155.9504    241.5415   1.2525121312e+02   2.5499512221e+00    0.3564312    0.2211065  33.62  0.001172399    1.618    0.382
       341 -11.9806     19.3503    239.2237   1.4936498938e+02   2.3198409813e+01    0.4345289    0.2794119  63.04  0.003163751    1.219    0.180
       342  -9.9763     99.6680     14.0744   8.2801690565e+01   5.7118913020e+01    0.1758686    0.1475414   4.05 0.0008937877    1.157    0.136
       343  -9.6082     50.4878     14.5073   9.8408449825e+01   6.5456382412e+01    0.1169624   0.09160428   0.21 0.0008105219    1.005    0.005
       344  -9.6574     89.0000    240.9509   1.3765627980e+02   1.3750158344e+01     0.175333   0.06504738 -64.16 0.0007934999    2.881    0.653
       345 -10.2667     72.0120    243.9715   1.4095667413e+02   1.5683496876e+01    0.1829513    0.1439461  70.51 0.0008634678    1.070    0.066
       346 -11.4698     73.8856    238.3931   1.4011613465e+02   1.6462674684e+01    0.5529162    0.2840274  51.64  0.003123441    1.610    0.379
       347 -10.9182     73.5537    232.9796   1.3966017539e+02   1.7547899792e+01     0.266766    0.1677639  57.89 0.0009664503    1.313    0.238
       348  -9.7783     62.4301     11.5092   9.2862984257e+01   6.4049072245e+01    0.1512784    0.1085477  48.41 0.0004841151    1.693    0.409
       349 -11.3967    177.6020    234.8066   1.2013139903e+02  -1.7010086981e-01     0.319978    0.2291331   6.94   0.00140913    1.939    0.484
       350  -9.2153     51.3162     11.3169   9.6734254037e+01   6.5714281947e+01    0.1206313   0.07358439   6.13  0.000393827    1.651    0.394
       351  -9.5257    195.2671    238.6006   1.1737860503e+02  -3.8459242191e+00    0.1925442    0.1029841  33.73 0.0009616956    1.718    0.418
       352 -11.1798    181.9492    246.6442   1.2110160452e+02  -2.7550068053e+00     0.237213     0.162286   4.69  0.001265042    2.163    0.538
       353 -10.4970    160.0709    235.6577   1.2362436787e+02   2.8023954641e+00    0.2312759    0.1842595  26.76 0.0008218577    1.346    0.257
       354  -9.3265     50.2843    240.3320   1.4437922138e+02   1.9307516196e+01    0.0966587   0.08441576 -65.93 0.0004988565    1.616    0.381
       355 -10.4682    167.0106    233.8108   1.2201407910e+02   1.8761325832e+00    0.2009004    0.1947289 -41.95  0.000791429    1.212    0.175
       356 -10.0192     86.2772    233.4306   1.3737764618e+02   1.5583964710e+01    0.2201098    0.1297708  84.90  0.001187266    1.854    0.461
       357  -9.5756     53.6751    234.6838   1.4334310949e+02   1.9945729761e+01   0.09820794   0.08958752 -58.17 0.0007043697    1.669    0.401
       358  -9.9441     79.5486    231.3712   1.3840548964e+02   1.6987530397e+01    0.2147093    0.1321668  45.43 0.0006065183    1.518    0.341
       359  -9.3696    168.6385    250.6855   1.2415172356e+02  -1.0866462411e+00     0.125273   0.08934492  17.97 0.0007041923    1.757    0.431
       360 -10.7094    153.4060    233.7889   1.2463796871e+02   4.3022451128e+00     0.230841    0.1901124   2.00 0.0008109206    1.662    0.398
       361 -10.3360    190.3747    226.6474   1.1636838244e+02  -1.1415188766e+00    0.2549009    0.1797941 -45.32 0.0009369816    1.643    0.391
       362 -10.1071    152.5275    227.9696   1.2395825945e+02   5.4746960407e+00    0.1701382    0.1145437 -22.20 0.0008096088    2.513    0.602
       363 -10.8641    116.0938    226.5580   1.3090824196e+02   1.2124262114e+01    0.3017301    0.1484917 -64.38   0.00142659    2.324    0.570
       364 -10.3962    129.8782    226.7704   1.2823806345e+02   9.7159797545e+00    0.3663011    0.1681858  55.62   0.00157749    2.240    0.554
