#   1 NUMBER                 Running object number                                     
#   2 MAG_AUTO               Kron-like elliptical aperture magnitude                    [mag]
#   3 X_IMAGE                Object position along x                                    [pixel]
#   4 Y_IMAGE                Object position along y                                    [pixel]
#   5 X_WORLD                Barycenter position along world x axis                     [deg]
#   6 Y_WORLD                Barycenter position along world y axis                     [deg]
#   7 A_WORLD                Profile RMS along major axis (world units)                 [deg]
#   8 B_WORLD                Profile RMS along minor axis (world units)                 [deg]
#   9 THETA_WORLD            Position angle (CCW/world-x)                               [deg]
#  10 FWHM_WORLD             FWHM assuming a gaussian core                              [deg]
#  11 ELONGATION             A_IMAGE/B_IMAGE                                           
#  12 ELLIPTICITY            1 - B_IMAGE/A_IMAGE                                       
         1  -8.8168     40.0614      1.9931   7.1412607757e+01   7.0186652832e+01    0.2606388    0.1719921  15.70   0.00155319    1.307    0.235
         2  -9.9573     38.9637      8.5594   7.5418913733e+01   6.9554800008e+01    0.5853508    0.3337777  -1.80  0.003179276    1.924    0.480
         3 -10.8218     39.6256     29.5872   8.5054601091e+01   6.6386679789e+01    0.7905052    0.3248847 -40.32  0.003741003    2.140    0.533
         4 -12.0194     44.9068     22.0350   7.9280039032e+01   6.6894357889e+01      1.00956    0.8952208 -51.36  0.006601942    1.715    0.417
         5 -13.0955    133.4812     15.6777   4.9295338740e+01   4.9980821303e+01     3.075883     1.613157  73.09   0.01354535    2.140    0.533
         6 -11.3043    130.8795      3.7894   4.5588450979e+01   5.1680219129e+01     1.480153    0.2634596  60.24  0.004819608    3.670    0.727
         7 -12.1851    118.0054      4.1936   4.8138512122e+01   5.4700483947e+01     2.890859    0.4854617  63.12  0.008270307    4.974    0.799
         8 -11.8560    155.7802     21.1416   4.7177596958e+01   4.3938579462e+01    0.9060704    0.6474155  67.93  0.002507349    1.308    0.236
         9 -13.0141    168.9534     16.3189   4.3707108005e+01   4.1171832372e+01     1.618585     1.188606 -89.71  0.005492584    1.395    0.283
        10 -13.2171    164.4467      6.8520   4.1499007934e+01   4.3203041558e+01     3.180151    0.8772284  68.45    0.0112342    3.177    0.685
        11 -11.3354     84.4681      3.8683   5.6037039664e+01   6.2135626631e+01    0.9737184     0.415568  57.18  0.003992069    2.271    0.560
        12 -10.2088     71.1735      5.5925   6.0960140941e+01   6.4600473927e+01    0.4735124     0.397079  20.32  0.002234617    1.055    0.052
        13 -10.6196    116.2011     17.0790   5.3418567568e+01   5.3935191108e+01    0.8945652    0.3642608 -38.94  0.003638808    2.812    0.644
        14  -9.0548    111.1656     16.6032   5.4410526961e+01   5.5139473980e+01    0.2905254    0.2210618   0.20  0.001430814    1.394    0.283
        15  -9.7965     64.7019     16.3389   6.8386808353e+01   6.4597291948e+01    0.4162323    0.2734571  60.73  0.002132339    2.434    0.589
        16  -9.8789     69.7013     14.4821   6.5680307226e+01   6.3931192004e+01    0.4090683    0.2786695 -33.88  0.002353448    1.632    0.387
        17 -10.9641     60.2930      5.0182   6.4545947014e+01   6.6632660541e+01     1.019554    0.5415452 -16.19  0.005433655    1.885    0.470
        18  -8.3564     53.6123      1.7006   6.5431763082e+01   6.8106999211e+01    0.3735298     0.142849  42.20  0.001778685    2.312    0.567
        19  -9.1073     20.3124     14.4120   8.7823982101e+01   7.0901390698e+01    0.5121124    0.2068761 -25.96  0.002342142    2.738    0.635
        20 -10.1975    250.4176      9.4879   3.3923840089e+01   2.3007818454e+01    0.5229322    0.1445512 -34.24  0.002224556    2.996    0.666
        21  -9.3205    227.6792     14.5560   3.6793058515e+01   2.7346723997e+01    0.3468179    0.1710523 -56.72  0.001705413    1.950    0.487
        22  -9.4085     94.2976     17.5138   5.9179090604e+01   5.8749561540e+01     0.382728    0.3151707  81.33  0.002200782    1.677    0.404
        23  -8.7244     49.2868      7.0027   6.9974091558e+01   6.8233532466e+01    0.2599566    0.1197169  22.28   0.00117164    2.642    0.621
        24  -9.6728    203.6533      4.1915   3.6456879632e+01   3.3947343157e+01     0.261365    0.1698869 -71.06  0.001356032    1.492    0.330
        25 -11.4464     78.0176     15.7445   6.3401397133e+01   6.2232984615e+01     1.254712    0.6342589 -15.76  0.005907442    2.198    0.545
        26  -8.1058     27.1379      2.7705   7.8212944620e+01   7.1808326760e+01    0.1666915    0.1076528  -0.44 0.0007720723    1.352    0.260
        27  -8.9752     17.2618      2.3130   8.3363156474e+01   7.2966282489e+01    0.2878302    0.1983547 -50.23  0.001777644    2.357    0.576
        28  -7.5662      1.4686      1.4531   9.2396998405e+01   7.4449988837e+01    0.1125367   0.07768594 -21.27 0.0008077692    1.031    0.030
        29 -10.0006     25.1893     65.2662   1.0359558844e+02   6.0836918864e+01    0.5321755    0.2359095 -58.11  0.002304967    1.878    0.468
        30  -9.2513     49.2788     61.6898   9.2807747181e+01   5.9239490440e+01    0.3539208    0.2604192 -17.07  0.002004111    1.359    0.264
        31  -8.1249     16.4367     58.2484   1.0539109525e+02   6.2976750759e+01    0.1645516    0.1056315 -67.83 0.0006274753    1.599    0.375
        32  -8.3260     93.9575     57.4626   7.5008451219e+01   5.3039004421e+01    0.2175437    0.1391401  42.25  0.001029532    1.592    0.372
        33  -9.1299    199.1413     55.8565   5.0492554659e+01   2.8724451611e+01    0.2503909    0.2396157  76.74 0.0005506693    1.072    0.067
        34  -8.8433     66.5032     54.5640   8.3633710503e+01   5.8318196263e+01     0.288978    0.1241975 -43.38  0.001208806    2.157    0.536
        35  -8.5224     34.4420     52.6234   9.6022154014e+01   6.2693813225e+01    0.2760145    0.1218759  16.72  0.001229312    2.814    0.645
        36 -10.5174     18.1619     74.3003   1.0852707724e+02   5.9330839686e+01    0.7147228    0.3349328 -33.42  0.003458372    2.229    0.551
        37 -10.5905     83.7379     45.9558   7.4136426593e+01   5.6943352704e+01    0.9584838    0.5274315 -47.49  0.004267852    2.183    0.542
        38 -10.2595      3.2802     40.8705   1.0655104297e+02   6.7325121669e+01    0.4774863    0.3780786 -57.43  0.002395332    1.244    0.196
        39  -8.9952      7.3160     35.9939   1.0312939510e+02   6.8075977880e+01    0.2706415    0.2214766  23.80  0.001935062    1.563    0.360
        40  -8.7983     11.8974     32.9840   9.9849583259e+01   6.8369104190e+01    0.4499162    0.2119659 -45.87  0.001804981    1.598    0.374
        41  -8.3065    111.2135     45.5964   6.5446504293e+01   5.1436480249e+01    0.2103255    0.1243131  39.20 0.0004552707    1.667    0.400
        42  -9.5603    164.2043    244.3870   9.8944008458e+01   1.4755181511e+00    0.1845053   0.09586968  44.03 0.0009546742    1.727    0.421
        43  -9.7508     52.7402     38.7254   8.3082881319e+01   6.3158963300e+01    0.5369914    0.2595562 -40.41  0.002443031    1.889    0.471
        44  -9.7541     47.9826     34.3939   8.3341463297e+01   6.4533662582e+01    0.3287522    0.2837183   8.34  0.001773109    1.187    0.158
        45  -8.7993    175.3425    241.6923   9.6402532995e+01   1.6704533568e-01    0.1194017   0.09013884  56.97   0.00070434    1.691    0.409
        46 -10.5144    201.9015    225.7466   8.8770942850e+01  -1.5809962369e+00    0.3298048    0.1550134  34.30  0.001603764    1.875    0.467
        47  -8.8215    244.9887    205.6756   7.7237622184e+01  -5.2084707721e+00     0.206448   0.08363345  20.84            0    4.339    0.770
        48  -9.0693    111.0133     41.5066   6.3989270213e+01   5.2088071011e+01    0.2233492     0.135477  50.67 0.0007791298    1.609    0.378
        49  -8.3612     44.0647     38.9382   8.6895591754e+01   6.4246867404e+01    0.2523563    0.1620863  43.14  0.001359928    2.091    0.522
        50  -8.8823     69.3653     36.3913   7.5486575489e+01   6.1005702620e+01    0.3236637    0.2425514 -43.06  0.001823202    1.531    0.347
        51  -9.3562    196.9630     34.3730   4.5016925075e+01   3.2195830283e+01    0.3628542    0.1952115  43.96  0.001589471    2.243    0.554
        52  -7.9105     27.8190     34.8607   9.2748244580e+01   6.6738324444e+01    0.1502222    0.1401098 -17.56 0.0006916728    1.315    0.240
        53 -10.1951     86.4727     31.5203   6.7435698583e+01   5.8614754626e+01    0.4518279    0.2442132  36.79  0.001583323    1.787    0.440
        54  -9.5016     90.7217     28.3321   6.4762962686e+01   5.8196995714e+01    0.3508038    0.2390343  49.19  0.001863772    1.475    0.322
        55  -8.7416     97.6971     27.1226   6.2171340087e+01   5.6907849078e+01    0.3741693    0.1694406 -19.39  0.001508187    2.660    0.624
        56 -10.2138    224.7435     29.1014   4.0474279427e+01   2.6314722184e+01    0.4983194    0.2727007  63.72  0.002302958    1.819    0.450
        57  -8.2318     20.7107    155.8237   1.1969575307e+02   3.9715937939e+01    0.2041343    0.1298841 -62.23  0.001189565    1.420    0.296
        58 -10.1801     11.1084    141.3571   1.2068023287e+02   4.3899904784e+01     0.255271    0.1531857 -83.36  0.001462632    1.384    0.278
        59  -9.9349      5.2489    142.1038   1.2223687852e+02   4.4125822059e+01    0.2971335    0.1668072 -33.88   0.00158166    2.504    0.601
        60  -8.7789     40.8030    142.3932   1.1295371146e+02   4.1090387479e+01    0.1680362    0.1302914   3.54 0.0009547448    1.744    0.427
        61 -12.7579    241.6856    131.3590   6.2425037639e+01   7.0068900252e+00     1.476514     1.274903  21.69  0.006398174    1.252    0.201
        62  -8.9572      9.7475    121.2874   1.1889414359e+02   4.8788172791e+01    0.2268936    0.1273727 -26.91  0.001172294    2.462    0.594
        63  -9.5347     11.9728    127.5201   1.1898902662e+02   4.7147791644e+01    0.2813125     0.151128 -29.30  0.001392181    2.664    0.625
        64  -8.3220     58.5173    124.5288   1.0502534951e+02   4.3532790691e+01    0.1408865    0.1240798 -61.18  8.62637e-05    1.024    0.024
        65  -9.3782     17.5775    104.3087   1.1424650347e+02   5.2351415099e+01    0.4353533    0.2692526  55.73  0.002372147    2.009    0.502
        66  -9.4045     29.8625    102.2163   1.0991521231e+02   5.1930948147e+01    0.3256688    0.1529441 -48.90  0.001544054    1.831    0.454
        67  -8.3535     22.0129     23.1755   9.0882228721e+01   6.9324420936e+01    0.2207257    0.1423148 -34.33   0.00138885    1.245    0.197
        68  -8.1676     11.5084     24.0835   9.6745214785e+01   7.0024221243e+01    0.1768578   0.09434444 -48.29  0.001029362    1.588    0.370
        69  -8.7708     85.6705     23.1089   6.4154611107e+01   5.9870307562e+01    0.3347648    0.1500427  43.02   0.00149255    2.038    0.509
        70  -9.5306     66.5769     29.7704   7.3741486161e+01   6.2474888271e+01    0.3090252     0.197838 -12.17  0.001620357    1.628    0.386
        71  -7.4741      7.6697     19.3383   9.6912905896e+01   7.1121179042e+01   0.09552116   0.09084281  87.92 0.0007051923    1.737    0.424
        72  -9.0543     46.5057    101.1034   1.0417194067e+02   5.0631870118e+01    0.3681499    0.2351462 -56.50  0.001916555    1.324    0.245
        73  -7.8183    198.7431     92.5376   6.0358692759e+01   2.2810497552e+01    0.1904743    0.1485357  72.70 0.0005988925    1.491    0.329
        74 -11.9891     43.6400     81.7206   1.0069335202e+02   5.5488772695e+01      1.07511    0.8464389  -9.07  0.005663661    1.401    0.286
        75  -8.2795    100.6700     84.3019   8.1782373213e+01   4.6483476739e+01    0.1469254    0.1221887  88.86 0.0007033563    1.649    0.393
        76  -9.1476    228.1051     79.2008   5.2231475034e+01   1.8444805935e+01    0.4302881    0.2916117 -11.65  0.002016905    2.001    0.500
        77  -9.2216      2.5037     88.2272   1.1674517596e+02   5.7004676445e+01     0.390398    0.1866605 -74.56  0.002019163    1.779    0.438
        78 -11.0266      4.2701     76.1924   1.1413405820e+02   5.9682693986e+01     0.756955    0.4990687  45.03  0.004463672    1.989    0.497
        79 -11.0932     13.2755     71.7519   1.0985765602e+02   6.0209639066e+01    0.5899957    0.3972057 -55.20  0.003635074    1.149    0.130
        80  -8.0928    138.3115     79.9583   6.9774873123e+01   3.9384494162e+01    0.2195252     0.197686 -30.14 0.0004729377    1.096    0.087
        81  -9.2104    103.5689     25.9196   6.0033799463e+01   5.5794753214e+01    0.3857698     0.244735  16.48  0.001744938    1.855    0.461
        82  -8.4445     78.2941     78.5710   8.7357922972e+01   5.1627274460e+01    0.2747979    0.1373177  40.68  0.001152014    2.183    0.542
        83  -7.8824    135.3220     76.3202   6.9407042110e+01   4.0759755467e+01    0.1596791    0.1202456   9.76 0.0007044704    1.672    0.402
        84  -8.8674     83.4490     69.0441   8.2539748373e+01   5.2755068595e+01    0.4108336    0.2374026 -45.59  0.001867194    1.673    0.402
        85  -9.2747     75.1162     68.7525   8.5355112166e+01   5.4192552911e+01    0.4985336    0.3516523   2.21     0.002453    1.716    0.417
