#   1 NUMBER                 Running object number                                     
#   2 MAG_AUTO               Kron-like elliptical aperture magnitude                    [mag]
#   3 X_IMAGE                Object position along x                                    [pixel]
#   4 Y_IMAGE                Object position along y                                    [pixel]
#   5 X_WORLD                Barycenter position along world x axis                     [deg]
#   6 Y_WORLD                Barycenter position along world y axis                     [deg]
#   7 A_WORLD                Profile RMS along major axis (world units)                 [deg]
#   8 B_WORLD                Profile RMS along minor axis (world units)                 [deg]
#   9 THETA_WORLD            Position angle (CCW/world-x)                               [deg]
#  10 FWHM_WORLD             FWHM assuming a gaussian core                              [deg]
#  11 ELONGATION             A_IMAGE/B_IMAGE                                           
#  12 ELLIPTICITY            1 - B_IMAGE/A_IMAGE                                       
         1 -14.7407     68.5702    144.3880   1.0293614556e+02   3.7746565115e+01     5.086557     2.605573  69.13  0.009638971    3.724    0.731
         2 -14.3505    213.5632     27.5831   3.8911634300e+01   2.9357365828e+01     1.141862    0.9279449  22.00  0.005098926    1.739    0.425
         3 -14.4226    201.7837     39.5071   4.3217853243e+01   3.0611065272e+01     1.827847     1.398662  28.92  0.006102033    1.762    0.432
         4 -11.1035      2.1990      9.5037   9.3189737962e+01   7.3505745533e+01    0.4228107   0.07111982 -50.29  0.001494935    5.127    0.805
         5 -12.5088    235.8542      3.7477   3.1660696273e+01   2.7084820509e+01    0.4547568    0.3181858 -78.17  0.002458043    1.213    0.175
         6  -9.6266     58.9816      7.0442   6.3012480485e+01   6.6761621166e+01    0.1497109    0.1189332  19.95 0.0004108453    1.029    0.028
         7 -12.5265    241.3555      3.8906   3.1319127823e+01   2.5918159901e+01    0.4997136    0.4103908  55.81   0.00294814    1.553    0.356
         8 -11.8403    195.0119    198.5201   8.2066212161e+01   4.0530915615e+00    0.7737065    0.5020251 -64.91  0.003359168    2.947    0.661
         9 -11.5575    140.0715    248.4783   1.0126792327e+02   4.3943366455e+00    0.4232639     0.240666 -62.95  0.002226596    2.468    0.595
        10 -16.8079     45.1414    195.8966   1.1561014689e+02   2.8252209308e+01     11.88493     3.720519  49.59   0.04218931    3.089    0.676
        11 -11.6590    109.4303    201.4668   1.0149685732e+02   1.8110445112e+01    0.5430781    0.2961614 -41.38  0.002015007    2.334    0.572
        12 -12.3879    206.9193    194.8296   7.8978313102e+01   2.6822713010e+00    0.8130064     0.418845 -16.76  0.003110691    3.146    0.682
        13 -15.9657      6.2739    172.5090   1.2245144205e+02   3.7329821228e+01     7.408713     0.996262 -73.39   0.02353684    4.923    0.797
        14  -9.1310    120.1062    194.1464   9.7891848810e+01   1.7938777186e+01    0.1852889    0.1563642  70.31 0.0003209715    1.265    0.210
        15  -9.6061     72.1180    188.3932   1.0851507645e+02   2.6599991456e+01    0.1978963    0.1626551 -85.54 0.0004229546    1.149    0.130
        16 -13.3537      9.7938    188.2174   1.2276018541e+02   3.3483951124e+01    0.3894891    0.3370087  58.07  0.001145876    1.239    0.193
        17  -9.5828     69.7828    183.8383   1.0849973587e+02   2.7976104054e+01     0.189168    0.1719223 -82.65 0.0003955086    1.081    0.075
        18  -9.0274     90.9448    182.0476   1.0305380633e+02   2.5356254754e+01    0.1662337    0.1535042  77.55 0.0004651262    1.013    0.012
        19  -9.9797     99.4038    180.8753   1.0077970042e+02   2.4309247759e+01    0.2505138     0.202354  29.42 0.0005680722    1.319    0.242
        20  -9.4054    143.9246    179.0587   8.9617912098e+01   1.7001564415e+01    0.2364288    0.1801449  -5.18  0.001128795    1.692    0.409
        21 -13.1948     80.2496    160.7919   1.0247484859e+02   3.2041841348e+01     1.468403    0.5852304  53.72 0.0005248295    3.580    0.721
        22 -13.7083     68.3211    156.4494   1.0499211257e+02   3.4783531771e+01    0.6190239    0.4870037 -47.23  0.003186308    1.337    0.252
        23 -14.9885     24.1633    226.4019   1.2228461549e+02   2.3992730555e+01      1.74075    0.6821474  66.68  0.003407342    2.594    0.614
        24 -12.2657     67.0642    174.9240   1.0800275195e+02   3.0450571460e+01    0.4887526    0.2921766 -42.45  0.002298611    2.081    0.519
        25  -8.9421    133.9700    196.0479   9.4971218133e+01   1.5174685184e+01    0.1673823    0.1567235  40.11 0.0004318955    1.006    0.006
        26  -9.9725    156.0625    157.7912   8.2413878033e+01   1.9272633259e+01    0.4421342    0.2747836 -75.07  0.001547726    3.228    0.690
        27 -12.2417     87.5445    154.1938   9.9369708540e+01   3.2561208952e+01    0.6520103    0.4505287 -28.17  0.002990065    1.944    0.486
        28 -12.0944     55.6158    146.9250   1.0702067331e+02   3.8763426728e+01    0.7022303    0.5474594 -57.58  0.003933278    1.205    0.170
        29 -11.0650    133.6790    144.3406   8.4974982815e+01   2.6722800678e+01     1.089705    0.2974022 -54.65   0.00262897    5.308    0.812
        30  -9.4753    111.3153    149.4996   9.1998776567e+01   2.9728103229e+01    0.3732961     0.196041  63.31  0.001196563    3.534    0.717
        31 -10.1083    174.5934    149.1747   7.6227635847e+01   1.7359018701e+01    0.2793341    0.2176674  40.98 0.0006560668    1.302    0.232
        32 -15.8606      9.6341    208.0875   1.2401901830e+02   2.9176361782e+01     1.862351     1.094086 -76.17  0.008752099    1.504    0.335
        33 -11.0916     28.5947    144.1461   1.1416311648e+02   4.2269215471e+01    0.3167701    0.2090808  42.49   0.00177821    1.631    0.387
        34 -10.9268    101.7959    139.6182   9.2547495520e+01   3.3792237110e+01    0.6062307    0.3758578 -22.47  0.002311006    2.633    0.620
        35 -11.1342     81.4397    141.3430   9.8694062099e+01   3.6668120071e+01    0.3788469    0.2578369  66.98  0.001002756    1.840    0.456
        36 -12.3690     88.9513    139.5023   9.6174781750e+01   3.5959633558e+01    0.2950709     0.254157 -41.49 0.0004037809    1.188    0.158
        37 -11.2635     25.8088    137.7888   1.1415327465e+02   4.4074305935e+01    0.3454226    0.2183508  41.21  0.001482948    1.729    0.421
        38 -12.1134     71.5218    170.0340   1.0618766762e+02   3.1027489336e+01    0.3563227    0.2693204 -43.54  0.001149838    1.503    0.335
        39 -10.3805    106.0688    130.9325   8.9415285131e+01   3.5136780927e+01    0.3705837    0.3489364  53.21  0.001372187    1.100    0.091
        40 -10.1431    111.0875    130.1540   8.7811559415e+01   3.4402330581e+01    0.3044311    0.2520745  -7.82 0.0009940881    1.451    0.311
        41  -9.2899    149.4937    176.9959   8.7910682838e+01   1.6411742788e+01     0.210636    0.1464325 -50.12   0.00042645    1.507    0.336
        42 -10.7695    135.7327    127.8481   8.0546996687e+01   3.0077131818e+01    0.5506361    0.1369725 -48.99  0.001428047    4.230    0.764
        43  -9.6312    160.8371    128.0110   7.4349752665e+01   2.4706545454e+01    0.2642502    0.1852942 -69.94  0.001091362    2.011    0.503
        44 -10.2134    188.0408    173.7850   7.8643896922e+01   9.8213175590e+00    0.2884988    0.1895124 -66.85  0.001189074    2.643    0.622
        45 -10.8095     98.3812    126.1221   9.0532241294e+01   3.7661051172e+01    0.3221917    0.2430373 -27.91 0.0009135377    1.526    0.344
        46  -9.8443    116.8371    124.4244   8.4820681049e+01   3.4663044561e+01    0.2575607    0.1974644  15.89  0.001010519    1.579    0.367
        47  -8.9968     89.4702    122.5794   9.2371873440e+01   4.0028814526e+01    0.2111998    0.1399223  50.66 0.0004723595    1.702    0.412
        48  -9.0776     86.5464    120.4418   9.2769146594e+01   4.1024776012e+01    0.2353082    0.1888431 -68.74 0.0005179378    1.303    0.233
        49  -9.9598    107.6319    119.0709   8.6127356402e+01   3.7674749644e+01    0.2223093    0.2056341  51.67 0.0003467217    1.137    0.120
        50  -9.8333    146.5429    172.0341   8.7635238280e+01   1.8028407426e+01    0.2239258    0.1470127 -49.66  0.001022307    1.575    0.365
        51  -8.8382    168.6511    113.3308   6.8815805174e+01   2.6036260312e+01    0.1616327     0.124611 -81.10 0.0007048676    1.767    0.434
        52 -10.0959    135.0000    112.4477   7.6783438402e+01   3.3669406012e+01    0.3473311   0.08851655 -44.70 0.0009250495    3.857    0.741
        53 -10.1597    205.5159    110.2885   6.0607043486e+01   1.8432929931e+01    0.2910342    0.2485386  30.55 0.0008034972    1.295    0.228
        54 -11.0602     33.9374    108.8138   1.0728288066e+02   5.0505529152e+01    0.3039806    0.1791281 -70.02  0.001473907    1.558    0.358
        55 -10.1045    115.9740    108.8699   8.1066450780e+01   3.8415794662e+01    0.3222657    0.1973477  40.86  0.001301845    1.675    0.403
        56  -9.3410    139.3439    106.0786   7.3924009426e+01   3.4103254668e+01    0.2222092    0.1949774 -50.62 0.0007254153    1.155    0.134
        57  -9.5991    134.6736    105.5140   7.4989017252e+01   3.5244889812e+01    0.2848119    0.1435131 -43.25  0.001075194    1.954    0.488
        58 -14.2954     57.3381    239.9711   1.1685436846e+02   1.7557946819e+01    0.7294958    0.4409054  57.10  0.003237905    1.381    0.276
        59  -9.9778     41.5347     98.5093   1.0265445533e+02   5.2278193482e+01    0.2983779    0.1888226  66.92  0.001377552    2.396    0.583
        60 -10.7096    242.2217    101.6167   5.2682410353e+01   1.2360491577e+01    0.1795992    0.1262399  42.33 0.0004618694    1.688    0.408
        61  -9.6725    125.8662     93.2623   7.3884547586e+01   3.9745375503e+01    0.2565997    0.1747901 -88.19 0.0009430462    2.795    0.642
        62 -10.2011     52.8710     90.8501   9.6830515959e+01   5.2846062679e+01    0.2213779    0.1720905 -34.39 0.0006007829    1.216    0.177
        63  -9.3200    156.8178     88.7046   6.4773335206e+01   3.3619642218e+01    0.3064763      0.19553 -63.23  0.001220292    2.155    0.536
        64 -10.4915    137.5330    168.0160   8.9014607113e+01   2.0603582207e+01    0.3608405     0.258184  59.88  0.001276209    1.647    0.393
        65  -9.3575     74.8959     85.1021   8.7407844023e+01   5.1127603101e+01    0.2024146    0.1930911  86.25 0.0004883596    1.250    0.200
        66  -9.8525    113.2681     82.6730   7.4275077241e+01   4.4592069802e+01    0.3087724    0.2475023 -89.70  0.001342687    1.760    0.432
        67  -9.2375    159.2135     82.3924   6.2423432843e+01   3.4228342716e+01     0.206058    0.1470095  64.66  0.000452117    1.550    0.355
        68  -9.3456     69.6546     81.5575   8.8223268790e+01   5.2703083179e+01    0.1754212     0.135617  43.68 0.0009153102    1.478    0.323
        69  -8.9194    184.3927     77.2802   5.5928548943e+01   2.9113845906e+01     0.153169     0.113436  25.56 0.0006998235    1.748    0.428
        70  -8.8649     58.4534     67.3970   8.8049313151e+01   5.7305649419e+01    0.1360816     0.119756 -21.37 7.818948e-05    1.018    0.018
        71 -10.8280     13.4929     59.9539   1.0461084137e+02   6.3302407104e+01    0.2498307    0.1958214 -62.35 0.0004036018    1.260    0.207
        72 -16.5200      6.9600    246.1457   1.2638627091e+02   2.1873619056e+01     1.631993     1.397621  64.46   0.01363746    1.297    0.229
        73 -10.5983     37.5031    215.6131   1.1891982638e+02   2.4800899757e+01    0.2569047    0.1656885  59.22 0.0006609938    1.321    0.243
        74 -11.2131    140.1852     45.7386   5.5321841464e+01   4.4788502479e+01    0.3613903    0.2734383 -82.91 0.0009393662    1.697    0.411
        75 -10.3549    143.5759     40.6591   5.2954304465e+01   4.4660569166e+01    0.2497005    0.2254676 -87.43 0.0005794038    1.184    0.156
        76  -9.3442     37.2242     56.7892   9.3337280554e+01   6.2014276089e+01    0.1751394    0.1559285 -30.82  0.000427947    1.122    0.109
        77 -11.2389      3.3793     24.8283   9.8838614293e+01   7.0831184414e+01    0.3635037    0.2493209  26.86  0.002450723    1.821    0.451
        78  -9.3790    189.6860     14.9903   3.8339102368e+01   3.6366101866e+01    0.1788401    0.1576999 -62.44 0.0006271359    1.114    0.103
        79 -13.2272    192.2988     46.1863   4.6237076807e+01   3.1979876399e+01    0.9203697    0.6003551  48.98  0.001074521    1.646    0.393
        80 -15.7158     33.8040    249.4982   1.2187701332e+02   1.8501158277e+01     3.204687     0.880813  27.80   0.01012023    7.529    0.867
        81  -9.9934    184.3202    209.6463   8.6284500560e+01   3.9192607780e+00    0.1282218     0.108547  73.63 0.0007046879    1.751    0.429
        82 -10.8130    191.9931    192.8160   8.1604583000e+01   5.5791826838e+00    0.5993138    0.3519228 -66.57  0.002054032    4.549    0.780
