#   1 NUMBER                 Running object number                                     
#   2 MAG_AUTO               Kron-like elliptical aperture magnitude                    [mag]
#   3 X_IMAGE                Object position along x                                    [pixel]
#   4 Y_IMAGE                Object position along y                                    [pixel]
#   5 X_WORLD                Barycenter position along world x axis                     [deg]
#   6 Y_WORLD                Barycenter position along world y axis                     [deg]
#   7 A_WORLD                Profile RMS along major axis (world units)                 [deg]
#   8 B_WORLD                Profile RMS along minor axis (world units)                 [deg]
#   9 THETA_WORLD            Position angle (CCW/world-x)                               [deg]
#  10 FWHM_WORLD             FWHM assuming a gaussian core                              [deg]
#  11 ELONGATION             A_IMAGE/B_IMAGE                                           
#  12 ELLIPTICITY            1 - B_IMAGE/A_IMAGE                                       
         1 -13.7500    190.8981     27.1153   2.8978429274e+02   6.3171680099e+00   0.06664472   0.06206402 -10.49  0.006647355    1.106    0.096
         2 -13.8395    205.2051      7.9337   2.8949998845e+02   6.4511760883e+00   0.07562014   0.05641346 -16.04  0.008113292    1.594    0.373
         3 -13.1303      2.5871      8.0716   2.9184673475e+02   7.6655729861e+00   0.07616965   0.05454983 -30.50  0.008086075    1.570    0.363
         4 -12.6017      3.1320     20.0672   2.9191453444e+02   7.5244429105e+00    0.0359594   0.02356221 -26.11  0.003540216    1.887    0.470
         5 -10.0221     46.5793    248.7408   2.9281922767e+02   4.6321609236e+00   0.01528079   0.01006543  67.91  0.001161591    2.015    0.504
         6 -10.8858    140.1106    250.2513   2.9174905877e+02   4.0551496843e+00   0.01839944  0.008348816  31.43  0.001541409    2.130    0.531
         7 -10.6926    139.2472    245.9832   2.9173277123e+02   4.1094631084e+00   0.01548754  0.007370104 -65.52  0.001328106    2.225    0.550
         8 -10.4349    127.0358    250.3040   2.9190022363e+02   4.1328827246e+00  0.009539052  0.008647351  27.61 0.0006755883    1.107    0.096
         9 -12.4857     31.6290    247.1115   2.9298184521e+02   4.7401872619e+00    0.2545523    0.1113424   5.09   0.01282124    7.599    0.868
        10 -14.7127      8.0209    205.9410   2.9300212967e+02   5.3553701857e+00     0.376001    0.1221474 -58.36   0.01941399    2.835    0.647
        11 -14.6345      3.7794    177.5659   2.9287703741e+02   5.7075862407e+00    0.3363964   0.03615234 -55.94  0.001779562    5.428    0.816
        12 -11.7058      2.4744    152.6400   2.9273902295e+02   6.0025186610e+00   0.03038709   0.02017204 -76.72  0.003069354    1.736    0.424
        13 -14.8008     11.6804    159.0722   2.9267206415e+02   5.8735207415e+00    0.2901721    0.1064852 -74.35   0.01629581    5.728    0.825
        14 -10.3570    238.2147    248.5887   2.9060788301e+02   3.4855964171e+00  0.009317588  0.006458645  11.09 0.0007912198    1.640    0.390
        15 -10.0824     98.9716    249.3008   2.9221790054e+02   4.3124741928e+00  0.009379562  0.008881409  23.17 0.0006471816    1.061    0.058
        16  -9.9684    171.1832    247.1840   2.9137179853e+02   3.9041543203e+00  0.009370484  0.007782798  62.57 0.0005605671    1.326    0.246
        17 -10.6634     11.4862    250.4918   2.9323511258e+02   4.8213999692e+00   0.01594241   0.01291632  63.28  0.001687818    1.377    0.274
        18 -11.4065    153.5593    228.8489   2.9146221358e+02   4.2209255298e+00   0.02614774   0.01033508  15.68  0.001718641    4.106    0.756
        19  -9.2791     83.0764    244.1904   2.9236997939e+02   4.4664362179e+00   0.01555153  0.008692082  66.10  0.001257907    2.883    0.653
        20 -10.5286    177.3409    226.8777   2.9117573455e+02   4.1009359935e+00   0.01782743   0.01057991  87.11  0.001513068    2.660    0.624
        21 -11.5646      2.7162    249.1218   2.9332797988e+02   4.8894630601e+00   0.03503317   0.02555077 -54.09  0.003296821    1.341    0.254
        22 -10.7201    172.6876    221.8799   2.9119861699e+02   4.1863895069e+00    0.0134697    0.0113441 -22.00  0.001084825    1.281    0.219
        23  -9.1479    152.5170    213.0286   2.9137681557e+02   4.4093116807e+00  0.009568172  0.006515779 -62.85 0.0003359113    1.473    0.321
        24 -11.9889     12.1257    241.1237   2.9317035789e+02   4.9255210113e+00   0.03105449   0.01862882  79.91   0.00265921    2.665    0.625
        25  -9.7900     32.1013    206.9424   2.9273001665e+02   5.2001582348e+00   0.01956755   0.01019242  52.58  0.001464078    2.414    0.586
        26 -12.2544     23.0214    201.4684   2.9280133939e+02   5.3174213268e+00     0.024927   0.01359408  47.97  0.002282086    2.051    0.512
        27 -11.0793     16.0361    198.4088   2.9286328904e+02   5.3943506070e+00   0.01740299   0.01475374  57.93 0.0008776942    1.266    0.210
        28 -11.6231     65.7417    200.2333   2.9230011224e+02   5.0764480514e+00   0.01896111   0.01152671 -42.54 0.0006907432    1.727    0.421
        29 -10.2545    193.3211    195.7713   2.9079963187e+02   4.3629914310e+00   0.04337439   0.02084751  88.84  0.002195736    7.705    0.870
        30  -8.6059     51.5484    197.4612   2.9244707208e+02   5.1932281521e+00  0.006598233  0.006353268  66.09 0.0008063571    1.072    0.068
        31  -9.8131     43.8649    192.3931   2.9250472270e+02   5.2975234132e+00   0.01758414   0.01247814   4.04  0.001160662    1.668    0.401
        32 -11.9339     71.4077    192.0089   2.9218407567e+02   5.1372976283e+00   0.01519954   0.01223359 -37.92 0.0005563486    1.282    0.220
        33 -13.4402     68.0236    177.0639   2.9213124748e+02   5.3296860978e+00   0.02822011   0.01406688 -39.80  0.002008888    2.331    0.571
        34 -11.0090     80.7848    179.1207   2.9199642269e+02   5.2296386709e+00   0.01190745   0.01093361 -50.89 0.0003718282    1.077    0.071
        35 -11.9206     87.9385    169.3300   2.9185346876e+02   5.2995760097e+00   0.03197912   0.02839678 -33.89  0.003851207    1.149    0.130
        36  -8.8712    250.7072    171.7031   2.8998933973e+02   4.2947857526e+00  0.006779452  0.004956431 -27.39 0.0001921255    1.561    0.359
        37 -11.2456     32.7208    156.2970   2.9241164899e+02   5.7799021351e+00   0.02255146  0.008132046 -60.90  0.001740645    2.695    0.629
        38  -9.1850    193.4106    157.0926   2.9055981685e+02   4.8075502348e+00   0.01311955  0.007657839  59.90  0.001159694    2.319    0.569
        39 -10.1621     99.6892    153.0543   2.9161737325e+02   5.4166178922e+00   0.01357165   0.01304795 -54.54 0.0008099035    1.032    0.031
        40 -12.1128     88.5363    152.6519   2.9174381258e+02   5.4880619468e+00   0.01437946   0.01196075 -26.49 0.0004831676    1.288    0.223
        41 -12.6449     67.0855    143.8708   2.9193772577e+02   5.7175903367e+00   0.03675929   0.02598925  63.03  0.003516031    1.708    0.415
        42 -11.9529     57.2584    132.5088   2.9198138417e+02   5.9072189991e+00   0.07345351    0.0300963 -76.63  0.004540252    4.799    0.792
        43 -12.8513     40.7517    235.1742   2.9280331995e+02   4.8232522381e+00   0.02013931    0.0147936 -40.29 0.0007625558    1.412    0.292
        44 -11.2120     32.5909    145.7333   2.9234816117e+02   5.9023518793e+00   0.03006828  0.007314849 -65.49  0.001660827    5.420    0.816
        45  -9.3615    102.5003    148.9144   2.9155935787e+02   5.4474415889e+00   0.01054269  0.008700356 -26.29 0.0004448866    1.304    0.233
        46  -8.5859    192.2621    144.3117   2.9049410368e+02   4.9615136547e+00  0.006736658  0.004882907 -31.55 0.0002326882    1.534    0.348
        47  -9.9601    110.6410    137.8103   2.9139677359e+02   5.5264879704e+00   0.01745105  0.009919885 -35.35  0.001353048    2.107    0.525
        48 -10.7273     98.2078    135.2056   2.9152443810e+02   5.6310034127e+00   0.01285451   0.01011184 -38.80  0.000525618    1.312    0.238
        49 -11.6540     33.3200    133.1358   2.9226218747e+02   6.0430833367e+00   0.02162467    0.0106121 -63.80  0.001901326    2.082    0.520
        50 -11.3619     25.2442    137.7698   2.9238414826e+02   6.0379427878e+00   0.01687666    0.0073073  42.00  0.001397798    2.390    0.582
        51  -9.5379    107.7520    124.3721   2.9134724687e+02   5.6985098788e+00  0.009555049  0.008669599 -79.95   0.00037789    1.150    0.131
        52 -14.8560     47.0977    228.1870   2.9268716689e+02   4.8658479665e+00     0.303457    0.1169272  26.44  0.007614142    2.661    0.624
        53  -9.0089     87.4761    137.2062   2.9166085986e+02   5.6722655733e+00  0.008565225  0.006467672 -82.93 0.0003884997    1.516    0.340
        54 -10.5430    168.1147    113.2104   2.9058067969e+02   5.4645322834e+00   0.01529272   0.01162713  61.59 0.0008048227    1.508    0.337
        55  -9.2823    203.4697    111.5028   2.9016186058e+02   5.2714911119e+00  0.006665378  0.006331093 -28.95 8.889296e-05    1.059    0.056
        56  -9.7376     33.0000    109.0173   2.9211733155e+02   6.3227155478e+00    0.0111474  0.003741925 -61.92 0.0007438304    2.961    0.662
        57 -11.2374      2.0000    240.5398   2.9328371123e+02   4.9926118058e+00   0.03247569   0.01154686 -58.52  0.002536308    2.626    0.619
        58  -9.7515     34.2424     92.9579   2.9200395296e+02   6.5001684307e+00   0.01750673  0.009478983  44.21  0.001619243    1.949    0.487
        59  -8.7615    184.7043     77.6282   2.9016887773e+02   5.7739758356e+00  0.007192746  0.004820541 -31.04 0.0007027474    1.734    0.423
        60  -9.2440    156.2052     75.6135   2.9048572084e+02   5.9685903981e+00  0.009230358  0.006397655  11.53 0.0004444367    1.635    0.388
        61 -10.4900     14.5859     65.6548   2.9206320654e+02   6.9317781993e+00   0.02202762  0.009716826  37.80   0.00137069    2.212    0.548
        62 -11.1748      6.7268     62.9742   2.9213772581e+02   7.0095202242e+00   0.02023111   0.01094632  32.99  0.001058915    1.804    0.446
        63 -10.6210      2.3235     61.6566   2.9218061903e+02   7.0509475563e+00   0.01450252    0.0103316  71.57  0.001483072    1.775    0.437
        64  -9.5066     31.1465     61.4722   2.9184554883e+02   6.8810004754e+00   0.01574378  0.006082156  30.91  0.001264328    2.474    0.596
        65 -10.7898      8.4511     54.5961   2.9206605836e+02   7.0956225840e+00   0.01640501  0.006835679  20.71  0.001260542    2.857    0.650
        66 -11.9601      2.9717     45.6601   2.9207441557e+02   7.2311039320e+00   0.03055994   0.01197037 -58.07  0.002495203    2.404    0.584
        67 -10.3655    248.9020    249.2464   2.9048885041e+02   3.4138294754e+00   0.01317726  0.009780261  -2.40  0.001397219    1.596    0.373
        68  -9.9665    152.8415    249.1796   2.9159561534e+02   3.9911769790e+00  0.009306604  0.007718168 -22.61 0.0004935041    1.310    0.236
        69  -9.8474     81.6695    248.9617   2.9241551200e+02   4.4198959022e+00   0.01252822  0.008841406  54.33  0.000869163    1.589    0.371
