#   1 NUMBER                 Running object number                                     
#   2 MAG_AUTO               Kron-like elliptical aperture magnitude                    [mag]
#   3 X_IMAGE                Object position along x                                    [pixel]
#   4 Y_IMAGE                Object position along y                                    [pixel]
#   5 X_WORLD                Barycenter position along world x axis                     [deg]
#   6 Y_WORLD                Barycenter position along world y axis                     [deg]
#   7 A_WORLD                Profile RMS along major axis (world units)                 [deg]
#   8 B_WORLD                Profile RMS along minor axis (world units)                 [deg]
#   9 THETA_WORLD            Position angle (CCW/world-x)                               [deg]
#  10 FWHM_WORLD             FWHM assuming a gaussian core                              [deg]
#  11 ELONGATION             A_IMAGE/B_IMAGE                                           
#  12 ELLIPTICITY            1 - B_IMAGE/A_IMAGE                                       
         1 -11.8064    201.6441     39.5582   4.5534271948e+01   2.9962172679e+01     0.731938    0.7033349  66.57  0.003670341    1.149    0.129
         2 -11.8196    210.3947     34.3383   4.3121347191e+01   2.8557040522e+01    0.9004739    0.7136234 -51.84   0.00472389    1.166    0.142
         3 -11.7414    227.4586     16.0394   3.6999481725e+01   2.6833206601e+01    0.7196019    0.5983255 -67.69  0.002875624    1.016    0.016
         4  -9.7666      2.0000      9.0225   9.3298711288e+01   7.3146536679e+01    0.4830423   0.08984479 -48.27  0.001851893    4.270    0.766
         5  -8.7821     57.1392    239.1432   1.1842866078e+02   1.7609611208e+01     0.163941    0.1464609  73.12 0.0007983902    1.237    0.192
         6 -11.4601     59.7119    249.1940   1.1872964519e+02   1.5434526679e+01     1.456131    0.4651792  31.42  0.005594279    4.556    0.780
         7 -11.8525     98.0490    245.5826   1.1134063139e+02   1.0875161023e+01    0.8314012    0.3953086  36.37   0.00430527    1.940    0.484
         8  -9.3800     73.3274    250.5900   1.1638932506e+02   1.3419454256e+01    0.4915065   0.09183771  41.24  0.001887593    3.671    0.728
         9 -10.6232     84.0530    249.1842   1.1430487573e+02   1.2215957265e+01    0.7255248    0.2539171  34.26  0.002680839    3.026    0.670
        10 -11.0377     30.9205    247.6307   1.2364960662e+02   1.9144420749e+01    0.5035387    0.4339545  61.05  0.003179535    1.319    0.242
        11  -9.4406     40.5848    246.9143   1.2194372664e+02   1.8173806577e+01    0.2797412    0.1311158 -82.62 0.0009729715    2.123    0.529
        12 -12.1722     21.4877    223.3307   1.2387155183e+02   2.4801032629e+01     1.220358    0.4664883  73.86  0.005654278    2.884    0.653
        13 -14.0155      6.1849    139.8142   1.2071561314e+02   4.4733187611e+01     9.285943      1.43176 -77.06    0.0212028    8.845    0.887
        14 -12.0148      2.3694    179.0346   1.2477511057e+02   3.5970078025e+01     2.720573    0.2716461 -77.00  0.002651032    8.873    0.887
        15 -13.5077     39.9399    195.2942   1.1813843787e+02   2.8699666218e+01     3.136797     1.218255  67.52   0.01196366    3.653    0.726
        16 -11.5085    127.8371    231.4160   1.0388021058e+02   8.8742139833e+00    0.5775319    0.3873111 -28.23  0.003060683    2.264    0.558
        17 -10.3512    124.5397    229.4896   1.0429498637e+02   9.7425256077e+00    0.2254539    0.2107431 -41.47 0.0008869419    1.276    0.216
        18 -10.4922     41.1997    235.9474   1.2110762441e+02   2.0152931389e+01    0.2689143     0.183817  65.16 0.0004564161    1.140    0.123
        19  -9.4984     38.4913    231.5532   1.2129787551e+02   2.1315174063e+01    0.2220807    0.1759516  65.10 0.0009806516    1.100    0.091
        20  -9.0171     61.8015    235.5929   1.1727476995e+02   1.7688794041e+01    0.2087139    0.1555804  76.79 0.0005559403    1.161    0.139
        21 -10.3666     90.2272    231.4086   1.1139214432e+02   1.4599271911e+01    0.2573812    0.2162615 -70.67 0.0009464276    1.317    0.241
        22 -10.5545     83.5873    227.2734   1.1227810725e+02   1.6346125863e+01    0.4922339    0.2208315 -68.31  0.002386879    2.450    0.592
        23 -10.7944     87.9635    226.7389   1.1134731455e+02   1.5823794971e+01    0.4227386    0.2535091  76.73 0.0008594256    1.974    0.493
        24 -10.2439    121.7719    224.3299   1.0418601830e+02   1.1131015496e+01    0.3404172    0.2212933 -36.26  0.001530577    2.113    0.527
        25  -9.0539     33.6779    227.0054   1.2187156303e+02   2.2754507979e+01     0.158151    0.1173951  83.49  0.000334028    1.122    0.108
        26  -9.1192     48.6004    224.5720   1.1888357189e+02   2.1498353973e+01    0.2380014    0.1691187 -64.69  0.001075563    1.558    0.358
        27  -8.8102    168.4812    224.5031   9.4716684097e+01   3.4557779171e+00    0.1303905    0.1120941  25.03 -1.303108e-05    1.033    0.032
        28 -11.4807     32.4040    207.9510   1.2074112029e+02   2.6798395325e+01    0.4476846    0.3673154 -49.57  0.001246302    1.672    0.402
        29 -10.0407     29.0587    218.7731   1.2217243939e+02   2.4915764112e+01    0.3279637    0.1601439 -67.27   0.00187004    1.975    0.494
        30 -13.2977      5.1593    241.3654   1.2763698241e+02   2.2976601033e+01      1.91138     1.034912 -84.54   0.01199043    1.578    0.366
        31  -9.9481     49.3474    217.2593   1.1813765118e+02   2.2892731035e+01    0.3506671    0.1896822  65.63  0.001927909    1.736    0.424
        32 -11.5307    113.2728    230.6247   1.0670704839e+02   1.1297182304e+01    0.6758025    0.2391573  44.99  0.002879566    2.410    0.585
        33  -9.8476    164.6255    219.5059   9.4704265601e+01   4.9375753972e+00    0.3736021    0.1593626 -52.02   0.00157536    2.938    0.660
        34 -10.3068    120.2715    240.3955   1.0649151873e+02   8.4732670365e+00    0.4261716    0.1058193  37.64  0.001515981    3.587    0.721
        35 -10.1305     21.4563    194.7307   1.2194366697e+02   3.0787211376e+01    0.3405147    0.1665113  82.00  0.001777733    1.956    0.489
        36  -8.3363     53.2898    240.1210   1.1920929148e+02   1.7906304140e+01    0.1574512     0.119942  80.45 0.0005240213    1.143    0.125
        37 -10.2228     60.2270    180.2605   1.1203440815e+02   2.9656102782e+01    0.4095358    0.2744211 -37.43  0.001823961    2.143    0.533
        38 -10.1245     65.8092    174.5265   1.0998669082e+02   3.0262209894e+01    0.3229004    0.2388873 -43.85 0.0009347089    1.635    0.388
        39  -8.9330    101.4985    172.5115   1.0103222066e+02   2.5367233506e+01    0.1420718    0.1334834  82.31 -9.909838e-05    1.014    0.014
        40  -7.5668     40.3171    172.6578   1.1580546195e+02   3.3826513617e+01    0.1385273   0.08250907  71.10 8.430861e-05    1.713    0.416
        41  -9.8438     75.6266    164.6786   1.0617126971e+02   3.1240478119e+01    0.3268653    0.2842703  62.28  0.000453845    1.127    0.113
        42 -11.2353     82.5062    158.2976   1.0339876816e+02   3.1762315715e+01    0.9159901    0.7558988   9.43  0.003815307    1.591    0.371
        43 -11.2866     73.4332    154.4935   1.0511915299e+02   3.4022959717e+01     1.096151    0.5713678  77.37  0.003757505    3.696    0.729
        44 -10.7941     70.2350    145.4196   1.0444488260e+02   3.6702301127e+01    0.4598449    0.3771084  33.95  0.001536617    1.365    0.267
        45 -10.8867     67.5102    142.5112   1.0468367807e+02   3.7797102088e+01    0.5054717    0.3425041  41.89  0.001624946    1.566    0.361
        46 -11.7263     62.7777    160.8831   1.0884349695e+02   3.3927911289e+01    0.5545415    0.3147556 -44.74  0.001368006    2.087    0.521
        47 -12.7019      9.2127    207.4049   1.2519251943e+02   2.9259051628e+01    0.9322596    0.8003358  21.85  0.006156079    1.712    0.416
        48  -8.5705     28.4745    156.4858   1.1687597608e+02   3.8894226290e+01     0.128708    0.1050775 -81.76 7.286703e-05    1.033    0.032
        49  -9.0535     32.5000    155.0017   1.1570807365e+02   3.8855628109e+01    0.2055984    0.1082167 -71.29  0.001034472    1.596    0.373
        50  -9.2809     32.7468    144.2120   1.1432360182e+02   4.1447092926e+01    0.2492228    0.1407056 -74.10  0.001277329    1.516    0.340
        51  -9.3892     97.7695    143.2189   9.6586041816e+01   3.2970085814e+01    0.4360056    0.2937771 -38.64  0.002000653    1.673    0.402
        52 -10.5399     85.4711    142.2301   9.9718459827e+01   3.5225005173e+01    0.3213373    0.2754789 -49.84  0.000590149    1.166    0.143
        53 -10.7032     59.6265    136.3889   1.0580835672e+02   4.0355284867e+01    0.6316441    0.3000785 -79.86  0.002304696    3.013    0.668
        54 -11.1414    141.1420    230.8506   1.0113341949e+02   6.8467133501e+00    0.5978909    0.2313144  33.97  0.002469061    2.579    0.612
        55  -9.0384    107.8655    131.9312   9.1423337116e+01   3.3905595572e+01     0.460591    0.2285151  41.12  0.001809826    2.087    0.521
        56  -8.7623     96.2739    128.2596   9.3804053464e+01   3.6856073241e+01    0.3098892    0.2317097 -22.73  0.001075289    1.714    0.417
        57  -8.1295    115.3129    126.3003   8.8080079978e+01   3.3837978544e+01    0.1543285    0.1224902 -12.38 0.0002453908    1.608    0.378
        58  -8.0580    106.3153    120.1087   8.9058931526e+01   3.7006840166e+01    0.2117896    0.1857693 -53.28 0.0003510122    1.087    0.080
        59  -8.8609     73.6098    136.1686   1.0183971944e+02   3.8508223203e+01    0.2195334    0.1183768 -50.96 0.0009569664    1.739    0.425
        60  -7.9669    205.4976    110.4655   6.3391022708e+01   1.7520314586e+01    0.1503056    0.1394757 -39.25 0.0008096271    1.015    0.015
        61  -8.8269    134.5775    102.7626   7.6788125908e+01   3.5174733236e+01    0.2271554    0.1469442 -52.45 0.0007890082    1.620    0.383
        62  -9.7083     13.2029     59.8721   1.0549135801e+02   6.2874597414e+01    0.2143657    0.1671129 -49.29 0.0006230515    1.045    0.043
        63 -10.8665    132.7277    229.3799   1.0262695296e+02   8.4576080343e+00    0.3714883    0.2651465  42.08  0.002190671    1.205    0.170
        64 -10.6334    114.0441    241.3219   1.0781166503e+02   9.2591657431e+00    0.3564513    0.1836165 -58.01  0.001895132    2.258    0.557
        65 -11.8587     83.1901    243.5354   1.1394893460e+02   1.3344534392e+01    0.7504706    0.6553425 -20.34  0.005158175    1.782    0.439
        66 -10.7804    217.3172     26.3407   4.0385116587e+01   2.7935134055e+01    0.4869458    0.3328059  43.84   0.00120499    1.857    0.462
        67  -8.3140    135.9262     43.0497   5.7722786968e+01   4.5691411105e+01    0.2164158    0.1939215 -87.26  0.000821974    1.247    0.198
        68  -9.7578    134.9914    240.5328   1.0363221330e+02   6.1717116759e+00    0.3565399    0.1320483 -39.13  0.001277222    5.026    0.801
