#   1 NUMBER                 Running object number                                     
#   2 MAG_AUTO               Kron-like elliptical aperture magnitude                    [mag]
#   3 X_IMAGE                Object position along x                                    [pixel]
#   4 Y_IMAGE                Object position along y                                    [pixel]
#   5 X_WORLD                Barycenter position along world x axis                     [deg]
#   6 Y_WORLD                Barycenter position along world y axis                     [deg]
#   7 A_WORLD                Profile RMS along major axis (world units)                 [deg]
#   8 B_WORLD                Profile RMS along minor axis (world units)                 [deg]
#   9 THETA_WORLD            Position angle (CCW/world-x)                               [deg]
#  10 FWHM_WORLD             FWHM assuming a gaussian core                              [deg]
#  11 ELONGATION             A_IMAGE/B_IMAGE                                           
#  12 ELLIPTICITY            1 - B_IMAGE/A_IMAGE                                       
         1 -13.2820     62.0007    108.7685   1.1718329628e+02   4.7884444987e+01    0.8877386    0.4575998 -39.25  0.003665729    2.193    0.544
         2 -13.9702    174.9121     44.0022   6.7603122184e+01   3.5912336765e+01     1.041662    0.6383209  31.16  0.003511151    2.453    0.592
         3 -14.1936    186.8820     33.2655   6.2928912971e+01   3.4300555062e+01    0.9195361    0.8326881 -76.86  0.003326589    1.061    0.058
         4 -14.6815    192.8398     24.7003   5.9950721503e+01   3.3858531035e+01    0.9121101     0.773603 -26.19  0.001353403    1.410    0.291
         5 -12.0719    212.2483      1.5342   5.2499885186e+01   3.1705085079e+01    0.4413283   0.09844188  73.08  0.001573371    3.736    0.732
         6 -10.7457     88.9925    217.9766   1.2747607332e+02   1.7816582013e+01    0.3575016    0.1891129  65.00  0.001366518    2.262    0.558
         7 -17.3450     98.6923    110.9223   1.0583254033e+02   4.1343277880e+01     5.988221     4.303524 -15.29   0.02599437    1.954    0.488
         8 -13.2214     61.5990    206.9651   1.3239347969e+02   2.4132709918e+01    0.4725987    0.4680761  12.91  0.001355601    1.348    0.258
         9 -10.3563     50.2924    213.3452   1.3549124480e+02   2.4214334879e+01    0.1687208   0.09494754  47.69 0.0004151899    1.518    0.341
        10 -12.6732    107.5626    209.4463   1.2221200947e+02   1.6652843507e+01     0.473007    0.3157145  67.06  0.002377682    1.677    0.404
        11 -10.0797     42.4579    221.2278   1.3779517554e+02   2.3504432446e+01    0.1057904   0.09311584  -3.16  0.000433305    1.781    0.438
        12 -12.7412     76.1167    215.7101   1.3007215074e+02   2.0207210463e+01    0.5847324    0.2842079  67.56  0.001240474    2.661    0.624
        13 -13.0220     42.1477    202.4213   1.3631565894e+02   2.7610112933e+01    0.2785247    0.1995081  48.56  0.001390214    1.279    0.218
        14 -11.8879    104.9013    199.9933   1.2150249586e+02   1.9119496222e+01    0.3525414    0.2139191 -40.36  0.001609672    2.196    0.545
        15 -12.2579    193.5171    193.7628   1.0051033516e+02   4.3768301446e+00    0.6906033    0.4620084 -58.41  0.003312917    2.126    0.530
        16 -11.7364     72.4995    195.5182   1.2859890565e+02   2.5183163344e+01    0.3599779    0.2757113 -44.01  0.001340863    1.659    0.397
        17 -11.6014     67.1319    194.7174   1.2977874302e+02   2.6128311082e+01    0.9354146    0.5481094  14.76  0.003261167    2.984    0.665
        18 -12.3093     69.5187    190.9828   1.2876202081e+02   2.6652406426e+01    0.4495717     0.340278 -20.17  0.001863428    2.119    0.528
        19  -9.7835    180.2982    192.6551   1.0306179096e+02   6.9794264207e+00    0.1357767    0.1141865  81.43 0.0005814013    1.674    0.403
        20 -15.0906     52.1234    236.6397   1.3701935679e+02   1.9168535308e+01     1.403257     0.777458  87.80  0.006738415    1.859    0.462
        21 -10.0856     59.0090    188.2491   1.3097615622e+02   2.8731793015e+01    0.2643217    0.1338035 -47.12   0.00114826    2.589    0.614
        22 -10.5094     75.0213    182.2868   1.2628974151e+02   2.7891814711e+01    0.1996057    0.1700093  57.47 0.0005567322    1.090    0.082
        23 -11.1938     99.4906    180.5915   1.1988402460e+02   2.4411224720e+01    0.2514083    0.2312518  67.90 0.0006257666    1.009    0.009
        24 -11.5828    210.9583    179.4973   9.4232849853e+01   3.7492264354e+00    0.3258762    0.2232525   8.38  0.001458134    1.750    0.428
        25 -12.3583     81.8368    178.1720   1.2398794018e+02   2.7839647530e+01    0.4774422    0.2689243 -42.66  0.002054854    2.315    0.568
        26 -12.6577     85.1565    173.0275   1.2235872874e+02   2.8551247654e+01    0.3921493    0.3316745  68.05  0.001424804    1.119    0.107
        27 -16.3387     98.4235    245.6441   1.2850777783e+02   1.0984496269e+01        6.846     2.478374  30.26   0.02544303    3.625    0.724
        28 -11.6929    196.1848    171.1334   9.5460424485e+01   7.9983494293e+00     0.343236    0.2939051  19.39 0.0009668009    1.140    0.123
        29 -10.8856    145.7955    168.3917   1.0614106337e+02   1.8566816320e+01    0.2105913    0.1410476  31.69 0.0003535109    1.562    0.360
        30 -10.5104    193.9605    165.2237   9.4675475664e+01   9.5428498929e+00    0.2905134    0.1841263 -64.57  0.001175083    2.587    0.613
        31 -10.1975     36.7836    223.4468   1.3912055352e+02   2.3715176076e+01    0.1598443   0.09734689  46.38 0.0006964333    1.409    0.290
        32 -12.7790     97.4232    156.4509   1.1625962719e+02   3.0534129185e+01    0.6542577    0.4332053 -33.52   0.00265569    2.007    0.502
        33 -10.9263    140.9632    157.6858   1.0510941537e+02   2.1917433269e+01    0.2603374    0.2231006 -65.42  0.000374372    1.257    0.204
        34 -10.6381     85.5029    218.4751   1.2830431744e+02   1.8240701774e+01     0.236445    0.1151416  37.24  0.001103188    1.869    0.465
        35 -10.5761    174.9746    149.0203   9.5177083205e+01   1.6647897105e+01    0.1857818    0.1802302  21.49 0.0004531203    1.016    0.016
        36 -11.8045    134.0000    143.4967   1.0376664983e+02   2.6586359610e+01    0.8615394    0.2486584 -55.31  0.002099145    5.144    0.806
        37 -12.4952    108.4264    140.7610   1.1004928245e+02   3.2348269659e+01    0.5694107    0.3448933 -34.14  0.002268925    2.146    0.534
        38 -12.4235     96.8131    141.2971   1.1344584957e+02   3.4352206060e+01    0.2907768    0.2827024  16.41 0.0004005058    1.123    0.110
        39 -19.5161     18.6423    117.1888   1.3311985542e+02   5.0379341674e+01     21.49361     2.127843 -70.10   0.04588225    9.090    0.890
        40 -12.3795    115.5384    130.8007   1.0580175457e+02   3.3345748515e+01    0.3867461     0.290391 -18.39   0.00136887    1.792    0.442
        41 -10.5237    160.6596    127.3391   9.3304952345e+01   2.4353389194e+01    0.1651394    0.1264279 -87.06 0.0007050119    1.766    0.434
        42 -10.6964     48.2129    217.7568   1.3631373102e+02   2.3530836514e+01    0.3547226    0.1794545  23.30  0.001627483    2.900    0.655
        43 -11.4014    136.7432    123.4794   9.8259210832e+01   3.0562486941e+01    0.2518394    0.2454583 -89.67 0.0006543335    1.033    0.032
        44 -10.8853     70.9783    209.9692   1.3059929820e+02   2.2177696918e+01     0.527499    0.1734487  53.01  0.001902102    3.289    0.696
        45 -10.3436    168.0652    113.0211   8.7981631572e+01   2.5628849317e+01    0.2621082    0.1955667 -80.45  0.001133801    1.794    0.443
        46 -11.0534     77.6808    208.6082   1.2893337388e+02   2.1507683730e+01    0.3460878    0.2403343 -50.25  0.001883233    1.750    0.429
        47 -10.1138    205.7693    110.2010   7.9755869898e+01   1.7487566643e+01    0.1967422    0.1741743   2.58   0.00049946    1.311    0.237
        48 -11.9225     59.8019    214.3786   1.3352192148e+02   2.2759293194e+01    0.7867647    0.3099074  60.62  0.001351702    3.009    0.668
        49 -12.0703    169.8366     69.4578   7.5716274995e+01   3.3335835921e+01    0.4840397    0.3144249 -83.82  0.001360371    2.160    0.537
        50 -11.8528     65.5939    210.8048   1.3189188433e+02   2.2747813662e+01    0.3192033    0.2497717 -78.99 0.0009748317    1.271    0.213
        51 -11.7567     85.1681    235.9361   1.3023761931e+02   1.4776143711e+01    0.3918422     0.198962 -75.10  0.001083054    2.381    0.580
        52 -12.0319     92.9782    236.2808   1.2864842668e+02   1.3551675293e+01    0.2395687    0.2097417  75.89 0.0003814332    1.152    0.132
        53 -10.5097     70.7646    228.3253   1.3250123478e+02   1.8347920487e+01    0.1927621     0.143132  74.87  0.001185831    1.235    0.190
        54 -10.8066    216.5359     18.4970   5.6012466478e+01   2.8899514318e+01    0.1305259    0.1064597 -76.06 3.749287e-05    1.010    0.010
