#   1 NUMBER                 Running object number                                     
#   2 MAG_AUTO               Kron-like elliptical aperture magnitude                    [mag]
#   3 X_IMAGE                Object position along x                                    [pixel]
#   4 Y_IMAGE                Object position along y                                    [pixel]
#   5 X_WORLD                Barycenter position along world x axis                     [deg]
#   6 Y_WORLD                Barycenter position along world y axis                     [deg]
#   7 A_WORLD                Profile RMS along major axis (world units)                 [deg]
#   8 B_WORLD                Profile RMS along minor axis (world units)                 [deg]
#   9 THETA_WORLD            Position angle (CCW/world-x)                               [deg]
#  10 FWHM_WORLD             FWHM assuming a gaussian core                              [deg]
#  11 ELONGATION             A_IMAGE/B_IMAGE                                           
#  12 ELLIPTICITY            1 - B_IMAGE/A_IMAGE                                       
         1 -12.2615    167.7967     59.4177   9.4327401186e-01   3.5778686243e+01     1.441977    0.9951446  31.61  0.006169093    2.270    0.560
         2 -12.7343    182.0391     45.4413   3.5555919867e+02   3.4724300870e+01    0.8229985    0.7356356 -77.92  0.003343894    1.132    0.117
         3 -12.1416    211.6593      2.5706   3.4328854246e+02   3.3681785500e+01      1.14991    0.2539015  83.08  0.004412361    5.000    0.800
         4 -12.4123    203.0914     18.6018   3.4731231775e+02   3.3683234268e+01    0.7010478    0.3380204 -86.19  0.003270772    2.158    0.537
         5 -13.2283    204.5742     12.8692   3.4592215212e+02   3.4005634754e+01     1.205515    0.5974393 -62.80   0.00593834    1.710    0.415
         6 -11.1818    190.6483     16.1360   3.4755688104e+02   3.6453221125e+01    0.3307459     0.174671 -49.60  0.001494472    1.506    0.336
         7 -11.1377    119.5873      9.5726   3.5239779395e+02   5.3361916193e+01    0.5479953    0.3641965  53.27   0.00276853    1.572    0.364
         8 -11.1396    172.3335      3.5825   3.4563497633e+02   4.1607773340e+01    0.5318841     0.203937 -67.03  0.002381409    2.620    0.618
         9  -9.6944    191.7448    192.5998   2.5776710860e+01   8.4943876041e+00    0.3728714    0.2236425 -60.02  0.001772458    3.056    0.673
        10 -14.1768    237.0406    235.6654   2.5023942923e+01  -2.2376950598e+00     2.491131     1.430376 -12.16   0.01780398    1.414    0.293
        11 -10.5830      1.1619    193.8849   7.3531981372e+01   3.1113199337e+01    0.1480297   0.08811274 -87.71 0.0007575707    1.622    0.383
        12 -11.8288    148.9386    190.8266   3.4015127678e+01   1.4383388132e+01    0.5465096    0.3986122 -80.90  0.002688843    2.483    0.597
        13 -11.2670    135.0352    187.1207   3.6538209169e+01   1.7059522909e+01    0.4215899    0.2843581 -75.69  0.001943613    2.459    0.593
        14 -10.5289     26.1190    189.0345   6.6265434542e+01   3.0294901648e+01    0.2561002    0.1699623  19.69 0.0008205397    1.524    0.344
        15 -15.4592     64.0773    142.6272   4.8800431615e+01   3.8248815909e+01     4.229957     3.460766 -60.39   0.02129655    1.211    0.174
        16  -8.8291    214.3015    184.3152   2.0523057156e+01   7.1229970563e+00    0.1209926   0.07533137 -14.69 0.0002784065    1.615    0.381
        17 -14.8619     20.8244    136.2594   6.3338837794e+01   4.4922056406e+01     8.178712     4.792299  38.22   0.03722633    1.666    0.400
        18 -11.5888     37.3873    182.9768   6.2490614507e+01   3.0741633204e+01    0.2612863      0.18852  29.86 0.0002719376    1.310    0.236
        19  -9.6643     21.6237    183.3359   6.7167552350e+01   3.2137732680e+01     0.297505    0.1471388   8.92  0.001237995    2.456    0.593
        20  -9.7204    221.0216    176.2899   1.8084634208e+01   7.5678984414e+00    0.3056368    0.1334485 -39.48  0.001252202    1.869    0.465
        21  -9.8283     39.2064    177.7142   6.1454183643e+01   3.1906453248e+01    0.3935412    0.1836585  14.87  0.001544207    2.463    0.594
        22  -9.6268      1.5181    177.8791   7.2764016497e+01   3.5096845999e+01    0.1611348    0.1201934 -72.41 0.0003281165    1.352    0.260
        23 -10.2382    186.5739    174.7789   2.3598984747e+01   1.2172401307e+01    0.2876351    0.2639818 -19.64  0.001010098    1.169    0.145
        24 -10.7316    230.7502    170.5585   1.5642240897e+01   7.2975024640e+00    0.2996769    0.1601626 -16.32  0.001579781    2.323    0.569
        25  -8.3640    193.2216    170.3985   2.1603814408e+01   1.2029462733e+01    0.1506219    0.1188043  40.45 0.0003976478    1.555    0.357
        26  -8.5457     16.9967    168.8184   6.7539914366e+01   3.6310642601e+01    0.2778517    0.1733138  89.51  0.001344627    1.570    0.363
        27  -6.1721     34.7918    174.0009   6.2445333882e+01   3.3322812787e+01     0.456775    0.2988973 -12.24  0.001988315    2.033    0.508
        28  -8.5094    188.6203    164.3173   2.1294157661e+01   1.3718121530e+01    0.1200154    0.1022025 -81.67 0.0001695272    1.816    0.449
        29  -8.9028    126.9252    163.5338   3.4305801597e+01   2.3303978581e+01    0.2170185    0.1397124  32.11 0.0007503006    1.563    0.360
        30 -11.1688     16.3071    207.8620   7.0105044534e+01   2.6590380715e+01    0.2854311    0.1800481  61.08  0.001551398    1.451    0.311
        31  -9.0339    126.2482    156.8656   3.3192804134e+01   2.4896142911e+01    0.3407243    0.1157237 -48.84  0.001165942    2.815    0.645
        32  -9.0086    147.0298    156.4550   2.8156310258e+01   2.1576257858e+01    0.2525674    0.1915119 -61.84  0.000600095    1.544    0.352
        33 -10.8661    133.8561    146.5885   2.9227149341e+01   2.5891237871e+01     1.288573    0.4172387 -56.69  0.003559489    4.682    0.786
        34  -9.5207    236.9890    151.5069   1.1402915568e+01   9.3904393194e+00     0.141837    0.1136851  31.96 0.0007138175    1.575    0.365
        35 -10.1692    150.1838    147.3013   2.5587529620e+01   2.2947383461e+01    0.3550926    0.2504791 -63.94   0.00160383    1.763    0.433
        36 -10.2400    144.9707    147.0522   2.6706470876e+01   2.3884509533e+01    0.3676768    0.1972533 -52.46  0.001583495    1.912    0.477
        37 -12.6640     11.9038    205.0804   7.1128951943e+01   2.7606980774e+01    0.4780653    0.3661502 -77.79  0.002801159    1.366    0.268
        38 -10.3620    110.7725    136.5621   3.3094793089e+01   3.2242286869e+01    0.4433476    0.3235277 -35.13  0.001656865    1.468    0.319
        39 -10.6587      1.0793    200.1349   7.3788979744e+01   2.9609734102e+01    0.1379506   0.06384218 -82.99 -0.0009232552    2.125    0.529
        40 -10.5094    104.7603    131.7523   3.3743816232e+01   3.4469586159e+01    0.3883583    0.2814923  79.12  0.001685072    1.941    0.485
        41  -8.8196    117.0670    128.1455   2.9477082095e+01   3.3071827456e+01    0.2364545    0.2017185 -11.36 0.0007768844    1.348    0.258
        42  -9.6982    104.9976    123.8221   3.1858836071e+01   3.6337105094e+01    0.2700956    0.2157276 -37.57 0.0005088585    1.299    0.230
        43 -13.0164     76.0008    246.9462   5.8090573283e+01   1.2429033221e+01    0.4262273    0.4144919   8.81  0.001697711    1.184    0.155
        44  -9.3243    157.7835    194.1581   3.2671377743e+01   1.2560613769e+01    0.2762418    0.1920792  -6.20  0.001343904    1.534    0.348
        45  -8.7251    111.6641    118.0001   2.8549946266e+01   3.6449740425e+01     0.209483    0.1883003 -50.66 0.0003330698    1.082    0.076
        46  -8.7849    167.3671    112.9693   1.4439710283e+01   2.6675228581e+01    0.2462145    0.1915105 -82.61  0.001248196    1.666    0.400
        47  -9.7369    119.1840    110.9669   2.4732667275e+01   3.6571209747e+01    0.5206738     0.285802  67.18  0.001708343    3.493    0.714
        48  -8.3518     93.9329    106.3654   3.0892937601e+01   4.2627146754e+01    0.2108337    0.1472262  25.42 0.0005620995    1.693    0.409
        49  -8.7947    111.1817    104.1773   2.5145553984e+01   3.9706841591e+01    0.2150235    0.1806561  80.77 0.0005471237    1.363    0.266
        50 -10.7805     30.2995    205.2159   6.6229534887e+01   2.5966896768e+01    0.2473141    0.1536779  27.36 0.0008263572    1.462    0.316
        51  -8.4137    136.0307     98.4719   1.7304933072e+01   3.5761220477e+01    0.2012471    0.1468671  51.52 -1.654653e-05    1.443    0.307
        52  -8.8527    180.2753     77.9966   3.8917208705e+00   3.0278433558e+01    0.1882239     0.149357 -45.30 0.0002048192    1.107    0.097
        53 -10.5912     79.6959    242.0816   5.6809242103e+01   1.2949978701e+01    0.1675899    0.1556679  26.85 0.0003939514    1.116    0.104
        54 -18.2151     41.6374    233.0180   6.5170733957e+01   1.8693952134e+01     6.683217     3.076509  17.45   0.01986453    2.195    0.544
        55 -11.9843    187.1650     38.4958   3.5330309919e+02   3.4560060010e+01    0.4671127    0.4088269  49.38  0.001588429    1.501    0.334
        56  -9.4758    143.9524     59.5215   4.7407246152e+00   4.1082681708e+01    0.2703399    0.1976492 -74.56 0.0006730566    1.455    0.313
        57  -8.7125     29.0927    202.0000   6.6338594606e+01   2.6844178574e+01    0.2322049    0.1330689   7.64  0.001079967    2.079    0.519
        58  -8.7983    221.8378     40.1777   3.5077827163e+02   2.7645831666e+01    0.1804306    0.1175944 -56.49 0.0004727925    1.214    0.176
        59  -7.7760     92.2876     40.3063   9.6094406372e+00   5.6319869988e+01    0.1389182    0.1092315  25.59 0.0002371771    1.570    0.363
        60  -7.8591    207.3169     38.2741   3.5147586719e+02   3.0571941318e+01   0.09996165   0.09286777  26.21 0.0002306966    1.565    0.361
        61  -8.4500     76.8119     37.7964   1.3291132071e+01   6.0313021102e+01    0.1883256    0.1614234 -80.88 0.0003503165    1.316    0.240
        62  -7.9018     93.2574     23.6823   2.5904531898e+00   5.8347016808e+01    0.1355991    0.0982108 -66.65 0.0002420641    1.538    0.350
        63  -8.2063    162.3456    234.2759   3.7808191704e+01   5.1330786512e+00    0.1232815   0.07645727  -6.28 0.0005404202    1.628    0.386
        64  -8.5484     21.4315    210.3466   6.8894170670e+01   2.5571706100e+01    0.1215802    0.1142804  12.70 0.0007789794    1.205    0.170
        65  -8.9034    185.6765    228.1866   3.2483630005e+01   3.5839219181e+00    0.3472865    0.1448417 -46.38  0.001713339    2.595    0.615
        66  -8.9205    184.9988    222.0248   3.1698578309e+01   4.5884185145e+00    0.2270415    0.1390401 -45.37 0.0007365107    1.798    0.444
        67  -9.5401    167.0475    224.7316   3.5529477024e+01   6.1366892675e+00    0.2366083    0.1555479 -38.74  0.000586492    1.504    0.335
