#   1 NUMBER                 Running object number                                     
#   2 MAG_AUTO               Kron-like elliptical aperture magnitude                    [mag]
#   3 X_IMAGE                Object position along x                                    [pixel]
#   4 Y_IMAGE                Object position along y                                    [pixel]
#   5 X_WORLD                Barycenter position along world x axis                     [deg]
#   6 Y_WORLD                Barycenter position along world y axis                     [deg]
#   7 A_WORLD                Profile RMS along major axis (world units)                 [deg]
#   8 B_WORLD                Profile RMS along minor axis (world units)                 [deg]
#   9 THETA_WORLD            Position angle (CCW/world-x)                               [deg]
#  10 FWHM_WORLD             FWHM assuming a gaussian core                              [deg]
#  11 ELONGATION             A_IMAGE/B_IMAGE                                           
#  12 ELLIPTICITY            1 - B_IMAGE/A_IMAGE                                       
         1 -12.0429      6.8981     18.8836   1.0985207375e+02   6.9966472128e+01    0.4460835    0.1726282 -34.83  0.002038522    2.127    0.530
         2 -11.7010    190.3912     20.3140   6.0298853558e+01   3.5609354375e+01    0.2634612    0.2289507  39.32 0.0002675513    1.503    0.335
         3 -11.9037    219.5040     14.9276   5.6106015826e+01   2.9707359566e+01    0.3992448    0.1349562 -56.86  0.001644857    3.224    0.690
         4 -11.4046    113.5430     15.6757   7.1330506544e+01   5.3637099509e+01    0.4667052    0.2276448  59.54  0.001461558    1.778    0.437
         5 -12.3219     25.6971     13.2514   9.8670145408e+01   6.8900428991e+01    0.2848439    0.2216922  -4.98 0.0003767213    1.108    0.097
         6 -11.5852     80.3996     14.8316   7.9293388868e+01   6.0411563235e+01    0.2310032    0.2039536  -5.76 0.0007391796    1.229    0.186
         7 -13.0768    209.7589      6.6736   5.5320466792e+01   3.2737413703e+01    0.6619108    0.3071126 -48.60  0.001564487    2.039    0.509
         8 -10.6536     62.3958     12.4655   8.3965987585e+01   6.3820610266e+01    0.1839784    0.1661665  44.85 6.813028e-05    1.407    0.289
         9 -10.5686     66.7041     11.9173   8.2335100643e+01   6.3145094915e+01    0.1651921     0.133206  10.01  0.001153519    1.120    0.107
        10 -10.0192     50.2323      1.8541   8.3756196279e+01   6.6756797310e+01     0.177441    0.1210012  34.32  0.000401037    1.216    0.178
        11 -12.0051     46.9603      8.3733   8.7758914951e+01   6.6649050351e+01    0.4683145    0.2470286  43.25  0.001895366    1.824    0.452
        12 -11.5364     51.9728      5.9394   8.4879297703e+01   6.6120004275e+01     0.210349    0.1574292  -2.28  0.000311034    1.234    0.190
        13 -10.2350     13.9514      4.4832   1.0028683861e+02   7.1178847550e+01    0.1607463    0.1260451 -20.58 0.0008500083    1.384    0.277
        14 -10.3736     10.8376      1.8270   1.0060229432e+02   7.1788213576e+01    0.1857594    0.1316428  41.45 0.0008223871    2.394    0.582
        15 -10.2420     13.6251      8.7055   1.0233052449e+02   7.0713354562e+01    0.2605987    0.1223223 -38.59  0.001587062    2.134    0.531
        16 -11.0510     18.9077      7.4015   9.9229520666e+01   7.0331766823e+01    0.3722595    0.1429433  24.91   0.00137319    2.544    0.607
        17 -10.2840      6.9637     10.2380   1.0628088667e+02   7.1125137162e+01    0.2090021    0.1631159  44.89   0.00147669    2.504    0.601
        18 -10.5976    246.4290     10.2386   5.3004852532e+01   2.4620511102e+01    0.1623932   0.08249316 -53.40 0.0009522798    1.650    0.394
        19 -10.5596     74.9568      9.1084   7.8703841614e+01   6.1941704054e+01    0.2202001    0.1634555  41.42   0.00110856    1.148    0.129
        20 -10.7520    106.7266      8.6963   7.0517742204e+01   5.5707055886e+01    0.3859293    0.1286156  47.37  0.001694687    2.409    0.585
        21 -11.4802    186.8409      8.1358   5.7924464515e+01   3.7712997740e+01    0.2508149     0.146118  65.29 0.0009790814    1.469    0.319
        22 -12.2959    190.7406      5.3308   5.6880813205e+01   3.7108065899e+01    0.3339934    0.2226841 -72.42 0.0003384952    1.413    0.292
        23 -11.6225    194.5379      3.5257   5.6101000123e+01   3.6431989141e+01    0.2879218    0.1818997  86.76  0.001059591    1.335    0.251
        24 -11.3228    176.3398      7.6266   5.8999403023e+01   4.0160235202e+01    0.2412767    0.1445289  43.96 0.0008164832    2.023    0.506
        25 -10.6361     87.1953      7.1595   7.4605294721e+01   5.9799816040e+01     0.188991    0.1505273 -19.18 0.0009447104    1.432    0.302
        26 -11.5296     24.6861      6.8710   9.6329774569e+01   6.9749998872e+01     0.200365    0.1498462 -19.86 0.0004906246    1.327    0.247
        27 -11.5519     38.7531      3.6332   8.8884249920e+01   6.8287691300e+01    0.3359643    0.2123741 -43.56  0.002052802    2.622    0.619
        28 -10.5075     62.2773      6.0471   8.1406824946e+01   6.4437026774e+01    0.2119998    0.1262294  34.88 0.0008064291    1.369    0.270
        29  -9.6202      7.0040      5.5235   1.0420639076e+02   7.1710547508e+01    0.1393629   0.06867754   0.14 0.0004581025    2.218    0.549
        30 -11.8975    180.6687      2.7310   5.7363753980e+01   3.9636224657e+01    0.3515138     0.215879  66.15  0.002094532    1.370    0.270
        31 -11.8548    160.3545      2.9503   5.9823802841e+01   4.4250050589e+01     0.465462    0.2129588  74.58  0.002286191    1.937    0.484
        32  -9.7924    111.9601      4.7524   6.8137733740e+01   5.4917982477e+01    0.1568243   0.08563238  58.64 0.0003614021    1.491    0.329
        33  -9.8562     30.8229      3.8321   9.2260100637e+01   6.9324987235e+01    0.1318059    0.1119235   6.45 0.0003185929    1.318    0.241
        34 -11.2365    217.9509      2.2755   5.3727711030e+01   3.1418778192e+01    0.2563007    0.1559123 -64.54   0.00158732    1.450    0.311
        35 -10.4740     91.5165      2.6877   7.1919012943e+01   5.9305113694e+01    0.1935618    0.1555725  51.95 0.0006885804    1.127    0.113
        36 -11.2613     73.9626      2.1307   7.6291999328e+01   6.2705570239e+01    0.2550604    0.1863942  39.53   0.00142179    1.097    0.088
        37  -9.8591     81.3013      2.3139   7.4352792242e+01   6.1322368674e+01    0.1225066   0.07075159  30.27 0.0002579141    1.612    0.380
        38 -10.7402    173.4616    228.1961   1.1023676732e+02   3.8799706663e-01    0.2559765    0.2235606   3.57 0.0007560188    1.171    0.146
        39 -11.6755    202.8877    240.2775   1.0625327330e+02  -6.5591284410e+00    0.4294925    0.2037817  37.17   0.00108966    1.945    0.486
        40 -10.2369    197.5096    239.5292   1.0719857497e+02  -5.5926441729e+00    0.2299759    0.1277132 -48.29  0.001132358    2.104    0.525
        41 -10.8019    200.3234    249.1337   1.0822731628e+02  -7.5857744951e+00    0.2772226    0.1858896   4.78  0.001516174    1.699    0.411
        42 -11.2752    200.2068    244.9604   1.0756628172e+02  -6.9030876493e+00     0.237882    0.2087101  -2.11 0.0003865789    1.084    0.077
        43  -9.6065    149.6883    250.7451   1.1874255016e+02   2.5624383725e-01    0.1250722   0.09615877  12.74 0.0001835968    1.523    0.343
        44 -11.1453    129.1567    248.2887   1.2265891956e+02   4.0978415450e+00    0.2727421    0.2199168 -36.14  0.001170627    1.544    0.353
        45 -12.2658    119.7360    240.7984   1.2363294920e+02   7.1124931361e+00     0.602388    0.3868559  55.51  0.003135124    1.507    0.336
        46 -12.5221    109.8546    244.6403   1.2620806506e+02   7.9590181841e+00    0.4326392    0.3158577  78.52  0.002427626    1.511    0.338
        47  -9.7846    118.5422    250.6008   1.2515715344e+02   5.3898826357e+00    0.1908081    0.1021039  47.08 -2.548367e-05    1.622    0.383
        48 -11.2703    115.2681    249.4175   1.2568319114e+02   6.1467352998e+00    0.3762724    0.2769245  25.66  0.001766157    1.565    0.361
        49 -12.2901     20.1607    216.4665   1.4179563788e+02   2.6431054771e+01    0.2634664    0.1996765 -75.86 0.0002365764    1.247    0.198
        50 -12.8925     27.7941    219.0570   1.4048019717e+02   2.5019244519e+01    0.5580991      0.48863 -43.37 0.0009047169    1.634    0.388
        51 -13.1363     31.5670    211.8909   1.3908754699e+02   2.6210092921e+01     1.264044    0.6041421 -56.68    0.0062599    2.216    0.549
        52 -12.5757     17.0398    229.8563   1.4339342434e+02   2.3834917185e+01    0.8272932    0.2280834 -75.13  0.003089378    3.183    0.686
        53 -13.9479      8.8629    215.2371   1.4392209742e+02   2.7853488067e+01     1.116525    0.4876097 -82.52  0.004154501    1.946    0.486
        54 -12.7997     38.6300    218.2676   1.3820459750e+02   2.3935419818e+01    0.3680053    0.3198999  22.28  0.001033724    1.599    0.375
        55 -13.2275     36.2376    227.7906   1.3952967618e+02   2.2106005960e+01    0.8815095    0.7006354 -43.29  0.005427236    1.842    0.457
        56 -14.0814     10.9801    232.4027   1.4468713344e+02   2.3929771619e+01    0.7743775    0.6407908  36.96  0.005615191    1.578    0.366
        57 -12.7676      2.3221    228.4983   1.4601693531e+02   2.5621093903e+01     0.374359    0.2456601  84.81 0.0004801194    1.152    0.132
        58 -13.0657     27.9925    231.2213   1.4141540724e+02   2.2328265308e+01    0.6422045    0.4269436 -55.38  0.002575889    1.865    0.464
        59 -14.9070     14.7471    247.1586   1.4494434413e+02   2.0476009903e+01     1.138431    0.9023247  38.28  0.006941588    1.600    0.375
        60 -13.7262      2.8691    246.5840   1.4695998471e+02   2.1837998341e+01    0.5777762    0.3178578 -85.01  0.001246736    1.481    0.325
        61 -14.5651     35.9991    243.7339   1.4085973426e+02   1.8733082034e+01    0.8433959     0.679359  81.81  0.003446071    1.109    0.098
        62 -12.7596     44.2562    235.1992   1.3858236862e+02   1.9511037208e+01     0.415807    0.2332521  75.96  0.002235594    1.726    0.420
        63 -12.5832     46.8586    231.0642   1.3769988836e+02   2.0074110176e+01    0.3830658    0.2397828 -84.21 0.0004311621    1.459    0.314
        64 -10.4992    132.7566    233.7563   1.1985756170e+02   6.3354942525e+00    0.2288434     0.173407 -44.78 0.0009772424    1.509    0.337
        65  -9.9577    119.8573    233.7218   1.2264067108e+02   8.5275633056e+00    0.2630466    0.1694189  81.32  0.001217033    2.184    0.542
        66 -12.2192     59.3008    231.8364   1.3525274416e+02   1.8261033884e+01    0.4242254     0.246627  80.20  0.001410616    1.796    0.443
        67 -10.7205     55.6857    228.6973   1.3568385263e+02   1.9436847262e+01    0.1797658    0.1385695 -68.84 0.0004162473    1.341    0.254
        68 -10.4591    230.8875    233.2357   9.9634154551e+01  -9.6317615613e+00    0.1995488    0.1567741  34.43  0.001249786    1.373    0.272
        69 -11.1880    236.3480    230.0138   9.8049818142e+01  -9.9105032906e+00    0.5049835    0.1810309  33.70   0.00156321    2.822    0.646
        70  -9.9986    197.0011    233.2719   1.0623745383e+02  -4.4542263167e+00    0.1840165    0.1544413  27.29 0.0004067511    1.106    0.096
        71  -9.3832    183.2650    233.2885   1.0904686653e+02  -2.2026390439e+00    0.1293741   0.09810963  -0.88 0.0001799639    1.497    0.332
        72 -11.4634    154.8322    232.5600   1.1492027109e+02   2.7727531093e+00    0.4627171    0.2382165  46.99 0.0006118271    1.888    0.470
        73 -11.7054    144.8960    232.4795   1.1704396056e+02   4.5041470942e+00    0.5223401    0.2065716  43.49   0.00182299    2.292    0.564
        74 -11.3236    219.2304    231.2408   1.0149491893e+02  -7.5958345948e+00    0.2148427    0.2013283 -20.37  0.000386296    1.241    0.194
        75 -10.7972     81.2071    231.8554   1.3069235744e+02   1.5110950321e+01    0.2123778    0.1736626  70.99 0.0003440807    1.061    0.057
        76 -12.0437     73.9219    228.2477   1.3182535567e+02   1.6979530914e+01    0.5687077    0.3355229  88.36  0.002801274    1.915    0.478
        77 -10.2041     87.0025    231.0065   1.2936116550e+02   1.4412477580e+01     0.204334    0.1349692  66.45            0    1.500    0.333
        78 -10.6321    242.8978    229.1584   9.6701227057e+01  -1.0695120643e+01    0.2496367     0.210964 -54.64  0.001262659    1.717    0.418
        79  -9.9693    167.4903    230.3519   1.1186214556e+02   1.0105087892e+00     0.223551    0.1194745  37.61  0.000278701    1.715    0.417
        80 -11.3314     96.0099    228.4191   1.2710138469e+02   1.3561801455e+01     0.424814    0.3536846  53.21  0.002517978    1.092    0.085
        81 -10.7967    107.1205    228.2153   1.2465319919e+02   1.1804611478e+01    0.2448205    0.1988517  83.32 0.0006088606    1.253    0.202
        82 -11.2584    111.3507    227.8162   1.2367215101e+02   1.1189055969e+01    0.2367125    0.2119181  60.20 0.0003891434    1.015    0.015
        83  -9.7885    134.0548    227.4396   1.1863087087e+02   7.3975419591e+00    0.2047694    0.1271535  38.13 0.0002642425    1.494    0.331
        84  -9.7596    164.5324    225.5358   1.1169171396e+02   2.4438859777e+00    0.1387607    0.1268217  24.59 0.0004908654    1.033    0.032
        85  -9.6045    121.7917    225.1814   1.2099531095e+02   9.9855215514e+00    0.3316505   0.08156242  43.20  0.001030371    3.577    0.720
        86 -11.5219     78.9014    222.3972   1.3007548200e+02   1.7540865288e+01    0.3810029    0.2066007 -68.37  0.001837316    1.854    0.461
        87 -11.1993    178.5900    223.5204   1.0835161531e+02   3.8111604103e-01    0.3509172    0.2465074   8.18  0.001077186    1.771    0.435
        88 -10.6057     53.4193    222.6294   1.3554955469e+02   2.1086133344e+01    0.2993512    0.2881543 -49.52  0.001269774    1.416    0.294
        89 -10.3802    125.7129    221.9554   1.1964181278e+02   9.9962967847e+00     0.388105    0.2154338 -80.41  0.001449444    3.247    0.692
        90  -9.1420     99.2935    223.3007   1.2571185199e+02   1.4152401654e+01    0.1259273    0.1101714 -17.59  0.000212401    1.570    0.363
        91 -12.7895     47.0828    218.7695   1.3649317902e+02   2.2776500478e+01    0.4668173    0.2819069 -66.79  0.001582168    1.570    0.363
        92 -10.1794    203.5544    222.5178   1.0302505199e+02  -3.6502314573e+00    0.1866804    0.1204289 -30.81 0.0001956569    1.595    0.373
        93 -10.2033    158.6265    222.1085   1.1239357329e+02   4.1574947903e+00    0.2402817    0.1748202  48.03 0.0006579313    1.346    0.257
        94 -11.7944    106.5275    218.2696   1.2340039597e+02   1.4075153824e+01    0.4646433    0.2333446 -53.22  0.000500115    2.107    0.525
        95 -10.2008     84.9316    221.2867   1.2861914433e+02   1.6872868284e+01    0.1906342    0.1539438  51.75 0.0004767985    1.152    0.132
        96 -10.4875    248.4309    219.4300   9.3955635141e+01  -9.9556727187e+00    0.3551489     0.248155  73.32  0.001456212    4.827    0.793
        97 -10.4251     62.8769    219.9982   1.3326702160e+02   2.0398192475e+01    0.2050033    0.1412373  71.08 0.0004673776    1.351    0.260
        98 -11.2779    222.4906    218.2514   9.8527785082e+01  -5.9411007970e+00    0.2619734    0.2144522  27.10 0.0002223724    1.212    0.175
        99  -9.4608    188.5221    219.5785   1.0557266956e+02  -5.9398778067e-01    0.1357352    0.1258072  22.78 8.277539e-05    1.063    0.059
       100 -10.9355    134.0480    218.9760   1.1731492192e+02   9.1703180287e+00     0.213515    0.1986158  44.72 0.0004109454    1.042    0.040
       101 -11.9789     85.7336    216.0090   1.2776690832e+02   1.7942406861e+01    0.8373283    0.2952673  51.87  0.002963642    3.134    0.681
       102 -10.6853    217.4103    217.4694   9.9364957814e+01  -5.0079218385e+00    0.2696469    0.2203372  45.25  0.001590232    1.430    0.301
       103 -11.6462    173.4869    216.7466   1.0824888556e+02   2.5769315321e+00    0.4230462     0.326916 -85.10  0.001270975    1.915    0.478
       104 -11.0254     72.7679    217.4164   1.3082149767e+02   1.9575623082e+01    0.2261262    0.2055552  74.39 0.0003202611    1.113    0.101
       105  -9.6336    236.2468    216.9753   9.5707646432e+01  -7.8168104227e+00    0.1640732   0.09919141 -37.07 0.0004886175    1.547    0.354
       106  -9.9328    142.0693    217.2403   1.1523830964e+02   8.1099585442e+00    0.2078194    0.1707465  42.27 0.0006835769    1.134    0.118
       107 -10.8696    100.8487    216.2727   1.2439852480e+02   1.5463845891e+01    0.3874725    0.2231832 -74.14  0.001744342    2.028    0.507
       108 -10.3262     76.9077    216.4034   1.2978460920e+02   1.9195802350e+01    0.2195314    0.1671336  86.86 0.0003182615    1.248    0.199
       109 -10.9402    194.0501    216.2088   1.0381753931e+02  -9.1657170003e-01    0.2143688    0.1555395  61.11 0.0004469418    1.908    0.476
       110 -10.7262    125.7355    216.0065   1.1871792167e+02   1.1276432690e+01    0.2576854    0.2000484  30.28 0.0005729969    1.358    0.264
       111 -10.1542    146.8250    214.9458   1.1379193014e+02   7.7378098993e+00    0.2859281    0.1756472  61.75  0.001227865    2.126    0.530
       112 -10.3609     59.8291    214.9996   1.3337461651e+02   2.1958174403e+01     0.231638    0.2116662  20.00  0.001073924    1.465    0.317
       113 -10.4708     57.9404    211.5528   1.3340378172e+02   2.3010105978e+01    0.2337173    0.2200283 -41.75   0.00149071    1.408    0.290
       114 -10.1975    199.2570    214.5670   1.0244800464e+02  -1.5019818166e+00    0.2652172    0.1714392  33.02  0.001340343    1.504    0.335
       115 -10.6906    199.7324    211.3112   1.0174764368e+02  -9.8134747959e-01    0.2280996    0.1604723 -35.95 0.0002134989    1.415    0.293
       116 -10.1636    155.7225    214.0142   1.1165006369e+02   6.3216701017e+00     0.186471    0.1792331 -57.27 0.0002830908    1.111    0.100
       117 -11.2883    111.8213    213.5591   1.2150812774e+02   1.4233085877e+01    0.2647676    0.2423618  81.76  0.000562702    1.055    0.052
       118 -11.9001     67.0021    207.2968   1.3088465126e+02   2.2750387220e+01      0.34416     0.219542 -80.45 0.0003182551    1.537    0.349
       119  -9.8923    164.1399    213.3586   1.0967822382e+02   4.9304605580e+00     0.268255    0.1603104  47.78 0.0001226748    1.694    0.410
       120  -9.8345    160.5397    213.2561   1.1045211222e+02   5.6039708471e+00    0.1988455    0.1429587 -48.04   0.00046691    1.470    0.320
       121 -10.9271    117.8883    212.6306   1.1997829616e+02   1.3394554147e+01    0.2862772    0.2500839   3.66 0.0008571118    1.446    0.309
       122 -11.6170     39.4954    211.9212   1.3742506487e+02   2.5275909471e+01    0.3312791    0.2225579  52.34 0.0004021676    1.390    0.280
       123 -10.6531    219.3456    212.2000   9.8012067416e+01  -4.4015580947e+00    0.3244893     0.198327  40.74  0.001411987    1.711    0.415
       124 -10.1087     74.9433    212.1591   1.2969648343e+02   2.0464432144e+01    0.2315087    0.1657291  69.08  0.001244408    1.341    0.254
       125 -10.6183     45.7469    209.0733   1.3579948031e+02   2.5168476539e+01    0.4166151    0.1600733  44.37    0.0018374    2.386    0.581
       126 -11.1412     52.2362    211.0396   1.3459590898e+02   2.3884965604e+01    0.2718765    0.1683022 -84.70 0.0003142045    1.530    0.346
       127 -12.1754     52.5227    206.8353   1.3407376570e+02   2.4827699833e+01    0.2645934    0.2521651  56.40 0.0005085582    1.274    0.215
       128  -9.9925      9.4745    196.8644   1.4240764657e+02   3.1936946379e+01    0.2860596    0.1070096 -68.22 0.0008678243    2.145    0.534
       129 -10.1383     13.6779    211.0630   1.4266736355e+02   2.8307501783e+01    0.1727961    0.1330168 -70.63 0.0005799152    1.315    0.240
       130 -12.0337     14.1803    197.5036   1.4147310034e+02   3.1346235230e+01    0.3456517    0.2385929  56.00   0.00109554    1.391    0.281
       131 -10.6224     24.5082    210.9517   1.4046492807e+02   2.7207088638e+01    0.2999893    0.1625258  70.05  0.000826979    1.764    0.433
       132 -11.1952     25.4236    196.3536   1.3895780528e+02   3.0482521050e+01    0.4447287    0.2221728 -75.12  0.001485841    1.701    0.412
       133 -11.7634     21.9612    192.2404   1.3932602792e+02   3.1806513281e+01    0.4086484     0.140765 -68.86 0.0005474948    2.353    0.575
       134 -12.0015     19.2244    202.4802   1.4083662973e+02   2.9699398438e+01    0.4077407    0.2263886 -71.44   0.00227999    1.526    0.345
       135 -11.7186     19.0945    210.9664   1.4157052287e+02   2.7777542075e+01    0.2216858    0.1682929 -73.22 0.0003135578    1.264    0.209
       136 -12.0109     14.6307    205.6398   1.4204965737e+02   2.9437587634e+01    0.3888172    0.1944945  72.36  0.001281827    1.964    0.491
       137 -10.6004    143.2805    210.6061   1.1385325536e+02   9.3034850189e+00    0.3379169    0.2348048 -33.54  0.001609851    1.750    0.429
       138 -11.3672    213.6141    209.1382   9.8555796309e+01  -2.9239944608e+00    0.3917192    0.2433627 -68.05  0.001402173    3.588    0.721
       139 -10.2404    183.9696    210.0092   1.0478833432e+02   2.0267887811e+00    0.2005816    0.1873498   6.45            0    1.015    0.014
       140 -11.9239    182.7914    204.5870   1.0402752343e+02   3.3081442912e+00    0.4924729    0.3412892 -13.42  0.001251803    1.909    0.476
       141 -11.8080    128.4646    208.5202   1.1688976421e+02   1.2441720011e+01    0.3786932    0.3562929  51.61  0.002172083    1.037    0.035
       142 -12.1241     95.2603    209.0357   1.2464826141e+02   1.8031412616e+01    0.3393946    0.2565145 -83.40  0.000242249    1.354    0.262
       143 -10.9038     98.7073    205.4429   1.2332449203e+02   1.8300994678e+01    0.2952983    0.2321989  37.39 0.0002977156    1.318    0.241
       144 -10.5484     80.7369    209.6492   1.2806411942e+02   2.0177520905e+01    0.3163548    0.1735761 -69.78  0.001461523    1.842    0.457
       145  -9.5246     70.7732    210.0021   1.3036621717e+02   2.1576384684e+01    0.5963603    0.1476424 -57.16  0.002003237    3.700    0.730
       146 -10.6796    238.0587    207.9629   9.3698172659e+01  -6.5921208260e+00     0.256879    0.1649609 -18.43  0.001352536    1.642    0.391
       147 -10.4170    196.3070    208.3510   1.0189685003e+02   1.6689076665e-01    0.1460439    0.1046303  -6.23  0.000704279    1.710    0.415
       148 -10.2366    152.4253    207.1624   1.1118543349e+02   8.3638955020e+00    0.1979581    0.1414517 -65.83 0.0005817512    1.662    0.398
       149  -9.8107    117.2560    207.5016   1.1931819412e+02   1.4660313800e+01    0.2750874    0.1280391  44.54   0.00110718    2.021    0.505
       150  -8.9798      4.5755    206.5204   1.4414006380e+02   3.0197360816e+01    0.2144042    0.1472296 -73.46 0.0009047088    1.294    0.227
       151 -10.1572      1.7100    206.0734   1.4467399254e+02   3.0556773961e+01    0.2252049   0.09413943 -83.57  0.001018846    2.012    0.503
       152  -9.9976    200.4271    206.2238   1.0064938822e+02  -1.4860673839e-01    0.1962755    0.1316177 -53.48 0.0009564001    1.736    0.424
       153 -10.5085    133.1970    205.3368   1.1526341591e+02   1.2295325539e+01    0.4186799    0.1776302 -64.35  0.001369583    3.531    0.717
       154 -10.7822    195.9684    203.9791   1.0113945256e+02   1.0615951741e+00    0.2093942    0.1776519  84.35 0.0005996149    1.645    0.392
       155 -11.0723    121.5005    203.3334   1.1765123717e+02   1.4859020546e+01    0.3007345     0.259827  50.18 0.0004873078    1.098    0.089
       156 -11.1528    121.1278    199.0356   1.1701990172e+02   1.5914074244e+01    0.2607031    0.2176236  64.12  0.000416812    1.194    0.162
       157 -10.2471     72.5236    203.0270   1.2908202862e+02   2.2963484100e+01    0.3712143    0.1632873  57.58  0.001423865    2.731    0.634
       158 -12.1855    240.3075    199.8177   9.1746150378e+01  -5.5509935951e+00    0.4346205    0.3631819  86.79  0.001270634    2.006    0.501
       159 -11.9372    241.1205    193.7188   9.0427702850e+01  -4.6227057007e+00    0.2676522    0.2111259 -29.50   0.00138922    1.114    0.102
       160  -9.6366    166.6471    202.1585   1.0708966599e+02   6.7805873615e+00    0.1995124    0.1320622 -36.51 0.0004296113    1.645    0.392
       161 -11.4470     95.9333    200.4154   1.2322413437e+02   1.9940751064e+01    0.2921279    0.2092267 -63.17 0.0005139542    1.384    0.278
       162 -10.7539     53.4660    200.4679   1.3313841989e+02   2.6209207018e+01    0.3744191    0.1980447 -88.91  0.001674366    2.145    0.534
       163 -11.5129    232.4037    200.8511   9.3386337395e+01  -4.4979238899e+00    0.2397821    0.1972813  31.79 0.0003292033    1.291    0.225
       164 -11.3727    207.6483    199.6321   9.7923290060e+01  -1.6007078356e-01    0.3123028    0.2592387 -32.62 0.0006712747    1.156    0.135
       165 -10.8176    190.8627    201.0744   1.0164830984e+02   2.5409900945e+00    0.2481459    0.1982618 -62.98 0.0003096556    1.531    0.347
       166 -11.1226    188.4873    190.9759   1.0017843478e+02   5.0031055970e+00    0.3033169    0.2369503 -49.98 0.0007877646    1.329    0.248
       167 -12.1248    188.7101    196.2413   1.0116716991e+02   3.8957648416e+00    0.2746443    0.2623702  16.63 0.0002741359    1.040    0.039
       168 -11.1951    193.1960    194.2101   9.9824723820e+01   3.4774095537e+00    0.2832097    0.2628138   5.66 0.0005192818    1.043    0.041
       169 -11.2461    192.1668    190.6308   9.9332512340e+01   4.3863786421e+00    0.4323511    0.2530249 -27.73 0.0002647988    2.104    0.525
       170 -10.5027    170.3076    198.8938   1.0566437477e+02   6.7793511067e+00     0.404997    0.2724665 -69.48  0.001782034    2.102    0.524
       171 -10.1325    176.9747    199.4694   1.0431147868e+02   5.4137423520e+00    0.2641706    0.1899635  49.15 0.0003875017    1.459    0.315
       172 -10.2822    173.6464    197.7274   1.0470603565e+02   6.3962669628e+00    0.2593636    0.2038492 -44.96  0.001178796    1.297    0.229
       173 -11.9217    109.5852    198.0169   1.1959724530e+02   1.8195378303e+01    0.2854585     0.247195  69.98 0.0003224018    1.116    0.104
       174 -10.1478     90.4267    199.6887   1.2442128054e+02   2.1008784268e+01     0.245068    0.1262076  38.23 0.0008673447    1.929    0.482
       175 -12.3018    217.5893    194.7632   9.5012559516e+01  -9.6145830441e-01    0.5809601    0.3819488  27.13  0.002101232    1.644    0.392
       176 -13.0305    229.0464    195.5395   9.2984154365e+01  -3.0171811457e+00    0.4847874    0.3226196  12.87 0.0008822323    1.847    0.459
       177 -11.2433    227.1780    189.6115   9.2171305095e+01  -1.6330039712e+00    0.3041691    0.2011041 -43.75  0.000546473    1.454    0.312
       178 -11.0042    139.9725    194.7252   1.1180877567e+02   1.3426320034e+01    0.2433712    0.2103131 -54.55  0.001084119    1.188    0.159
       179 -10.5796    104.3785    196.5854   1.2061215145e+02   1.9432147055e+01    0.4342749    0.2627806 -26.21  0.001599521    3.274    0.695
       180 -13.3067     66.8170    191.0940   1.2883618016e+02   2.6657873910e+01    0.4800335     0.348425  46.00  0.001078894    1.378    0.274
       181 -11.2967     60.8724    188.2087   1.2987566432e+02   2.8185586281e+01    0.4044628    0.3468262  -7.47  0.002162348    1.643    0.391
       182 -11.7042     57.0598    195.0953   1.3166497026e+02   2.7024254648e+01    0.3939514    0.2381138 -73.04 0.0004802441    1.523    0.344
       183 -12.3165     52.6262    192.8337   1.3242213992e+02   2.8149487254e+01    0.3165579     0.248836  53.21 0.0003036321    1.259    0.206
       184 -10.0909     82.2050    195.9280   1.2582928151e+02   2.3206531565e+01    0.2175729    0.1726585  82.15 0.0006009471    1.226    0.184
       185 -10.4684     62.8377    195.9962   1.3042740397e+02   2.6024874336e+01    0.2063429    0.1714638  81.19 0.0004529011    1.071    0.066
       186 -10.4765    130.3081    195.0195   1.1414415496e+02   1.5165262537e+01    0.2103034     0.193681 -71.02 0.0006414098    1.101    0.092
       187 -11.6608    120.5217    190.3591   1.1566340691e+02   1.8052957293e+01    0.5829924    0.3392814 -36.55  0.002351313    2.290    0.563
       188 -10.1686     95.1813    195.0987   1.2258921581e+02   2.1332516784e+01    0.1997952    0.1942643 -41.97 0.0004176527    1.206    0.171
       189 -11.7734      2.0323    192.6088   1.4362209101e+02   3.3572462643e+01    0.3135793    0.1653754  76.84  0.001023253    1.762    0.432
       190 -10.3887     40.8624    192.2571   1.3507925973e+02   2.9736471445e+01     0.411198    0.1645198 -89.06  0.001346559    4.147    0.759
       191 -10.9866    163.8115    192.3046   1.0585260289e+02   9.4160591362e+00    0.3921293    0.3038244 -18.04 0.0006815396    1.575    0.365
       192 -11.6691     81.5669    190.0648   1.2512119587e+02   2.4727422494e+01    0.7158856    0.3423268  46.29  0.002402288    2.059    0.514
       193  -9.8867    148.2124    192.5760   1.0948304754e+02   1.2346888434e+01    0.2150486    0.1424843  28.09 0.0009459787    1.705    0.414
       194  -9.8161     34.4698    190.5315   1.3635205452e+02   3.0883077485e+01    0.3259857    0.1057582 -67.54   0.00127741    2.574    0.612
       195 -10.9063     35.2715    185.8085   1.3565058058e+02   3.1929215929e+01    0.4135973    0.1782979  40.09  0.001912799    2.316    0.568
       196 -10.3417     35.4523    173.4807   1.3416694502e+02   3.4908940260e+01    0.3845793    0.1992344 -41.50  0.001704034    2.612    0.617
       197 -11.8449     28.9059    181.5860   1.3666904867e+02   3.3633969972e+01    0.5154871    0.3026173  84.22  0.001757919    1.707    0.414
       198 -11.5299     31.1938    176.4960   1.3555710981e+02   3.4627390669e+01    0.3537657    0.2108537  38.63  0.001293183    1.804    0.446
       199 -11.4334    247.4910    190.1987   8.8626653359e+01  -4.9975639696e+00    0.2817947    0.1850305  24.32 0.0009723394    1.732    0.423
       200 -11.6323     91.8718    188.4209   1.2234380836e+02   2.3491249366e+01    0.4028667    0.2221057 -54.63 0.0009323344    1.789    0.441
       201 -10.7076    131.2599    188.8296   1.1279548810e+02   1.6422455385e+01    0.2559718    0.1576835  75.14 0.0007472611    2.716    0.632
       202 -10.1782     48.3999    186.6668   1.3266215993e+02   3.0179423030e+01    0.2783373    0.1430418 -82.03  0.001233904    2.046    0.511
       203 -11.1315     46.5885    182.3520   1.3255939666e+02   3.1455382997e+01    0.3718097    0.2529579   3.56  0.001204897    2.468    0.595
       204 -12.0846     16.1024    183.0309   1.3975341888e+02   3.4551683750e+01    0.4879858    0.2795084 -47.82  0.001233993    2.070    0.517
       205 -11.1740      8.6130    183.0932   1.4142744018e+02   3.5211151465e+01    0.1941308    0.1710526  75.12 0.0001612407    1.196    0.164
       206  -9.8371    220.9831    186.3046   9.2684514566e+01   3.6850351794e-02    0.1858739    0.1711333  15.97 0.0003957493    1.116    0.104
       207 -10.0594    197.8828    186.1126   9.7235832656e+01   4.2330333658e+00    0.1924839    0.1628257  -6.05  0.001024064    1.259    0.206
       208  -9.9208    149.9790    200.7332   1.1058549669e+02   1.0206997794e+01    0.1966157    0.1829976  45.82 0.0002304303    1.034    0.033
       209 -10.4559    104.1852    187.4140   1.1914578736e+02   2.1664961997e+01    0.2982323    0.1883626  77.95  0.001221966    2.214    0.548
       210 -10.3277    110.4629    186.0792   1.1736831428e+02   2.0886964564e+01    0.2343743    0.1446868 -58.23  0.001038123    1.614    0.380
       211 -10.3820    248.8575    184.7256   8.7329175347e+01  -4.2591847832e+00    0.2185452    0.1913902  62.83  0.001346671    1.556    0.357
       212 -11.3239    231.8498    184.8268   9.0359370855e+01  -1.5383049342e+00    0.2770589    0.2190977 -53.66 0.0009744173    1.423    0.297
       213 -10.8368    225.6141    183.8330   9.1314997475e+01  -2.9884366211e-01    0.2586404    0.2001403  -3.63 0.0007305837    1.444    0.308
       214 -12.3307    229.4703    180.2247   8.9876219583e+01  -2.8733541972e-01    0.2860128    0.2539033 -18.76 0.0002658139    1.043    0.041
       215 -11.0423    177.2340    183.2256   1.0105536854e+02   8.7724220745e+00    0.2763458     0.225865   2.87 0.0007688301    1.440    0.306
       216 -12.0751     59.0272    181.6420   1.2943463523e+02   3.0047560264e+01    0.5210903    0.4184071  51.89  0.002012188    1.261    0.207
       217 -10.2614      8.8405    186.8825   1.4170874664e+02   3.4305346433e+01    0.1853485    0.1619998 -37.04 0.0004653746    1.563    0.360
       218 -10.9589    122.2563    182.6329   1.1383934223e+02   1.9570140024e+01    0.4173337     0.230838  54.66  0.001260363    2.045    0.511
       219 -10.9694    103.8140    183.2729   1.1852811536e+02   2.2735368020e+01    0.2478142    0.1758116  57.02 0.0007356684    1.451    0.311
       220  -9.9530     87.9560    182.4418   1.2235401330e+02   2.5591850027e+01    0.2316748    0.1880609 -68.56 0.0007928869    1.172    0.147
       221  -9.9742    213.9992    182.5587   9.3278334398e+01   1.9839918295e+00    0.1975905    0.1383452  39.16 0.0004379274    1.501    0.334
       222 -10.5928    157.7570    180.9463   1.0499636819e+02   1.3102730301e+01     0.209101    0.1923042 -57.63            0    1.106    0.095
       223  -9.4321     92.4587    180.4673   1.2089662266e+02   2.5346319984e+01    0.1463918    0.1377724 -81.68 0.0008077122    1.055    0.052
       224 -10.4344     83.0332    179.8409   1.2317118377e+02   2.7015403775e+01     0.500834    0.2713676  64.27  0.001961714    2.489    0.598
       225 -11.9213     83.8825    175.8506   1.2230354648e+02   2.7873575580e+01    0.6377158    0.4263628 -13.01  0.001848104    2.854    0.650
       226 -11.4901     79.4058    174.4746   1.2322364674e+02   2.8911925278e+01    0.4455994    0.2374239  40.05  0.001040825    1.905    0.475
       227 -10.6833     70.6659    178.3244   1.2605393410e+02   2.9253523170e+01    0.2861109    0.2079738  63.46 0.0009256557    1.415    0.293
       228 -11.0986     73.9654    177.4634   1.2508780992e+02   2.8985504281e+01    0.3020117    0.2608587  18.10 0.0005681842    1.434    0.303
       229  -9.6684    209.3679    178.8387   9.3430533627e+01   3.5539243929e+00    0.2038525    0.1259734 -32.95 0.0003932161    1.643    0.391
       230 -10.2887    119.2955    177.7406   1.1365772407e+02   2.1296288103e+01    0.2622609    0.2165373  39.52  0.001317232    1.234    0.190
       231 -10.4882    104.0728    178.1302   1.1755759875e+02   2.3948754876e+01    0.2283869    0.2092731  82.60  0.000569307    1.045    0.043
       232 -10.5273      4.4724    182.9602   1.4232352916e+02   3.5594772724e+01    0.2728601    0.1555943 -86.22  0.001048941    1.445    0.308
       233 -11.5596    136.1168    176.1348   1.0918738675e+02   1.8473778530e+01    0.3329959    0.2623785 -38.13 0.0007757703    1.377    0.274
       234 -11.4965    136.6652    171.3366   1.0808844571e+02   1.9501432575e+01    0.4106636    0.3152311  61.38   0.00102729    1.419    0.295
       235  -9.6133    109.0460    177.0665   1.1610779060e+02   2.3329807681e+01    0.1823756    0.1636174 -68.19 0.0004287259    1.086    0.079
       236 -10.0150     89.4680    177.4708   1.2114980161e+02   2.6577206823e+01    0.1486356    0.1355847  88.81  0.000144437    1.017    0.016
       237 -11.3967     47.8658    177.0529   1.3156776798e+02   3.2602982380e+01    0.2037575    0.1939699  64.89            0    1.192    0.161
       238  -9.8162     48.5168    173.5194   1.3093456001e+02   3.3397277740e+01    0.2361713    0.1189664 -65.91  0.001078692    1.737    0.424
       239 -10.2728    218.9947    175.2552   9.0825879213e+01   2.4972404631e+00    0.1877037    0.1795017   0.08 0.0002796925    1.078    0.073
       240 -10.6769    190.3586    174.0816   9.6334262125e+01   8.1418582573e+00    0.5316737    0.2166214  42.95  0.001939927    2.523    0.604
       241 -10.3362    160.3522    173.3026   1.0282914411e+02   1.4306674368e+01     0.242726    0.2158544 -15.49  0.001057257    1.249    0.199
       242 -10.6184    156.9038    173.5466   1.0368327450e+02   1.4945976073e+01    0.3297698    0.2445024  29.40  0.001528884    1.482    0.325
       243  -9.7347    149.4300    174.2142   1.0558591087e+02   1.6292136603e+01    0.2031392    0.1488217 -62.65 0.0003042741    1.484    0.326
       244  -9.8499      6.6264    174.1721   1.4106526809e+02   3.7476858682e+01    0.1753178   0.08826204 -66.05 0.0004047377    1.610    0.379
       245  -9.7576      2.1026    173.9280   1.4206722403e+02   3.7896257937e+01    0.1802725    0.1201513 -50.70 0.0007285761    1.651    0.394
       246 -11.0212    100.1005    171.0063   1.1728179922e+02   2.6398172246e+01    0.4322002    0.3122306 -26.44  0.001774092    1.918    0.479
       247 -11.3662     64.0859    170.1915   1.2648900952e+02   3.2210649957e+01     0.423461    0.3113569  23.38  0.001493643    1.676    0.403
       248  -9.9807     25.5062    170.7265   1.3626610272e+02   3.6607136789e+01     0.242279    0.1113449 -76.52  0.001106843    1.953    0.488
       249 -10.7173     31.9363    169.0457   1.3448999900e+02   3.6368518801e+01    0.3734244     0.170277 -54.84  0.001718426    2.027    0.507
       250 -11.1496     13.0224    169.9756   1.3917384558e+02   3.7936135131e+01    0.1923586    0.1798108  38.36 0.0003787384    1.351    0.260
       251 -10.0264    207.1021    168.2397   9.1676105780e+01   6.0968864737e+00    0.2627583    0.1650822 -54.95  0.001175451    1.761    0.432
       252 -10.9115    195.4122    168.5959   9.4119610424e+01   8.2951390260e+00    0.3748951    0.2498946 -21.85 0.0005751716    1.912    0.477
       253 -11.5498    114.6479    168.4406   1.1304536945e+02   2.4423246252e+01    0.3246616    0.2610557  46.90 0.0009354791    1.247    0.198
       254 -11.1201     48.2583    167.0777   1.3010806189e+02   3.5027636270e+01    0.3851345    0.1706857 -54.00  0.001045942    2.090    0.521
       255 -11.5997     52.4953    157.9793   1.2764390919e+02   3.6781134497e+01     0.264367    0.2134691 -65.89 0.0004742522    1.100    0.091
       256 -10.7223      2.7620    168.9487   1.4146753126e+02   3.9014556161e+01    0.2646553    0.1748367  16.24 0.0009078862    2.105    0.525
       257  -9.2119    148.6972    167.3262   1.0432910807e+02   1.8035819974e+01    0.1590279    0.1234244  85.50 0.0005402018    1.642    0.391
       258 -11.2088     82.0407    166.3182   1.2115895758e+02   3.0545823977e+01    0.3827259    0.2443515  50.17  0.001776199    1.634    0.388
       259 -11.0367     74.0813    165.6144   1.2313881793e+02   3.1932818250e+01     0.461064    0.2001079 -46.21  0.001724357    2.578    0.612
       260  -9.9209     37.2955    165.9413   1.3275231744e+02   3.6562866326e+01    0.1889459    0.1413242 -75.85 0.0003319376    1.142    0.124
       261  -9.5906      8.6327    166.1459   1.3982468930e+02   3.9215836118e+01    0.1718928   0.08968288 -65.07 0.0002758458    1.550    0.355
       262 -10.3757    124.2144    165.0522   1.0992134246e+02   2.3439988354e+01    0.2312072    0.2070693 -31.72 0.0003796645    1.231    0.187
       263 -10.5738     20.5350    172.3141   1.3763786757e+02   3.6699471451e+01    0.3135951    0.1504058  81.31  0.001360861    2.550    0.608
       264 -10.5456     62.1157    164.6355   1.2613512358e+02   3.3870664611e+01    0.2816553    0.1989259 -29.86 0.0005734653    1.919    0.479
       265 -10.1530     63.7170    161.7226   1.2524294343e+02   3.4384241360e+01    0.2137875    0.1999044  61.36 0.0001930026    1.136    0.120
       266  -9.7803     55.5052    165.0274   1.2792988631e+02   3.4640591760e+01    0.2209824    0.1264298 -70.36  0.001025541    1.622    0.383
       267 -11.7201     24.0891    163.8493   1.3581198580e+02   3.8415909185e+01    0.2820986    0.2680636 -46.70  0.001213916    1.281    0.219
       268  -9.7426    203.0000    162.4675   9.1266380674e+01   8.0680557200e+00    0.3327393   0.08045904 -44.00 0.0009314668    3.908    0.744
       269 -10.2913     95.0802    163.5046   1.1719926334e+02   2.9125783725e+01    0.2149942    0.1475187  41.44 0.0005251421    1.494    0.331
       270 -10.5387    140.2425    161.1631   1.0507998781e+02   2.1197782828e+01    0.2552335     0.213141  29.25 0.0004145086    1.302    0.232
       271 -11.9202     34.5530    158.1766   1.3241999635e+02   3.8769474595e+01    0.4544945    0.2444865  56.20 0.0008708313    2.165    0.538
       272  -9.6732    192.8170    158.8823   9.2568078913e+01   1.0851997839e+01    0.2004195    0.1759471 -77.32  0.000321104    1.293    0.226
       273 -11.9109    107.3432    158.1213   1.1289230856e+02   2.8308464758e+01    0.2792007    0.2551677 -62.27 0.0002288799    1.059    0.056
       274 -10.6747     46.1479    158.8918   1.2947310064e+02   3.7315246082e+01    0.2072825    0.1661782  83.89 0.0004074934    1.227    0.185
       275  -9.3908    145.6567    158.2484   1.0311756953e+02   2.0778161754e+01    0.1572519    0.1214958  73.85 0.0006935872    1.573    0.364
       276  -9.3956    114.4442    158.4834   1.1109417702e+02   2.6905663271e+01    0.1550469    0.1472958 -81.70 0.0001532318    1.016    0.016
       277  -9.8466     66.4618    158.4861   1.2396825992e+02   3.4818603532e+01    0.1446476    0.1294086 -77.06 0.0003695411    1.010    0.010
       278  -9.4617     11.3819    158.2638   1.3832962552e+02   4.0877348422e+01    0.1228679   0.08271237 -43.46 0.0006982473    1.683    0.406
       279 -10.1279    162.3020    157.2850   9.8934916471e+01   1.7536072336e+01    0.2316613      0.21473 -24.11  0.000213318    1.142    0.124
       280 -10.3062    164.9550    155.0249   9.7818868094e+01   1.7489551724e+01    0.2328988    0.2278122 -34.10 0.0003709368    1.039    0.038
       281 -11.9167    139.2227    155.9550   1.0420426306e+02   2.2639246608e+01    0.5906696    0.3611407 -74.78            0    2.579    0.612
       282  -9.8586    159.4096    164.4490   1.0117381438e+02   1.6507808182e+01    0.1532361    0.1491534 -68.43 7.361035e-05    1.023    0.022
       283 -10.0217    209.2583    156.4251   8.8735312283e+01   8.0687656170e+00    0.1964221    0.1418923  60.35   0.00093759    1.662    0.398
       284 -10.2121    154.4390    155.2402   1.0033248813e+02   1.9652192830e+01    0.2202624    0.1499636 -59.77 0.0004946353    1.591    0.371
       285 -10.4865    113.5217    154.3384   1.1047181952e+02   2.8097113089e+01    0.3068791    0.2497318 -80.58 0.0009536542    1.344    0.256
       286  -9.7175     71.1772    154.5578   1.2200059497e+02   3.5136111676e+01    0.1774129    0.1444055  10.30 0.0003681935    1.559    0.358
       287 -11.5980    225.3896    151.1375   8.4603976037e+01   6.0031968671e+00    0.4904158    0.3003906 -44.55   0.00234078    1.479    0.324
       288 -10.0107     90.1022    152.9068   1.1649605866e+02   3.2610202106e+01    0.2199005    0.1892043  81.85            0    1.219    0.180
       289 -10.5179     15.6364    153.3998   1.3670158179e+02   4.1699521475e+01    0.1984257    0.1683847  41.71  0.000997334    1.384    0.278
       290 -10.8928    249.0735    151.0137   8.0581399021e+01   1.7485455437e+00    0.2059066    0.1755925 -43.03 0.0003414939    1.036    0.035
       291  -9.7220    177.7743    150.9930   9.4031457462e+01   1.5674823123e+01    0.2060195     0.124835 -45.45 0.0003475342    1.601    0.375
       292  -9.9490     21.6035    150.7565   1.3482670687e+02   4.1829211841e+01    0.1921757    0.1067201 -80.59 0.0009566185    1.685    0.407
       293 -10.1362     79.5305    149.9028   1.1882871109e+02   3.5055200390e+01    0.2447083    0.1929362  66.43 0.0008625158    1.397    0.284
       294  -9.2612    159.6741    148.7346   9.7627836164e+01   2.0034241896e+01     0.153768    0.1259395   3.39 0.0001984069    1.567    0.362
       295  -9.4915    107.0325    148.7919   1.1103174183e+02   3.0668607690e+01    0.1997339    0.1241445  40.22 0.0003759916    1.656    0.396
       296  -9.9393     98.0403    148.7798   1.1348164997e+02   3.2285091785e+01    0.2011536    0.1252516  39.25 0.0008699895    1.667    0.400
       297 -10.1900     25.6604    144.9050   1.3295621432e+02   4.2889913484e+01    0.2226416    0.1364711 -53.90 0.0005737629    1.453    0.312
       298  -9.9648      4.4873    144.5078   1.3853365151e+02   4.4673769829e+01    0.2899921   0.09710292 -70.69  0.001252153    2.316    0.568
       299  -9.5977    117.3979    143.7975   1.0714370566e+02   2.9927054010e+01    0.2324534    0.1414257 -42.10 0.0009529152    1.719    0.418
       300  -9.8757     84.9723    143.7744   1.1608640928e+02   3.5725557071e+01    0.1940174     0.183136 -78.95            0    1.034    0.033
       301  -9.6778     52.6721    143.7727   1.2525894496e+02   4.0302414322e+01    0.1962491    0.1189656 -71.78 0.0005541206    1.611    0.379
       302 -10.7130    242.1272    142.4713   7.9945458466e+01   4.5497898276e+00    0.2454502    0.1888759 -62.07 0.0006370872    1.390    0.281
       303 -11.9605    132.2971    140.7144   1.0251962426e+02   2.7675009115e+01    0.2908312    0.2671324 -68.64 0.0003735488    1.089    0.082
       304 -10.0974    193.0402    140.9699   8.8533414681e+01   1.4583425407e+01    0.2155304    0.2064016 -29.25            0    1.078    0.072
       305 -10.5778    109.0176    140.5245   1.0867817421e+02   3.2322850809e+01    0.2876657    0.2054785 -38.49 0.0005624924    1.501    0.334
       306 -10.0881    224.0251    139.4977   8.2355389133e+01   8.5318577394e+00     0.212559    0.1759716 -44.81 0.0003484467    1.090    0.082
       307 -10.3920     63.8561    139.6703   1.2131024203e+02   3.9881099885e+01    0.4256412     0.235874  15.70  0.001731741    2.720    0.632
       308 -10.9993     49.8361    136.4914   1.2478772087e+02   4.2442058672e+01    0.5868171    0.2415032 -37.84  0.002004634    3.652    0.726
       309 -11.8326     34.3501    137.2170   1.2938061619e+02   4.3940827064e+01    0.2837347    0.2104377 -87.29 0.0001730379    1.382    0.276
       310 -10.7310    241.9698    137.9926   7.9042253235e+01   5.4119981372e+00    0.2047144    0.1791261 -45.90 0.0003433318    1.008    0.008
       311 -10.9267     98.6829    137.7168   1.1092122399e+02   3.4895581551e+01    0.2784759    0.2371646  63.51 0.0001767194    1.268    0.211
       312  -9.7831      6.8055    137.2572   1.3705596058e+02   4.6231331133e+01    0.1779857    0.1165476 -53.37  0.001057237    1.360    0.265
       313  -9.8299    122.0060    135.7714   1.0406449414e+02   3.0941605719e+01    0.2081185    0.2025114  62.94 0.0003087275    1.043    0.041
       314  -9.9903    114.0578    135.5238   1.0615396647e+02   3.2568336807e+01     0.238759    0.1944654 -52.66 -1.799994e-06    1.193    0.162
       315 -10.3959     24.1252    136.1691   1.3212272490e+02   4.5145223021e+01    0.1737947    0.1371255  86.29  0.000331648    1.297    0.229
       316  -9.2001    200.2660    134.2398   8.5568480772e+01   1.4444348137e+01    0.1352762    0.1169544   0.90            0    1.424    0.298
       317 -10.1675    195.9511    133.4740   8.6239230515e+01   1.5523523852e+01    0.2276215    0.1896517 -45.47 0.0002921928    1.139    0.122
       318 -12.2151     26.6891    130.3109   1.3048771065e+02   4.6331434055e+01    0.3487713    0.2340078  54.91  0.001916833    1.781    0.439
       319 -10.7227     61.9290    131.0031   1.2017762066e+02   4.2273389357e+01    0.2114313    0.1880783 -54.27 0.0002911841    1.031    0.030
       320 -11.4637     62.3147    127.6926   1.1938775066e+02   4.3028010341e+01    0.2289696    0.2036169  57.77 0.0006173007    1.244    0.196
       321  -9.8296    122.1127    129.8283   1.0261788625e+02   3.2321281355e+01    0.2108076     0.181899 -23.66 0.0004693845    1.297    0.229
       322  -9.5446     48.4659    130.9961   1.2418609964e+02   4.3947335284e+01    0.2102902    0.1209358 -60.53 0.0004273652    1.515    0.340
       323  -9.8736    156.6862    128.8674   9.3649033658e+01   2.5154329654e+01    0.2130084    0.1951043 -58.64 0.0003912607    1.072    0.068
       324 -10.1893      1.6440    129.1947   1.3745639994e+02   4.8462223051e+01    0.1937026    0.1286139 -88.80  0.001152196    1.462    0.316
       325 -10.1019     36.3227    128.2876   1.2731214539e+02   4.5911488630e+01    0.1358311   0.09033817 -37.04 0.0003113726    1.603    0.376
       326 -11.1419     91.9224    126.8253   1.1037982141e+02   3.8711335341e+01    0.2411873     0.221007 -47.73 0.0003578434    1.045    0.043
       327 -10.4608     20.4276    126.4244   1.3170570799e+02   4.7789278284e+01    0.2612672     0.190902 -24.74  0.001542603    1.619    0.382
       328 -11.5108      2.5106    114.6269   1.3523642305e+02   5.1778442392e+01     0.631053    0.1945536 -65.65  0.002475666    2.382    0.580
       329 -11.2360      2.6308    105.0119   1.3374132004e+02   5.3949547501e+01    0.5247171    0.1293192 -66.66  0.001652189    3.139    0.681
       330 -10.3854      5.4959    121.0234   1.3527087494e+02   5.0125167090e+01    0.2334917     0.132537 -81.61 0.0007556643    1.727    0.421
       331 -10.4383     55.8748    124.5307   1.2069229640e+02   4.4624460502e+01    0.1997779    0.1399619  29.98  0.001032076    1.594    0.373
       332  -9.7553    109.2983    123.3523   1.0456065502e+02   3.6366709037e+01    0.1587113    0.1207936 -16.93 0.0007035951    1.692    0.409
       333 -10.8635     82.8580    120.1757   1.1150920541e+02   4.1802825565e+01    0.4236872    0.2945071 -88.74   0.00184547    2.155    0.536
       334 -10.5102     67.4818    122.5322   1.1672041031e+02   4.3564090383e+01    0.1434329    0.1311337 -51.99 6.612323e-05    1.002    0.002
       335 -10.3860     63.6773    122.3671   1.1784946084e+02   4.4128681933e+01    0.2136582    0.1633858  77.86 0.0008673699    1.672    0.402
       336 -10.3431     14.2716    121.6621   1.3278503024e+02   4.9383681246e+01    0.2660527    0.1287564 -48.21 0.0004840784    1.805    0.446
       337 -11.3812     18.8497    118.1803   1.3085650419e+02   4.9857043703e+01    0.4496745    0.3608314  71.68  0.002819511    1.461    0.315
       338  -9.5989     41.5364    121.3814   1.2446883730e+02   4.7032788630e+01    0.1330097    0.1163681 -51.52 -2.517518e-05    1.040    0.038
       339  -9.9693     32.0092    121.4573   1.2740631894e+02   4.7963631330e+01    0.1810283    0.1332152  16.38   0.00103561    1.632    0.387
       340 -10.7125    116.2762    120.0020   1.0178234012e+02   3.5772053497e+01    0.2393905    0.2158191  41.87 0.0003430846    1.134    0.118
       341 -10.2141    100.9937    119.5875   1.0600159489e+02   3.8805517532e+01    0.2207857    0.1958506 -51.98 5.780217e-05    1.092    0.084
       342 -10.3497     93.0251    119.6908   1.0835760544e+02   4.0209485950e+01    0.3296366    0.2386104  23.84  0.001536152    1.593    0.372
       343 -11.0659     92.3169    116.6667   1.0782589109e+02   4.1037064871e+01    0.3076577    0.2281557  70.43  0.001422717    1.804    0.446
       344 -10.2110     54.8394    117.7998   1.1960751756e+02   4.6360735522e+01    0.1990501    0.1711313 -36.86 0.0003940321    1.132    0.117
       345 -10.1881     48.9145    117.0184   1.2130128077e+02   4.7253263814e+01    0.2011307    0.1736923 -56.03            0    1.036    0.035
       346  -9.1914     40.6334    114.2709   1.2335376983e+02   4.8808439940e+01    0.1298161   0.09924119  67.81 0.0006998591    1.664    0.399
       347 -10.2751     32.5270    111.5380   1.2539263223e+02   5.0245052721e+01    0.1919449     0.115913 -71.89 0.0001371895    1.707    0.414
       348 -11.4346    120.6991    112.3031   9.8595515640e+01   3.6605556319e+01    0.2680977    0.2603851 -84.34  0.000244522    1.054    0.051
       349 -12.1239     74.7234    111.8892   1.1202184944e+02   4.5010318475e+01    0.2553568    0.2395901   4.89 0.0003319937    1.122    0.108
       350 -10.5959     27.4057    111.1859   1.2695855378e+02   5.0786618627e+01    0.2203932    0.1706263 -88.69 0.0004466334    1.481    0.325
       351  -9.7343    149.9360    111.4436   9.0891684344e+01   3.0444567930e+01    0.2207803    0.1521925  50.80 2.722487e-05    1.460    0.315
       352 -11.1214     37.6448    108.7769   1.2319056428e+02   5.0389714766e+01    0.3480706    0.1811279 -56.64   0.00169585    1.618    0.382
       353 -11.2176     20.0318    110.0093   1.2908615214e+02   5.1660797577e+01    0.3302743    0.1881923 -37.40  0.001449967    1.758    0.431
       354 -10.4823     85.4978    109.1437   1.0800053769e+02   4.3922622214e+01    0.2527822    0.1996524  58.15 0.0006345704    1.496    0.331
       355 -10.3849     43.7866    106.9519   1.2080232570e+02   5.0169810320e+01    0.2127222    0.1912934  16.86 0.0006137548    1.246    0.197
       356  -9.6451    152.7545    106.0313   8.8826513550e+01   3.0935609189e+01    0.1989729    0.1302161 -44.97 0.0003845534    1.523    0.343
       357 -11.5385    161.1698    102.9418   8.6109870499e+01   2.9632153432e+01    0.2526944    0.2303922  63.81 0.0002876373    1.087    0.080
       358 -10.6021    134.6616    101.9916   9.2172947546e+01   3.5832251004e+01    0.3600755    0.2561312 -11.64  0.001518871    2.082    0.520
       359 -10.5308     75.0488    103.1843   1.0974586417e+02   4.6933320023e+01    0.2850971    0.1711717  10.28   0.00116528    2.554    0.608
       360 -10.0727     70.1301    102.8342   1.1123334368e+02   4.7748957156e+01    0.2973758    0.1579246 -33.80  0.001234003    2.192    0.544
       361 -11.3476     43.7081    101.9592   1.1971724750e+02   5.1312270167e+01    0.3610378     0.308387 -52.19 0.0007595477    1.072    0.067
       362 -12.2669     55.5206     97.0028   1.1457393655e+02   5.1030654518e+01    0.2687223    0.2326768 -57.96 0.0001061042    1.184    0.155
       363 -10.2287     29.1410    103.2242   1.2483465510e+02   5.2457242362e+01    0.1865077    0.1478949 -40.01  0.000362239    1.137    0.120
       364 -11.3181     85.4930     99.0093   1.0534691094e+02   4.6165388157e+01    0.5074068     0.257026 -34.98  0.001906445    2.275    0.560
       365 -10.4249      9.0344     99.8690   1.3082230755e+02   5.4719976955e+01    0.1804772    0.1228647  54.36 0.0005570127    1.966    0.491
       366 -12.9549    106.4230     97.6505   9.8667007871e+01   4.2633971722e+01    0.3379509    0.2860141  39.33  0.001495601    1.192    0.161
       367  -9.3987     15.6845     99.6915   1.2859834510e+02   5.4317733979e+01    0.1314852   0.07491783 -38.71 0.0007029598    1.631    0.387
       368 -11.1428      3.7014    124.8354   1.3631208698e+02   4.9351349683e+01    0.2815236    0.2001219 -32.88 0.0003426934    1.566    0.362
       369 -10.4482    147.9683     97.4994   8.7703461467e+01   3.3755286117e+01    0.2617933    0.2026331 -58.62 0.0003262857    1.374    0.272
       370 -10.0086     36.2780     97.8789   1.2129636662e+02   5.2991501459e+01    0.2107444    0.1568065 -74.75  0.001190321    1.540    0.351
       371 -10.1029     32.4588     96.4065   1.2226836658e+02   5.3681948622e+01    0.2266014     0.118598 -70.51  0.001024136    2.308    0.567
       372 -10.9860     62.6681     95.9802   1.1192125695e+02   5.0314566738e+01     0.238887    0.2085338  54.80 0.0003697675    1.381    0.276
       373 -11.5662     52.2151    101.5875   1.1679804374e+02   5.0421483066e+01    0.4528206    0.2916651 -23.16  0.002233631    1.846    0.458
       374 -10.1522     22.3077     93.3417   1.2508740983e+02   5.5226196834e+01    0.1360524   0.07586807 -36.66 0.0007043325    1.689    0.408
       375 -10.9182     24.6103     90.7497   1.2372873205e+02   5.5604847281e+01    0.2356833    0.1163502 -63.48 0.0008542061    1.938    0.484
       376 -10.0902     18.7445     91.9524   1.2602563399e+02   5.5801610895e+01    0.1694392   0.08864282 -57.89 0.0008865966    1.562    0.360
       377 -10.5798    114.1415     91.0275   9.4613429501e+01   4.2440093868e+01    0.2462571    0.2089915  40.98 0.0003907203    1.170    0.145
       378 -10.5051    105.7414     91.1773   9.7047496121e+01   4.4097997939e+01    0.2427282    0.1944276  52.76 0.0005168152    1.336    0.252
       379 -11.1726      6.5720     89.7182   1.2977956010e+02   5.7090770737e+01    0.2851895    0.2190518 -88.21 0.0008852496    1.565    0.361
       380 -12.6224      9.4449     85.8049   1.2800671549e+02   5.7755520151e+01    0.2594147    0.1950792 -44.87 0.0003391734    1.068    0.064
       381 -11.8808     77.8992     88.0434   1.0473489160e+02   4.9724840385e+01    0.3376473    0.2348022 -29.92 0.0003849162    1.476    0.322
       382  -9.2634     70.2677     90.2781   1.0786791742e+02   5.0444852862e+01    0.1358052    0.1003487 -18.46            0    1.484    0.326
       383 -11.1995     63.6114     87.0033   1.0920002149e+02   5.2089171130e+01    0.2800088    0.2455988  25.20 0.0005422385    1.207    0.172
       384 -11.0606     29.9159     86.8633   1.2096903779e+02   5.5983451144e+01    0.3723484    0.2591511 -40.32  0.001424096    1.219    0.180
       385 -10.1692     26.5394     84.4723   1.2161157003e+02   5.6784940111e+01    0.2164785    0.1334587 -48.45 0.0006410084    1.328    0.247
       386 -10.3983    154.1380     86.5187   8.3345990579e+01   3.4440199287e+01    0.2730661    0.2098436 -20.96  0.001072163    1.606    0.377
       387 -10.1047    138.7115     86.0762   8.6803578975e+01   3.8071556266e+01    0.2024434    0.1927581 -39.99 0.0005025304    1.082    0.076
       388 -10.8555    128.1882     86.3480   8.9512096506e+01   4.0365923998e+01    0.3418311    0.1705406  37.05  0.001297373    2.318    0.569
       389 -10.6621    132.2875     82.7723   8.7456412749e+01   4.0130625127e+01      0.33051    0.2330421  38.61  0.001197058    1.464    0.317
       390 -10.7758     43.1874     79.8600   1.1441806878e+02   5.6114967930e+01    0.3215977    0.2957599 -40.86  0.001516135    1.156    0.135
       391 -10.0731     48.0198     85.7452   1.1426331984e+02   5.4352597185e+01    0.1768105    0.1562474  -2.37 0.0003467427    1.146    0.127
       392 -11.7730     51.0221     82.6877   1.1238217243e+02   5.4627083725e+01    0.5129192    0.3679759  40.13  0.002882724    1.626    0.385
       393 -10.1264     98.3568     83.9615   9.7140973614e+01   4.6951310146e+01    0.1989278    0.1741162 -29.31  0.000423494    1.126    0.112
       394 -10.6016     88.5607     88.8388   1.0156022286e+02   4.7769525231e+01    0.3748212    0.2422413 -15.26  0.001624522    2.188    0.543
       395 -10.4026     20.0010     81.9796   1.2339305638e+02   5.7835397853e+01    0.1857698    0.1530204 -41.95 0.0004518004    1.025    0.025
       396 -11.0213     77.1261     80.9028   1.0292215346e+02   5.1280720784e+01    0.2102886    0.1868718 -13.66 0.0005784631    1.056    0.053
       397  -9.6433     82.0339     80.0424   1.0106641759e+02   5.0637547543e+01    0.1610948    0.1480267 -11.91            0    1.008    0.008
       398  -9.7871    153.9723     79.0146   8.1353201350e+01   3.5837328673e+01    0.1751961    0.1676046  80.15 0.0003667262    1.009    0.009
       399  -9.3211    101.4631     79.4487   9.4878739743e+01   4.7216848968e+01    0.1410577     0.135516   9.35 4.511509e-05    1.024    0.023
       400 -10.6174     68.6506     79.0218   1.0520476227e+02   5.2968235923e+01    0.2231175    0.1866335  43.43  0.001289715    1.368    0.269
       401 -10.2118     48.5557     73.5182   1.1068783797e+02   5.6757549162e+01    0.2037829    0.1236553  26.64  0.001079632    1.735    0.424
       402 -10.8390     49.4746     77.5651   1.1151216356e+02   5.5849934674e+01    0.2777128    0.1962185   2.95 0.0007362857    1.560    0.359
       403 -11.1780     53.0312     74.1151   1.0923733713e+02   5.6087505863e+01    0.2446275    0.1883018 -27.67 0.0003021783    1.173    0.147
       404  -9.2631    119.2887     77.2835   8.9225175875e+01   4.3972673726e+01    0.1423638    0.1121794  11.47 0.0001783633    1.529    0.346
       405  -9.7597    108.9548     78.0000   9.2279560824e+01   4.5996595167e+01    0.2423646   0.07993665  45.79 0.0008062399    2.969    0.663
       406 -10.1041     96.0503     77.5777   9.5934997691e+01   4.8601506882e+01    0.2159364    0.1344167  40.33 0.0004683423    1.588    0.370
       407 -10.0607      3.7053     76.7981   1.2820368762e+02   5.9972423711e+01    0.2441901    0.1282242 -56.80  0.001033607    1.488    0.328
       408 -10.8446      1.8123     73.9689   1.2830244523e+02   6.0651690793e+01    0.3978246   0.08400875 -51.24   0.00168442    2.778    0.640
       409 -10.0118    131.0623     75.3271   8.5626402227e+01   4.1745960073e+01    0.2026084    0.1730846  53.76 0.0002729649    1.136    0.119
       410 -10.3226     81.1523     74.7533   9.9755325880e+01   5.1791340938e+01    0.2239946    0.1852213 -53.69  0.001079524    1.384    0.277
       411 -10.0106     69.3293     74.0567   1.0348785632e+02   5.3821600577e+01    0.1901115    0.1585964 -38.10   0.00107141    1.172    0.147
       412 -11.2381     59.1091     74.0749   1.0705252378e+02   5.5293656314e+01    0.3467475    0.1802583  38.21  0.001321096    2.073    0.517
       413 -10.6461     36.9024     72.1056   1.1460431502e+02   5.8333648053e+01    0.3197639    0.1761824  30.42  0.001699529    1.979    0.495
       414  -9.7035    101.3467     70.8644   9.2304949925e+01   4.8797256799e+01    0.1929629    0.1273455 -27.15 0.0004855967    1.666    0.400
       415  -9.8509    106.8284     70.3665   9.0571722582e+01   4.7790624008e+01    0.2088624    0.1228251  35.17 0.0005892086    1.774    0.436
       416 -10.7812     87.9671     69.1716   9.5841519370e+01   5.1614897235e+01    0.2298297    0.1913878 -24.79   0.00047686    1.178    0.151
       417 -10.3287     79.9381     69.5509   9.8539317558e+01   5.2948617018e+01    0.2021206    0.1719081 -27.37 0.0003943417    1.131    0.116
       418 -11.3577     53.0441     69.6599   1.0790665564e+02   5.6937529606e+01    0.2295706    0.1726408 -41.00 0.0003209458    1.244    0.196
       419  -9.7751     58.4842     69.4829   1.0588698743e+02   5.6248201811e+01    0.1327531    0.1138608 -15.35 8.267437e-05    1.029    0.028
       420 -10.6487     22.0557     67.7256   1.1907811042e+02   6.0554498755e+01    0.2286026    0.1862382  75.00  0.001363448    1.952    0.488
       421 -10.1488     17.8629     66.8025   1.2046576012e+02   6.1062270703e+01    0.1652667    0.1157705   1.83  0.001048669    1.502    0.334
       422  -9.2972    189.7113     67.6813   7.1666185704e+01   2.9304390565e+01    0.1324386     0.112297  24.37  0.000338419    1.597    0.374
       423  -9.5254    130.4907     67.6107   8.3515589334e+01   4.3188111843e+01    0.1429652    0.1318459  46.90 0.0001243173    1.029    0.028
       424  -9.5813     26.5447     67.5407   1.1728786105e+02   6.0210342595e+01    0.1247504    0.0979482 -30.23 0.0001626564    1.045    0.043
       425 -11.1296      1.3776     65.9887   1.2669661676e+02   6.2269469496e+01    0.2110896   0.09733418 -64.31 0.0003649174    2.091    0.522
       426  -9.7502     75.4604     66.5075   9.9060304007e+01   5.4234676658e+01    0.1351305    0.1200392  -4.12 5.070387e-05    1.018    0.017
       427 -10.4065     43.7943     70.0119   1.1142429347e+02   5.7992557508e+01    0.2994305    0.1917714  -6.81  0.001593465    1.816    0.449
       428  -9.9883     14.4936     65.5268   1.2145279881e+02   6.1555799238e+01    0.1219046   0.09199207 -34.45   5.7679e-06    1.056    0.053
       429 -10.5403     47.8271     63.0671   1.0781149706e+02   5.8810828563e+01    0.1736533    0.1597447 -33.43 0.0003154461    1.228    0.186
       430 -10.7311     16.1505     61.2785   1.1966559596e+02   6.2249755982e+01    0.2779189    0.1850322 -69.01  0.001632874    1.982    0.495
       431 -10.8838      9.3365     62.9730   1.2283410996e+02   6.2395325529e+01    0.1953658    0.1714369 -20.51 0.0004975919    1.177    0.150
       432 -11.5494      6.2995     59.3350   1.2311787668e+02   6.3277607957e+01    0.2534473     0.192455 -10.14 0.0008110284    1.293    0.227
       433 -11.1411     78.1033     61.3476   9.6516289506e+01   5.4684674848e+01    0.3826945    0.2620719  30.76  0.002069931    1.421    0.296
       434 -10.1521     78.5971     56.2667   9.4675290540e+01   5.5435032189e+01     0.228168    0.1203928 -37.91 0.0007990691    1.909    0.476
       435  -9.8959     25.4348     62.2617   1.1624002343e+02   6.1313703119e+01    0.1603185    0.1074031 -57.57 0.0009103921    1.616    0.381
       436 -10.9565     68.6488     60.8853   9.9566999115e+01   5.6296966172e+01    0.3782445    0.2017711  37.33  0.001585644    1.869    0.465
       437 -10.0692     39.1494     60.3484   1.1028076735e+02   6.0311668829e+01    0.2249538    0.1441274 -34.21 0.0008710141    1.360    0.265
       438 -10.4544     21.4499     56.9919   1.1630956917e+02   6.2630339761e+01    0.2833184    0.1626792  27.85   0.00115193    1.940    0.484
       439 -10.7583     31.3066     58.9835   1.1294199068e+02   6.1374186244e+01    0.2279777    0.1841221 -58.67  0.001190991    1.534    0.348
       440 -12.0653     27.5764     55.5475   1.1338752534e+02   6.2350557497e+01    0.3255388    0.2419172 -33.01 0.0004671345    1.114    0.103
       441 -11.0743     46.4799     54.8254   1.0567648792e+02   6.0426442759e+01    0.2825418    0.1874598   5.99  0.001613534    1.587    0.370
       442 -10.0117    110.9803     57.0317   8.5272024128e+01   4.9111157246e+01    0.2022621    0.1687717 -83.53 0.0004072734    1.597    0.374
       443 -10.1266    102.6217     56.3199   8.7346977702e+01   5.0937803754e+01    0.2691678    0.1650129  -9.68  0.001174079    2.433    0.589
       444 -10.1277     92.5868     56.7837   9.0433376857e+01   5.2826954500e+01    0.2560517    0.1287481 -32.60  0.001144146    2.118    0.528
       445  -9.6776     58.3868     56.7846   1.0186495507e+02   5.8515937186e+01    0.1643413    0.1078937 -28.54 0.0009045808    1.445    0.308
       446 -11.1974    120.2755     53.0257   8.1623761298e+01   4.7718786646e+01    0.4735689    0.2292085  31.64  0.001762775    3.048    0.672
       447  -9.6537     60.5362     52.4342   9.9617588402e+01   5.8923822977e+01     0.126461     0.109597  -1.90 0.0004849056    1.032    0.031
       448 -10.2508     82.9604     51.0333   9.1500419049e+01   5.5485010236e+01    0.1896057    0.1662241  85.50 0.0007148156    1.674    0.403
       449 -12.0548     40.5647     52.2925   1.0714232989e+02   6.1563356964e+01    0.3804976    0.2653738  10.55  0.002340232    1.404    0.288
       450  -9.3672    108.4410     50.4814   8.3866265091e+01   5.0613899516e+01    0.1343391    0.1236802  32.87 9.323101e-05    1.021    0.020
       451 -10.9359     98.1068     49.7637   8.6493436141e+01   5.2816465336e+01    0.2297576    0.1888446 -52.96 0.0004796802    1.505    0.336
       452 -10.4391     21.3588     44.8821   1.1258289144e+02   6.4761478389e+01    0.2688319    0.1575004 -11.99  0.001419066    1.746    0.427
       453 -11.3828     16.4005     47.4375   1.1551686153e+02   6.4738976684e+01    0.2973115    0.1600849 -35.39  0.001766586    1.513    0.339
       454 -11.7209     12.2033     45.6508   1.1676230661e+02   6.5366426038e+01    0.3139058    0.2791521  44.12 0.0006388961    1.691    0.409
       455  -9.5682     65.4548     49.5055   9.6849645057e+01   5.8645094418e+01     0.131211    0.1071584   0.58 5.773184e-05    1.101    0.092
       456 -10.3931     46.3177     48.0155   1.0343745234e+02   6.1574738277e+01    0.1742904    0.1401777 -25.41 0.0006973229    1.143    0.125
       457 -10.7044     48.3567     58.8750   1.0628144513e+02   5.9492896746e+01    0.1993096    0.1853176 -25.46 0.0005858743    1.234    0.190
       458 -10.1986    122.7872     45.9586   7.8829395870e+01   4.8160277335e+01     0.202554    0.1699823  28.88 0.0004721482    1.212    0.175
       459 -11.3329    163.5706     43.0679   6.9775033132e+01   3.9119268285e+01    0.2581817    0.2083547 -89.56  0.001477186    1.234    0.189
       460 -11.6985     61.7429     44.7494   9.6501625043e+01   5.9936420323e+01    0.2214885    0.1844511  -0.88  0.000279896    1.034    0.033
       461 -10.7451    141.4765     42.5389   7.3725646988e+01   4.4375504796e+01    0.2349095    0.2262481 -15.89 0.0009834899    1.173    0.147
       462 -10.3473     80.7920     43.4131   8.9564359038e+01   5.6979879893e+01    0.2170259    0.1667307 -21.12 0.0005600143    1.310    0.237
       463 -10.1121     54.5617     44.4706   9.9040849495e+01   6.1027762434e+01    0.1905086    0.1427912  12.68 9.770291e-05    1.221    0.181
       464 -10.6969     56.8566     41.1501   9.6991477650e+01   6.1192766754e+01    0.2099145    0.1665555   2.33 0.0004074112    1.097    0.088
       465 -10.0474     34.2078     44.4266   1.0704022715e+02   6.3574936559e+01    0.1530456    0.1039459  34.70 0.0009391638    1.718    0.418
       466 -10.5166     92.6179     40.6410   8.5004743917e+01   5.5153269667e+01    0.2452647    0.1608217 -30.93   0.00133941    1.622    0.383
       467  -9.6152     70.2736     41.6504   9.2404240700e+01   5.9034734501e+01    0.1119597     0.102003 -68.77 0.0006220221    1.632    0.387
       468  -9.6567     39.2734     40.3000   1.0351158032e+02   6.3647162727e+01    0.1743031    0.1037704  22.53 0.0006453049    1.627    0.385
       469 -10.4518     19.1141     41.0089   1.1226243421e+02   6.5598412659e+01    0.3021545    0.1416337  25.45  0.001691816    2.206    0.547
       470 -10.5520     24.0210     39.7886   1.0972040420e+02   6.5353299603e+01    0.2078288     0.167226  -1.76 0.0007447154    1.140    0.123
       471 -10.9905      9.6949     39.3479   1.1586359282e+02   6.6614671058e+01    0.2544491    0.1906994  -2.70  0.001079416    1.239    0.193
       472 -10.1279     13.7916     39.6203   1.1413321583e+02   6.6262797637e+01    0.1837705    0.1348965 -33.11 0.0005695527    1.137    0.120
       473 -10.8058    103.5846     38.8560   8.1356661986e+01   5.3193667049e+01    0.2233299    0.1938418  59.85 0.0004080599    1.239    0.193
       474 -10.7587      4.4108     37.5377   1.1765488608e+02   6.7274468588e+01    0.3051718    0.1589253 -56.31   0.00178697    2.097    0.523
       475 -10.1532    239.3661     36.3463   5.8486248051e+01   2.2813152998e+01    0.1618261    0.1418452  49.13 0.0007264786    1.636    0.389
       476 -10.9390    193.7438     35.2942   6.3342872351e+01   3.3035926832e+01    0.2158719    0.1890575  83.58 0.0002823643    1.085    0.078
       477  -9.9675    128.7244     36.3768   7.4550899237e+01   4.8066300043e+01     0.215079    0.1242091  59.97 0.0006018876    1.591    0.371
       478 -11.0559    120.3718     33.9338   7.5639096180e+01   5.0218788031e+01    0.2722733    0.2074216  57.87  0.001581315    1.203    0.168
       479  -9.7470    100.7987     35.3777   8.0932797607e+01   5.4197293406e+01    0.1773113    0.1051951  41.78 0.0001511437    1.506    0.336
       480 -10.7263     60.7915     34.4575   9.3087637881e+01   6.1535517571e+01    0.2460104    0.1714368 -22.26 0.0008567951    1.388    0.280
       481 -11.0363     55.7910     34.1819   9.4810257911e+01   6.2327550701e+01    0.2281452    0.2079775  52.58 0.0009914021    1.594    0.373
       482 -10.7445    142.9974     34.0004   7.0971531093e+01   4.5088991360e+01    0.3076853    0.2358302 -11.64  0.001743605    1.651    0.394
       483 -11.5204    139.5150     32.5984   7.1231656252e+01   4.6058883495e+01    0.6529639    0.2576202  41.03  0.002449744    3.173    0.685
       484 -10.2019     91.9787     33.5847   8.2748802556e+01   5.6171585936e+01    0.1824141    0.1615695   2.44 0.0005178304    1.128    0.113
       485 -11.5501     77.8133     33.2136   8.6872752560e+01   5.8859911186e+01    0.3120612    0.2131691  54.15  0.000777756    1.692    0.409
       486  -9.7518     35.5378     34.6083   1.0296001716e+02   6.4936334880e+01     0.116992   0.09201226  -4.76 0.0001402336    1.022    0.022
       487 -10.4779     29.1581     34.1676   1.0549361727e+02   6.5707862122e+01    0.1466577    0.1423498  39.85  0.001097197    1.658    0.397
       488 -11.0753    206.4565     31.6384   6.0963935346e+01   3.0591296276e+01    0.2309471    0.1849429  87.99 0.0002685667    1.054    0.051
       489 -11.5503    106.8977     30.5662   7.7749912254e+01   5.3506765253e+01    0.3564917    0.2347726  -6.26  0.001898916    1.916    0.478
       490 -10.1030     41.1155     36.4626   1.0136151519e+02   6.3997527111e+01    0.2200316    0.1560445 -54.22  0.001298863    2.169    0.539
       491 -10.3606    246.9294     30.6644   5.6710463917e+01   2.2010203283e+01    0.1884801    0.1617523 -44.56 0.0004583993    1.454    0.312
       492 -10.2637    250.3382     28.7108   5.6056209080e+01   2.1576703713e+01    0.1920399    0.1315328 -74.55 0.0006882405    1.172    0.147
       493 -10.2734    158.9625     30.2731   6.7140353826e+01   4.1800792003e+01    0.2103002    0.1688887 -10.74  0.001058901    1.630    0.386
       494  -9.5747     85.0000     30.9682   8.3854229241e+01   5.7819526465e+01    0.1878243   0.07009435 -30.90 0.0007942967    2.886    0.654
       495 -10.5749     33.7338     30.1358   1.0202384701e+02   6.5786429156e+01    0.2595308    0.2314428  42.90  0.001867526    1.731    0.422
       496 -10.7005     24.5394     30.9412   1.0630048179e+02   6.6660677980e+01    0.2192298    0.1398263  19.58 0.0005291754    1.498    0.332
       497 -10.8341     19.0597     28.9496   1.0800030744e+02   6.7480460612e+01    0.2188523    0.2101542  44.18  0.001681951    1.768    0.434
       498 -11.5109     18.3484     23.7357   1.0632824386e+02   6.8296888232e+01    0.2382841    0.2062207   4.37  0.001038958    1.358    0.263
       499 -10.8232    100.6601     26.8988   7.8093006393e+01   5.5209756757e+01    0.4413691    0.1100173  52.93  0.001575093    3.362    0.703
       500  -9.3171     76.2834     27.6578   8.5317590864e+01   5.9802668371e+01     0.108732    0.0989916 -71.29 0.0005547526    1.636    0.389
       501 -10.5321     37.2894     26.9204   9.9282392401e+01   6.5803987886e+01    0.1807045    0.1564023  33.27 0.0009746058    1.544    0.353
       502 -11.0874      9.9662     23.1305   1.1001770812e+02   6.9116285061e+01    0.2051899    0.1397973 -29.02  0.001011601    1.196    0.164
       503 -12.0251      1.9421     25.6237   1.1478205356e+02   6.9334814446e+01    0.2093224    0.1317534 -37.58 0.0003103325    1.294    0.227
       504 -11.5852    206.4110    246.5375   1.0660606736e+02  -8.1005553052e+00    0.3023511    0.2375111 -48.43 0.0006262744    1.591    0.371
       505 -10.5949    131.9890     25.0095   7.0456015700e+01   4.8626776645e+01     0.192809    0.1676077  52.22 0.0003280404    1.046    0.044
       506 -10.7037    131.3275     21.7320   6.9605372205e+01   4.9119013850e+01    0.2241121    0.1708387  82.05 0.0002054888    1.405    0.288
       507 -10.6977    206.0311     23.7224   5.9286587707e+01   3.1658428825e+01    0.1772491    0.1388256  85.02  0.000248785    1.074    0.069
       508  -9.6852     89.8360     24.5797   8.0179140295e+01   5.7621774204e+01    0.1680782    0.1116628  59.41 0.0006803433    1.645    0.392
       509  -9.9506     61.4233     23.6699   8.8739936286e+01   6.2781287591e+01    0.2144169    0.1211577  24.69   0.00112271    1.736    0.424
       510 -10.4122     98.6618    249.0565   1.2904752237e+02   8.8548345921e+00     0.224204    0.1732266  27.81 0.0007434931    1.517    0.341
       511  -9.9820     78.8297     22.1482   8.2485731302e+01   5.9959556844e+01     0.167987    0.1517344  30.45 0.0002447581    1.165    0.142
       512 -11.8055    118.1181     22.6907   7.2589026980e+01   5.1956654008e+01    0.3774216    0.1962226  49.32 0.0006526408    1.628    0.386
       513 -11.5607     38.1665     21.0554   9.6567095008e+01   6.6449865883e+01    0.3650574    0.2267597  37.95  0.002216306    1.742    0.426
       514 -11.0525     35.4577     17.7662   9.6340160103e+01   6.7194692168e+01    0.2759137    0.1751151  26.42  0.001132835    1.408    0.290
       515 -10.6620    198.3092     18.8131   5.9056888462e+01   3.3971536488e+01    0.1985301    0.1329025 -63.58 0.0008849602    1.425    0.298
       516 -10.6636    182.3755     18.6684   6.0885956709e+01   3.7638101347e+01    0.2211553    0.1880393  69.92 0.0004801186    1.148    0.129
       517 -10.6345     92.7043     18.6982   7.7313853884e+01   5.7667539541e+01    0.2245789    0.1578022 -33.40  0.001362496    1.654    0.395
       518 -10.4741     95.7293    246.4608   1.2934842488e+02   9.8306162271e+00    0.3533148    0.2416489  27.27  0.001907143    1.768    0.434
       519 -10.7675    130.8775     17.2669   6.8358507284e+01   4.9665039931e+01    0.4354719     0.134391  50.02  0.001744455    2.697    0.629
       520  -9.6387     99.8274     17.8308   7.5199347263e+01   5.6316587840e+01    0.1506744    0.1375038  71.92 0.0002359323    1.278    0.218
       521  -9.7218    175.7331     17.3231   6.1403282848e+01   3.9320110735e+01    0.1266272   0.08445958 -71.19  0.000229322    1.564    0.361
       522  -9.9616    157.9770     17.3385   6.3865846742e+01   4.3442716434e+01    0.1793171    0.1409971  70.53 0.0004022921    1.070    0.065
       523 -11.7120     85.3821    245.1221   1.3131196181e+02   1.1687162672e+01     0.249111    0.2066088  87.23  0.000451932    1.160    0.138
       524  -9.7346     61.2213     17.6168   8.6425364233e+01   6.3487341108e+01    0.1739907   0.08883973  34.13 0.0009461655    1.720    0.419
       525 -10.5422     44.5309     16.9677   9.2315822446e+01   6.6084980164e+01    0.2151033    0.1800813  62.89  0.001424048    2.193    0.544
       526 -10.3356     89.4490    244.5127   1.3041425535e+02   1.1194286333e+01    0.2390665    0.1921553  78.61 0.0006902158    1.164    0.141
       527  -9.7733    226.2743     16.6864   5.5844800600e+01   2.8047417339e+01    0.1245267   0.07211718 -68.87 0.0001646974    1.559    0.359
       528 -10.3476     92.4354    242.4863   1.2956886133e+02   1.1150638534e+01    0.2435667     0.177701  65.21 0.0009753819    1.260    0.206
       529  -9.9707    149.3709    240.2544   1.1727100118e+02   2.2394066439e+00    0.2031004    0.1614763  39.14 0.0005393259    1.117    0.105
       530  -9.7292    139.2827     14.0243   6.5920674875e+01   4.8071003115e+01    0.1617341    0.1488761  64.59  0.000297779    1.098    0.089
       531  -9.9760     87.8565     13.8250   7.6854256223e+01   5.9085693203e+01    0.2849083   0.05785611  50.05  0.001029138    3.518    0.716
       532 -11.0815    144.6998    238.0731   1.1793508125e+02   3.4479842089e+00    0.2467357    0.1832313  35.83 0.0003899321    1.231    0.188
       533 -10.0915    140.2828    237.2351   1.1875278325e+02   4.3624118446e+00    0.2821343    0.1422891  46.89  0.001267917    1.849    0.459
       534 -10.1483    146.2903    247.7208   1.1901364396e+02   1.3669425832e+00    0.1737562    0.1494802   6.09 0.0003432917    1.332    0.250
       535 -11.5865    145.7148    242.8150   1.1842262511e+02   2.3741903342e+00    0.3722687    0.2653515 -68.63  0.001204547    1.773    0.436
       536 -11.6149    137.3693    246.4849   1.2069936588e+02   3.0797087480e+00    0.3327184    0.2598889 -25.40   0.00133502    1.675    0.403
       537 -11.0604    141.5031    247.5080   1.1998024786e+02   2.2014294340e+00      0.21787    0.1978499  63.68 0.0006924758    1.140    0.123
       538 -12.3611     45.2557    200.3650   1.3498008825e+02   2.7272952447e+01    0.6389759    0.4178516  16.60  0.003253167    2.332    0.571
       539 -10.2220    121.1052    247.2194   1.2419303756e+02   5.6242541498e+00    0.1884952     0.172836  30.73 0.0006946661    1.194    0.162
       540 -13.2074     76.0831    242.3382   1.3290368979e+02   1.3644248140e+01    0.5821782     0.388768 -82.73  0.001573613    1.515    0.340
       541 -12.9930     83.9216    238.0676   1.3083038161e+02   1.3374001885e+01    0.3974404     0.247573  55.07 0.0007374692    1.428    0.300
       542  -9.9253    102.5696    246.5507   1.2795246350e+02   8.7405178165e+00    0.1318806    0.1106035  60.34 -5.754431e-06    1.020    0.020
       543  -9.7288    216.1375    245.1064   1.0448073871e+02  -9.3251281427e+00    0.1506329    0.1414176  18.03 0.0003755935    1.277    0.217
       544  -9.9319      2.2716     10.7068   1.0885213713e+02   7.1440873627e+01    0.1849718   0.07393604  28.94  0.001068691    2.647    0.622
       545  -9.8602    186.9778    245.5000   1.1030112255e+02  -4.9143449396e+00    0.1981245    0.1146686  35.98 0.0007892741    1.542    0.352
       546 -10.4836    163.8510    245.2046   1.1499090808e+02  -1.0953802482e+00    0.3837894    0.1641192  35.39  0.001645446    2.145    0.534
       547 -10.4330     65.6292    242.3068   1.3500355972e+02   1.5148768704e+01    0.4167653    0.2038013 -66.42  0.001943021    2.051    0.512
       548 -10.4177    181.5052    243.4440   1.1108086580e+02  -3.6868422411e+00    0.1846321    0.1208282 -30.20 0.0009279146    1.739    0.425
       549 -10.4625    183.6024    240.3390   1.1014833965e+02  -3.4947559432e+00    0.2161645     0.146924  50.99 0.0005611965    1.675    0.403
       550 -10.6753    130.1105    241.1264   1.2147886071e+02   5.3203541514e+00    0.2042114    0.1773005  18.91  0.001216143    1.299    0.230
       551 -12.3392    101.9522    235.2387   1.2669074835e+02   1.1155964825e+01    0.7185664    0.4463636 -62.61  0.003737742    1.717    0.418
       552 -10.7734    105.9839    235.1312   1.2581522758e+02   1.0527177091e+01    0.2006139    0.1805817  85.90 0.0002923045    1.114    0.102
       553 -11.4013     94.5370    237.9148   1.2859236056e+02   1.1771825200e+01    0.6119558    0.2416967  53.96  0.002403768    2.726    0.633
       554 -11.2760     92.7493    233.2416   1.2840537361e+02   1.3039484836e+01    0.5026125    0.2468547  58.55  0.002191806    2.226    0.551
       555  -9.9173    221.5651    239.7620   1.0253199309e+02  -9.2945867302e+00    0.1537114    0.1170968 -44.53 0.0002846473    1.563    0.360
       556 -10.0997    190.5069    240.5030   1.0877079125e+02  -4.6400548066e+00     0.131484    0.1148181  16.66 0.0008106504    1.002    0.002
       557 -11.1514    167.8600    238.7441   1.1314663961e+02  -6.0395825206e-01    0.2625516    0.2370756 -66.41 0.0006236705    1.333    0.250
       558  -9.8246    172.6051    239.3444   1.1225394688e+02  -1.5060989399e+00    0.1896704    0.1519848  65.55 0.0006795917    1.595    0.373
       559 -10.9560    187.2035    237.0661   1.0887097050e+02  -3.5166828736e+00    0.2555774    0.2083611  -5.28  0.001513762    1.271    0.213
       560 -10.9036    178.7368    233.9476   1.1009598563e+02  -1.5637116085e+00    0.3317624    0.2372504  56.98  0.001253961    1.727    0.421
       561 -11.2440    172.7760    233.8956   1.1133181626e+02  -5.4981294131e-01    0.3079279    0.2271907 -31.73  0.001686474    1.498    0.333
