#   1 NUMBER                 Running object number                                     
#   2 MAG_AUTO               Kron-like elliptical aperture magnitude                    [mag]
#   3 X_IMAGE                Object position along x                                    [pixel]
#   4 Y_IMAGE                Object position along y                                    [pixel]
#   5 X_WORLD                Barycenter position along world x axis                     [deg]
#   6 Y_WORLD                Barycenter position along world y axis                     [deg]
#   7 A_WORLD                Profile RMS along major axis (world units)                 [deg]
#   8 B_WORLD                Profile RMS along minor axis (world units)                 [deg]
#   9 THETA_WORLD            Position angle (CCW/world-x)                               [deg]
#  10 FWHM_WORLD             FWHM assuming a gaussian core                              [deg]
#  11 ELONGATION             A_IMAGE/B_IMAGE                                           
#  12 ELLIPTICITY            1 - B_IMAGE/A_IMAGE                                       
         1 -15.1845     68.3609    144.3399   1.0501401893e+02   3.7418535523e+01     5.355512     2.742476  70.64   0.01056385    3.775    0.735
         2 -14.1765    205.9546     35.8055   4.3798089400e+01   2.9649584824e+01     1.675273     1.422309  23.79  0.006224366    1.511    0.338
         3 -14.1028    221.0042     20.5036   3.8417112430e+01   2.7995864494e+01     1.115574    0.9683291   8.78  0.002833077    1.574    0.365
         4 -10.9536      2.4785      3.2860   9.2158181120e+01   7.3994666187e+01    0.2788635    0.1502306 -34.17  0.001805219    1.413    0.292
         5 -11.9318    244.0340      2.1047   3.2521376847e+01   2.4962547769e+01    0.6029523    0.2154898  76.27  0.002602072    2.667    0.625
         6 -10.7395     52.7374      4.4250   6.6749432242e+01   6.7803953201e+01    0.2021935    0.1611031  37.33  0.001315927    1.347    0.258
         7 -10.7532     47.5684      2.1787   6.7733261333e+01   6.8873865674e+01    0.2369902    0.1836752  29.24 0.0006252784    1.236    0.191
         8 -11.4948    193.3666    195.1636   8.4161338063e+01   4.6529444252e+00     0.923199    0.5049263 -64.05  0.002801789    5.962    0.832
         9 -10.6833    140.0336    249.7897   1.0358485226e+02   4.2472344359e+00    0.2260338    0.1769195  39.61  0.001488799    1.039    0.037
        10 -10.6330    134.7207    249.5353   1.0458984903e+02   5.0926350065e+00    0.2556542    0.1756272 -72.49   0.00151402    2.037    0.509
        11 -14.7508     85.6341    229.0121   1.1208068162e+02   1.5996521729e+01     2.019822     1.289451  46.66  0.005330716    1.325    0.245
        12 -14.0905     23.7967    225.3020   1.2384879619e+02   2.4285920398e+01     1.326699    0.5492133  68.81  0.002906422    2.385    0.581
        13 -15.9647     51.8244    247.7691   1.2017656142e+02   1.6876821927e+01     9.691439      2.80853  28.20   0.01035956   10.589    0.906
        14 -15.4537     45.7776    195.6763   1.1718062369e+02   2.8100636246e+01     3.038906      1.54597  70.19   0.01295502    2.159    0.537
        15 -10.3743     66.2264    194.5717   1.1252321625e+02   2.5826710908e+01    0.2574039    0.2093665  37.34 0.0007700979    1.316    0.240
        16 -10.6034    209.8047    199.3029   8.1662452082e+01   1.1561551107e+00    0.2426113     0.208212 -60.88 0.0007623752    1.701    0.412
        17 -10.9369    110.7888    195.6186   1.0244956176e+02   1.9004772874e+01    0.4748968    0.2766256 -87.15  0.001851225    2.925    0.658
        18  -8.8641    159.7284    197.3099   9.1684673676e+01   1.0221704078e+01    0.1313215    0.1096924  74.14 0.0002530076    1.547    0.354
        19  -9.3894     71.9944    188.1619   1.1044130453e+02   2.6493227041e+01    0.2013174    0.1532804  70.92 0.0004933308    1.257    0.205
        20  -9.2587     69.6373    183.8097   1.1045230220e+02   2.7804564720e+01    0.1839788    0.1165934 -81.41 0.0003691451    1.625    0.385
        21 -10.7787    145.2175    180.9529   9.1990013381e+01   1.6122826297e+01    0.3659248    0.1991679 -59.67  0.001500622    2.315    0.568
        22  -9.7890     99.4985    180.9532   1.0288414954e+02   2.4060385495e+01    0.2395868    0.1980196  19.64 0.0005911592    1.421    0.296
        23 -12.0870     63.6250    177.9675   1.1115447374e+02   2.9949112456e+01    0.4216935    0.2900942 -34.10  0.002158372    2.067    0.516
        24 -12.1125     68.6932    172.6598   1.0922522688e+02   3.0526390737e+01    0.3757786    0.3217938  14.62  0.001602193    1.465    0.318
        25 -13.6435     65.6538    158.9317   1.0805390259e+02   3.4213401072e+01    0.5888582    0.4869706 -46.33  0.001808856    1.323    0.244
        26 -12.4706     78.3835    162.7830   1.0533209492e+02   3.1531166109e+01    0.5826802     0.521427  72.29 0.0005846033    1.075    0.069
        27 -12.8943     85.2841    156.4870   1.0249475781e+02   3.2026243807e+01     1.193555    0.5897368 -56.70  0.001601196    1.917    0.478
        28 -16.5838      8.9327    238.7787   1.2719248135e+02   2.3176756633e+01     10.21244     2.346888 -76.92   0.04578686    3.823    0.738
        29 -10.3360    158.7893    161.6306   8.4984622397e+01   1.7592647266e+01    0.4291195    0.3133732 -78.17  0.001523225    2.074    0.518
        30  -9.9231    174.9013    149.1361   7.8562218528e+01   1.6930938094e+01    0.2317962    0.2138847  83.23  0.000751789    1.292    0.226
        31  -8.8552    110.9599    149.3016   9.4323884345e+01   2.9503313037e+01    0.2511954    0.1015778  54.80 0.0006185276    4.208    0.762
        32 -10.8392     47.9820    145.2717   1.1078046519e+02   3.9691494659e+01    0.2810679    0.1707394   4.80  0.001280232    2.665    0.625
        33 -10.8417     31.5955    144.2306   1.1507370198e+02   4.1617182207e+01    0.2409235    0.2143419 -29.06  0.001557571    1.381    0.276
        34 -10.9599    100.4189    140.8681   9.5443981694e+01   3.3361213599e+01    0.6172174    0.3668807 -24.65  0.002280378    2.888    0.654
        35 -12.3303     87.2603    141.0604   9.9139224775e+01   3.5471413454e+01    0.3018197    0.2579282 -44.11 0.0004580731    1.196    0.164
        36  -9.8142    159.5149    135.3584   7.8875493647e+01   2.3038875569e+01    0.2593945    0.2138665 -65.22 0.0004922975    1.408    0.290
        37 -10.2999    110.0003    131.0444   9.0646628678e+01   3.4010781153e+01    0.3467684    0.2814858   1.34 0.0009614166    1.529    0.346
        38 -10.3007    106.0163    131.0112   9.1752386565e+01   3.4743824773e+01    0.3642733    0.3074313 -72.59  0.001622002    1.269    0.212
        39 -11.0095    136.0000    129.0213   8.3167011662e+01   2.9381896772e+01    0.4104918    0.1753714 -48.89  0.001431165    2.364    0.577
        40 -10.7591    135.6329    124.3998   8.2121535665e+01   3.0496559472e+01    0.3386385    0.1558182 -46.02 0.0009345197    2.144    0.534
        41 -11.1679     62.0523    200.4724   1.1409435525e+02   2.5068275419e+01    0.2833849     0.188997  89.75 0.0006240744    1.479    0.324
        42 -10.5476    134.2362    148.2178   8.8055017109e+01   2.5385975250e+01    0.6626229    0.1780665 -52.42  0.001781772    4.287    0.767
        43 -11.7921     31.0169    129.1163   1.1323784376e+02   4.5350524818e+01    0.3476686     0.297701  83.72  0.001167347    1.158    0.136
        44 -10.0214    160.9943    127.9977   7.6728942014e+01   2.4286210032e+01    0.2845337    0.1667943 -62.57   0.00102595    2.553    0.608
        45 -10.7775     97.2187    127.3532   9.3430676505e+01   3.7166854863e+01    0.2901461    0.2408887 -28.35 0.0007600544    1.321    0.243
        46  -9.6961     78.8049    128.3667   9.9028644160e+01   3.9871292133e+01     0.193381    0.1411614  17.37 0.0006230431    1.675    0.403
        47 -10.3913    116.4909    125.2467   8.7480327395e+01   3.4151806794e+01     0.310301    0.2546707 -28.81  0.001197061    1.310    0.236
        48 -10.0315    106.9631    119.7171   8.8825851272e+01   3.7247179044e+01    0.2386479    0.2077717 -45.02 0.0003660975    1.110    0.099
        49  -9.0316     84.3535    118.6520   9.5262640379e+01   4.1386276123e+01    0.1555818      0.11454  77.68 -0.0001650035    1.830    0.454
        50  -9.5000    168.0750    113.0217   7.1273696189e+01   2.5820092109e+01    0.2572436    0.1972926 -79.49  0.001132738    1.800    0.445
        51 -10.3982     39.6413    113.1309   1.0808372268e+02   4.8451382592e+01    0.2063851    0.1797561  51.33 0.0005441473    1.303    0.233
        52 -10.0565    205.5130    110.1874   6.2902992178e+01   1.7958905791e+01    0.3092924    0.2139779  41.02 0.0009302078    1.564    0.361
        53 -10.7446    133.0000    139.9917   8.6533353837e+01   2.7502072461e+01    0.4581102    0.1902285 -51.27  0.001585874    2.492    0.599
        54 -10.7813     29.0256    107.0132   1.1040474374e+02   5.0893158152e+01    0.2046724    0.1700879 -57.54 0.0004461649    1.042    0.040
        55 -10.4040    134.5681    105.3674   7.7407143481e+01   3.4911656796e+01    0.3994387    0.1515168 -41.47  0.001305626    2.635    0.621
        56 -10.7009     39.2538    102.1237   1.0613487805e+02   5.1150186263e+01    0.2453959    0.1545405  56.47 0.0008875727    2.090    0.522
        57  -9.2721     57.6693     97.3303   9.8856741446e+01   5.0263465167e+01    0.1390927    0.1076297  77.56 0.0007051832    1.718    0.418
        58  -9.9808     41.6652     92.0960   1.0318972833e+02   5.3291517336e+01    0.1929056    0.1838707  48.53 0.0003921647    1.234    0.190
        59 -10.6782     52.9523     90.5121   9.8837636561e+01   5.2428396345e+01    0.2930886    0.1907002 -53.64  0.001086717    1.350    0.259
        60 -10.3063     73.4110     83.9200   8.9895479682e+01   5.1163945026e+01    0.2846943    0.2109647  57.88 0.0007043427    1.795    0.443
        61  -9.6956    159.7549     81.9907   6.4571164222e+01   3.3790492053e+01    0.2182883    0.2034407 -33.24 0.0005656016    1.070    0.066
        62  -8.7739    184.3837     77.2914   5.8223036103e+01   2.8687743512e+01    0.1563363    0.1151534  23.78 0.0007015672    1.754    0.430
        63  -8.6926    102.6550     74.2973   7.7271715540e+01   4.8038327301e+01    0.1454138    0.1214704  88.44 0.0007034354    1.673    0.402
        64 -10.5866     13.4707     60.0544   1.0647133545e+02   6.2764791683e+01    0.2291136    0.1788976 -52.22 0.0004447207    1.092    0.084
        65  -8.8782     98.0180     57.0351   7.2870679721e+01   5.2172240128e+01    0.1693087    0.1543587  13.02 0.0009498706    1.033    0.032
        66 -11.1802    138.8987    171.2515   9.1639986992e+01   1.9363035255e+01    0.4085077     0.252975  45.84    0.0014035    1.593    0.372
        67 -13.5116    197.4034     41.7216   4.6446128059e+01   3.0928470113e+01     1.400486    0.8537052  31.33  0.003559499    2.471    0.595
        68 -13.2280     36.8404    205.3649   1.1991492308e+02   2.6998928162e+01    0.4106296    0.3799543 -46.22  0.001145151    1.480    0.324
        69 -12.4340    214.2695     27.6067   4.0798312609e+01   2.8710508386e+01    0.4320142    0.3742701  34.06  0.001125875    1.461    0.315
        70  -9.9049    198.6086    222.6506   8.8021869877e+01  -6.9730233579e-01    0.2353271    0.1378935  36.95 0.0005542662    1.536    0.349
        71 -10.7069    137.9612     43.9482   5.7573643466e+01   4.5280656118e+01    0.3025697    0.2459716 -75.16 0.0004080238    1.513    0.339
        72  -8.6957     48.3837     42.7242   8.5839008852e+01   6.2936320481e+01    0.1156016    0.1038256  63.97 0.0007000371    1.715    0.417
        73  -9.6603    141.4066     38.9208   5.5155931716e+01   4.5130537840e+01    0.2318004    0.1916163  74.31 0.0004686172    1.279    0.218
        74 -15.0064      9.3996    207.4290   1.2551417818e+02   2.9295647225e+01     1.232388     1.056075 -20.99  0.003794053    1.896    0.473
        75 -10.0491    189.8371     15.1253   4.0345649898e+01   3.5937235186e+01    0.2054572    0.1636113 -71.55 0.0006615631    1.203    0.169
        76 -12.1868    184.0403    215.1562   8.9653861558e+01   2.8544384437e+00    0.3580299    0.3064426 -30.82  0.002217502    1.274    0.215
        77 -14.7459      5.3594    186.8563   1.2509017981e+02   3.4016966442e+01     2.689196     0.690776 -76.46  0.001993512    3.149    0.682
        78 -10.3945    113.1365    207.6011   1.0364679838e+02   1.6124232697e+01    0.2179982    0.1796457 -85.49 0.0005794656    1.332    0.249
