#   1 NUMBER                 Running object number                                     
#   2 MAG_AUTO               Kron-like elliptical aperture magnitude                    [mag]
#   3 X_IMAGE                Object position along x                                    [pixel]
#   4 Y_IMAGE                Object position along y                                    [pixel]
#   5 X_WORLD                Barycenter position along world x axis                     [deg]
#   6 Y_WORLD                Barycenter position along world y axis                     [deg]
#   7 A_WORLD                Profile RMS along major axis (world units)                 [deg]
#   8 B_WORLD                Profile RMS along minor axis (world units)                 [deg]
#   9 THETA_WORLD            Position angle (CCW/world-x)                               [deg]
#  10 FWHM_WORLD             FWHM assuming a gaussian core                              [deg]
#  11 ELONGATION             A_IMAGE/B_IMAGE                                           
#  12 ELLIPTICITY            1 - B_IMAGE/A_IMAGE                                       
         1 -12.0397     31.2783     15.5815   5.6317605704e+01   7.2218408456e+01    0.6025521    0.1677872 -43.29  0.002251144    3.437    0.709
         2 -10.1096     55.3268     11.0409   4.1340002962e+01   6.8808556558e+01    0.2342955    0.1642504  33.88  0.001311014    1.353    0.261
         3 -13.5279     19.7275      6.0467   5.7914727333e+01   7.5284378359e+01     1.080162    0.5203874  30.91  0.005642346    2.127    0.530
         4 -10.1016     84.6429      9.0984   3.0105202368e+01   6.2682434510e+01    0.2693614    0.1076301 -32.97   0.00110009    2.531    0.605
         5 -12.7368    200.0326      4.3892   1.1626915228e+01   3.3772698625e+01    0.8015036    0.2897281  61.92  0.003354718    2.717    0.632
         6 -11.2564     88.7700      4.5005   2.6734092287e+01   6.2144351998e+01    0.3206366    0.2571344 -69.30  0.001187277    1.501    0.334
         7  -9.3765    101.2225      2.5730   2.3024124279e+01   5.9251114621e+01    0.1992291    0.1087425  54.81 0.0009382596    1.608    0.378
         8 -11.2336    160.0000      3.9948   1.4992936774e+01   4.3870731763e+01    0.4285538    0.2043095  46.19  0.001809371    2.440    0.590
         9  -9.7117    116.2508    240.2751   8.0022608864e+01   1.0851701046e+01    0.1573648    0.1113958  51.42 0.0003520437    1.291    0.225
        10 -10.4481    245.8802    250.0014   5.8183231102e+01  -7.4528298285e+00    0.1560373     0.108556   9.17 0.0003916642    1.011    0.011
        11  -9.5274     85.5261    250.5192   8.6974758683e+01   1.3354497076e+01    0.1158904   0.08608366  47.14  3.22799e-05    1.013    0.013
        12 -10.3065     70.4908    248.4532   8.9717225224e+01   1.5597526213e+01    0.1935934    0.1729074  44.40 0.0007913854    1.260    0.207
        13 -10.8548     65.4037    248.0860   9.0671856572e+01   1.6286087467e+01    0.5149206    0.1907835 -75.33  0.002542561    3.476    0.712
        14 -10.9031     68.7084    244.7102   8.9796139391e+01   1.6448345945e+01    0.3060616    0.2154343  48.84  0.001854047    1.062    0.058
        15 -11.7390     56.0041    249.0012   9.2531337274e+01   1.7262621335e+01    0.3318703    0.2893971  75.28  0.001635162    1.272    0.214
        16 -11.4257     51.1698    250.1787   9.3518442656e+01   1.7629898369e+01    0.4851169    0.2623785 -72.07  0.002877533    2.142    0.533
        17 -14.0937     61.2281    234.0953   9.0520235504e+01   1.9232445847e+01     2.211247     1.363913   9.30   0.01116693    3.133    0.681
        18 -14.6543     13.4703    191.1222   9.8053819903e+01   3.3079571698e+01     2.683378      1.66056  72.49   0.01666159    1.328    0.247
        19  -9.8808     88.7957    229.3760   8.4490613377e+01   1.6493454367e+01    0.2532945    0.1025879  34.48 0.0006899835    2.099    0.524
        20  -9.2564    178.4649    228.5345   6.6516322586e+01   3.6423718899e+00    0.1198057   0.09490307  20.79 1.851749e-05    1.021    0.021
        21 -10.6165    212.3557    223.4557   5.9688169340e+01  -4.4117355434e-01    0.3142648    0.2012145 -19.04  0.001461836    1.569    0.363
        22 -11.2088    191.6818    225.2475   6.3610416929e+01   2.1978135555e+00    0.2355008    0.1363531  24.68   0.00108511    1.528    0.346
        23 -11.1790    125.2980    221.6092   7.6066436181e+01   1.2597787519e+01    0.2358674    0.2135566  51.33 0.0003113433    1.138    0.121
        24  -9.4364    159.8030    221.9903   6.9152988954e+01   7.3325110013e+00    0.1879978    0.1282913  -4.30 0.0005921468    1.915    0.478
        25 -10.6872     89.4969    221.7296   8.3603383217e+01   1.7776130153e+01    0.2321878    0.1435081  38.02 0.0007850091    1.353    0.261
        26  -9.9485     93.1524    218.8767   8.2533588006e+01   1.7788096791e+01    0.1983841    0.1587382  48.92 0.0007583751    1.019    0.019
        27 -10.8956    223.2085    220.3355   5.7364131138e+01  -1.5145585848e+00    0.1973981    0.1594661  -0.13 0.0005913863    1.116    0.104
        28 -10.4080    173.7695    219.8909   6.6149443148e+01   5.5501849125e+00    0.2401471    0.1641275 -48.92   0.00145031    1.877    0.467
        29 -10.4992    110.5353    214.1922   7.8276798650e+01   1.6112980211e+01    0.2861052    0.2030453 -13.28  0.001388852    2.305    0.566
        30 -11.1125     76.9129    219.7374   8.6093100315e+01   1.9867493754e+01    0.2669111    0.2195877 -44.42  0.001020691    1.637    0.389
        31 -10.7068    125.2700    212.5066   7.4915480628e+01   1.4174638661e+01    0.3216559    0.1807853 -36.79  0.001388072    2.470    0.595
        32  -9.0584    247.2858    212.6727   5.2262304944e+01  -3.7163636774e+00   0.09205525   0.08431391 -18.96 0.0002860665    1.609    0.378
        33 -11.3404    142.3344    211.4782   7.1192412975e+01   1.1697039217e+01    0.3543765    0.1989797  49.66  0.001804235    1.828    0.453
        34 -11.3402    154.2592    209.7409   6.8492206044e+01   1.0110746765e+01    0.4196669    0.2474129  22.73  0.001929741    1.833    0.454
        35 -10.4301    160.2955    206.6983   6.6810781644e+01   9.6502461769e+00    0.2004894    0.1829637 -17.23  0.001335583    1.198    0.166
        36 -10.2628    224.1481    205.8627   5.4854329666e+01   1.4442971342e-01     0.170811    0.1509205   8.19  0.001244271    1.253    0.202
        37 -11.2758    148.9330    202.6454   6.8524326856e+01   1.2146565463e+01    0.4082483    0.2692298  69.96  0.001942045    2.609    0.617
        38  -9.4997    145.6570    204.7065   6.9519143392e+01   1.2321150345e+01    0.1299048   0.09469969   7.83 0.0003570481    1.659    0.397
        39 -10.3573    212.1632    199.4987   5.5826966744e+01   2.6989317599e+00     0.249004    0.1496193 -38.38  0.001429062    1.803    0.445
        40 -11.7925    123.6851    195.7720   7.2955441310e+01   1.7494005818e+01     0.483496    0.2580366  32.17  0.002287778    1.806    0.446
        41 -10.6652    189.4672    194.5211   5.9102214503e+01   6.9065253133e+00    0.2384127    0.2127246  27.01 0.0009460154    1.164    0.141
        42  -9.2168    172.5164    195.5313   6.2567108583e+01   9.4884035658e+00    0.1295797    0.1127428  21.66 8.170663e-06    1.015    0.015
        43 -13.6388      6.3175    248.5818   1.0171059743e+02   2.2631261822e+01    0.4498406    0.2136919  28.36  0.001781017    2.220    0.550
        44 -13.5287     45.8649    233.9704   9.3592915071e+01   2.1088315587e+01    0.5677492    0.4261996 -66.50 0.0008490714    1.643    0.391
        45 -10.2285    247.3203    193.0525   4.8933828919e+01  -1.4167022533e+00    0.1584188    0.1191602 -12.18 0.0003208421    1.102    0.092
        46 -16.7359     14.0998    238.9230   9.9976591252e+01   2.3579413289e+01     2.068777      1.07899  56.82   0.01374744    1.380    0.275
        47 -10.4366    110.3385    191.0517   7.5311197963e+01   2.0570478920e+01    0.1848342    0.1721378  61.58  0.000677275    1.077    0.071
        48 -10.8298    123.1152    187.4663   7.1847313945e+01   1.9195385512e+01    0.3009243    0.2179196  74.22  0.001198767    1.782    0.439
        49 -10.4270    248.4569    185.9444   4.7500945995e+01  -6.9477012172e-01    0.1885766    0.1598538  36.83  0.000773106    1.539    0.350
        50 -11.6400     37.4004    184.6588   9.2039253297e+01   3.2056517240e+01    0.4142153    0.2149148  79.28  0.001428062    1.974    0.493
        51 -11.1196     24.1993    180.2398   9.4899400521e+01   3.4440622065e+01     0.324974    0.1747908 -88.11  0.001347611    1.717    0.417
        52 -10.9283     30.8635    185.1728   9.3644676025e+01   3.2653223286e+01    0.2437961    0.1545385 -82.79 0.0006536683    1.475    0.322
        53 -11.1856     29.2451    181.6223   9.3776710320e+01   3.3615108425e+01    0.2746811    0.1950541  34.38  0.001677553    1.447    0.309
        54 -10.6433    131.4955    184.9632   6.9549534545e+01   1.8273373258e+01    0.1984832    0.1367478 -51.64  0.001040568    1.613    0.380
        55 -15.1546      7.2201    227.5074   1.0088395189e+02   2.6333813822e+01    0.9667286    0.5482878  34.35   0.00352508    1.644    0.392
        56 -14.0441     87.6480    207.1621   8.2487106354e+01   2.0804872618e+01     1.173948    0.7090853 -62.70   0.00432339    1.862    0.463
        57 -10.0588    118.4063    178.8265   7.1593600781e+01   2.1724916409e+01    0.3056824    0.1772464 -57.07  0.001449701    1.910    0.476
        58 -16.5072     67.2839    194.1132   8.5775402578e+01   2.6309268603e+01     3.166139     3.087654 -37.05    0.0215067    1.328    0.247
        59 -10.0176    190.4601    177.4832   5.5855542916e+01   9.4124507726e+00    0.2440248     0.117722  50.34  0.001040562    2.572    0.611
        60 -10.6806    154.8973    176.8746   6.2986104210e+01   1.5728013604e+01     0.209473    0.1795662   7.11 0.0004842599    1.220    0.180
        61 -10.7353    137.3006    176.0116   6.6738434738e+01   1.9014244497e+01    0.1905205    0.1871492 -53.49  0.001165451    1.113    0.102
        62  -9.9822    113.3580    175.4754   7.2264026151e+01   2.3276879016e+01    0.2615282    0.2045176 -22.09  0.001280889    1.705    0.413
        63 -10.0429     22.3342    174.3535   9.4952042807e+01   3.5957704516e+01    0.2452791    0.1354787 -85.93  0.001323801    1.644    0.392
        64  -9.4128      6.7860    175.2533   9.8798317696e+01   3.7163448693e+01    0.1522419    0.1230819 -67.71 0.0006957673    1.404    0.288
        65 -12.1252     48.3738    169.4107   8.7906478168e+01   3.4259906105e+01    0.4739327    0.2894333 -47.48  0.001364121    2.075    0.518
        66 -10.7773     27.5015    171.8284   9.3475894064e+01   3.6023010535e+01    0.2166823    0.1916952 -42.11 0.0009911731    1.499    0.333
        67 -11.8678    105.7469    169.8138   7.3221005700e+01   2.5773201931e+01    0.3317653    0.3021313  68.92 0.0009927193    1.064    0.060
        68 -14.9453     94.2489    192.9927   7.9312075516e+01   2.2684824821e+01     1.900626     1.055489 -78.58  0.004329483    2.410    0.585
        69 -10.2558    113.2983    228.4313   7.9340655536e+01   1.3209077455e+01    0.2519718    0.2263854 -31.88  0.001767196    1.410    0.291
        70 -10.4148    195.3060    170.8523   5.3677810425e+01   9.6514819420e+00    0.3793567   0.08222479  39.28  0.001120017    4.826    0.793
        71 -10.6192    152.5889    168.8656   6.2019490826e+01   1.7646794318e+01     0.309718    0.1347638 -55.62  0.001136535    3.148    0.682
        72 -11.6848    131.6035    168.6365   6.6758284433e+01   2.1508331619e+01    0.3589132    0.2104854  43.09  0.001669886    1.583    0.368
        73  -9.5447    109.3300    237.3099   8.1092182672e+01   1.2297437079e+01     0.112642   0.08700374   8.45 0.0006260024    1.667    0.400
        74 -10.5086     91.0914    236.3032   8.4663650790e+01   1.4976425030e+01    0.2066554     0.166475  77.10  0.001147416    1.334    0.251
        75 -10.1592    117.0051    235.3212   7.9344783040e+01   1.1538134132e+01    0.1764174    0.1270246  37.11 0.0006201729    1.118    0.106
        76 -10.3126     19.7506    166.6084   9.5058571721e+01   3.7990891320e+01    0.3072131    0.2195055 -23.98   0.00111043    2.213    0.548
        77 -10.0788     10.9744    166.8870   9.7304137276e+01   3.8712960582e+01    0.2943519    0.1763423  26.78  0.001683367    1.843    0.457
        78  -9.7583    205.6634    164.7062   5.0571523924e+01   8.8492935967e+00    0.1357822   0.09422374   5.91 0.0007027269    1.646    0.392
        79 -10.6792    156.0076    164.5035   6.0437195529e+01   1.7848168769e+01    0.2167425    0.1319632  41.32  0.001020215    1.555    0.357
        80  -9.6817     81.4680    233.8739   8.6398868891e+01   1.6684139004e+01    0.1474107    0.1141134 -75.37 0.0005721126    1.508    0.337
        81 -12.0722    219.9522    230.4990   5.9474772152e+01  -2.2876785398e+00    0.2219812    0.1823825  -0.81 0.0003217552    1.183    0.155
        82 -13.9943     36.6029    227.2872   9.5061985375e+01   2.3375745172e+01    0.8467899    0.6236247 -59.87  0.005827418    1.770    0.435
        83 -13.6167     26.4152    224.7993   9.6986176194e+01   2.4945262772e+01    0.5046013    0.4383921 -84.69 0.0008560232    1.369    0.270
        84 -11.3884     28.0757    160.4531   9.2400826218e+01   3.8631523376e+01    0.2731696     0.215417  77.25 0.0004647391    1.068    0.063
        85 -11.0599     11.9544    148.9883   9.5859755661e+01   4.2853460725e+01    0.2876491    0.1569164  41.77            0    1.720    0.419
        86 -11.0484     21.4629    160.0152   9.4122165477e+01   3.9379648900e+01    0.2672141    0.1999205 -81.37 0.0008118069    1.215    0.177
        87 -10.5187     14.5047    156.9621   9.5741973895e+01   4.0732413710e+01    0.2409093    0.1861353 -77.40 0.0004887935    1.227    0.185
        88 -12.7247     21.4004    153.9363   9.3652004334e+01   4.0837198960e+01    0.7286919    0.5856282  22.95  0.004559491    1.495    0.331
        89  -9.0258    104.2726    232.7028   8.1641524426e+01   1.3772159720e+01    0.1183495   0.07735641  58.21 0.0001974091    1.525    0.344
        90 -14.1264     20.0355    213.1070   9.7722221242e+01   2.7881484036e+01     1.042503    0.5462543  75.61  0.003433459    1.695    0.410
        91 -10.0082    212.3224    154.3142   4.7300098170e+01   9.3270057368e+00    0.1366766   0.09536785   3.27 0.0004360054    1.659    0.397
        92 -10.7761     50.7059    154.0504   8.5552200158e+01   3.7633692538e+01    0.2371676    0.1952122  35.38 0.0006170507    1.298    0.230
        93 -10.3729    126.1763    151.8485   6.4918150233e+01   2.6042339101e+01    0.2148993    0.1937622  76.47 0.0002541506    1.172    0.147
        94 -11.6767    129.7329    150.9965   6.3872271556e+01   2.5551764587e+01    0.3340923     0.272662 -78.93 0.0008053228    1.443    0.307
        95 -12.3925    108.8490    148.4704   6.8688188131e+01   2.9998923053e+01    0.4329963     0.321978 -52.75  0.001191742    1.393    0.282
        96 -11.6637     22.3447    149.0463   9.2974689339e+01   4.1931976261e+01    0.4374493    0.2055519  34.65 0.0004190393    2.050    0.512
        97 -11.2519    169.6947    149.5280   5.4451307887e+01   1.8071819278e+01    0.3382753    0.2484978  66.75  0.001638175    1.825    0.452
        98 -11.3515     84.5097    149.0648   7.5380373741e+01   3.4023928875e+01    0.4463216    0.2931831 -39.08  0.002062936    1.936    0.483
        99  -9.0740    206.6958    149.3024   4.7245336165e+01   1.1122677966e+01    0.1244561    0.1075939 -70.69 0.0002792992    1.594    0.373
       100 -10.9066    147.5996    150.2261   5.9464962522e+01   2.2258936254e+01    0.2737965    0.2248573  73.26 0.0007002775    1.475    0.322
       101  -9.5090      4.9337    147.0496   9.7660007458e+01   4.3866954953e+01    0.1428668    0.1190615  56.21 0.0003209625    1.181    0.153
       102 -12.9490    101.7922    141.7771   6.9287989591e+01   3.2813771335e+01    0.7724463    0.4811534  50.66  0.002961206    1.610    0.379
       103 -10.4595    139.8114    140.8626   5.9306659879e+01   2.5735860453e+01      0.20067    0.1758965 -86.91 0.0004633987    1.307    0.235
       104 -10.2952     24.5246    143.9997   9.1892038394e+01   4.2962008158e+01    0.2605183    0.1679268  73.97  0.000750318    1.440    0.306
       105 -11.4569     58.6651    158.3862   8.3895484068e+01   3.5567204746e+01    0.3723582    0.1978978  59.06  0.001264994    1.980    0.495
       106  -9.2876     36.2688    138.3748   8.7828925694e+01   4.3174443274e+01    0.1366169   0.09276149 -48.03 0.0006993663    1.678    0.404
       107 -12.5618    142.7636    133.2780   5.6907924321e+01   2.6730436568e+01    0.6307109    0.4413815  12.05  0.002700755    2.113    0.527
       108 -13.3039    154.0299    129.4891   5.3402925407e+01   2.5159315869e+01     1.415572    0.4215545  45.98  0.004384648    3.348    0.701
       109 -12.2904    137.5056    130.5469   5.7553833568e+01   2.8396152108e+01     0.635866    0.3220057  43.87  0.002507451    1.947    0.486
       110  -9.7894     11.9317    133.2796   9.4624735054e+01   4.6689249932e+01    0.1682592    0.1503946  56.19 0.0004878555    1.186    0.157
       111 -10.2530    126.4690    131.9727   6.0651521958e+01   3.0341729440e+01    0.2690065    0.2026666  59.01 0.0005807039    1.417    0.294
       112  -9.7483     35.9002    131.4761   8.7086412362e+01   4.4944575844e+01    0.1830896    0.1332708  30.70 0.0003870097    1.500    0.333
       113  -9.7858     30.8485    129.9941   8.8476992171e+01   4.5838403536e+01    0.2424603    0.1310101  73.89  0.001093745    2.056    0.514
       114 -10.5358    192.4963    231.4973   6.4378842143e+01   1.2690717196e+00    0.2496917   0.09431161  36.33  0.001221964    2.206    0.547
       115  -8.7980     21.4330    128.4514   9.1246557246e+01   4.7108210191e+01    0.1321039    0.1116258  89.27 8.081871e-05    1.006    0.006
       116  -9.5551     16.2892    126.5952   9.2666598130e+01   4.8006599299e+01    0.1589034    0.1287765   3.21 0.0009534571    1.601    0.375
       117 -11.2335    101.3279    119.6649   6.4703223284e+01   3.8114688072e+01    0.8071844    0.3805525  59.51  0.002553086    3.465    0.711
       118 -10.2534    189.0617    121.0540   4.4142832639e+01   1.9360810310e+01    0.2129805    0.1983472 -23.55 0.0003317433    1.019    0.019
       119 -10.9008     43.7178    120.5511   8.3023115216e+01   4.6843099029e+01    0.3077031    0.2680586  -0.86 0.0009119971    1.437    0.304
       120 -10.7718     48.3940    115.3839   8.0602617092e+01   4.7596559394e+01    0.3186801    0.2533148 -59.74  0.001231566    1.201    0.167
       121 -10.5270     36.2896    120.4122   8.5453110821e+01   4.7705508601e+01    0.2814355    0.2095395  63.40  0.001039242    1.341    0.254
       122 -11.0082    155.2975    117.5708   5.0229690370e+01   2.7288279651e+01    0.2960655    0.1481158  52.26  0.001139233    2.116    0.527
       123 -10.4468     66.3224    116.1929   7.4790816577e+01   4.4946335097e+01    0.3758108    0.2396918  65.88  0.001386245    1.906    0.475
       124  -9.9254     23.8901    115.6365   8.8941645367e+01   5.0126769943e+01    0.2202252    0.1555524 -67.16 0.0006304908    1.259    0.206
       125  -9.7026    188.4778    115.4738   4.2909981843e+01   2.0472596016e+01    0.1443565    0.1364788 -22.47 0.0008096417    1.015    0.015
       126 -10.3061    108.5045    112.0095   6.0776688941e+01   3.8499182187e+01    0.2417422    0.1508487 -52.26  0.001034532    1.601    0.375
       127 -12.1993     52.2363    110.1108   7.8321862252e+01   4.8449067375e+01    0.7167067     0.517441  39.47   0.00264605    1.441    0.306
       128 -11.9664     55.0468     91.8473   7.3368584394e+01   5.2657367662e+01    0.9270166     0.624636  -4.37  0.004008767    2.275    0.561
       129 -11.9469     55.5449     99.7017   7.5001264202e+01   5.0632867750e+01    0.7562024    0.5016527  15.99  0.003546822    1.946    0.486
       130  -9.9313     59.7843     95.6444   7.2530455447e+01   5.1044747465e+01    0.3013209    0.2345959  22.71   0.00147208    1.471    0.320
       131 -12.5618    152.5154    106.8295   4.8101402653e+01   3.0060070949e+01    0.5605166    0.4164875 -81.83  0.001466189    1.845    0.458
       132  -9.3869     92.2670    108.3353   6.4705637572e+01   4.2517540985e+01    0.1506646    0.1189736 -24.05 0.0001684956    1.589    0.371
       133 -10.1851    105.4720    107.4762   6.0501464217e+01   4.0157148406e+01    0.1528997    0.1490678 -82.87 6.979874e-05    1.012    0.011
       134  -9.6157    116.4741    103.5226   5.6306398321e+01   3.8770879809e+01    0.1531754    0.1517397 -71.73 7.131845e-05    1.033    0.032
       135  -9.6160     79.3881    101.2311   6.7071791050e+01   4.6545984918e+01    0.2099454    0.1400985 -66.71 0.0005301608    1.592    0.372
       136  -9.3084     10.1958    100.7881   9.1890222406e+01   5.4944364782e+01    0.1560847    0.1267112 -60.69 0.0002439057    1.170    0.145
       137  -9.7164     20.2970     99.7028   8.8020883613e+01   5.4472955210e+01    0.1807916    0.1735665 -75.97 0.0004656428    1.128    0.113
       138 -10.0248     22.4499     97.4577   8.6873005083e+01   5.4862984581e+01    0.2991658     0.164465  37.18  0.001481002    1.929    0.482
       139  -9.7183    240.1770     95.1309   3.0105843184e+01   1.3258764464e+01    0.1775963    0.1353521 -52.94 0.0002707712    1.340    0.254
       140 -12.6165     45.6897     87.0614   7.5820397257e+01   5.5071139937e+01    0.6075947    0.3497887 -55.44   0.00286636    1.559    0.359
       141 -12.6644     49.0803     80.6036   7.2859974530e+01   5.6220059931e+01     1.065639    0.7737783  55.62  0.005468485    1.590    0.371
       142  -9.8738    232.0327     89.3502   2.9807899690e+01   1.5675203223e+01    0.1703271    0.1658483 -88.76 0.0003416243    1.167    0.143
       143 -10.9927    125.7176     86.5984   4.8952556291e+01   4.0345347689e+01    0.3481986    0.2689845   3.54  0.001546695    1.816    0.449
       144 -10.3329    170.8366     84.8180   3.8248830282e+01   2.9932875571e+01    0.2079113    0.1728541 -70.14 0.0002552671    1.306    0.235
       145  -9.9828    116.0368     85.5143   5.1258700818e+01   4.2778250203e+01     0.228917    0.1532491  51.47 0.0003822046    1.516    0.340
       146  -9.3210    153.3139     80.3016   4.0489396160e+01   3.4979403110e+01    0.1535553    0.1223204  16.44 0.0003373507    1.613    0.380
       147 -12.0895     29.7196     79.5491   8.0621942325e+01   5.8694447241e+01    0.4169456    0.2174942  29.45  0.001837833    2.079    0.519
       148 -10.0190    214.1665     78.6124   2.9573284211e+01   2.0990439294e+01    0.1851694    0.1764242  83.27  0.000353387    1.141    0.123
       149  -9.9121    214.9778     75.4891   2.8681523605e+01   2.1283892826e+01    0.2401159    0.1817636 -23.58  0.000449146    1.355    0.262
       150  -9.7939     88.6320     78.7845   5.7594520610e+01   5.0060470545e+01    0.2076693    0.1955508  29.29  0.001005745    1.110    0.099
       151  -9.2325    219.4583     78.4755   2.8831015121e+01   1.9872176700e+01    0.1376332    0.1222821 -40.64 0.0001006893    1.018    0.018
       152 -10.3672    111.9924     76.4670   4.9569200608e+01   4.5568475469e+01     0.330096    0.2517947  23.15  0.001379225    1.629    0.386
       153 -10.1995    116.2910     74.3743   4.7675355522e+01   4.5004643961e+01    0.3282806    0.2858919  15.96  0.001232842    1.331    0.249
       154 -11.9305     38.7941     68.5710   7.3941506101e+01   6.0385260926e+01     0.810295    0.4671067  75.66  0.003067491    3.479    0.713
       155 -12.8108     31.9792     73.8830   7.8338409884e+01   5.9856955601e+01    0.5158772    0.3675903 -59.36  0.001110555    1.236    0.191
       156 -12.5445     29.6638     64.5136   7.6976161246e+01   6.2337883256e+01     1.164116    0.6091413  26.96  0.005587788    2.096    0.523
       157 -10.1091     74.9880     75.8517   6.1454034016e+01   5.3294620568e+01     0.217224    0.2112305 -38.82 0.0004904849    1.023    0.023
       158 -11.5039     99.9086     69.5090   5.0876045794e+01   4.9679237221e+01    0.5371947    0.2585225 -40.44  0.002059197    2.098    0.523
       159 -10.4636     65.9586     73.9829   6.4263894650e+01   5.5275985116e+01    0.2096053     0.196919 -41.44  0.001183765    1.029    0.028
       160 -10.3454    178.3648     64.4305   3.1113695975e+01   3.1515317874e+01    0.2543987    0.2473571   9.46 0.0007901058    1.150    0.130
       161  -9.4214    114.2876     61.0206   4.3696516893e+01   4.8032895684e+01    0.2048654    0.1917247 -40.36 0.0002480666    1.075    0.070
       162 -10.4512    165.8323     58.1608   3.1375587702e+01   3.5624785869e+01    0.2616933    0.2258541 -80.65 0.0004100191    1.177    0.150
       163  -9.8266      3.5997     59.3069   8.8358713114e+01   6.5537272571e+01    0.2088921    0.1285097 -29.47  0.001158305    1.739    0.425
       164 -11.5834     52.5468     56.9858   6.4126274270e+01   6.1187608628e+01     0.740594    0.3535686  53.48  0.002710493    3.386    0.705
       165 -10.1930    194.1329     57.1830   2.6699086441e+01   2.8777891340e+01    0.2039573    0.1972132  12.22  0.000493599    1.193    0.162
       166  -9.3749    108.9220     55.9769   4.3378005752e+01   5.0218744951e+01    0.1806768    0.1710134  52.56 0.0004364723    1.048    0.046
       167  -9.6116    233.7180     53.0386   2.0999741491e+01   2.0419825266e+01    0.1789187    0.1480484 -43.52 0.0003729186    1.046    0.044
       168  -9.1993    124.6384     52.3136   3.7922705928e+01   4.7024047755e+01    0.1607947    0.1167972 -75.31 0.0004719599    1.755    0.430
       169  -9.9407      1.6108     51.1959   8.7731552054e+01   6.7542383126e+01    0.1910604   0.08679479 -59.09 0.0008816714    1.699    0.411
       170  -8.9555     30.9951     50.0000   7.1912241346e+01   6.5526720240e+01    0.2014994   0.07544713  27.00 0.0008009705    2.932    0.659
       171  -9.6741     17.9979     49.2832   7.8476437037e+01   6.6931282161e+01     0.177276    0.1550979 -37.42 0.0005382257    1.067    0.063
       172 -10.6091      9.7651     44.9103   8.1720338368e+01   6.8528315851e+01    0.3293344    0.2117031 -64.95  0.001885108    1.389    0.280
       173 -10.5548     51.1875     43.5834   5.9563939716e+01   6.4180938347e+01    0.1918008    0.1283244  21.62 0.0009532837    1.703    0.413
       174 -10.2438    133.5162     39.7154   3.1400766581e+01   4.6707603124e+01    0.2652587    0.1934355  61.53 0.0005635226    1.322    0.244
       175 -10.6968     60.1531     38.6973   5.3426636395e+01   6.3604808901e+01    0.2132845    0.1808238  60.74  0.001092546    1.437    0.304
       176  -9.7811     36.0651     39.3259   6.5261231391e+01   6.7194970743e+01    0.1826521    0.1664769   9.53  0.001151077    1.140    0.123
       177 -10.1565    247.8416     31.8480   1.4864969693e+01   2.0146640312e+01     0.173622    0.1579346 -35.74   0.00032595    1.224    0.183
       178 -10.0238    213.3208     32.0716   1.7772575023e+01   2.7592671375e+01    0.1912781    0.1499204 -44.49 0.0003656533    1.135    0.119
       179 -10.5473    106.1409     31.3392   3.4479991802e+01   5.4816842892e+01    0.3242896    0.2540062  57.76   0.00113389    1.228    0.186
       180 -11.3461     78.0317     30.9233   4.2823118576e+01   6.1383079507e+01    0.3103229    0.2567078 -81.92 0.0007828622    1.621    0.383
       181  -9.6134     45.3504     25.1298   5.3822926043e+01   6.8502687236e+01    0.1837762     0.115478 -48.11 0.0007258697    1.750    0.429
       182 -10.5329     84.3242     24.0702   3.7500937258e+01   6.0979627616e+01    0.2676463    0.2060219  63.12  0.000895242    1.376    0.273
       183 -10.4554     20.3229     22.9876   6.7071905985e+01   7.2253469744e+01       0.2539    0.1394669  -8.11  0.001167721    2.643    0.622
       184 -10.2191    171.6937     21.2549   1.9126862156e+01   3.9088589431e+01    0.2472217    0.2146921  71.55  0.000850198    1.143    0.125
       185 -10.1656    100.5179     21.9868   3.1926304612e+01   5.7418331906e+01    0.2105527    0.1407493 -25.19 0.0006199234    1.579    0.367
       186 -10.1401    189.8175     20.0689   1.6807284602e+01   3.4635863404e+01    0.2266565    0.1795693  87.57 0.0003749637    1.195    0.163
       187 -10.7198    237.7718    248.3080   5.9198569326e+01  -6.3736779261e+00     0.201537    0.1591753 -21.51  0.001634063    1.543    0.352
       188  -9.7155    125.2300    248.0099   7.9083157699e+01   8.4164341051e+00    0.1471874    0.1234561  39.55  0.001074208    1.095    0.086
       189 -10.0568     84.0164    246.3916   8.6936002802e+01   1.4221181364e+01    0.4136603    0.1158198  43.35  0.001864726    2.527    0.604
       190 -10.7300    180.2289    244.1865   6.8337205713e+01   1.3356376890e+00    0.2701856    0.1194396  34.72 0.0009219725    1.793    0.442
       191  -9.3616    133.6610    241.7015   7.6767217888e+01   8.1793836979e+00    0.1153841   0.08214562  11.51 0.0003613012    1.661    0.398
       192  -8.9259    144.2955     10.6967   1.9133881150e+01   4.7356810811e+01    0.1455498   0.09707209 -63.04 0.0002758928    1.579    0.367
       193  -9.5813     88.7307    240.9993   8.5555069927e+01   1.4498205479e+01     0.157977    0.1298359  57.37 0.0005327236    1.123    0.109
       194  -9.5050     72.7045    240.9654   8.8733884437e+01   1.6586445191e+01    0.1507336    0.1187635  61.18 0.0001968198    1.129    0.114
