#   1 NUMBER                 Running object number                                     
#   2 MAG_AUTO               Kron-like elliptical aperture magnitude                    [mag]
#   3 X_IMAGE                Object position along x                                    [pixel]
#   4 Y_IMAGE                Object position along y                                    [pixel]
#   5 X_WORLD                Barycenter position along world x axis                     [deg]
#   6 Y_WORLD                Barycenter position along world y axis                     [deg]
#   7 A_WORLD                Profile RMS along major axis (world units)                 [deg]
#   8 B_WORLD                Profile RMS along minor axis (world units)                 [deg]
#   9 THETA_WORLD            Position angle (CCW/world-x)                               [deg]
#  10 FWHM_WORLD             FWHM assuming a gaussian core                              [deg]
#  11 ELONGATION             A_IMAGE/B_IMAGE                                           
#  12 ELLIPTICITY            1 - B_IMAGE/A_IMAGE                                       
         1 -12.9231    216.1378     49.5867   3.4387913087e+01   2.4421456883e+01     1.202082      1.12469 -35.39  0.007262893    1.109    0.098
         2 -13.0675    234.2705     35.5693   2.9325133617e+01   2.2234254892e+01     1.047015    0.8221589  36.92  0.006504251    1.659    0.397
         3 -10.1357      6.7872      3.4026   8.1667226712e+01   7.9681089117e+01    0.1718192     0.112073   3.57 0.0009579542    1.736    0.424
         4  -8.6909    110.8922    167.6734   8.1894603607e+01   2.6003363514e+01    0.1887439    0.1538206  46.60 0.0004096662    1.087    0.080
         5 -14.3835     28.3411    245.4050   1.0726257354e+02   2.2389983766e+01      4.37963     1.143649  30.10   0.02071462    2.891    0.654
         6 -10.6672     62.2967    161.0035   9.3649334726e+01   3.4850079768e+01    0.2592575    0.2405861  53.79 0.0004210773    1.140    0.123
         7 -12.9167     47.4251    157.0386   9.7400371032e+01   3.7683041263e+01    0.4976042    0.3542582 -27.91   0.00158289    2.177    0.541
         8 -11.5618     75.7751    139.9168   8.6926505353e+01   3.7755728863e+01    0.3705578     0.291019 -80.18 0.0003064116    1.311    0.237
         9 -11.8663     71.7823    154.5241   9.0205606508e+01   3.4979415570e+01    0.7335675    0.4987592  43.71  0.003873083    1.292    0.226
        10 -12.7229     68.1868    143.9849   8.9779871864e+01   3.7950233803e+01     1.385585    0.7323049 -76.53  0.003318917    2.163    0.538
        11 -13.7772      8.1329    203.6395   1.1019964844e+02   3.1764577380e+01     1.117487    0.6194471  72.80  0.001722109    1.559    0.358
        12  -9.9055     79.6382    147.9485   8.7056927417e+01   3.5288596735e+01    0.4244591    0.2412839 -86.51  0.001793045    2.417    0.586
        13 -15.3337     14.4414    196.2727   1.0851258624e+02   3.2651541430e+01     6.869891     1.841835 -88.52   0.02105757    4.078    0.755
        14  -8.6575    134.0000    145.5067   7.2466304298e+01   2.6287711790e+01    0.2931155   0.08121242 -47.91 0.0009291527    3.890    0.743
        15  -9.0867     92.4362    138.9092   8.1948615120e+01   3.5245463882e+01    0.2509584    0.2082724  29.00 0.0005523376    1.291    0.225
        16 -10.0555     88.4189    142.2950   8.3669502025e+01   3.5157807740e+01    0.2952067     0.286643 -44.09 0.0008528051    1.197    0.165
        17  -9.0415     51.3281    201.6460   1.0012364698e+02   2.7681566256e+01    0.1364267    0.0676052  56.57 0.0007046404    1.774    0.436
        18 -11.5073     54.9727    125.8193   9.1222755215e+01   4.4257912160e+01    0.7946289    0.2802504 -77.17  0.002461678    4.024    0.751
        19 -10.2233    105.1097    130.6122   7.6832030382e+01   3.4831524738e+01    0.4766817    0.3037032  35.85  0.001703675    1.577    0.366
        20  -9.9264     89.7653    126.6819   8.0428325145e+01   3.8527944962e+01    0.2927661    0.2501182  25.69 0.0004937059    1.315    0.239
        21  -8.7159     49.5034    222.1262   1.0184638880e+02   2.4089080013e+01    0.1493581    0.1068786 -88.83 0.0007895227    1.565    0.361
        22  -9.0437    112.8117    124.3301   7.3408299277e+01   3.4736463859e+01    0.3690142    0.1892634  25.01  0.001214841    3.453    0.710
        23  -9.2780    102.4610    119.1003   7.5131332214e+01   3.7918918116e+01     0.226482     0.194933  38.06 0.0003382942    1.183    0.155
        24  -9.2733    191.8608    193.0108   6.9163323638e+01   8.9530709137e+00    0.2386058    0.1551532 -58.98  0.001237995    3.174    0.685
        25  -9.9545     23.8255    117.0839   1.0085721188e+02   5.0109628622e+01    0.2165838    0.1604091  65.71 0.0004749519    1.211    0.174
        26 -11.1242    244.6186    113.1857   4.6028842016e+01   1.1016583460e+01    0.2847821    0.1492715 -35.42  0.001568916    1.641    0.391
        27  -9.1106    204.4436    110.8723   5.1021451653e+01   1.8449055857e+01    0.2792918    0.1612856  33.80  0.001337333    2.053    0.513
        28 -10.7902     51.2397    104.3043   8.8909927416e+01   5.0238334385e+01    0.7084088    0.1839081 -69.38  0.001929882    4.699    0.787
        29 -10.4975    244.1654     94.8375   4.2160939982e+01   1.3338974672e+01    0.1740981    0.1337199  -1.24   0.00110257    1.374    0.272
        30 -11.3103      1.7362     81.6463   1.0632897556e+02   6.0930794514e+01    0.6849715     0.146662 -77.46  0.002238697    3.735    0.732
        31  -8.2600     67.6810     78.3029   7.6365103431e+01   5.4185896216e+01    0.1560057    0.1145295  76.16 0.0007026386    1.626    0.385
        32  -8.9912    184.6128     77.2277   4.5716000077e+01   2.7690778851e+01    0.1983462    0.1324233 -21.81 0.0005334077    1.614    0.381
        33  -9.7729     43.3196    106.1113   9.2198048691e+01   5.0816157070e+01    0.3178023    0.2047515  64.76 0.0008733575    1.606    0.377
        34 -10.1227      1.6524     61.6326   1.0427212843e+02   6.6108291628e+01    0.3300352    0.1117968 -85.71  0.001240305    2.867    0.651
        35 -10.0798     13.4365     60.2059   9.7505135139e+01   6.5780879397e+01    0.2459607    0.2180955 -84.92 0.0005277917    1.044    0.042
        36 -11.4697     41.2721    176.6500   1.0078322453e+02   3.4000873063e+01    0.3111728    0.2804055  -3.74  0.000584851    1.506    0.336
        37 -11.5267     49.1867    170.5052   9.8186088567e+01   3.4413546359e+01    0.2825216    0.2613153  11.90 0.0007656228    1.368    0.269
        38  -8.2579     94.5408     46.5145   5.5147697075e+01   5.5319075324e+01    0.1548889     0.144895 -82.28 2.297369e-05    1.063    0.060
        39 -14.0414     90.9218    231.6480   9.3801560354e+01   1.7482118570e+01     4.580612     1.374337  39.88   0.02152557    2.300    0.565
