#   1 NUMBER                 Running object number                                     
#   2 MAG_AUTO               Kron-like elliptical aperture magnitude                    [mag]
#   3 X_IMAGE                Object position along x                                    [pixel]
#   4 Y_IMAGE                Object position along y                                    [pixel]
#   5 X_WORLD                Barycenter position along world x axis                     [deg]
#   6 Y_WORLD                Barycenter position along world y axis                     [deg]
#   7 A_WORLD                Profile RMS along major axis (world units)                 [deg]
#   8 B_WORLD                Profile RMS along minor axis (world units)                 [deg]
#   9 THETA_WORLD            Position angle (CCW/world-x)                               [deg]
#  10 FWHM_WORLD             FWHM assuming a gaussian core                              [deg]
#  11 ELONGATION             A_IMAGE/B_IMAGE                                           
#  12 ELLIPTICITY            1 - B_IMAGE/A_IMAGE                                       
         1 -11.6423     39.7935     24.6797   5.5399192362e+01   6.7486510872e+01     1.033445    0.8801352   6.07  0.006864585    1.138    0.121
         2 -13.3096     61.9459      7.6122   3.9187685855e+01   6.5011110127e+01     1.527568    0.9876461 -48.50  0.008828613    2.117    0.528
         3 -11.7094     70.9112      3.6219   3.5008050900e+01   6.3422593147e+01    0.8552321    0.3301555  67.96  0.003718719    2.602    0.616
         4 -13.6214     62.1080     34.3971   5.0247304157e+01   6.2042543444e+01     1.770333     1.115382  54.71  0.009352289    1.580    0.367
         5 -12.7953     53.9630     21.5125   4.7960658666e+01   6.5243641037e+01    0.8913008    0.6213515  70.18  0.002565098    1.986    0.496
         6 -13.3484     74.5425     23.9177   4.2014460524e+01   6.0732468700e+01     1.168665     0.344657  49.87  0.001320914    2.670    0.625
         7 -12.0351     76.5413     12.4351   3.7028500383e+01   6.1450239411e+01    0.5483699      0.36668 -22.60  0.002376128    1.829    0.453
         8 -13.3722     78.6627     41.7592   4.7404457784e+01   5.7646324745e+01     1.424117    0.5588822  37.85  0.005267653    3.055    0.673
         9 -13.9352    190.6032     60.8255   3.0951011656e+01   3.0674860639e+01     1.337253    0.8030223 -52.30   0.00772624    1.470    0.320
        10 -12.7355    206.0004     44.1465   2.5908315304e+01   2.9952666833e+01      1.20274    0.6093796 -82.99  0.006351069    2.332    0.571
        11 -12.2637    197.4079     29.7279   2.3801426550e+01   3.3330341759e+01     1.090088    0.6416868 -77.32  0.006758434    1.573    0.364
        12 -12.1730    162.4193     29.5576   2.7276912927e+01   4.0490458922e+01    0.7550505    0.3497215 -63.22  0.003560659    2.507    0.601
        13 -12.4351    190.4757     39.8193   2.6523444780e+01   3.3478338356e+01    0.9338235    0.4546195 -77.65  0.004528991    2.566    0.610
        14 -10.8883     17.7128     22.5198   6.6306180694e+01   7.1185319800e+01    0.8448227    0.5389737  54.97  0.004140109    3.090    0.676
        15 -14.1460     44.7696     71.8641   7.1141457584e+01   5.8675063012e+01     1.891438     1.355149 -15.68  0.009634466    1.523    0.343
        16 -14.3401     11.4839     36.5336   7.6279830554e+01   6.9635003361e+01     1.941097     1.650255  81.99   0.01192777    2.047    0.511
        17 -12.2254    219.9199     29.5265   2.1989276125e+01   2.9180276997e+01    0.9866426    0.4342166 -86.49  0.004036795    2.624    0.619
        18 -12.9644    222.5649     40.9139   2.3879068501e+01   2.7357100818e+01    0.9952745    0.4754743 -57.75  0.003554703    1.759    0.432
        19  -9.1138     30.5824     20.7540   5.8138589095e+01   6.9539922273e+01    0.8190675    0.4217972 -32.92  0.004332707    2.159    0.537
        20 -10.5339    229.5097     16.0033   1.8962233392e+01   2.9009824444e+01     0.324433    0.1711996 -27.16  0.001915084    2.856    0.650
        21 -10.2059    213.5934     21.1024   2.0881578950e+01   3.1266426611e+01    0.1989518    0.1757157 -45.20  0.001598517    1.453    0.312
        22 -12.7617    226.5145     22.6509   2.0305507723e+01   2.8801604258e+01    0.3767613    0.2481564 -84.80   0.00154651    1.308    0.235
        23 -10.7111    138.5414     18.3732   2.7435694890e+01   4.6924233847e+01    0.3588268    0.2754662   6.94  0.001900714    2.020    0.505
        24 -11.6314    194.1217     17.9681   2.1703924800e+01   3.5272471222e+01    0.2872179    0.2602791 -42.35  0.001554967    1.445    0.308
        25  99.0000    231.0469      1.3812   1.6392749855e+01   3.0246126731e+01    0.7041703    0.1043244  76.70  0.002694475    6.238    0.840
        26 -12.8101    249.4751     11.5671   1.7181228252e+01   2.6196459253e+01    0.4076484    0.1219076 -45.53   0.00240499    2.260    0.558
        27 -13.6762    243.5763      9.2780   1.7095586509e+01   2.7376561297e+01    0.7586723    0.3016262 -71.53  0.004545808    2.325    0.570
        28 -10.8941    146.5190      8.5409   2.3948109309e+01   4.6100757794e+01    0.4629667    0.2490173 -52.59  0.002241628    1.846    0.458
        29 -10.1267    143.0020     10.0000   2.4707527459e+01   4.6739344188e+01    0.2508443    0.1476664  72.00 0.0005881893    1.413    0.292
        30 -11.2546    154.7999     13.2067   2.4213339819e+01   4.3859419659e+01     0.310223     0.277014 -24.84  0.001523226    1.491    0.329
        31  -9.6857    227.5720      9.5150   1.7950911479e+01   3.0022374153e+01    0.1024324   0.07365134 -67.92 0.0001127253    1.025    0.025
        32 -10.5623    220.9122      7.5393   1.7971110690e+01   3.1384088501e+01    0.1940357    0.1156789 -47.96 0.0003956885    1.425    0.298
        33 -11.8001    223.8158     12.8981   1.8750305949e+01   3.0322758394e+01    0.3039517     0.194102 -62.88 0.0003789693    1.163    0.140
        34 -10.2168    218.5017     11.4754   1.8809404538e+01   3.1408592319e+01    0.3198244    0.1245214 -62.31  0.001578463    2.242    0.554
        35 -11.4992    129.9906     19.5774   2.8947559316e+01   4.8722908132e+01    0.2678605    0.2012722  75.98 0.0004743996    1.117    0.105
        36 -11.9582    101.9293     10.6907   3.0851805241e+01   5.5925951992e+01    0.2274285    0.1859315  80.43 0.0003746503    1.117    0.105
        37 -10.4667     35.6866     14.3917   5.2490122369e+01   6.9457967119e+01    0.3198763    0.1877767  56.64  0.001666838    2.164    0.538
        38 -10.7967    131.5878     11.5264   2.6505916472e+01   4.9137816927e+01    0.3937598    0.1795758  83.74  0.001489556    2.289    0.563
        39 -10.0844    123.2716     11.9346   2.7763448694e+01   5.0973381102e+01    0.1953734    0.1767003  47.08 0.0006812882    1.299    0.230
        40  -9.4694    124.5385      8.5269   2.6612972412e+01   5.0991278270e+01    0.1550091    0.1031651 -49.18 0.0003236798    1.612    0.380
        41  -9.8105     88.6076     11.7857   3.3899574157e+01   5.8835053161e+01    0.2165398    0.1540383 -65.13 0.0008864787    1.750    0.429
        42 -10.7851     84.7475      8.0716   3.3411633463e+01   6.0017260949e+01     0.273932    0.2300648 -26.39  0.001446598    1.459    0.315
        43 -12.4682     86.6951      1.6346   3.0663453447e+01   6.0090795950e+01    0.4662252    0.1152942  60.56  0.001572246    2.742    0.635
        44  -9.8433    171.1493     10.6467   2.2053782425e+01   4.0644006335e+01    0.1767955    0.1197695 -75.13 0.0003989284    1.243    0.196
        45 -12.5725    173.5655      4.0912   2.0418462552e+01   4.0768253439e+01    0.3350097    0.1911466 -26.75  0.001381892    2.256    0.557
        46 -11.5721    116.1426      8.3852   2.7773497050e+01   5.2900824099e+01    0.4183951    0.2541201 -13.01  0.002119646    2.382    0.580
        47 -12.3889    193.9087      7.8527   1.9700329246e+01   3.6350211138e+01    0.2559628    0.1963293 -81.03  0.001119327    1.062    0.058
        48 -10.8991     48.8562      8.2499   4.3922703795e+01   6.7626746755e+01    0.2494345    0.1908006 -40.43 0.0008453722    1.701    0.412
        49 -10.4071     27.6035      9.3474   5.3986972056e+01   7.1406021671e+01    0.2347425    0.1352008  40.26  0.001361202    1.439    0.305
        50 -10.1588    150.4875     13.4977   2.4748549273e+01   4.4767383867e+01    0.2661737    0.1914728 -56.60  0.001052854    1.350    0.260
        51 -10.7791    210.4956      5.8969   1.8270195138e+01   3.3419905249e+01    0.2114839    0.1289349 -65.20  0.001459755    1.258    0.205
        52 -10.5916      3.1533      6.3783   6.7821139914e+01   7.5247730868e+01     0.278189    0.1610813  18.47   0.00169815    1.429    0.300
        53  -9.4617    150.5645      6.5606   2.3035698374e+01   4.5399267828e+01    0.1182695   0.09052039 -83.58 6.395388e-05    1.078    0.072
        54 -11.4608    102.5454      4.6105   2.8764137917e+01   5.6293403380e+01    0.4859753    0.1613733  55.18  0.001494045    2.372    0.578
        55  -9.1830    228.6519      5.6534   1.7232427253e+01   3.0229571110e+01   0.08605636    0.0746925  56.41 0.0007041875    1.810    0.447
        56 -10.5150    110.0704      4.2976   2.7454111129e+01   5.4615114212e+01    0.4572285    0.1487286  66.49  0.001734796    2.358    0.576
        57 -11.7914    183.8954      3.4490   1.9512147624e+01   3.8740692053e+01    0.2291992    0.1738126 -74.73 0.0006949164    1.036    0.035
        58 -11.0444    219.1773      1.8627   1.7064621064e+01   3.2254172931e+01    0.1768933    0.1463677  78.34  0.001136641    1.458    0.314
        59 -10.0340    140.4019      1.9575   2.2932099831e+01   4.8017911239e+01    0.2167203    0.1324986 -87.75  0.000377094    1.440    0.306
        60 -11.3997     50.2528      1.3358   4.0169964514e+01   6.7947402047e+01    0.2793042    0.1174568  56.78 0.0008550958    1.940    0.484
        61 -11.1476     46.6582      1.6974   4.1623636621e+01   6.8638454670e+01    0.2185903    0.1390144  45.99   0.00110856    1.218    0.179
        62 -11.2826    169.4587     97.3142   4.2131625492e+01   2.9088774516e+01    0.4028161    0.3241517 -88.04   0.00194679    1.359    0.264
        63 -11.2908     11.6035     97.5823   9.3053896155e+01   5.6277017587e+01    0.3325744    0.2085934 -42.90  0.001258928    1.426    0.299
        64 -11.3431    189.7433     94.9871   3.8345836497e+01   2.5573905700e+01    0.2697219    0.2111692 -36.05 0.0006447525    1.331    0.249
        65 -10.9712    192.8101     92.1629   3.7301868079e+01   2.5468574061e+01    0.2194183    0.1813637 -50.83 0.0003722639    1.088    0.081
        66 -11.6062    130.6489     43.9789   3.5649003294e+01   4.5763983656e+01    0.9799268    0.5649847  52.62  0.005035731    1.657    0.396
        67 -11.3861     73.2966     96.4666   6.6912455882e+01   4.8720113507e+01    0.2958423    0.2817746   6.57 0.0009812411    1.007    0.007
        68 -10.8759    232.9595     94.9848   3.2839940368e+01   1.8151276960e+01     0.215599    0.1303675 -43.05 0.0005152614    1.363    0.266
        69 -12.3063     48.2482     94.9955   7.6305317100e+01   5.3048371449e+01    0.5737351    0.2890143  40.96  0.002335055    2.121    0.528
        70 -10.8452     68.1131     94.4629   6.8267189526e+01   5.0070038146e+01     0.263751    0.2490189  12.51  0.000337383    1.017    0.016
        71 -12.0679     62.7544     90.8216   6.9290966017e+01   5.1784697920e+01    0.5114728    0.3359934  50.19  0.002255279    1.771    0.435
        72 -12.8673     57.3225     89.2129   7.0988534108e+01   5.3022746153e+01    0.6753913    0.3845212 -32.47  0.001346072    2.044    0.511
        73 -12.4913     52.1028     86.8943   7.2472124569e+01   5.4347447872e+01    0.5658643     0.329896 -45.46 0.0008173771    1.706    0.414
        74 -12.1950     48.5972     85.7876   7.3637828455e+01   5.5114536008e+01    0.4446409    0.2834049  30.58  0.002109015    1.514    0.339
        75 -10.7296     16.8020     93.6864   8.9908299836e+01   5.6856420508e+01    0.3384863    0.2344315 -83.32  0.001665572    1.792    0.442
        76 -10.7932     89.2430     93.9555   6.0723450012e+01   4.6291300297e+01    0.2550398    0.2225191  17.93 0.0002069264    1.183    0.155
        77  -9.9735     87.1542     89.7915   6.0220454885e+01   4.7569880167e+01    0.3927806    0.2329768  55.08  0.001199435    1.994    0.498
        78 -11.2013    211.6120     92.8877   3.4934655518e+01   2.1981815850e+01    0.1901843    0.1697551  51.72  0.001288533    1.400    0.286
        79 -13.7263    175.0150     86.6676   3.8791259118e+01   2.9804757479e+01     1.465395    0.7722009  32.36  0.005315465    4.397    0.773
        80 -12.4443    201.5629     77.5527   3.3107531422e+01   2.6145515843e+01    0.4894505     0.286859 -77.50   0.00251793    2.200    0.545
        81 -11.3075    172.7633     54.3845   3.1771179979e+01   3.5173784338e+01     0.610822    0.3944879  83.66    0.0028559    1.582    0.368
        82 -13.8521    193.8106     82.7725   3.5187370753e+01   2.6786878857e+01     1.217508    0.7837386 -59.25   0.00622322    1.463    0.316
        83 -11.3239    168.7003     33.5895   2.7491688470e+01   3.8686687961e+01    0.4053253    0.2495388 -65.45  0.001874098    1.563    0.360
        84  -9.7287    140.5205    119.5253   5.3214323061e+01   3.0597929240e+01     0.145299    0.1402449 -58.35 0.0001412487    1.016    0.016
        85 -10.3246    203.5821    116.0484   4.0630156957e+01   1.9526350001e+01    0.2988507    0.1831606  72.91  0.001486333    2.458    0.593
        86 -10.6516    181.7838    115.5992   4.4021040798e+01   2.3442762037e+01    0.3308577    0.2065696  69.95  0.001572109    2.243    0.554
        87 -12.8839    192.0999     48.9180   2.8264619384e+01   3.1999975591e+01     1.054777    0.6139441  82.23   0.00605616    1.759    0.432
        88 -11.7395    180.1438     49.4232   2.9727414444e+01   3.4324142505e+01    0.7306634    0.3934834 -26.31  0.003569702    2.680    0.627
        89 -12.1862    174.8739     39.2925   2.8083171813e+01   3.6705206407e+01    0.5532615    0.2988223  49.17  0.002886455    2.354    0.575
        90  -9.3158    171.3418    113.3282   4.5386247917e+01   2.5811262520e+01    0.1362182    0.1087126  -3.30 0.0007051329    1.741    0.426
        91 -10.4270    143.7024    113.0690   5.0954533938e+01   3.1283778325e+01    0.2503923    0.2099282  39.95 0.0001820951    1.261    0.207
        92 -12.6043    188.8752     34.0919   2.5478327095e+01   3.4490394899e+01    0.4933265    0.3237298  87.35 0.0008322118    1.385    0.278
        93 -12.3864    161.0576     38.4153   2.9555607844e+01   3.9734506849e+01    0.6472579    0.4931954  63.00  0.003730824    1.317    0.240
        94 -11.4378     96.4756     90.3246   5.7412694716e+01   4.5601525409e+01    0.5764525    0.4040263  71.01  0.002557691    1.995    0.499
        95 -10.4346     79.5315     90.9928   6.3147641651e+01   4.8778334647e+01    0.2706147    0.2126941   4.91 0.0005142407    1.483    0.326
        96 -11.7460     82.6395     80.7274   5.9048223066e+01   5.0285697117e+01    0.7467614    0.4999321 -73.85  0.002570219    2.513    0.602
        97 -12.3185     86.2272     73.0905   5.5510697871e+01   5.1021938800e+01    0.5620725    0.4508818  58.90  0.001787136    1.330    0.248
        98 -12.2857     70.9448     73.2577   6.0856049868e+01   5.3986090894e+01     1.085417    0.5817457  38.27  0.004763731    1.754    0.430
        99 -13.0334     67.4310     82.6378   6.5089712168e+01   5.2745874041e+01    0.6813836    0.5066848  43.12 0.0005524152    1.347    0.258
       100  -9.6708     25.3205     89.3252   8.4993150504e+01   5.7151614854e+01    0.1551835   0.09495052 -28.13 0.0007046667    1.680    0.405
       101 -11.8765    237.0269     86.0387   3.0793766371e+01   1.8845625199e+01    0.3406639    0.2192887  78.55  0.001268736    1.887    0.470
       102 -12.3581     10.8310     81.3164   9.0078304497e+01   6.0309907644e+01    0.5238777    0.3308593 -69.90  0.002622783    1.735    0.423
       103 -10.8818    138.5647    112.5382   5.2002118553e+01   3.2426024225e+01    0.2958871    0.2151069  24.17    0.0012192    1.751    0.429
       104 -11.6682    133.2539    112.2326   5.3187874923e+01   3.3563054246e+01    0.3525957    0.2810293 -64.60   0.00179034    1.366    0.268
       105 -14.1923      9.7933     68.2688   8.7465890837e+01   6.3388951870e+01     2.264577     1.121752  11.44  0.009957293    2.010    0.503
       106  -9.5409    210.1470    111.8894   3.8864068147e+01   1.9135506755e+01      0.20141    0.1406451  65.44 0.0009923505    1.739    0.425
       107 -12.5162     24.6318     43.4034   7.1233043358e+01   6.6904218188e+01     0.646565    0.4299574  31.32  0.003028843    1.443    0.307
       108 -12.0932     26.2153     35.8803   6.7317702816e+01   6.7972192291e+01    0.3293924    0.2406605   4.56 0.0006417757    1.262    0.208
       109 -13.1194     39.5739     57.3866   6.8718458660e+01   6.2299082562e+01     1.096766    0.6689033  28.31  0.004333518    1.511    0.338
       110 -12.9043      5.5114     55.6920   8.6406134258e+01   6.6428922764e+01    0.8387097     0.519372  -8.89  0.003119722    1.534    0.348
       111 -11.5366      3.5081     48.5425   8.5452289950e+01   6.8046126543e+01    0.3931947    0.2614158  33.70  0.001195909    1.740    0.425
       112 -12.8296     54.8871     72.0147   6.6788424854e+01   5.7064893970e+01    0.5617961    0.3441769 -51.03 0.0003672322    1.804    0.446
       113 -12.9948     48.5435     53.3906   6.3127165391e+01   6.1613690772e+01    0.5977131    0.3981039 -15.93 0.0008305762    1.813    0.448
       114 -12.2948     53.2690     43.8493   5.7463935966e+01   6.2364616588e+01    0.6298999    0.3109502  27.76  0.001243229    2.365    0.577
       115 -11.6435      6.5659     86.5565   9.3270794402e+01   5.9339492626e+01    0.3019611     0.208031  39.89  0.001579984    1.706    0.414
       116 -12.3364    218.1344     84.2072   3.2469540001e+01   2.2200819940e+01    0.3342426     0.222874  45.12  0.001995091    2.069    0.517
       117 -12.1266    161.8449     84.4361   4.0475482271e+01   3.2855183271e+01    0.9145725    0.3545533  51.84  0.003709406    2.639    0.621
       118 -11.4056    166.1553     76.8268   3.7954141450e+01   3.3210358585e+01    0.3305413    0.2585362 -72.26 0.0003701715    1.265    0.209
       119 -12.1764    168.7518     80.5205   3.8393892856e+01   3.2079837619e+01    0.3708836    0.2928043  73.91 0.0008683444    1.280    0.219
       120 -10.8916    169.5014     76.5416   3.7352784075e+01   3.2565221739e+01    0.2712941     0.192454 -84.65 0.0006692074    1.579    0.367
       121  -9.8868     23.6713     85.1674   8.4757120100e+01   5.8303694016e+01    0.2069003    0.1102894 -48.64  0.000846997    1.704    0.413
       122 -10.5569    230.0233     82.8934   3.0935422505e+01   2.0419344501e+01    0.2080791     0.138243 -78.22  0.001079037    1.656    0.396
       123 -10.4755    250.6047     81.7252   2.8752327495e+01   1.7400878082e+01    0.1980371   0.08073907 -43.29 0.0002144279    1.872    0.466
       124 -13.0867     58.1678     61.1769   6.1801316583e+01   5.8573343081e+01     1.012096    0.6883096 -56.73   0.00502337    1.914    0.477
       125 -12.2325     28.0495     81.0139   8.1610844518e+01   5.8818322304e+01    0.5831618    0.2844496  17.87  0.002407955    2.095    0.523
       126 -10.8970    232.6985     78.8597   2.9926974632e+01   2.0571619589e+01     0.307642    0.1821895 -77.28  0.001813018    2.028    0.507
       127 -12.6640    203.4762     69.4672   3.1235851874e+01   2.6988849638e+01    0.5864314    0.3343397 -78.10  0.003058558    2.200    0.545
       128 -13.3943    220.3507     68.5466   2.9242260027e+01   2.4101667730e+01    0.8938004    0.5483031  81.96  0.005506608    1.828    0.453
       129 -12.8158    213.4156     76.7446   3.1555823573e+01   2.4130518521e+01    0.4385367    0.3583274  25.70   0.00219297    1.990    0.497
       130 -13.1617    203.4011     61.2320   2.9579576595e+01   2.8172280387e+01    0.6277487    0.4753051 -80.68  0.002601396    1.216    0.178
       131 -12.3392    218.0451     57.2467   2.7321994952e+01   2.6056832155e+01    0.6762363    0.4988895  31.88  0.004149542    2.548    0.608
       132 -11.6508    209.6865     58.5861   2.8395061922e+01   2.7376572718e+01    0.2432225    0.1838207 -74.31 0.0003091687    1.155    0.134
       133  -8.6515     41.1562     41.6597   6.2019954402e+01   6.4793162210e+01    0.8153514    0.7222127 -70.80  0.004993464    1.671    0.402
       134 -11.3801    249.8025     74.9181   2.7658706337e+01   1.8463902848e+01    0.4622917    0.1600937 -37.14  0.002212253    2.867    0.651
       135 -14.1420    116.5976     64.0243   4.4301747754e+01   4.6036980085e+01     1.406012    0.9464207  54.47  0.004698474    1.380    0.275
       136 -12.6791    176.9216     70.3282   3.4820802823e+01   3.2013655178e+01     1.081797    0.6055493  81.17  0.005172128    2.290    0.563
       137 -10.5787    151.2074     73.0187   3.9588959857e+01   3.6979602872e+01     0.237672     0.191558 -50.16  0.000470243    1.220    0.180
       138  -9.6181    242.1650     73.2249   2.8032071314e+01   1.9864727802e+01    0.2970929    0.1310102  59.19  0.001702739    2.713    0.631
       139 -11.0557     70.9842     87.9724   6.5340988682e+01   5.0987751951e+01    0.3772473    0.2770398 -31.11  0.001054625    1.463    0.317
       140 -10.7340    215.1646     42.4540   2.4771231148e+01   2.8482523386e+01    0.3129052    0.1794088 -62.19  0.001816013    1.485    0.327
       141 -10.5401    238.3269     30.5827   2.0930825129e+01   2.5906820736e+01    0.3195676    0.1813759  81.29  0.001983584    1.745    0.427
       142 -10.5801    241.9414     60.8057   2.5881621225e+01   2.1578239882e+01    0.2443142    0.1431763 -55.58 0.0009490208    1.311    0.237
       143 -10.5712    118.0463    110.5007   5.6634622047e+01   3.7008236690e+01    0.2303527     0.146956  43.26 0.0007764247    1.566    0.361
       144 -11.2645    247.6317     42.8187   2.2390045045e+01   2.2957011547e+01    0.5715641    0.1806111 -58.44   0.00258157    3.093    0.677
       145 -10.5915    195.6969    107.2435   4.0020975925e+01   2.2410427876e+01    0.3069483    0.1975763 -54.54  0.001680912    1.438    0.305
       146 -11.6306    233.9530     37.2010   2.2366404613e+01   2.5855954879e+01    0.3635972    0.1975543 -70.33 0.0005535598    1.653    0.395
       147 -12.9300    234.9090     62.3857   2.6749746724e+01   2.2500442353e+01    0.8549368    0.4707994 -41.78  0.005389989    1.575    0.365
       148 -11.5572    230.3896     49.3186   2.4783777957e+01   2.4959961846e+01    0.4914534    0.1964234 -38.22  0.001550588    2.323    0.570
       149 -11.9616    234.5341     46.2648   2.3916493157e+01   2.4650899375e+01    0.2752681    0.1607021 -74.51 0.0007286158    1.613    0.380
       150 -10.9459    238.4997     51.8301   2.4589725269e+01   2.3296204675e+01     0.343677    0.1531788 -57.75  0.001994404    1.910    0.476
       151 -10.8080    168.0212     63.9996   3.4659659243e+01   3.4792924817e+01    0.3631374    0.2646502 -42.59   0.00175549    1.377    0.274
       152 -11.6505    164.0508     64.9316   3.5476911734e+01   3.5489116315e+01    0.3424943    0.3150496  62.14 0.0003627743    1.216    0.177
       153 -10.9077    155.3004     76.6235   3.9747756273e+01   3.5522313766e+01    0.2853667    0.2336448  51.97 0.0006428117    1.297    0.229
       154  -9.6155    244.9451     64.5220   2.6280353876e+01   2.0613174524e+01    0.1334016   0.09918726  74.03 0.0005464224    1.543    0.352
       155 -11.4456    224.0865     61.3431   2.7528399194e+01   2.4453275707e+01    0.2938862    0.1897906  70.72  0.001582766    1.674    0.403
       156 -12.0048    127.2232     59.0056   4.0517551549e+01   4.4436261766e+01    0.4869092    0.2660991  42.86  0.002218578    2.066    0.516
       157 -11.1184    162.0144     54.6704   3.3329029878e+01   3.7400683269e+01    0.4279288    0.2560043  87.60  0.001608078    1.943    0.485
       158 -12.2393     86.6447     64.4673   5.2638150008e+01   5.2464408776e+01    0.7138993    0.4884881  89.01   0.00304609    2.667    0.625
       159 -10.4924    101.3778     53.6914   4.4940631072e+01   5.1006872935e+01    0.6044309    0.2520286  46.76   0.00246557    2.239    0.553
       160 -11.1739    247.5475     56.1318   2.4639773493e+01   2.1306165964e+01    0.3183512    0.1943138 -69.16  0.002230396    1.456    0.313
       161 -12.5362    155.7018     61.7266   3.6016466495e+01   3.7746451839e+01    0.6498203    0.3430783 -30.91  0.001631176    2.331    0.571
       162 -10.4830    206.7861     53.1269   2.7608227890e+01   2.8643844732e+01    0.2079406    0.2012563 -49.89  0.001105058    1.398    0.285
       163 -10.7677    161.9889     59.2583   3.4434643521e+01   3.6757196650e+01    0.2812272    0.2586114 -63.70 0.0009399581    1.132    0.116
       164 -10.0676    111.8115     52.1725   4.1904814381e+01   4.8900088965e+01     0.187492    0.1642719  76.16 0.0002842541    1.105    0.095
       165 -11.0919     90.5180     50.9879   4.7037494478e+01   5.3787718019e+01    0.2404195     0.175438  49.75 1.932298e-05    1.224    0.183
       166 -10.6499     99.3702     47.4299   4.3458198269e+01   5.2355140028e+01    0.3756504     0.243427  39.94   0.00165195    1.582    0.368
       167  -9.9932     93.9984     48.2639   4.5155830775e+01   5.3424318585e+01     0.223561    0.2062434 -44.43 0.0008665631    1.212    0.175
       168  -9.8230     91.7561     45.6129   4.4888990991e+01   5.4289824781e+01      0.23481    0.1933689   7.99 0.0006891625    1.474    0.322
       169 -10.2001     93.6265     41.7850   4.3096832900e+01   5.4398498675e+01    0.3023687    0.2029682 -48.66  0.001605297    1.739    0.425
       170 -10.2902    108.8281     56.1032   4.3809652231e+01   4.8991048416e+01    0.3623154    0.2438227 -59.92  0.001812051    1.810    0.448
       171  -9.2381    218.3041     50.2941   2.5982269167e+01   2.6926232505e+01   0.09189408   0.08940481  23.94 0.0003694441    1.578    0.366
       172 -10.0690    162.2870     48.5710   3.1827028198e+01   3.8172081737e+01    0.3824989    0.2437277  44.20  0.002052001    2.021    0.505
       173 -12.8955    221.1045     77.7660   3.0913031737e+01   2.2650401192e+01    0.4774262     0.256335 -48.71  0.002783784    1.509    0.337
       174  -8.4887    143.4430     45.6705   3.3919197225e+01   4.2673915156e+01    0.4604431    0.1946291  45.28  0.001855554    3.099    0.677
       175 -11.6182    149.9242     43.7215   3.2409984887e+01   4.1492514934e+01    0.4748687    0.3226053 -53.32  0.002745912    1.455    0.313
       176 -10.7709    148.7318     38.1039   3.1156911056e+01   4.2460445479e+01    0.4429666    0.1939791  60.37    0.0021117    2.048    0.512
       177 -11.0433    161.7003    107.0236   4.5782105838e+01   2.8862009121e+01    0.2068653    0.1719172 -47.35  0.001054006    1.135    0.119
       178 -10.3769    105.7171     43.3425   4.0594593072e+01   5.1490556402e+01    0.2046476    0.1928191 -78.35 0.0002268882    1.135    0.119
       179 -10.2557    100.6655     40.7592   4.0971867272e+01   5.2964445149e+01    0.2575834    0.1656017  54.50  0.001362738    1.358    0.263
       180 -10.0637    250.0387     38.7314   2.1553894186e+01   2.3071171067e+01    0.1582598   0.09987151 -66.47 0.0008047108    1.232    0.188
       181 -10.8608    240.9373     40.6114   2.2471433721e+01   2.4294361062e+01    0.2994817    0.2067873  70.56  0.001197621    1.656    0.396
       182 -10.0392    133.5498     35.2690   3.2737576806e+01   4.6194356961e+01    0.7100224    0.3297267 -73.94  0.002217388    5.043    0.802
       183  -9.9458    125.1110     37.1787   3.4728555262e+01   4.7874544235e+01    0.2002241    0.1623924  52.11  0.001222337    1.244    0.196
       184 -11.7640    110.2819     35.8446   3.7230446221e+01   5.1407641408e+01    0.3637478    0.2738058  20.68 0.0008064397    1.789    0.441
       185 -10.3584    113.4506     27.7475   3.4096904828e+01   5.1621895471e+01    0.4321097    0.2951288  76.00  0.001890415    1.372    0.271
       186 -11.4310     92.4045     32.9583   4.0416888396e+01   5.5783604661e+01    0.3645092     0.296419  17.64  0.001870638    1.471    0.320
       187 -10.4426     75.1423     33.4732   4.5462832429e+01   5.9481464935e+01    0.2663341    0.1878671  61.76 0.0007777155    1.419    0.295
       188 -10.3890    206.1380     32.0740   2.3530979144e+01   3.1397310597e+01    0.2415389    0.1299031 -47.14  0.001446076    1.580    0.367
       189  -9.7989    122.2058     32.8175   3.3991814581e+01   4.9054238693e+01     0.192747    0.1489921 -41.29 0.0003343592    1.435    0.303
       190 -11.4975    123.1047     26.8117   3.2086937118e+01   4.9526137509e+01    0.3163252     0.280764 -61.61  0.001611415    1.206    0.171
       191 -12.5160    173.2002     44.8978   2.9549601107e+01   3.6346309411e+01    0.6268412    0.4537857  70.60  0.003587252    1.314    0.239
       192 -10.5450    104.2496     28.6692   3.6236893390e+01   5.3612698586e+01    0.2679639    0.1775988 -47.68 0.0009847854    1.718    0.418
       193  -9.4720    146.5198     28.1838   2.8930427097e+01   4.4110509874e+01    0.3801343    0.2331012 -64.08  0.002126362    1.692    0.409
       194 -11.2814    150.3004     22.7912   2.7080405519e+01   4.3864710092e+01    0.3459918    0.3060414  37.29 0.0008629379    1.495    0.331
       195 -11.7312     86.1327     28.3366   4.0418844008e+01   5.7713740502e+01    0.3801189    0.2172482  62.56 0.0007019942    1.614    0.381
       196  -9.7780    137.9614     26.6633   2.9723803435e+01   4.6185297241e+01     0.537761      0.24138 -87.08  0.001982447    3.908    0.744
       197 -10.7852    131.8401     24.1588   2.9943562994e+01   4.7831979262e+01    0.2396421    0.2264016  15.76 0.0009827928    1.374    0.272
       198 -10.1315    244.7954     19.6129   1.8716931934e+01   2.6083573749e+01    0.1877595     0.120685  81.23  0.001018491    1.557    0.358
       199 -10.7931    235.7757     23.7281   1.9919191499e+01   2.7107621535e+01    0.3053352    0.2328591  49.49  0.002300051    2.150    0.535
       200 -10.4171    246.2781     23.0038   1.9191348887e+01   2.5473361495e+01    0.1869152    0.1354622 -69.45 0.0007400529    1.076    0.070
       201 -11.5400    241.1295     22.9614   1.9474918616e+01   2.6309438793e+01    0.2329079    0.1729789  88.14 0.0004033594    1.339    0.253
       202 -12.2467    176.0365     23.5099   2.4444593774e+01   3.8301433522e+01    0.2487646    0.1858534 -50.55 0.0003326466    1.301    0.231
       203 -10.5114    179.4768     20.4342   2.3450993993e+01   3.7928553156e+01     0.200745    0.1428325  69.25 0.0005364443    1.385    0.278
       204 -11.4644    156.0145    105.6935   4.6592284217e+01   3.0246225960e+01    0.1972822    0.1857242  68.96  0.000652619    1.095    0.087
       205  -8.8471     98.5367     21.8419   3.5215361243e+01   5.5638177352e+01    0.3687021    0.2519101  75.38  0.002111127    1.414    0.293
       206  -9.6979     89.2458     22.7407   3.7642145023e+01   5.7633746774e+01     0.176524    0.1265716  43.85 0.0007604085    1.311    0.237
       207 -10.2580     15.5058    106.4949   9.2970282359e+01   5.3721352064e+01    0.1428587    0.1293164 -38.91 0.0008106318    1.009    0.009
       208 -10.5992    199.9854     15.8714   2.0847571236e+01   3.4364653561e+01     0.161381    0.1234635 -77.22 0.0003838902    1.038    0.036
       209 -11.1604    201.3905     20.4162   2.1631746643e+01   3.3611079688e+01    0.2454644    0.2204915  67.29 0.0007262582    1.478    0.323
       210  -9.9065    205.2823     18.3943   2.0954458329e+01   3.3095152655e+01    0.2082617   0.08057535 -55.52  0.001113024    2.196    0.545
       211 -10.8628    208.9356    104.4522   3.7565034459e+01   2.0575837172e+01    0.3734097    0.2561963 -84.63  0.001521799    1.910    0.476
       212 -10.9723    119.4716     20.7141   3.0910175625e+01   5.0992583756e+01    0.3244907    0.2179832  39.98  0.001135916    1.756    0.430
       213 -10.2299    162.4125     19.9647   2.5017821893e+01   4.1541117390e+01     0.364318    0.1822015 -76.82  0.001588549    2.247    0.555
       214 -10.1127    183.4557    105.0658   4.1481211749e+01   2.5023622046e+01    0.2327105    0.1772791  86.08 0.0006748538    1.562    0.360
       215 -10.2936    134.8080    105.1125   5.1060195202e+01   3.4688469694e+01    0.2183274    0.1934045 -78.71 0.0003840493    1.204    0.169
       216  -9.7870    169.2393     19.5952   2.4235385860e+01   4.0135518453e+01    0.2114167    0.1187402 -49.13  0.001200278    1.658    0.397
       217 -12.7624     30.9273     63.8032   7.5137707875e+01   6.2218968244e+01    0.6533581    0.5619902  88.63  0.002517618    1.702    0.412
       218 -10.1588    112.4024     16.8598   3.0944881406e+01   5.2980904328e+01    0.2243628    0.1459704  65.89 0.0006873565    1.273    0.214
       219 -10.2853    102.9400    104.8109   5.9430576169e+01   4.1265565809e+01    0.2192941    0.1975404   6.37 0.0002305963    1.196    0.164
       220 -11.1421    144.8775    102.7219   4.8200964157e+01   3.3078951050e+01    0.3687648    0.2839012  23.20  0.001856566    1.688    0.408
       221 -11.1475    109.6080    103.1983   5.7072764274e+01   4.0267643957e+01    0.2571187    0.2312455 -85.72 0.0006257201    1.243    0.196
       222 -11.3162    209.3442     21.6355   2.1280715222e+01   3.1986973109e+01    0.1846956    0.1380161 -65.32 0.0003929854    1.061    0.058
       223 -11.8933     69.6755    102.4954   6.9873175501e+01   4.7971333733e+01    0.3502118    0.2518953 -42.45 0.0005430146    1.400    0.286
       224 -11.7198    230.7353    102.3482   3.4438700714e+01   1.7368529739e+01    0.2098432     0.161935 -51.00 0.0002317055    1.023    0.023
       225 -12.2018    139.6495     53.9118   3.6738020825e+01   4.2397360329e+01     1.294846    0.7549747  61.84  0.005091521    1.591    0.372
       226 -14.8347    120.3444     84.2282   4.9100702940e+01   4.1753727624e+01      3.69223     2.103709  59.25   0.01612752    1.904    0.475
       227 -12.1738    134.9497     71.5764   4.2354914939e+01   4.0754253777e+01    0.6959285    0.4541134 -61.02   0.00194261    1.747    0.428
       228 -12.7992    143.2916     69.3273   4.0113487112e+01   3.9284895224e+01     1.479875    0.9042829 -37.02  0.007388824    1.754    0.430
       229  -9.9782    249.6677    249.6876   5.6554762975e+01  -7.8833079634e+00    0.1134252   0.05830616 -16.67 0.0005069177    1.678    0.404
       230 -10.0848    171.7836     15.0121   2.2965358805e+01   4.0077924564e+01    0.1975985    0.1367176  81.51 0.0006431135    1.231    0.188
       231 -11.9834    127.9172     89.8631   4.8779677457e+01   3.9083577057e+01    0.4192801     0.370869  54.44 0.0003570789    1.111    0.100
       232  -9.6764    103.0595     15.0602   3.2065839989e+01   5.5275458722e+01    0.1785845    0.1509141  61.44 0.0004484855    1.075    0.070
       233 -13.1421    136.2890     82.3308   4.4910751903e+01   3.8643944322e+01    0.7241645    0.6783355  39.62  0.002056913    1.168    0.144
       234 -10.6943     36.5043    248.7417   1.0230402292e+02   1.5126288487e+01    0.1922307    0.1162314 -61.98 0.0007268878    1.816    0.449
       235  -9.7436    166.5057     13.8760   2.3201414280e+01   4.1295935383e+01    0.1545732    0.1033618 -44.58 0.0004842183    1.506    0.336
       236 -10.8284     92.1955     14.1107   3.3938878646e+01   5.7819875457e+01     0.210763    0.1509701  71.01  0.000708087    1.240    0.193
       237 -10.1633     15.8678    238.4186   1.0658389852e+02   1.9386040658e+01    0.1965625    0.1441325 -73.68 0.0005908984    1.430    0.301
       238 -12.8877     79.1315     58.7791   5.3197571257e+01   5.4970205278e+01    0.9451779    0.4149315  43.23  0.003608808    2.085    0.520
       239 -11.3017    113.1981    246.8030   8.3418012208e+01   6.7593956692e+00    0.4185713    0.1733285 -43.40  0.001778643    2.599    0.615
       240  -9.4628    159.5216    219.5361   6.8636224015e+01   6.3001394768e+00    0.1354036    0.1162865  -7.50 6.193195e-05    1.028    0.027
       241 -10.1500    174.2527    131.3601   4.8749820025e+01   2.1829270558e+01    0.2118375    0.1757913 -49.71 0.0004282289    1.113    0.101
       242 -10.8304    152.9711    124.1316   5.1484387216e+01   2.7221796613e+01    0.2268327    0.1945933 -49.37 0.0002532801    1.107    0.097
       243 -13.4255     96.7561     64.8419   4.9715285595e+01   5.0258572724e+01     1.090885    0.6649476 -44.24  0.003642234    1.782    0.439
       244 -11.8752    151.4744     58.8026   3.5978297176e+01   3.9090502486e+01    0.3312798    0.2173797 -48.77  0.001803433    1.501    0.334
       245 -12.5933     81.5255     49.0737   4.9092486429e+01   5.5995064670e+01    0.9248175    0.4217467  41.55  0.003935091    2.098    0.523
       246  -9.6937    220.8109    121.5476   3.9260500773e+01   1.5812322611e+01    0.1487226    0.1168125  76.61 0.0003328418    1.619    0.382
       247  -9.5758    238.7900    101.7262   3.3423754869e+01   1.6237085757e+01    0.2332482    0.1805814   0.52  0.001475793    2.268    0.559
       248  -9.7830    235.0593    102.4566   3.3967241581e+01   1.6687883678e+01    0.1464751    0.1267266 -65.94 0.0003230403    1.154    0.133
       249 -10.6202    165.0439    101.4932   4.3880230732e+01   2.9218236541e+01    0.2199452    0.1784897 -50.09 0.0008525667    1.150    0.130
       250 -12.5096    153.2489     96.1282   4.4871866668e+01   3.2585544549e+01    0.5884736    0.5138475 -87.62 0.0008092224    1.178    0.151
       251 -11.5656     96.6255    100.7280   6.0252725086e+01   4.3397936074e+01    0.3564668    0.2670234 -26.63  0.001043382    1.539    0.350
       252 -12.0671     86.3013     99.0302   6.3102294074e+01   4.5766202970e+01    0.5296105    0.3981818  29.88   0.00115784    1.336    0.252
       253 -10.4387    218.5991     99.7273   3.5394454397e+01   1.9721579655e+01    0.2140265    0.1667411 -74.69 0.0005902398    1.327    0.247
       254 -12.7639    106.4713     96.8494   5.6265070542e+01   4.2228954238e+01    0.8248664    0.4546765 -23.99  0.002753503    3.252    0.693
       255 -11.8554    105.6385     92.6989   5.5365143053e+01   4.3243145955e+01     0.310858    0.2240738  26.01  0.001382263    1.621    0.383
       256  -9.5871    205.3298     99.3135   3.7029374916e+01   2.2040516836e+01    0.1156388   0.09727924  -7.49 0.0003524369    1.675    0.403
       257 -11.5573    199.8790     96.2433   3.7153663556e+01   2.3508167040e+01    0.3516065    0.2424491 -64.63  0.001388606    1.460    0.315
       258 -10.1137    203.7116     96.3204   3.6645298067e+01   2.2812522856e+01    0.2136818    0.1527652 -81.48 0.0002417454    1.625    0.385
       259 -10.4485    206.7103     95.3353   3.6048232194e+01   2.2443960194e+01    0.2078411    0.1486071 -63.75 0.0007888626    1.337    0.252
