#   1 NUMBER                 Running object number                                     
#   2 MAG_AUTO               Kron-like elliptical aperture magnitude                    [mag]
#   3 X_IMAGE                Object position along x                                    [pixel]
#   4 Y_IMAGE                Object position along y                                    [pixel]
#   5 X_WORLD                Barycenter position along world x axis                     [deg]
#   6 Y_WORLD                Barycenter position along world y axis                     [deg]
#   7 A_WORLD                Profile RMS along major axis (world units)                 [deg]
#   8 B_WORLD                Profile RMS along minor axis (world units)                 [deg]
#   9 THETA_WORLD            Position angle (CCW/world-x)                               [deg]
#  10 FWHM_WORLD             FWHM assuming a gaussian core                              [deg]
#  11 ELONGATION             A_IMAGE/B_IMAGE                                           
#  12 ELLIPTICITY            1 - B_IMAGE/A_IMAGE                                       
         1 -11.7841      2.0267     24.3982   1.0807704117e+02   7.3402843209e+01     0.457508      0.17461 -68.03  0.001406105    2.261    0.558
         2 -11.9477      6.0132     16.7539   1.0222699259e+02   7.4849587346e+01     0.447659    0.3189032 -72.47  0.001739644    1.505    0.335
         3 -11.7041    166.5856     18.1083   4.6144837039e+01   4.1121999501e+01    0.4546245    0.3187371 -59.67  0.001036532    1.453    0.312
         4 -10.4324    188.8581     18.0184   4.3674439166e+01   3.5463879993e+01    0.4097761    0.1088465 -36.75  0.001417807    2.877    0.652
         5 -10.9068    116.8666     14.7718   5.2568266396e+01   5.4485162155e+01    0.4599784    0.3304729  26.99  0.001190347    1.567    0.362
         6 -10.9993    120.7345      8.1278   4.8899307726e+01   5.4180645992e+01    0.4026756    0.3393079  48.37  0.001370095    1.177    0.151
         7 -11.7692    180.0851     13.8543   4.3229985489e+01   3.8105149112e+01    0.8448337    0.2692133 -57.37  0.002360558    4.953    0.798
         8 -10.8850    173.3456     13.6802   4.3872413896e+01   3.9844210210e+01    0.2991968    0.2016046 -43.36  0.001049916    1.376    0.273
         9 -11.4419    175.2917     10.7451   4.2695991680e+01   3.9640343791e+01    0.3281889    0.2778167  69.67  0.001195047    1.216    0.178
        10 -11.0860    133.1095     12.7832   4.8815369245e+01   5.0471642037e+01    0.2633997    0.2173689 -21.68 0.0003090409    1.223    0.182
        11  -9.8604     88.9526     13.5274   5.8550474169e+01   6.1553266665e+01    0.1974576    0.1822614 -11.93 3.859412e-05    1.050    0.048
        12 -10.5716    148.1251     12.3758   4.6443082463e+01   4.6558137774e+01    0.3801351    0.2068583  53.90  0.001516074    1.837    0.456
        13 -10.4854     32.5102     12.3402   8.1619541333e+01   7.2843185293e+01    0.2330422    0.2128679 -74.72 0.0006993246    1.497    0.332
        14  -9.6384     98.2545     11.9807   5.5339224716e+01   5.9487864132e+01    0.2008518    0.1717418 -16.92 0.0003859696    1.157    0.136
        15 -10.1801     70.4991     11.8168   6.3418565582e+01   6.5952586159e+01    0.2252099    0.1818565  48.96 0.0002572024    1.274    0.215
        16 -11.4438     14.5110      9.5546   9.2050623627e+01   7.5594855563e+01    0.4377203    0.2623102 -33.32  0.001297462    1.518    0.341
        17 -11.8192     20.4891      7.1693   8.6143790936e+01   7.5367934101e+01    0.4749359    0.2103637 -42.64   0.00228763    1.928    0.481
        18 -11.7163    107.0284      7.2753   5.1082392091e+01   5.7791583458e+01    0.7595436    0.4844209  63.97  0.003679173    1.537    0.349
        19 -10.6344      4.8919      8.8564   9.9206916624e+01   7.6591848237e+01    0.2889721    0.1457253 -54.71  0.001421796    1.624    0.384
        20 -11.6076    204.2379      7.7891   3.9286433454e+01   3.2745758610e+01    0.3398637    0.2886023  23.68  0.001115247    1.434    0.303
        21 -10.1265    208.5562      3.8629   3.7861561441e+01   3.2091987387e+01    0.2976007     0.164488 -60.40  0.001460101    1.749    0.428
        22 -11.5468    192.3620      7.8212   4.0218603098e+01   3.5627867683e+01    0.4410218    0.2959847 -81.35   0.00155003    1.535    0.348
        23 -11.7221    194.9550      3.9868   3.8855450548e+01   3.5350183982e+01    0.5131709     0.292102  78.22  0.002516825    1.797    0.444
        24 -10.2441    165.0826      8.0667   4.2843377558e+01   4.2536155487e+01    0.3331603    0.1999217 -25.15  0.001576281    1.614    0.381
        25  -9.1979    128.4458      8.4326   4.7750795769e+01   5.2135107460e+01    0.1408139    0.1355328 -68.57 4.280342e-05    1.039    0.037
        26  -9.7243     46.7335      8.4471   7.1279180193e+01   7.1145658605e+01    0.1756316    0.1182465  31.08 0.0004990309    1.559    0.359
        27 -10.5664     87.6114      6.3574   5.5100233245e+01   6.2684599443e+01    0.2823962    0.2185507  75.52 0.0008861125    1.451    0.311
        28 -10.2969    170.6971      6.5452   4.1749371325e+01   4.1225127725e+01    0.2674812    0.1247147  67.94 0.0009122106    2.082    0.520
        29  -9.0975    138.7392      6.7011   4.5518028517e+01   4.9588953042e+01    0.1409674    0.1039392  32.04            0    1.509    0.337
        30  -9.8096    134.2198      6.1536   4.5931026431e+01   5.0832204342e+01    0.2134123    0.1900285  35.18 0.0006058874    1.173    0.148
        31  -9.8217     61.8283      6.0281   6.3112035082e+01   6.8525340202e+01    0.2235779    0.1406826 -48.61  0.001082068    1.970    0.492
        32 -10.6190     38.1454      2.8778   7.1891804156e+01   7.3453542988e+01    0.3903775    0.3017576 -53.56  0.001585215    1.714    0.417
        33  -9.6866    247.5281      4.9531   3.5904846887e+01   2.3400859713e+01     0.185379    0.1035209 -26.21 0.0004133213    1.541    0.351
        34  -9.7503    236.0432      3.6898   3.6183752057e+01   2.5922724371e+01    0.1745346    0.1510261 -57.58  0.001158012    1.095    0.087
        35 -11.0186    160.3549      2.9265   4.1530845807e+01   4.4239458604e+01    0.3514799    0.3157517  69.16  0.001029824    1.128    0.114
        36 -10.2001     30.7885      3.2481   7.6475548483e+01   7.4594788950e+01    0.2050973    0.1517148 -39.28 0.0005043834    1.343    0.255
        37 -11.1351    147.3258      2.9595   4.2967937085e+01   4.7659397175e+01    0.3950821    0.3134369 -13.50  0.002131897    1.325    0.246
        38 -11.8224    216.7442      2.0078   3.6830443602e+01   3.0359098107e+01    0.2775854    0.2098469  88.11 0.0006855884    1.367    0.268
        39 -10.7106     24.7992      6.7930   8.2893528300e+01   7.4881290902e+01    0.2642519    0.1865433 -51.21 0.0009002769    1.575    0.365
        40 -10.9819    180.1978      1.9072   3.9367041875e+01   3.9216611869e+01    0.3178713    0.1994637  82.65  0.001190245    1.605    0.377
        41 -10.6683    124.5294      1.9955   4.5598957998e+01   5.3751472599e+01     0.343015    0.2040173  73.25  0.001594667    1.666    0.400
        42 -10.8705    115.6291      1.9964   4.7011140164e+01   5.6072602031e+01    0.2508885    0.2024111  73.36 0.0003542569    1.234    0.190
        43  -9.8695     88.5445      1.7040   5.2329615303e+01   6.2920872319e+01    0.3915179     0.155938  56.00  0.001587455    2.254    0.556
        44 -10.0146     81.7570      1.9375   5.4192795491e+01   6.4522920134e+01    0.2442203    0.1919135  52.57  0.001358354    1.239    0.193
        45 -11.0162     74.9455      1.7722   5.6024656074e+01   6.6123309386e+01    0.4985482    0.1941342  60.86  0.001667189    2.551    0.608
        46 -10.0719     69.9956      1.4848   5.7380840543e+01   6.7272268048e+01    0.2452131    0.1666991  41.31  0.000371559    1.419    0.295
        47 -10.6026     49.2612      2.2967   6.5888497973e+01   7.1509253213e+01    0.3107711    0.1906167  38.05 0.0005406332    1.641    0.391
        48 -10.1186    142.1746    203.2121   9.7511554291e+01   1.4599211128e+01    0.1714346     0.141739  24.77 0.0003389637    1.116    0.104
        49  -9.8748    187.0971    250.5554   9.5544327530e+01   2.3104083423e+00     0.149859   0.07709508  33.17 0.0003618121    1.475    0.322
        50 -11.0790    115.9212    249.1391   1.0755149050e+02   1.1401526454e+01    0.2424116    0.1776599  55.14   0.00144746    1.344    0.256
        51 -10.4954    111.8855    246.4272   1.0802872669e+02   1.2277009527e+01    0.1984437    0.1435117 -37.63  0.001050323    1.940    0.485
        52  -9.4762     30.8323    250.6145   1.2265755902e+02   2.0802177546e+01    0.1382703   0.06096263  44.74 0.0001939607    1.529    0.346
        53  -9.9575     16.0066    250.5286   1.2518079698e+02   2.2226289717e+01    0.2069412   0.08777516  36.56 0.0009438918    1.797    0.444
        54 -10.8684     12.6527    249.7209   1.2572380283e+02   2.2658951371e+01    0.2553735    0.1483583  18.06  0.001696595    2.580    0.612
        55 -11.5964     33.3707    199.4134   1.1976894548e+02   2.9478743434e+01    0.2574898    0.1792026  48.63  0.001768437    1.185    0.156
        56 -10.5222     62.3936    198.3763   1.1353124558e+02   2.6443277152e+01    0.1937106    0.1569393  54.58 0.0001963907    1.043    0.041
        57 -10.2377    121.1600    199.3553   1.0122091490e+02   1.8331431182e+01    0.2007778    0.1769765  89.79 0.0008179741    1.314    0.239
        58  -9.7216     12.7916    198.0257   1.2398242242e+02   3.1722781839e+01    0.1693104    0.1101819 -54.02  0.001093584    2.124    0.529
        59  -9.7402    109.9803    197.4748   1.0330466889e+02   2.0281600583e+01     0.180013   0.08252893  53.43 0.0008089186    2.448    0.592
        60  -9.4998      5.9458    200.0173   1.2545257439e+02   3.1933324136e+01    0.1279976   0.09248874  65.47 0.0003679244    1.020    0.020
        61  -9.7148     82.8306    195.1175   1.0882405028e+02   2.4479887601e+01    0.1456331    0.1399739  17.02 0.0002923428    1.286    0.222
        62  -9.4827     95.7360    194.6213   1.0598894731e+02   2.2818221273e+01    0.1676692   0.09733346  44.35 0.0007574045    1.469    0.319
        63 -10.5284     58.9295    191.4152   1.1369258840e+02   2.8222629964e+01    0.2916392    0.1591024 -76.88  0.001153806    1.913    0.477
        64  -9.9639      5.7408    192.9865   1.2525064682e+02   3.3326557956e+01    0.1766502    0.1035766  64.41 0.0007863863    1.297    0.229
        65 -10.8291     91.5236    188.6975   1.0622158913e+02   2.4527298758e+01    0.2676476    0.2058316  58.88 0.0008183272    1.191    0.160
        66  -9.5229     67.2725    190.6600   1.1178440899e+02   2.7352651517e+01    0.1262738   0.07684436  65.21 0.0003135905    1.609    0.379
        67 -10.1662    105.4124    186.1120   1.0285317009e+02   2.3031698537e+01    0.1999389    0.1600325  32.25  0.000411374    1.229    0.186
        68 -10.4565    239.4267    184.8174   7.7396652802e+01   2.8178813809e+00    0.1594082   0.09100278 -15.78 0.0005839718    1.638    0.390
        69 -10.4021     44.2883    184.2172   1.1637323613e+02   3.1370558504e+01    0.2298456    0.1404624  89.84 0.0007505884    1.579    0.367
        70  -9.5862    249.6627    183.3302   7.5611838525e+01   1.6074786682e+00   0.09645475   0.08749441 -36.43 0.0007052019    1.734    0.423
        71  -9.8285     55.3078    181.4174   1.1363032038e+02   3.0689602249e+01    0.1645952   0.09627625  46.27  0.000677363    1.459    0.315
        72  -9.7510    222.9655    177.9928   7.8756168993e+01   5.9790100404e+00    0.1446871    0.1161104  -1.45 0.0003744404    1.033    0.032
        73  -9.6717     46.4927    176.9960   1.1528717586e+02   3.2639156837e+01    0.1673561     0.109142 -81.91 -0.0001793655    1.471    0.320
        74  -9.8532     32.3176    175.9899   1.1851379724e+02   3.4372723883e+01    0.1638622    0.1289012  80.77 0.0004140057    1.101    0.092
        75  -9.4396     17.0352    175.2643   1.2199964314e+02   3.5991386964e+01    0.1612999    0.1274816  65.57 0.0005614136    1.049    0.046
        76 -10.4072     78.7022    173.9772   1.0740651886e+02   2.9257979296e+01     0.233633    0.1604392  47.70 0.0003330659    1.294    0.227
        77  -9.5200      5.0479    168.5771   1.2444283689e+02   3.8443744046e+01    0.1526288    0.1014516  36.36 0.0003554085    1.508    0.337
        78 -10.2707     47.8666    166.3385   1.1401105269e+02   3.4793453263e+01    0.2482063    0.1817162  29.93  0.001066897    1.508    0.337
        79 -10.0301     24.8118    162.8277   1.1939060602e+02   3.7988528064e+01    0.1675565     0.145189  87.20 0.0003596592    1.157    0.136
        80 -11.4154     31.0753    154.8555   1.1720769653e+02   3.9184835579e+01     0.520134    0.2090603  51.58   0.00241497    2.246    0.555
        81 -10.7528     39.4910    159.9973   1.1551036011e+02   3.7141094022e+01    0.2678615    0.2057029  82.36  0.001076589    1.126    0.112
        82 -10.4876     36.0103    158.7594   1.1628027185e+02   3.7790181594e+01    0.2476655    0.2066628  47.26 0.0009139358    1.215    0.177
        83  -9.2243    219.5337    158.3778   7.5611230076e+01   9.0857607137e+00    0.1228867     0.104216   1.80 0.0001603925    1.038    0.037
        84 -11.6504    248.4779    155.7663   7.0667022477e+01   4.9721438219e+00    0.2426412     0.197125  -5.76 0.0009970246    1.064    0.060
        85 -11.2733    249.0101    150.4789   6.9550529249e+01   5.5378309722e+00    0.2807044    0.1595133 -31.14  0.001227964    1.559    0.359
        86 -12.5251    244.4819    149.8051   7.0065367547e+01   6.3031269815e+00    0.3422351    0.2695623 -30.21  0.002209819    1.318    0.241
        87  -9.8895    143.9827    153.4254   8.9056610434e+01   2.2989914055e+01    0.1907737    0.1778129 -37.36 0.0001568984    1.114    0.103
        88  -9.7757      3.9541    153.0210   1.2398879188e+02   4.1971121413e+01    0.1458201    0.1136193  71.88 0.0005443501    1.032    0.031
        89  -9.5080     45.9046    151.4866   1.1302898543e+02   3.8381670616e+01    0.1715378    0.1202424  37.51  0.000287635    1.442    0.306
        90 -11.0818      5.2016    147.3315   1.2337877825e+02   4.3176567452e+01    0.3331562    0.1686541  67.09  0.001192848    1.692    0.409
        91 -12.9634    240.0048    143.2940   6.9397214664e+01   7.8261903174e+00    0.4643159    0.3456192 -23.18  0.002957819    1.164    0.141
        92 -12.4373    236.4455    138.0806   6.8836958713e+01   9.0814276498e+00    0.3808123    0.2574029 -31.74  0.001466572    1.350    0.259
        93 -10.1915     24.4695    143.9808   1.1804261905e+02   4.2352352288e+01    0.2124145    0.1796402  28.58 0.0007677929    1.413    0.292
        94 -10.2061     13.5443    143.6913   1.2096143771e+02   4.3370536521e+01    0.2859723    0.2193406  -7.52  0.001769838    1.940    0.484
        95 -10.8084     19.8737    140.7896   1.1903398419e+02   4.3520658491e+01    0.4242131    0.2059265  34.63  0.002196104    2.016    0.504
        96  -9.6711    225.4861    144.9915   7.1950507461e+01   9.9497095032e+00    0.1585088    0.1006897 -49.99 -0.0001521156    2.208    0.547
        97 -12.2973    247.3212    137.3256   6.7117259633e+01   7.4375823212e+00    0.5171229    0.2363444 -23.89 0.0009942603    1.984    0.496
        98 -12.1241    248.0326    129.6393   6.5404709535e+01   8.3046814356e+00    0.6400893    0.2559816  42.40  0.002998057    2.744    0.636
        99  -9.7945      2.0316    140.1830   1.2383106875e+02   4.5063916056e+01    0.1632699     0.133551  71.38 0.0008518206    1.086    0.079
       100 -10.3906     49.8740    137.2711   1.1029317572e+02   4.1281852924e+01    0.3099175    0.1580193 -69.34  0.001153756    1.804    0.446
       101 -12.3729     28.3851    131.8416   1.1582728836e+02   4.4897804907e+01    0.3301995    0.2439127  59.88  0.001979119    1.251    0.201
       102  -9.5131     20.4874    131.4507   1.1807646827e+02   4.5709254744e+01    0.1284406    0.1051142  83.15 0.0006008002    1.005    0.005
       103 -11.0430     12.9356    130.9870   1.2021296382e+02   4.6442979374e+01    0.1856223    0.1546259  74.98            0    1.070    0.065
       104  -9.2767    217.7853    131.9147   7.0382340987e+01   1.3118979551e+01    0.1715208    0.0960459 -29.22 0.0004681865    1.617    0.382
       105 -10.3731     34.0926    129.1080   1.1386262666e+02   4.5005835897e+01     0.195878    0.1643145 -58.16  0.000693603    1.302    0.232
       106 -10.3825     42.8174    131.3054   1.1156414431e+02   4.3540348764e+01    0.3961235    0.1429349 -49.06  0.001448191    3.489    0.713
       107 -11.0888    247.8139    122.8239   6.3972560966e+01   9.2175031913e+00    0.2332623    0.1411039 -34.57   0.00130752    1.470    0.320
       108 -11.1339    243.9845    124.5000   6.4857288943e+01   9.6322464924e+00    0.2672531    0.1196267  46.16  0.001136308    2.495    0.599
       109 -13.0103    239.0291    121.6291   6.4918291404e+01   1.0848290952e+01    0.6374659    0.4421145  -6.80  0.003663831    1.428    0.300
       110 -10.3626      7.7746    133.4330   1.2185360326e+02   4.6247076997e+01    0.1445981    0.1210389  -3.95 0.0007784084    1.668    0.400
       111 -11.2461    229.3770    123.2907   6.6680968984e+01   1.2296281926e+01    0.2982782    0.1813409 -49.34  0.001484159    2.097    0.523
       112 -10.5755      6.8237    122.6573   1.2137655033e+02   4.8916674692e+01    0.3523092    0.1149024  63.03  0.001336182    3.404    0.706
       113  -9.9395      2.3244    122.9200   1.2273296144e+02   4.9155344227e+01    0.1696623     0.128134  89.73 0.0002672897    1.064    0.060
       114  -9.7776    193.9949    121.7318   7.2095309962e+01   1.9135726049e+01    0.1803242    0.1688601  10.07   0.00020217    1.080    0.074
       115  -9.2965     74.3190    122.3058   1.0087530426e+02   4.1640854038e+01    0.1386935    0.1095869 -29.43 0.0004431223    1.633    0.387
       116  -9.9797     32.9745    121.2750   1.1327427425e+02   4.7053848511e+01    0.1794163    0.1590772  74.68  0.000380753    1.093    0.085
       117 -12.2678     21.8257    119.2084   1.1649304323e+02   4.8602256796e+01    0.4865858    0.3367035  51.09  0.001200234    1.418    0.295
       118 -10.1393    207.3341    118.8201   6.9115552525e+01   1.7010247135e+01    0.3486239    0.2131736  25.51   0.00164201    2.021    0.505
       119  -9.2807     93.3876    118.8339   9.4657522721e+01   3.9410571342e+01    0.2075449    0.1285702 -46.46 0.0006262842    1.666    0.400
       120 -10.3366    223.0694    117.2572   6.6260037648e+01   1.4287263702e+01    0.4083357    0.2022881 -20.70  0.001291924    2.189    0.543
       121 -10.5324     54.7321    118.0264   1.0605360731e+02   4.5401864957e+01    0.2322486    0.1853133  52.13 0.0003123474    1.261    0.207
       122 -10.7881    232.6354    117.0936   6.4812326452e+01   1.2581247379e+01    0.2411496    0.1797596  30.20 0.0009092948    1.443    0.307
       123 -10.8990     10.2979    117.0995   1.1987756745e+02   5.0035017776e+01    0.2228009    0.1915917 -75.23 0.0008323092    1.170    0.145
       124 -10.9185     12.7638    113.5518   1.1878350679e+02   5.0734874905e+01    0.2436123    0.1638002  -0.82  0.001144002    2.141    0.533
       125 -10.9316      3.1357    115.9418   1.2200863212e+02   5.0805512352e+01    0.3294919    0.2092586  12.93  0.001694057    2.056    0.514
       126 -10.4911      3.9924    111.7257   1.2142299534e+02   5.1789830644e+01    0.1963556    0.1399872  71.92  0.000400537    1.232    0.188
       127 -10.5285    249.8057    115.0406   6.2008524354e+01   9.8930354434e+00    0.2031832    0.1793834  26.47 0.0008559399    1.286    0.222
       128 -10.8999     61.3631    113.0572   1.0310814750e+02   4.5764169504e+01    0.3772494    0.2413419 -45.57  0.001403093    1.719    0.418
       129 -10.5161     32.1038    111.1966   1.1224874009e+02   4.9665953817e+01    0.2073072    0.1582765  70.20  0.000237992    1.253    0.202
       130 -11.6697    243.8508    109.5512   6.1561594421e+01   1.1628079991e+01    0.3856569      0.23688  -4.35  0.001170982    1.916    0.478
       131 -11.4892    231.8049    109.8312   6.3267692893e+01   1.3739212436e+01    0.4577413    0.2745593 -61.11  0.001983491    3.081    0.675
       132 -11.1819     20.0862    109.6394   1.1600302311e+02   5.1142305443e+01    0.3148032    0.1665325 -56.51  0.001571176    1.810    0.448
       133  -9.7951     33.7142    114.3349   1.1215087596e+02   4.8715939420e+01    0.2165859    0.1627533  80.18 0.0007052126    1.229    0.186
       134 -10.3960    250.0897    107.6875   6.0337612802e+01   1.0795634847e+01      0.23541    0.1559349 -19.79   0.00055286    1.293    0.226
       135 -10.1727     37.3125    107.3499   1.0996704064e+02   5.0109460120e+01    0.2696187    0.1350662 -59.86  0.001249365    1.766    0.434
       136  -8.9427     62.6736    104.6909   1.0105581210e+02   4.7664609170e+01      0.14272    0.1071775 -32.74 0.0005717239    1.657    0.396
       137 -10.4167     48.0904    103.7686   1.0573716001e+02   4.9801158561e+01    0.2558398    0.1775868 -62.31 0.0003309372    1.295    0.228
       138 -10.1641     28.9830    103.5286   1.1222468210e+02   5.1906309043e+01    0.2814296    0.1492819 -56.90  0.001362722    1.735    0.424
       139 -10.0127    174.9202    102.9274   7.0984532963e+01   2.6260998987e+01    0.2097047    0.1947412 -18.84            0    1.028    0.028
       140 -10.1025    235.5519     92.5235   5.8674963750e+01   1.5429390707e+01    0.2977927    0.1880903 -83.60  0.001294138    3.274    0.695
       141 -12.4059    245.2266     98.0910   5.8760708173e+01   1.2900411379e+01    0.5532231    0.4514605 -37.82   0.00254332    1.203    0.169
       142 -10.7094    231.9918    101.9469   6.1395732541e+01   1.4801934199e+01    0.3869809    0.1898998  55.99  0.001798737    2.476    0.596
       143 -10.2854    225.2271     99.3247   6.1710140485e+01   1.6455954020e+01    0.3047645    0.1846729 -43.55 0.0002636239    1.638    0.389
       144 -10.2029    103.1568    100.8017   8.7588933136e+01   4.1826484877e+01    0.1958886    0.1749111 -17.64 0.0002428119    1.297    0.229
       145  -8.6746     80.6955    101.7065   9.4592681273e+01   4.5635697545e+01    0.1429981    0.1142529 -24.98 0.0002323828    1.577    0.366
       146  -9.4330    162.1807     99.8034   7.2712239868e+01   2.9600089033e+01    0.1932769    0.1680554  -0.82 0.0002758625    1.258    0.205
       147 -10.3668      8.8848     99.0983   1.1865125587e+02   5.4628464253e+01    0.2703837    0.1694036  53.85 0.0007733416    1.612    0.380
       148 -10.1937      3.9085     97.9885   1.2028069457e+02   5.5218041593e+01    0.2276196    0.1728439  44.25   0.00103993    1.425    0.298
       149  -9.2896    110.4854     99.4674   8.5161571710e+01   4.0696423254e+01    0.1505739    0.1445647 -61.83 0.0003229003    1.007    0.007
       150  -9.8687     50.8404     98.8354   1.0385913021e+02   5.0709197711e+01    0.1934178    0.1518592  83.03 0.0003031525    1.293    0.226
       151 -10.9478     42.0554     98.9084   1.0693479727e+02   5.1735694957e+01    0.2361296    0.2309363  65.70 0.0003710995    1.173    0.147
       152  -9.8883    106.6022     97.2128   8.5649478759e+01   4.1971186973e+01    0.2137635    0.1380318 -39.80  0.000471183    1.608    0.378
       153  -9.0256    103.3164     96.6923   8.6453880694e+01   4.2732008721e+01    0.1534381    0.1181954  87.83 0.0004246097    1.631    0.387
       154  -9.3984     23.3369     95.6773   1.1308340594e+02   5.4408295626e+01    0.1415908   0.08748368  67.26 0.0003632622    1.714    0.417
       155 -10.2706     46.2934     94.0677   1.0450917028e+02   5.2471715263e+01    0.2144136    0.1933129   3.98 0.0003605448    1.365    0.268
       156  -9.7933      1.5969     93.2179   1.2065578773e+02   5.6546453918e+01    0.2263453    0.1266931 -72.09  0.001222993    1.441    0.306
       157 -10.7947     29.1765     92.8713   1.1051831784e+02   5.4601608341e+01    0.3053147    0.1925238  49.39 0.0004681147    1.692    0.409
       158 -10.9450     27.5294     87.3063   1.1019430421e+02   5.6172784960e+01     0.315101    0.2290462 -87.36 0.0008083996    1.280    0.219
       159 -10.3525     30.9287     84.0767   1.0829298191e+02   5.6675418242e+01    0.2423466    0.2036472 -38.35 0.0003991047    1.326    0.246
       160  -9.5681    250.5139     89.9355   5.6230457903e+01   1.3013919154e+01    0.2024856    0.1047847 -29.60 0.0007151669    1.557    0.358
       161  -9.7766    157.7165     90.0824   7.0954550620e+01   3.2395852015e+01    0.2128461    0.1835527 -32.82 0.0003896583    1.112    0.101
       162 -10.2807      7.0568     89.5018   1.1826979998e+02   5.7166809724e+01    0.2461447    0.1748709  81.73  0.000633552    1.265    0.210
       163 -10.6793    222.7976     87.4151   5.9113281520e+01   1.8632203676e+01    0.2474119    0.2039046 -26.60 0.0003096506    1.046    0.044
       164  -9.3784     66.6177     87.8311   9.5849407387e+01   5.1262687942e+01    0.2137276    0.1307832 -69.84  0.000942025    1.736    0.424
       165 -11.0121     21.3632     87.7222   1.1261996079e+02   5.6600046877e+01     0.225198    0.1847777  53.26 0.0003422558    1.309    0.236
       166  -9.4968      2.3965     86.8042   1.1972634962e+02   5.8115416950e+01    0.1829745   0.09239464 -67.78 0.0004195936    1.592    0.372
       167  -9.9129    177.1856     86.0554   6.5981869068e+01   2.8680898588e+01    0.2644446     0.159872 -55.90  0.001102335    2.033    0.508
       168 -10.2427    155.1841     85.0303   7.0029954279e+01   3.3907153249e+01      0.24104    0.2174385  47.64 0.0003020649    1.164    0.141
       169  -9.3309     86.3983     84.7878   8.8324484802e+01   4.8669543931e+01    0.2023107    0.1340846 -43.14 0.0001825195    1.494    0.331
       170 -11.2255     50.0974     83.3651   1.0076047434e+02   5.4696032087e+01    0.4822377    0.3071851  -2.03  0.001718987    2.669    0.625
       171  -9.5676     17.4569     84.9909   1.1370563349e+02   5.7602874106e+01    0.1988257    0.1109049 -74.48 0.0006192832    1.497    0.332
       172 -10.3946    193.9438     84.1084   6.2548280845e+01   2.5238875676e+01    0.2139906    0.1951493 -31.06 0.0003571019    1.015    0.014
       173 -10.5358    148.0508     82.9409   7.0957809495e+01   3.5942899799e+01    0.2246933    0.2127616 -31.48 0.0002986213    1.030    0.029
       174  -9.1009     60.3419     83.2913   9.6929498636e+01   5.3312729753e+01    0.1446364     0.108411 -27.70 0.0007026218    1.652    0.395
       175 -10.3028     73.5489     80.3852   9.1393170405e+01   5.1954718374e+01    0.4796796    0.2019534 -49.28  0.001818515    2.186    0.542
       176 -10.4072    104.7935     90.9442   8.4432016505e+01   4.3738154651e+01    0.3024358    0.2109037  48.27 0.0007667963    1.502    0.334
       177  -9.6128    239.3387     80.8254   5.5376438194e+01   1.6277760401e+01    0.2877289   0.08542739 -35.92  0.001090566    2.618    0.618
       178 -10.0490     20.7642     81.5907   1.1185741977e+02   5.8209921464e+01     0.175593    0.1166821  42.16 0.0008235655    1.655    0.396
       179  -9.7283     44.3180     79.8678   1.0215101549e+02   5.6289626507e+01    0.2711437    0.1393255  45.04 0.0007183053    2.173    0.540
       180  -9.5104      2.2755     80.4237   1.1907346236e+02   5.9728985785e+01     0.164232    0.1083084  41.87 0.0009446945    1.676    0.403
       181 -10.4144    249.3319     79.1383   5.3827932562e+01   1.4611471999e+01     0.205485    0.1912965 -72.47 0.0006515626    1.313    0.238
       182  -9.6437     64.5945     75.8056   9.3303206138e+01   5.4494653593e+01    0.2220051    0.1344738 -56.86 0.0002999513    1.511    0.338
       183  -9.8446     61.4961     74.9893   9.4229980844e+01   5.5165835306e+01    0.2381252     0.202546  76.71 0.0004334657    1.311    0.237
       184 -11.2692     17.6126     73.8375   1.1180195194e+02   6.0423025399e+01    0.3364378    0.2625101 -30.27 0.0008457575    1.492    0.330
       185 -10.6637    176.7529     75.3896   6.3004543989e+01   3.0559692969e+01    0.3751729    0.1840471  62.22  0.001460029    2.390    0.582
       186  -9.9118    216.6470     73.7841   5.6438151629e+01   2.1839012706e+01    0.2687485    0.1492516 -37.92  0.001262245    1.563    0.360
       187  -9.1950     68.7630     73.9351   9.1205354719e+01   5.4275688887e+01    0.1979279    0.1139613 -52.34 0.0008674602    1.580    0.367
       188 -10.1641    170.5596     73.1658   6.3461903890e+01   3.2385247512e+01    0.3048804    0.2077578  81.20  0.001334563    1.986    0.497
       189  -9.3519     45.0112     73.0173   1.0016752154e+02   5.7911650468e+01    0.1777826    0.1401938 -62.08 0.0006005963    1.113    0.102
       190 -11.7881    222.6232     71.0469   5.4953327163e+01   2.0956490076e+01    0.3437051    0.2503403 -48.04  0.000536521    1.345    0.256
       191 -11.6441    199.8343     71.5756   5.8187589900e+01   2.5843930222e+01    0.2553724    0.2309051 -22.59 0.0002742185    1.059    0.056
       192  -9.3198     89.0270     71.9884   8.3516322707e+01   5.1088534556e+01    0.1822084    0.1667863 -50.68 0.0003668883    1.023    0.023
       193 -10.3219    230.7166     70.8141   5.3909799510e+01   1.9314964012e+01     0.249389    0.2188975   6.48  0.000745371    1.249    0.199
       194 -10.5435     52.9400     69.9865   9.6118984724e+01   5.7614573861e+01    0.2773716    0.1837335 -63.28 0.0007036431    1.413    0.292
       195 -11.8131     79.7451     69.8956   8.5978894972e+01   5.3308864440e+01     0.241012    0.2349393 -70.67  0.000272638    1.060    0.056
       196 -11.5487     52.9660     75.1730   9.7567459787e+01   5.6346796678e+01    0.2395855    0.2142687 -53.10            0    1.067    0.063
       197 -10.4213     45.6472     68.4946   9.8679743201e+01   5.8944502534e+01    0.3543937    0.2187295 -37.07  0.001119641    1.816    0.449
       198  -8.9994     10.3559     69.3037   1.1414289724e+02   6.2070048979e+01    0.1372365   0.08040021 -44.84 0.0007039721    1.714    0.417
       199 -11.9476      5.9816     59.6016   1.1446553562e+02   6.4757544063e+01    0.5385053    0.3770511 -80.15 0.0009182137    1.231    0.188
       200 -11.7369      1.4001     65.5120   1.1753298232e+02   6.3518176444e+01    0.5649225     0.160746 -79.90  0.002055143    3.195    0.687
       201 -11.0806      1.6613     62.0217   1.1689749836e+02   6.4376918680e+01    0.2930687    0.1682103 -69.02 0.0005113878    1.367    0.269
       202 -11.9476    245.5233     64.8733   5.0796679253e+01   1.7137283393e+01    0.4509951    0.2140967 -35.09  0.001113619    1.670    0.401
       203  -9.6104    105.7097     66.6100   7.6484406701e+01   4.8788622026e+01    0.2961558    0.1450289  43.07  0.001127458    2.215    0.549
       204  -9.6619     75.2692     66.0708   8.6296588639e+01   5.4981239689e+01    0.2026708    0.1773746 -52.42 0.0002569625    1.060    0.057
       205 -11.3730     32.1554     64.6724   1.0346583977e+02   6.1431764409e+01    0.3091187    0.2493473  16.96  0.001794697    1.480    0.324
       206 -10.0326     14.4475     64.8397   1.1150421555e+02   6.2919147445e+01    0.2129039    0.1860196  21.51 0.0009316697    1.380    0.275
       207 -10.3210    133.6757     63.5017   6.8024552813e+01   4.2941334493e+01    0.3657734    0.2536442  80.56  0.001095271    1.946    0.486
       208 -10.1779     21.9273     63.8952   1.0789177702e+02   6.2579468030e+01    0.2133466    0.1527466 -46.60 0.0006161904    1.332    0.249
       209  -9.3299    203.0203     62.9846   5.5337828451e+01   2.6371715620e+01     0.166152    0.1581671 -43.74 0.0003498929    1.073    0.068
       210 -11.0260    193.3686     62.5185   5.6568698785e+01   2.8664053853e+01     0.302259    0.2564122  -5.05  0.000496615    1.277    0.217
       211  -9.9628    214.9993     60.9881   5.3232702410e+01   2.3968285208e+01    0.2756872    0.1567741  55.24 0.0007996494    1.952    0.488
       212 -10.3040     71.1363     60.3709   8.5844812363e+01   5.6989321133e+01    0.3598831    0.2313407  60.37  0.001175735    2.076    0.518
       213 -10.8272     23.1857     57.5980   1.0578275825e+02   6.4030005604e+01    0.4097559    0.2952273 -87.44  0.002265815    1.477    0.323
       214  -9.4357     25.2989     54.2837   1.0387071522e+02   6.4648273086e+01    0.1993167    0.1474106 -62.36 0.0003551519    1.148    0.129
       215  -9.8379    150.0554     59.8166   6.3197950968e+01   3.9586089931e+01    0.2414219    0.2006499 -66.60 0.0007971643    1.310    0.237
       216  -9.7459     16.3655     60.0495   1.0961778195e+02   6.3975823559e+01    0.1880411    0.1410644 -71.99 0.0004459946    1.138    0.121
       217  -9.4005    235.4979     66.4982   5.2270979915e+01   1.8913626221e+01    0.1355075    0.1134383 -30.83  0.000810689    1.004    0.004
       218 -10.6308     31.3105     58.4166   1.0216185836e+02   6.3053389765e+01    0.2622691    0.1995179 -89.37 0.0002510931    1.466    0.318
       219 -10.0792    199.9629     58.0837   5.4365504052e+01   2.7765680126e+01    0.2241168    0.1684307  12.57 0.0009135549    1.674    0.403
       220  -9.6435    187.1261     57.8578   5.6119758330e+01   3.0820361162e+01    0.2271531    0.1848722 -56.83 0.0005123977    1.249    0.199
       221  -9.9065    219.0542     56.6999   5.1590580780e+01   2.3652463874e+01    0.1781821    0.1720555 -43.67 0.0003685936    1.115    0.103
       222 -10.6673    168.0793     57.1850   5.8965014107e+01   3.5553973432e+01    0.2846631    0.2132521 -82.50 0.0008616205    1.629    0.386
       223  -9.6015    244.0554     55.2396   4.8571578119e+01   1.8617521271e+01    0.1746785    0.1472904 -34.87 0.0003572376    1.031    0.031
       224 -11.2552    223.9453     54.1219   5.0350362883e+01   2.2925722063e+01    0.4660738    0.3078386 -78.12  0.002337924    1.969    0.492
       225 -10.6768    145.3099     53.7880   6.2115760267e+01   4.1758015836e+01    0.5274796    0.2308073 -24.64  0.001786648    2.744    0.636
       226 -10.0404    118.8316     54.9133   6.8631079548e+01   4.8046880642e+01    0.2295359    0.2041833  -2.05 0.0003335248    1.239    0.193
       227 -10.2582    122.4867     52.3190   6.6739401046e+01   4.7631208715e+01    0.3138505    0.1935351  39.49 0.0008432623    1.850    0.460
       228 -10.7358     93.3103     54.1821   7.5737647145e+01   5.3961845380e+01    0.2939354    0.2344037 -25.42 0.0003059543    1.315    0.239
       229 -10.7986     94.8630     49.4622   7.3379024912e+01   5.4539566944e+01    0.4485606    0.2436052  41.08  0.001752299    2.036    0.509
       230  -9.5188     52.6226     53.8149   9.1004628896e+01   6.1465196488e+01    0.2011787    0.1256516 -61.42  0.000515787    1.630    0.386
       231 -10.4744     29.9715     53.0523   1.0123059154e+02   6.4487531547e+01    0.3293559    0.2324922   2.67  0.001764531    1.815    0.449
       232  -9.3936    191.9816     53.5101   5.4127737123e+01   3.0283106300e+01    0.2023725    0.1097856  38.34 0.0008089519    2.426    0.588
       233  -9.6440     60.9738     51.9753   8.6765903327e+01   6.0572250434e+01     0.209352    0.1725104  87.35 0.0005312943    1.551    0.355
       234 -11.4678     42.0288     51.5253   9.4970401033e+01   6.3453333538e+01    0.3703826    0.1856906 -47.68 0.0009320332    1.756    0.431
       235 -11.5655     10.1599     48.9053   1.1015600949e+02   6.7145475405e+01      0.53042    0.3723076  -0.85  0.003100717    1.765    0.433
       236 -11.4431     12.3813     43.9215   1.0768205125e+02   6.8200868926e+01    0.2808549    0.1864716 -56.88 0.0006453141    1.221    0.181
       237 -11.8537     14.3916     39.8695   1.0537466267e+02   6.9017061935e+01    0.5916619    0.3015968 -72.34  0.001988278    1.938    0.484
       238  -9.5451    174.7546     50.3888   5.5707876222e+01   3.4919401825e+01    0.2012276    0.1362647  51.80 0.0009394783    1.574    0.365
       239  -9.3391    106.4071     53.8139   7.1608402362e+01   5.1142934126e+01    0.2281842    0.1426104 -25.75 0.0009518838    1.817    0.450
       240 -10.3777     65.8256     49.1278   8.3660950183e+01   6.0360514568e+01    0.3798048     0.205726 -34.89  0.001596737    1.992    0.498
       241 -10.1743     67.6839     44.2000   8.0872804365e+01   6.1046868348e+01    0.2292011    0.2264163  57.66 0.0005213632    1.124    0.110
       242  -9.1966    244.4998     48.4964   4.6857299680e+01   1.9342348092e+01    0.1314871    0.1084793 -33.10 0.0008105657    1.024    0.024
       243 -10.4426    238.0617     40.6732   4.5461844304e+01   2.1581146335e+01    0.3942591    0.1522105 -30.68  0.001712202    2.039    0.510
       244 -10.3554    241.0947     46.8495   4.6754350957e+01   2.0226813453e+01    0.2632638    0.2023814 -30.74 0.0004961996    1.092    0.084
       245 -10.4813    242.0317     43.5200   4.5834215467e+01   2.0429881213e+01    0.2981046    0.1745518 -65.01  0.001054547    2.032    0.508
       246  -9.1651    152.5135     48.5192   5.8884260401e+01   4.0778150683e+01    0.1508679    0.1447835 -37.44 0.0001167607    1.021    0.020
       247 -10.8656    124.0347     45.5625   6.3803739711e+01   4.8395095543e+01    0.3864266    0.3433602  -5.63  0.001627476    1.207    0.172
       248  -9.6658     31.8054     47.7905   9.8638133657e+01   6.5539545932e+01    0.1667121    0.1497343  76.99 0.0007103982    1.293    0.227
       249 -10.1997     17.0191     47.1700   1.0608518794e+02   6.7077188833e+01    0.2323294    0.1596182 -61.03 0.0005566529    1.199    0.166
       250  -9.7695    114.6284     46.4882   6.6506078810e+01   5.0530618344e+01    0.2402492    0.1778294  -9.49 0.0007737662    1.638    0.389
       251  -9.3675    235.4924     51.4782   4.8459493981e+01   2.0816670843e+01    0.1345163    0.1128127 -34.00  0.000115672    1.012    0.012
       252  -9.7402    200.2823     50.4377   5.2124176262e+01   2.8742669945e+01    0.4231575    0.1975925  -7.47  0.001260161    4.555    0.780
       253  -9.9714    236.0517     45.9171   4.6983007683e+01   2.1377681086e+01     0.199166    0.1675434 -32.71 0.0004996686    1.038    0.037
       254  -9.4822    231.0000     45.9380   4.7469482631e+01   2.2438285526e+01    0.2296965   0.06626779 -27.24 0.0008031409    2.947    0.661
       255 -12.0929     61.9100     44.1947   8.3240405351e+01   6.2072930045e+01    0.3582146    0.2462178 -47.99  0.000460111    1.353    0.261
       256  -8.8376    167.6562     44.6882   5.4982496452e+01   3.7510754926e+01    0.1542633    0.1129161  25.76  0.000583043    1.704    0.413
       257  -9.2933     42.5330     44.4691   9.2127854280e+01   6.4992092792e+01    0.1379136    0.1223107 -49.41 4.233729e-05    1.041    0.039
       258  -9.5517     26.8587     44.1739   9.9952403876e+01   6.6904848945e+01    0.1825713    0.1336751 -39.88 0.0002546583    1.280    0.219
       259  -9.2713    148.9689     43.4926   5.7785161164e+01   4.2433593311e+01    0.2055966    0.1285442 -79.14 0.0005180828    2.305    0.566
       260  -9.4367    143.7132     43.3713   5.8742401819e+01   4.3791370852e+01    0.1638161    0.1088712 -58.13 0.0007019801    1.711    0.416
       261  -9.2295     53.0069     42.7186   8.6504307530e+01   6.3848219261e+01    0.1508392    0.1261905  33.23 0.0003086297    1.319    0.242
       262  -9.7940     90.9977     41.0042   7.1081240798e+01   5.6939578883e+01    0.2253097    0.1768979 -67.97 0.0004307232    1.573    0.364
       263 -11.3430     40.9391     37.7287   9.0160871866e+01   6.6682970415e+01    0.5812334    0.3559917 -23.68  0.001157943    2.106    0.525
       264 -10.6817    227.9451     38.6446   4.5844190049e+01   2.3969840838e+01     0.380361     0.261216 -22.44 0.0008763999    1.363    0.266
       265 -10.1290    158.5705     39.0339   5.4540501887e+01   4.0613536987e+01    0.4088785    0.2239134 -56.35  0.001624834    2.166    0.538
       266 -10.9345    127.3147     39.6722   6.0765532013e+01   4.8508492641e+01    0.3007203    0.2837838 -49.26 0.0008242466    1.045    0.043
       267 -10.2698    135.7383     36.0503   5.7588494639e+01   4.6902419861e+01    0.2729967    0.2249044  22.41 0.0003880113    1.382    0.276
       268 -10.1282    131.2914     36.2088   5.8556913104e+01   4.8016367540e+01     0.396662    0.2060079  73.22 0.0008818404    2.430    0.588
       269 -11.2840      4.4934     37.7418   1.1050289892e+02   7.0166352629e+01    0.4718877    0.3141121  62.66  0.002659276    1.902    0.474
       270 -10.0878      4.8493     31.9308   1.0863900882e+02   7.1512702894e+01    0.2639068    0.1751751 -40.51  0.001051086    1.379    0.275
       271  -9.9692    250.6118     38.7947   4.3953345277e+01   1.9251227396e+01    0.1975452   0.08830431 -36.29 0.0009529081    1.705    0.414
       272  -9.6513    234.0071     39.2091   4.5443337986e+01   2.2603590787e+01    0.1566847    0.1073044  73.14 0.0004744068    1.694    0.410
       273  -9.7492    222.9700     39.4772   4.6535879707e+01   2.4960112901e+01    0.1825705    0.1346895  72.83 0.0005834589    1.536    0.349
       274 -11.9133    103.6711     38.7593   6.6306418237e+01   5.4434143147e+01    0.2563292    0.2517609  42.34 0.0003141828    1.056    0.053
       275  -9.6246    194.0276     38.5159   4.9381275711e+01   3.1793617649e+01    0.1991994    0.1424251  73.73 0.0004296059    1.520    0.342
       276 -10.0524    186.2383     36.0394   4.9579432530e+01   3.4013903357e+01    0.2972408    0.1966897 -30.04 0.0009775439    1.392    0.281
       277  -9.7956    187.0129     31.9994   4.8227696619e+01   3.4323334861e+01    0.3430556    0.1851352 -42.11  0.001527466    1.676    0.404
       278 -11.0962    191.8207     28.3887   4.6562962498e+01   3.3568123712e+01    0.4367219    0.2210816  61.72 0.0007108825    2.044    0.511
       279 -11.1490    175.9284     35.2457   5.0671719939e+01   3.6692976124e+01    0.6079574    0.2989651 -42.66  0.002524988    1.889    0.471
       280  -9.4781     86.1058     36.8530   7.0846646043e+01   5.8737762698e+01    0.1931619    0.1645947   0.46  0.001015028    1.277    0.217
       281  -9.6876    166.2529     34.9909   5.1958283536e+01   3.9187265414e+01    0.2428133    0.1649951  20.15 0.0007394684    1.977    0.494
       282  -9.5029     58.0020     35.0066   8.0825139404e+01   6.4593949942e+01    0.1899566    0.1785491 -30.73  0.001128796    1.057    0.054
       283  -9.9546     54.8711     33.1329   8.1339274039e+01   6.5493763794e+01    0.2068671    0.1879754 -25.39 0.0003522318    1.022    0.022
       284 -10.3811    152.9352     32.1140   5.3020723183e+01   4.2997212741e+01    0.3354398    0.2692003 -60.34  0.001710943    1.282    0.220
       285 -12.2277    107.8448     28.9637   6.0934172668e+01   5.4942764601e+01    0.4500532    0.2957408 -30.26   0.00210303    1.477    0.323
       286 -10.9538    201.8913     33.8893   4.7114305388e+01   3.0475763469e+01    0.3534785     0.294437 -14.34 0.0008199838    1.256    0.204
       287  -9.8037     71.8105     29.4215   7.2419601605e+01   6.3016412827e+01    0.2565607    0.2128792  33.30 0.0009564164    1.259    0.206
       288  -9.8764     75.5220     28.9365   7.0794557397e+01   6.2336019285e+01    0.2157412    0.1920179 -57.31 0.0003406121    1.258    0.205
       289  -9.8033     75.3812     32.7899   7.2722008170e+01   6.1708036286e+01    0.3084855     0.137548 -35.91   0.00121633    2.139    0.533
       290  -9.8886     11.2193     31.8364   1.0463017415e+02   7.1119944484e+01    0.2417761    0.1469514  26.33 0.0008564136    1.919    0.479
       291 -11.4881    221.3349     29.5852   4.4011650244e+01   2.6478793654e+01    0.3206696    0.2144661 -33.77 0.0003708478    1.269    0.212
       292 -11.5466    145.3836     29.1726   5.3199277881e+01   4.5340921517e+01    0.4380404    0.3798499  70.13  0.002341088    1.177    0.150
       293 -10.5581     19.2374     29.2137   9.8674354257e+01   7.1044454072e+01    0.2171746    0.1843355 -60.29 0.0003575035    1.153    0.133
       294 -10.7662     26.0292     30.9663   9.5347693063e+01   6.9972985268e+01    0.6925377    0.3513982  18.86  0.003168709    2.525    0.604
       295 -10.0525     32.1479     26.1699   8.9581170185e+01   7.0263068861e+01    0.2652783    0.1923515 -66.05 0.0008524911    1.665    0.400
       296  -9.8087    158.9580     29.7444   5.1235102963e+01   4.1739190940e+01    0.1988595    0.1888033 -62.09 0.0003532638    1.025    0.024
       297  -9.0364     55.3806     29.2669   7.9202934821e+01   6.6140927624e+01    0.1405655    0.1034843   1.59 0.0006988507    1.687    0.407
       298 -10.8291     48.1735     25.9432   8.0906977994e+01   6.7973590006e+01    0.3495287    0.2783624  84.36   0.00119783    1.980    0.495
       299  -9.9904    211.7699     28.0658   4.4453609643e+01   2.8834162012e+01    0.2044037    0.1790507 -47.49 0.0003635632    1.023    0.022
       300 -10.8741    207.8136     27.0631   4.4539309705e+01   2.9872341574e+01    0.3325239    0.2331803 -80.54 0.0005921557    1.559    0.358
       301 -10.4515    181.9093     26.8326   4.7203391876e+01   3.6216421687e+01    0.3291653    0.2049988 -20.39 0.0008213372    1.631    0.387
       302 -10.5387    165.7918     26.1881   4.9024072163e+01   4.0406155839e+01    0.3732429    0.2153755 -77.13  0.001536984    2.236    0.553
       303  -9.5548    134.1856     27.2187   5.4448785835e+01   4.8503974695e+01     0.209896    0.1634478 -54.09 0.0005407314    1.331    0.249
       304  -9.4586    100.1275     26.8443   6.2001131470e+01   5.7118872457e+01    0.1985038    0.1660264  18.94 0.0002481224    1.288    0.223
       305  -9.4788    177.3469     25.8475   4.7430210813e+01   3.7485167475e+01    0.2076425    0.1332564 -12.18 0.0009470145    1.756    0.430
       306 -11.4883    153.6590     23.0580   4.9628232410e+01   4.3932000020e+01    0.3640159    0.2555679 -31.09 0.0002235843    1.363    0.266
       307  -9.7271    152.3860     18.2382   4.8045052044e+01   4.4814675370e+01    0.3153025    0.1224326 -29.71  0.001180591    2.325    0.570
       308 -10.2175    138.2711    249.0256   1.0361407243e+02   8.6099524033e+00    0.1429556    0.1187982  33.82 0.0006577718    1.106    0.096
       309 -11.3528    128.2851    247.7805   1.0524118687e+02   1.0034077427e+01    0.2703823    0.1997758  55.21  0.001021874    1.424    0.298
       310 -10.0970    247.5581     24.8626   4.0764516814e+01   2.1392789683e+01    0.2652739    0.1150467 -54.81   0.00121226    2.313    0.568
       311 -10.5557    232.1300     23.6414   4.1555677858e+01   2.4757001323e+01    0.2865082    0.1972129 -53.76 0.0009181229    1.321    0.243
       312  -9.8233    211.9430     23.3465   4.3107814403e+01   2.9321535069e+01    0.2175964    0.1779705 -17.94 0.0006127125    1.252    0.202
       313 -10.1558    212.0172     19.3026   4.1962655892e+01   2.9741446936e+01    0.2237365    0.1760288 -20.06 0.0006295231    1.274    0.215
       314 -10.2812    158.9679     24.4869   4.9375830389e+01   4.2378295267e+01    0.2073343    0.1436525  71.23 0.0003139029    1.479    0.324
       315 -10.0357     61.3070     24.0992   7.3901623187e+01   6.5980174185e+01    0.2515298    0.1864621   6.35 0.0004678833    1.610    0.379
       316 -10.8869     18.4776     23.4412   9.6629878285e+01   7.2370137025e+01    0.3049857    0.1831968 -55.84 0.0009481758    1.456    0.313
       317 -11.2870    194.9240     22.6675   4.4497422988e+01   3.3460245043e+01    0.2793061    0.2286966  86.65 0.0003510968    1.272    0.214
       318 -10.9439    174.1664     21.4096   4.6351624456e+01   3.8804419682e+01    0.3921297    0.3020663 -15.90  0.001850502    1.359    0.264
       319 -10.7158    142.8556     22.8851   5.1238641123e+01   4.6781109884e+01    0.2541605    0.2092589 -11.36 0.0003476412    1.287    0.223
       320  -9.7158    139.4805     19.9309   5.0645795359e+01   4.8012633873e+01    0.3166338    0.2114967 -87.46  0.001334006    1.749    0.428
       321 -10.4488    132.2702     21.7208   5.2600285216e+01   4.9687443216e+01    0.3137717    0.2943452 -18.90  0.001308262    1.075    0.069
       322  -9.9651    124.0446     22.8948   5.4650451432e+01   5.1675317971e+01    0.3031226    0.1679154 -53.23  0.001116659    2.129    0.530
       323 -12.4610    116.9285     22.3012   5.5875837535e+01   5.3571715929e+01    0.3013943    0.2553058 -20.28 0.0005780337    1.181    0.153
       324 -11.0276    105.2783     21.0908   5.8006579229e+01   5.6650478179e+01    0.3616231    0.2469653 -64.21 0.0004151693    1.873    0.466
       325  -9.7369    109.5193     20.5186   5.6736048584e+01   5.5667891310e+01    0.2306478    0.1672598  27.14 0.0009014232    1.557    0.358
       326 -10.4847     26.4339     21.9052   9.0833724625e+01   7.1832548928e+01    0.3117371    0.1947636 -28.57 0.0009494362    1.656    0.396
       327 -10.0193     38.3613    249.0607   1.2129219957e+02   2.0291847994e+01    0.1400353   0.09963678  59.20 0.0006361248    1.089    0.082
       328  -9.7200    163.0280     15.0265   4.5505331545e+01   4.2375473333e+01    0.2036895    0.1526083 -59.90  0.001037941    1.335    0.251
       329  -9.6617     41.0892     21.5327   8.2171196995e+01   6.9911778970e+01    0.1796468    0.1311385  36.33 0.0003659051    1.507    0.337
       330  -9.2294     36.2414     20.9661   8.4525867930e+01   7.0734601299e+01    0.1710436     0.100014 -44.40 0.0003479682    1.525    0.344
       331  -9.9760    211.0175    245.4858   9.1094157341e+01  -6.6642374326e-02    0.1445066    0.1094518   7.32 0.0003536108    1.126    0.112
       332 -10.5881    182.2907     18.8181   4.4598308019e+01   3.7023934467e+01    0.2721146    0.2268348  -8.37 0.0007482342    1.309    0.236
       333 -10.0823     93.8331     19.9671   6.0453263200e+01   5.9575323267e+01    0.2099254    0.1815495 -56.26 0.0003089321    1.277    0.217
       334 -10.5679     14.6284     18.6719   9.6939792099e+01   7.3742186795e+01    0.2713679    0.1567445 -32.21  0.001093083    1.715    0.417
       335 -10.6664     64.3555     16.2628   6.8297877865e+01   6.6621689222e+01    0.4548508      0.25753  44.55  0.001309182    1.809    0.447
       336  -9.5650     45.7653     17.1931   7.7241137860e+01   6.9931640680e+01    0.2091104    0.1483427 -75.60 0.0009506689    2.771    0.639
       337 -10.4996    163.9919    246.0112   9.8857363462e+01   5.7105971083e+00    0.1896024    0.1198881 -41.33  0.001341935    2.009    0.502
       338  -9.2146    112.2972     15.3330   5.3757948129e+01   5.5590127068e+01    0.1521318    0.1055418  26.91 0.0007029762    1.645    0.392
       339 -10.7649     26.8534    245.8391   1.2316690780e+02   2.1939007034e+01    0.1477955   0.07896727  53.25 0.0006923052    1.311    0.237
       340  -9.1430     73.2893     16.6813   6.5182389750e+01   6.4692279216e+01    0.1370061    0.1067277 -58.72 0.0004473582    1.598    0.374
       341 -11.6123     20.4812    244.8294   1.2423823433e+02   2.2708726240e+01    0.2091697    0.1731654  86.54 0.0006257239    1.394    0.282
       342 -10.7065    202.0938    244.4535   9.2372472152e+01   1.1149689773e+00    0.2003532    0.1299331 -13.09  0.001315755    1.640    0.390
       343  -9.2070      1.4774    243.5331   1.2746111449e+02   2.4627936830e+01   0.09726096    0.0682779  57.20 0.0001103205    1.062    0.058
       344  -9.9955    139.0730     14.0325   4.8385642657e+01   4.8771690888e+01    0.2209472    0.2121799  88.69 0.0008479463    1.032    0.031
       345 -10.6103    104.1516    237.1438   1.0860920417e+02   1.4585659371e+01    0.1548768    0.1273851  32.21 0.0003038928    1.179    0.152
       346  -9.6739     91.8608    242.1501   1.1128842079e+02   1.5362651600e+01    0.1621854    0.1102649  49.47  0.000463241    1.173    0.148
       347  -9.4128     76.4361    241.5525   1.1406094509e+02   1.7294224251e+01    0.1091182   0.07753523  51.01 0.0002589164    1.085    0.079
       348  -9.5433     55.0229    240.9461   1.1792573266e+02   1.9813714114e+01    0.1575169   0.08833519  60.68 0.0004843579    1.524    0.344
       349  -9.7866     43.9459    240.7769   1.1992103659e+02   2.1025643052e+01    0.1388301    0.1147167  48.67 0.0004791718    1.213    0.175
       350 -11.4998     33.9816    239.1780   1.2164031920e+02   2.2307184870e+01    0.1892648    0.1531348  61.73 0.0003643875    1.164    0.141
       351 -10.9525    148.3630    239.5014   1.0083418948e+02   8.5354895401e+00    0.1656685    0.1310251 -36.26 0.0005637819    1.578    0.366
       352  -9.6739    109.4046    238.8063   1.0779258121e+02   1.3675424151e+01    0.1258502    0.1013144 -41.44 0.0006930918    1.652    0.395
       353  -9.5006    128.0102     14.3669   5.0322921801e+01   5.1639727077e+01    0.1972102    0.1841611  73.20 0.0004889324    1.071    0.066
       354  -9.5367    221.3179    237.3542   8.8406443017e+01  -4.9449202077e-01    0.1094168   0.06213447   7.53 0.0001086664    1.746    0.427
       355  -9.6655    167.8456    237.5857   9.7207394406e+01   6.2267073387e+00    0.1520552   0.08117235  41.75 0.0007271479    1.650    0.394
       356  -9.3279      5.4193    237.4973   1.2664287686e+02   2.5270132467e+01      0.10104   0.06824291  58.45 6.784731e-05    1.015    0.015
       357 -10.2251    133.0582    234.5471   1.0303941191e+02   1.1215068765e+01    0.1556312    0.1359647  50.96  0.001214151    1.219    0.180
       358 -10.8885     15.0524    235.5356   1.2489041775e+02   2.4731496800e+01    0.1416945   0.07794405  38.16 0.0003464725    1.493    0.330
       359  -9.5800     41.3022    233.9706   1.2006568743e+02   2.2415583622e+01    0.1401424    0.1072806  62.48 0.0003609098    1.095    0.086
       360  -9.3939    230.6709    232.7029   8.6323322333e+01  -1.1545630870e+00    0.1076216    0.0610044   9.73 0.0003323391    1.636    0.389
       361 -10.6605     46.5399    229.8080   1.1887199646e+02   2.2559917384e+01    0.3560684    0.1535272  65.74  0.001673465    2.338    0.572
       362  -9.9608    146.3714    231.3970   1.0026861164e+02   9.8740233626e+00     0.161541    0.1132691  13.34 0.0006677794    1.565    0.361
       363  -9.8813     29.4074    230.7238   1.2210946521e+02   2.4171466482e+01    0.1560536    0.1159889 -83.76 0.0009212888    1.469    0.319
       364  -9.0774     14.6974    227.6785   1.2469902316e+02   2.6097015023e+01   0.08365832   0.07817256 -55.55 0.0004731576    1.631    0.387
       365  -9.6923    164.5098    225.4731   9.6282064128e+01   8.2050364391e+00    0.1129221   0.08930977  25.84 -8.373567e-06    1.011    0.011
       366 -10.3365     88.9164    221.3280   1.1009389636e+02   1.9014083698e+01    0.1675225    0.1413793  29.37 0.0006966154    1.271    0.213
       367 -11.6858     90.5102    215.5651   1.0924931324e+02   1.9781384853e+01    0.3668711    0.2352763  66.29 0.0006487684    1.671    0.401
       368 -10.0020     38.8014    218.6555   1.1974578441e+02   2.5320396170e+01    0.1573544     0.129233 -84.09 0.0005592452    1.359    0.264
       369  -9.5179     14.6819    218.9677   1.2440193313e+02   2.7630563878e+01     0.139552    0.1040461  69.49 0.0004516292    1.113    0.102
       370  -9.4291     58.4747    215.5565   1.1566546640e+02   2.3713614671e+01    0.1130619   0.08804437  54.98 0.0001705847    1.012    0.012
       371  -9.2297     46.6536    218.6850   1.1821118930e+02   2.4477957217e+01   0.09520856   0.08508078 -16.35 0.0007047598    1.718    0.418
       372  -9.7304    111.5390    213.4622   1.0484082446e+02   1.7324459404e+01    0.1165353   0.09711221  40.68 -2.752133e-05    1.036    0.035
       373  -9.3009     71.7126    213.3118   1.1283198371e+02   2.2543401110e+01    0.1184672   0.06963025  60.32 0.0002670004    1.580    0.367
       374  -9.7963    155.6448    209.7949   9.5824621801e+01   1.1624903062e+01    0.1436581    0.1122653 -58.23 0.0009449937    1.699    0.411
       375 -10.3962    127.0756    209.7044   1.0132615431e+02   1.5759901252e+01    0.1993203     0.171205   9.67 0.0003585429    1.295    0.228
       376 -10.8644      8.3865    209.5047   1.2528623103e+02   2.9923682250e+01     0.186144     0.160171  55.25 0.0006019548    1.271    0.213
       377  -9.0874    230.6716    209.6488   8.2877386680e+01   1.2096774736e+00    0.1174706   0.06772713   5.84 0.0007047954    1.766    0.434
       378 -10.4507     18.8512    208.2828   1.2317865995e+02   2.9204108025e+01    0.2894052    0.1094639  54.30  0.001600633    1.985    0.496
       379 -10.4651     67.2887    207.2400   1.1323805544e+02   2.4181496253e+01    0.2080908    0.1496488  47.57 0.0005993963    1.134    0.118
       380 -10.0250     57.3843    205.3385   1.1514283612e+02   2.5712354244e+01    0.1741936    0.1263884 -64.81 0.0006104175    1.593    0.372
       381  -9.9075     40.0088    204.9929   1.1871990374e+02   2.7712245149e+01    0.1472825    0.1338159 -41.59 0.0006297106    1.587    0.370
       382  -9.2949      1.4472    204.5036   1.2649011991e+02   3.1454333271e+01    0.1103767   0.07555424  62.58 8.254108e-05    1.048    0.046
