#   1 NUMBER                 Running object number                                     
#   2 MAG_AUTO               Kron-like elliptical aperture magnitude                    [mag]
#   3 X_IMAGE                Object position along x                                    [pixel]
#   4 Y_IMAGE                Object position along y                                    [pixel]
#   5 X_WORLD                Barycenter position along world x axis                     [deg]
#   6 Y_WORLD                Barycenter position along world y axis                     [deg]
#   7 A_WORLD                Profile RMS along major axis (world units)                 [deg]
#   8 B_WORLD                Profile RMS along minor axis (world units)                 [deg]
#   9 THETA_WORLD            Position angle (CCW/world-x)                               [deg]
#  10 FWHM_WORLD             FWHM assuming a gaussian core                              [deg]
#  11 ELONGATION             A_IMAGE/B_IMAGE                                           
#  12 ELLIPTICITY            1 - B_IMAGE/A_IMAGE                                       
         1 -13.0916     68.6056    145.4673   1.2884041056e+02   3.7443809067e+01     1.697441    0.8452547 -66.17  0.007585159    1.905    0.475
         2 -12.5530     40.6078    146.2254   1.3597496087e+02   4.0672488276e+01     1.255421    0.1808396 -57.15  0.003957496    4.379    0.772
         3 -11.4008    185.9619     28.0661   6.9907540438e+01   3.5451366152e+01    0.7722589    0.4472651  52.83   0.00311722    1.656    0.396
         4 -11.0410    194.2369     21.0867   6.6958219025e+01   3.4232939554e+01    0.8071516    0.5403936 -70.87  0.004231266    1.590    0.371
         5 -10.8451    199.9927     13.3413   6.4317691019e+01   3.3694760840e+01    0.6001524    0.3675147  32.83  0.001562498    2.477    0.596
         6  -9.9919     58.7661      8.2988   9.2381728551e+01   6.4884163023e+01    0.3142521    0.1583974 -25.17  0.001773613    1.917    0.478
         7 -10.0288     45.1721      2.6557   9.4896239716e+01   6.7435370246e+01    0.2163818     0.132778 -17.65  0.001415624    1.461    0.316
         8 -11.2209    207.4375      3.7418   6.1215308834e+01   3.2914592934e+01    0.7392371    0.4037558  74.14   0.00323191    1.569    0.363
         9 -10.2188    127.6892    243.3414   1.3012605354e+02   6.8743321583e+00    0.2594333    0.1764516  72.94  0.001106105    1.622    0.384
        10  -9.8030    164.3078    248.6936   1.2389891012e+02  -2.9060692360e-01    0.3036532     0.118516 -50.51  0.001342529    3.195    0.687
        11 -11.5642     95.2933    248.3229   1.3668826904e+02   1.1232561184e+01    0.5360091    0.4631499  34.19  0.003675455    1.527    0.345
        12 -10.4993    101.0050    239.6773   1.3472177124e+02   1.1921560915e+01    0.4934175    0.1612508 -67.68  0.001824653    4.354    0.770
        13 -11.2920     83.7555    243.7433   1.3831160521e+02   1.3822492176e+01    0.4718557    0.2429422 -69.11  0.002604294    2.045    0.511
        14 -11.3827     73.5661    247.9042   1.4050607745e+02   1.4540914930e+01    0.5215388    0.3232715  74.49  0.003234823    1.448    0.309
        15 -13.4079     48.9109    232.1815   1.4348623418e+02   2.0880219183e+01     1.972208     1.006968  73.87  0.005906264    1.879    0.468
        16 -16.6058      8.0529    145.2631   1.4359172009e+02   4.3833052370e+01     17.86247     2.067328 -72.03   0.04471242    8.026    0.875
        17  -9.7167    141.4976    228.4982   1.2546352121e+02   7.1400014253e+00    0.2076218    0.1164844  35.44 0.0009933223    1.819    0.450
        18  -9.3757    163.7056    227.1869   1.2084768655e+02   3.3717222077e+00    0.2435793    0.1211784 -56.84  0.001077253    2.623    0.619
        19 -12.4624    113.1967    230.3267   1.3129223060e+02   1.1695843424e+01    0.9213932    0.4730874  46.30  0.004631971    1.667    0.400
        20 -10.1693     39.7739    213.1935   1.4354403060e+02   2.5843156126e+01    0.2695282    0.1667122  53.22  0.001343074    1.455    0.313
        21  -9.3387    127.4970    249.3043   1.3088961029e+02   5.8741925388e+00     0.270899    0.1243524 -60.39  0.001315588    2.659    0.624
        22 -10.4196     74.1488    190.4810   1.3423592866e+02   2.6211228429e+01    0.3895135    0.2721865 -43.63  0.002092466    1.915    0.478
        23 -10.0868     78.4204    183.9542   1.3243172343e+02   2.7052122851e+01     0.366947    0.2448237 -48.20 0.0009448098    1.768    0.434
        24  -9.8982     85.9574    172.7020   1.2906701844e+02   2.8482801016e+01    0.3378868     0.275375  44.66 0.0008555143    1.301    0.232
        25 -11.6203     74.3244    169.6463   1.3130981754e+02   3.0946159644e+01    0.5056062     0.301462 -48.90  0.001211164    1.848    0.459
        26  -8.6927    184.3113    249.6674   1.2027797432e+02  -3.8569257734e+00    0.1202759   0.09176866  65.92  0.000704367    1.676    0.403
        27 -10.7896     92.6759    165.1900   1.2625909467e+02   2.9158236421e+01    0.6119936    0.4193275 -49.10  0.002028446    1.544    0.352
        28 -10.4843     83.8354    163.7731   1.2814246021e+02   3.0895446726e+01    0.6121696    0.3061203 -68.52  0.002619282    2.077    0.519
        29  -8.7005    149.3372    249.6844   1.2685219708e+02   2.1189277659e+00    0.1290656   0.08618709  65.91 0.0007047772    1.697    0.411
        30  -8.6893    104.0130    148.2592   1.2034926779e+02   3.1211252193e+01    0.1890337    0.1268306  41.95 0.0006470404    1.544    0.352
        31 -11.8452     59.0481    133.6738   1.2927080067e+02   4.1480084826e+01    0.9938557    0.2938262 -64.14  0.003357621    3.407    0.706
        32 -11.4212     40.8835    127.3256   1.3302582798e+02   4.5029505554e+01    0.4949781     0.215037 -72.82  0.002113465    2.430    0.588
        33  -8.4994    109.3464    122.3868   1.1332148291e+02   3.6274531470e+01     0.253583    0.1689868 -41.36 0.0005902566    1.534    0.348
        34  -9.3175    100.8839    131.7731   1.1772069703e+02   3.5635643650e+01    0.2844335    0.2326523 -30.93 0.0008024678    1.403    0.287
        35 -10.9063     58.6657    113.1385   1.2544031484e+02   4.6295418641e+01    0.4687274    0.2276454 -65.03  0.002059879    2.084    0.520
        36  -9.5999    113.6768    134.2627   1.1491569586e+02   3.2719203167e+01    0.4143486    0.2429275 -32.59  0.001628475    2.338    0.572
        37  -8.6606    168.3190    113.2641   9.6340640530e+01   2.5566238044e+01    0.3129845    0.2318625 -62.13 0.0008185577    1.523    0.343
        38 -10.3863     92.8986    147.6796   1.2305193272e+02   3.3246959658e+01    0.2822129    0.2552327 -37.41 0.0006005183    1.259    0.206
        39 -12.7760     53.7981    223.1405   1.4183121222e+02   2.2047863392e+01     1.170368    0.5065348  58.20  0.004270014    2.125    0.529
        40 -13.7343     58.7917    210.1349   1.3964120126e+02   2.4076397201e+01     2.252002    0.9265333  60.51  0.009666353    2.641    0.621
        41 -11.9358     68.6698    234.9673   1.4020036174e+02   1.7679980408e+01    0.4986279    0.2942644  60.73  0.002969273    1.415    0.293
        42 -10.9644    134.2798    231.7439   1.2734422757e+02   7.8203812322e+00    0.5985107    0.2042201 -57.52   0.00231106    3.612    0.723
        43  -8.6229     59.3039     67.3428   1.1377037735e+02   5.5937105064e+01    0.1359811   0.08866615 -20.80 0.0007040343    1.683    0.406
        44 -11.2296    127.8441    231.3755   1.2855937123e+02   9.0070182135e+00    0.4568729    0.2824288 -46.77  0.002390527    2.011    0.503
        45  -9.4269    142.9946    250.0000   1.2808270241e+02   3.1477941982e+00    0.2182354   0.05976658  42.62 0.0008094603    2.991    0.666
        46 -10.6924    114.8345    243.6466   1.3258429391e+02   8.9605967118e+00    0.9212701    0.1450981 -55.59  0.002789724    6.706    0.851
        47 -11.9196     82.8191    222.3436   1.3626599050e+02   1.8118198223e+01    0.6499519     0.484605  75.88  0.004050606    1.160    0.138
        48 -10.7715    108.5649    245.4692   1.3395906488e+02   9.6528573719e+00    0.3078437    0.1831359  49.77  0.001480608    1.374    0.272
        49 -12.6193     96.0680    227.7370   1.3431022405e+02   1.4989686583e+01     1.044795    0.4480232  44.37   0.00491837    2.035    0.509
        50  -9.6711    125.0000    245.0003   1.3083722301e+02   7.0353439665e+00    0.3246483     0.112412 -54.57  0.001382308    3.349    0.701
