#   1 NUMBER                 Running object number                                     
#   2 MAG_AUTO               Kron-like elliptical aperture magnitude                    [mag]
#   3 X_IMAGE                Object position along x                                    [pixel]
#   4 Y_IMAGE                Object position along y                                    [pixel]
#   5 X_WORLD                Barycenter position along world x axis                     [deg]
#   6 Y_WORLD                Barycenter position along world y axis                     [deg]
#   7 A_WORLD                Profile RMS along major axis (world units)                 [deg]
#   8 B_WORLD                Profile RMS along minor axis (world units)                 [deg]
#   9 THETA_WORLD            Position angle (CCW/world-x)                               [deg]
#  10 FWHM_WORLD             FWHM assuming a gaussian core                              [deg]
#  11 ELONGATION             A_IMAGE/B_IMAGE                                           
#  12 ELLIPTICITY            1 - B_IMAGE/A_IMAGE                                       
         1 -15.0862    230.3282     57.6288   1.7366062258e+01   2.2614075694e+01     1.991308     1.185899  66.92   0.01183494    1.881    0.468
         2 -14.3684     54.2336     22.9900   4.1780074423e+01   6.6266002667e+01     2.531842     1.024801  42.91   0.01087636    2.218    0.549
         3 -14.2397     74.1857     14.0420   3.0145721154e+01   6.3188326917e+01     1.069713    0.3357972  47.75  0.003727576    2.665    0.625
         4 -14.8316     85.2920     11.9610   2.6071518269e+01   6.0875945422e+01     1.428012     1.044701  25.87  0.006876866    1.479    0.324
         5 -11.3047    115.2279     12.2194   1.9763489206e+01   5.3709912337e+01    0.1827343    0.1433621 -79.09 0.0007067545    1.342    0.255
         6 -11.1984    151.8791      9.9254   1.3830724472e+01   4.5070877500e+01    0.2156432    0.1595394 -84.28 0.0003694213    1.237    0.192
         7 -11.3422    124.0187     10.0690   1.7565027804e+01   5.1771463228e+01    0.2037056    0.1743852  67.55 0.0006168764    1.056    0.053
         8 -10.0092     57.6897      7.2499   3.2405896054e+01   6.7438845632e+01    0.1137855   0.09767435  83.31 0.0001471617    1.513    0.339
         9 -10.5329    138.2695      5.3845   1.4078969633e+01   4.8734608618e+01    0.1775536    0.1075863  84.83 0.0007917678    1.540    0.351
        10 -12.7844    114.4870      3.3912   1.6731777922e+01   5.4660349888e+01    0.4537016    0.2780568  61.92  0.002446944    1.386    0.279
        11 -12.9256    105.0468      3.8965   1.8509254603e+01   5.6902848042e+01    0.4537601    0.2185713  48.20  0.002167852    1.934    0.483
        12 -12.0411     73.6128      2.3356   2.4840471151e+01   6.4417128242e+01    0.2691106    0.2500251  42.55 0.0009637536    1.101    0.092
        13 -12.6764    239.1408    118.3974   2.8861325534e+01   1.2397623984e+01     0.439284    0.2693737 -48.14  0.002468777    1.526    0.345
        14 -12.0146    194.8292    113.0047   3.4254219966e+01   2.0911682361e+01    0.2274729    0.1532836 -13.66  0.001088232    1.996    0.499
        15 -12.6568    249.1619    105.4457   2.5088875844e+01   1.2756134990e+01    0.3699414    0.2586501 -28.40  0.002379428    1.319    0.242
        16 -10.9551     43.3323     99.3223   7.3350840253e+01   5.2345825419e+01    0.1561111    0.1030899 -28.87 0.0007049965    1.702    0.412
        17 -10.9330    134.5973     97.7993   4.2740371834e+01   3.6173629358e+01    0.3254128     0.177993  21.29 0.0009647061    4.339    0.770
        18 -11.2976    248.9667     96.2017   2.3299831606e+01   1.4107784935e+01    0.2236977    0.1440385 -39.74  0.001400593    1.227    0.185
        19 -12.3708    205.1488     96.0976   2.8811218208e+01   2.1761059733e+01    0.4047483    0.2670429   5.07  0.001806916    2.878    0.652
        20 -11.1360    114.6562     97.3178   4.7868035317e+01   4.0541909120e+01    0.1566071    0.1226839  86.59 0.0007049003    1.719    0.418
        21 -10.7881     15.1913     97.6193   8.4701627249e+01   5.5442334000e+01    0.1878674    0.1258596  -7.42 0.0009503822    1.694    0.410
        22 -12.2079    239.5894     88.8471   2.2861387163e+01   1.6680737881e+01    0.3437176    0.2778839  29.35   0.00228107    1.671    0.402
        23 -13.0923     31.8807     87.8893   7.5597749829e+01   5.6470279684e+01    0.3627175    0.2238673  44.33   0.00171122    1.859    0.462
        24 -12.1430    223.8597     86.4750   2.4194651554e+01   1.9765122440e+01    0.2601397    0.1902823 -43.83  0.001231732    1.149    0.130
        25 -12.7023      5.4429     83.8222   8.6706266769e+01   5.9530389173e+01    0.3349218    0.2184798  25.03  0.001800711    1.680    0.405
        26 -12.7742    211.6618     82.0215   2.4751361364e+01   2.2700371552e+01     0.442869     0.238754 -69.64  0.001854012    3.107    0.678
        27 -12.3348    202.4310     81.8266   2.5941760283e+01   2.4530927996e+01    0.3865955    0.2880601 -16.69  0.002142881    1.656    0.396
        28 -13.0170    237.1164     79.4140   2.1205020094e+01   1.8437880447e+01    0.3153215    0.2983161 -22.87  0.001957468    1.252    0.201
        29 -14.5276    239.3288     70.7615   1.9209345529e+01   1.9247732378e+01     1.113264    0.8535163 -50.42  0.007589102    1.064    0.061
        30 -13.8372    224.3103     65.9406   1.9736077400e+01   2.2615310006e+01    0.8387727    0.5400857 -54.93  0.004968545    1.402    0.287
        31  -9.9248    124.0098    205.9964   6.8044866225e+01   1.4929697374e+01     0.155251     0.141023  13.59            0    1.025    0.025
        32 -10.6405    176.5877     79.7819   2.9371145488e+01   3.0218063926e+01    0.2031602    0.1177871 -47.90 0.0009466858    1.663    0.399
        33 -13.6652    212.6986     73.3073   2.2671479929e+01   2.3787406117e+01    0.7112359    0.2868496  49.54   0.00310242    3.002    0.667
        34 -10.7946    163.9681     71.6835   2.9427448065e+01   3.4309712446e+01    0.2015197     0.182881  75.33 0.0008643373    1.104    0.094
        35 -13.5288    194.4097     67.3459   2.3625975945e+01   2.8344270682e+01    0.4189226    0.3503165 -52.08  0.002571606    1.070    0.066
        36 -12.9790    198.3501     57.6648   2.0810568745e+01   2.8900045142e+01    0.7846537    0.4062338 -33.59  0.003862909    1.871    0.466
        37 -13.1732    192.7202     57.6527   2.1506528287e+01   3.0088529748e+01    0.3969197     0.287666 -23.76  0.001769372    1.596    0.374
        38 -13.4001     25.3553     64.2475   7.2645541675e+01   6.2761104650e+01    0.3247377    0.2649827 -53.67  0.001885499    1.199    0.166
        39 -11.6374      8.9695     63.2277   8.0913794631e+01   6.4321521531e+01    0.4345686    0.2322314 -48.03  0.002183798    1.582    0.368
        40 -12.0816     43.8453     62.3418   6.2946414091e+01   6.0983313805e+01    0.2314869    0.1925174 -56.23 0.0006952023    1.315    0.239
        41 -12.9322     54.4374     57.2781   5.6311524442e+01   6.0427908142e+01    0.3450879    0.2124417 -43.75  0.001659596    1.626    0.385
        42 -15.5114     41.8306     47.1763   5.8417977415e+01   6.4364609345e+01     1.732642     0.891624 -24.75  0.006991893    2.734    0.634
        43 -12.4616    184.5406     53.2910   2.1486030297e+01   3.2460113849e+01    0.2878277    0.2484477 -12.21  0.001743543    1.436    0.304
        44 -13.6688     40.7896     43.5631   5.7496686599e+01   6.5205778854e+01    0.5020287    0.3332684  15.33  0.001867983    1.583    0.368
        45 -13.9200     20.3429     77.6037   7.8528629177e+01   6.0060322419e+01    0.6721076    0.3016751  25.86  0.002942913    2.269    0.559
        46 -12.6893      2.6123     45.8385   8.0095428529e+01   6.8649009303e+01    0.3525123    0.3040726 -82.29  0.001454236    1.402    0.287
        47 -13.4101     55.8923     44.7129   5.0795417951e+01   6.2547358327e+01    0.3965438    0.2655155   0.59  0.001879455    1.965    0.491
        48 -13.6952     65.5442     42.1937   4.5692226418e+01   6.1191415711e+01    0.4974902    0.4606054  89.44  0.002943903    1.383    0.277
        49 -10.7090    166.9778     33.0121   1.8472039624e+01   3.9049262352e+01    0.1613035    0.1430863 -79.33 0.0007425167    1.003    0.003
        50 -11.0402    124.0688     30.8735   2.4594090356e+01   4.9561962721e+01    0.2037241    0.1832311  62.16  0.000409923    1.048    0.045
        51 -12.9087     77.6119     28.7512   3.5586213849e+01   6.0690072142e+01    0.4417437    0.3401713 -51.82  0.002435711    1.593    0.372
        52 -11.6645    246.4908    183.0276   3.9960708724e+01   1.7761439220e+00    0.1802511     0.092006 -34.15 0.0009227714    1.586    0.369
        53 -10.9989    212.5011    148.5105   3.8850467292e+01   1.1793138744e+01    0.1309562    0.1105124 -22.63  0.000104393    1.024    0.024
        54 -13.1138    243.2628    142.9699   3.3094142301e+01   8.0791087728e+00    0.3820262    0.2932662  30.34  0.002371518    1.539    0.350
        55 -12.0025      7.9318     21.8620   6.7944123412e+01   7.3149465600e+01    0.2975586    0.2867312  46.70  0.002109069    1.458    0.314
        56 -10.6385    146.6906     24.9579   1.8926217243e+01   4.4773610842e+01    0.1831411    0.1622109 -63.43 0.0006249267    1.115    0.103
        57  -9.9261    241.7018     22.3288   9.3109567584e+00   2.4776457385e+01    0.1193981   0.06078479 -58.19 0.0003367618    1.638    0.389
        58 -12.2244      3.1699     24.9809   7.2722028333e+01   7.2941850317e+01    0.3138077    0.1807538 -21.13  0.001735091    1.644    0.392
        59 -11.3093      3.6663    139.3360   9.3899467939e+01   4.5360368532e+01    0.1445275   0.08551851  59.42 0.0007052106    1.740    0.425
        60 -12.8619    234.0421    133.7735   3.2598162733e+01   1.0829065810e+01    0.2637337    0.2118004   5.03  0.001429334    1.422    0.297
        61 -12.9075    238.2516    129.7590   3.1224940069e+01   1.0809930963e+01    0.3876592    0.2823367  69.35   0.00233551    2.101    0.524
        62 -11.6754    221.3029    129.9622   3.3688663530e+01   1.3429388650e+01    0.1896591    0.1486972 -32.96 0.0009344236    1.081    0.075
        63 -11.0772    122.1729    126.8220   5.3388984989e+01   3.2570579441e+01    0.2184755    0.1847586  -2.36  0.001006049    1.341    0.254
        64 -13.3373    249.0768    116.1376   2.7179565834e+01   1.1218344235e+01    0.6035145    0.3271316 -25.50   0.00323612    1.943    0.485
        65 -11.4895    205.5238    124.0001   3.4906955053e+01   1.7082517828e+01    0.2111231    0.1169875 -38.42 0.0007504334    1.589    0.371
