#   1 NUMBER                 Running object number                                     
#   2 MAG_AUTO               Kron-like elliptical aperture magnitude                    [mag]
#   3 X_IMAGE                Object position along x                                    [pixel]
#   4 Y_IMAGE                Object position along y                                    [pixel]
#   5 X_WORLD                Barycenter position along world x axis                     [deg]
#   6 Y_WORLD                Barycenter position along world y axis                     [deg]
#   7 A_WORLD                Profile RMS along major axis (world units)                 [deg]
#   8 B_WORLD                Profile RMS along minor axis (world units)                 [deg]
#   9 THETA_WORLD            Position angle (CCW/world-x)                               [deg]
#  10 FWHM_WORLD             FWHM assuming a gaussian core                              [deg]
#  11 ELONGATION             A_IMAGE/B_IMAGE                                           
#  12 ELLIPTICITY            1 - B_IMAGE/A_IMAGE                                       
         1 -14.4637     68.5382    144.0243   1.0181496689e+02   3.7898406017e+01     4.919569     2.166129  62.03  0.003438321    4.924    0.797
         2 -13.0277    186.2560     50.2745   4.7840746634e+01   3.2531732731e+01     1.040147    0.9390739 -25.31 0.0009034463    1.245    0.197
         3 -13.2537    197.2393     41.3549   4.3955986845e+01   3.1113993308e+01     1.169178    0.9465609 -42.05  0.003250736    1.228    0.186
         4 -13.8443    206.6017     32.0115   4.0478762176e+01   3.0106390527e+01     1.493529    0.9933351 -15.49  0.001377345    2.061    0.515
         5 -11.6949     36.4389     16.0830   7.5096567949e+01   6.9138910799e+01    0.3707502    0.1556503  33.00  0.001835453    2.340    0.573
         6 -12.9925    231.2924      5.9709   3.2290506827e+01   2.7541921921e+01    0.8510728    0.6272296  89.83  0.004738439    1.201    0.168
         7 -10.1923     62.0197      8.0244   6.0608376855e+01   6.5964824351e+01    0.1719596    0.1520535 -58.42 0.0008325231    1.689    0.408
         8 -10.4212     54.8113      5.6063   6.2024183153e+01   6.7484790706e+01    0.1604603    0.1087478  53.89 0.0008502484    1.720    0.419
         9  -7.9760    224.2739    206.6695   7.7596871756e+01  -2.5867778962e+00    0.1113068    0.1030927 -61.54  0.000267908    1.592    0.372
        10 -11.1790    139.6047    249.0520   1.0085095071e+02   3.9337418738e+00    0.3603721    0.3031208  72.17  0.002385616    1.397    0.284
        11 -13.4143     57.4514    185.9201   1.1080481780e+02   2.9114589563e+01     1.884129     1.551276  68.69     0.011452    1.095    0.087
        12  -8.9617    121.4842    199.5491   9.7702496295e+01   1.6237026344e+01    0.1390725    0.1290095  51.93 -3.193246e-05    1.017    0.017
        13 -10.6778    112.4642    196.5223   9.9300545103e+01   1.8415807458e+01    0.4345769    0.2937795   1.68  0.001849363    2.724    0.633
        14  -9.7625    120.1792    194.4740   9.7193369733e+01   1.7552051992e+01      0.27677    0.1871684 -81.17 0.0009324537    1.939    0.484
        15  -8.8632     81.9148    194.8094   1.0616237399e+02   2.3645803709e+01    0.1989667    0.1898236 -37.51  0.001225904    1.295    0.228
        16  -9.6945    149.1158    187.4412   8.9342462294e+01   1.3878748343e+01    0.2649298    0.2224827 -33.41 0.0009737709    1.273    0.214
        17 -15.6868     48.5444    200.4786   1.1440912027e+02   2.6873513762e+01     12.30931     4.700341  70.12    0.0303607    5.221    0.808
        18  -9.2942     70.2114    184.7868   1.0761545192e+02   2.7663918261e+01    0.2087946    0.1620965  72.95 0.0006622193    1.221    0.181
        19  -9.0175     91.0074    182.5082   1.0224786293e+02   2.5099584767e+01    0.2095856    0.1813007 -75.68 0.0003643627    1.122    0.109
        20 -10.0795     99.1813    180.8168   9.9986696772e+01   2.4178455943e+01    0.2823794     0.244806  22.46 0.0006922113    1.339    0.253
        21  -9.8428    188.3955    176.5607   7.8694351515e+01   8.7130712300e+00    0.4340075    0.2976018 -59.44  0.002040147    1.909    0.476
        22  -9.8175    146.9310    172.6225   8.7005152267e+01   1.7441722093e+01    0.4665285    0.2937704 -77.40  0.001775529    2.803    0.643
        23 -12.3565     73.2061    170.1959   1.0483051372e+02   3.0739527876e+01    0.9992138    0.5296943 -36.36   0.00302186    3.126    0.680
        24 -13.5541     43.5091    110.4584   1.0309078923e+02   4.9420219938e+01     2.158674     1.320149  61.47   0.01007229    2.226    0.551
        25 -12.5857     55.3618    147.0222   1.0602208380e+02   3.8900677739e+01     2.296829    0.9397217 -45.84  0.008647606    2.860    0.650
        26 -13.1035     72.1539    154.1108   1.0255831371e+02   3.4859087690e+01    0.6364052    0.5223366 -62.98  0.001218232    1.145    0.126
        27 -16.5906      5.4945    212.9258   1.2425290300e+02   2.8740594785e+01     18.12407    0.7329928 -75.88   0.04218936   11.068    0.910
        28  -8.6814    194.1747    171.8382   7.6539980202e+01   8.5285350619e+00    0.2002849     0.163487  -3.16 0.0008392032    1.297    0.229
        29  -9.1963    185.5664    169.7611   7.7871259289e+01   1.0561343206e+01    0.1970354    0.1372706 -51.47 0.0005721326    1.570    0.363
        30  -9.3079    240.3031    169.3070   6.7477153079e+01   8.2400197620e-01     0.134347   0.09356474  -4.69 0.0001838504    1.602    0.376
        31 -17.3736     11.7968    245.5335   1.2477874273e+02   2.1599833487e+01      5.49489     2.097411  27.68   0.01818777    3.765    0.734
        32  -8.9371    133.3766    162.9227   8.8286452433e+01   2.2209593216e+01    0.2948562    0.2142934  42.52  0.001401464    1.366    0.268
        33 -10.9260    193.0790    195.1912   8.1414400475e+01   4.4319899712e+00     1.016339    0.5619377 -65.24  0.003222584    5.332    0.812
        34  -9.0834    230.0000    166.0284   6.8567299009e+01   3.0999745960e+00    0.2247155   0.07018559 -38.65 0.0005683332    2.897    0.655
        35 -10.1019     32.1281    165.2647   1.1461183362e+02   3.7021453101e+01    0.2423195    0.1644492 -80.19 0.0006945981    1.260    0.206
        36  -9.0625     48.4348    160.6642   1.0987994497e+02   3.6345488149e+01    0.1868606    0.1128481 -60.30 0.0009116522    1.514    0.340
        37  -8.2413     93.2694    205.6610   1.0499037916e+02   1.9507525609e+01    0.1386283   0.09472821  72.68 0.0004214929    1.601    0.375
        38 -11.4574     90.3699    152.5684   9.7342796890e+01   3.2433674548e+01    0.6467883    0.4772511 -24.51  0.001728609    1.857    0.461
        39 -10.7457    133.6908    144.8308   8.4320279235e+01   2.6308736974e+01      1.22002    0.3134186 -54.20  0.002878141    5.445    0.816
        40 -12.2526     83.5055    159.7195   1.0046799911e+02   3.1766071000e+01     1.332837    0.7287888  72.27  0.004829499    3.079    0.675
        41  -9.5163    174.3394    148.2193   7.5542160514e+01   1.7158489243e+01    0.3963355    0.2231092 -57.60  0.001517634    2.265    0.558
        42 -10.4803     40.4421    146.7375   1.1012074385e+02   4.0714870875e+01    0.2851381    0.2446934 -41.93  0.001219216    1.336    0.251
        43 -10.1795    103.4720    138.5946   9.0913378649e+01   3.3607465322e+01    0.5340534    0.3500624 -23.34  0.002145015    2.337    0.572
        44 -11.6565     91.1456    138.0690   9.4246235269e+01   3.5889195554e+01    0.2943461    0.2683472 -47.10 0.0004068693    1.113    0.102
        45  -9.5903     43.9891    138.3423   1.0788051621e+02   4.2426164412e+01    0.1826051    0.1724299  83.58  0.000627092    1.122    0.108
        46 -12.0434     44.4104    130.9879   1.0657094278e+02   4.4222830112e+01    0.6799759    0.3793942 -84.98  0.002997699    2.130    0.530
        47 -11.5615     39.4773    124.4909   1.0696777479e+02   4.6378039484e+01    0.4182831    0.2870275  53.24  0.002042467    1.649    0.393
        48 -10.0589    106.0021    130.8603   8.8466299500e+01   3.5018235168e+01    0.3725521    0.3186378 -68.36   0.00124268    1.184    0.155
        49  -9.3757    135.7668    129.9733   8.0290546006e+01   2.9295449029e+01    0.2158482    0.1290671 -46.54 0.0007771793    1.635    0.388
        50  -9.8918    112.3515    129.5160   8.6388246140e+01   3.4137183687e+01    0.3062413     0.264984  -9.14 0.0006817489    1.374    0.272
        51 -10.3195     99.6308    125.2253   8.8951524321e+01   3.7550026975e+01     0.326172    0.2592326 -21.10  0.001295753    1.533    0.348
        52 -10.7619    119.2060    122.7247   8.2849187425e+01   3.4385558794e+01    0.6262746     0.408258  -0.29  0.002190564    3.119    0.679
        53  -9.6263    135.0000    120.4759   7.8098068800e+01   3.1608165158e+01    0.3591654   0.08831282 -45.81 0.0009386791    3.967    0.748
        54  -9.1329    108.3045    118.2758   8.4761913992e+01   3.7582759364e+01    0.2336624    0.2036278  25.15 0.0005508098    1.255    0.203
        55  -9.8976    231.3052    113.7355   5.6850863051e+01   1.1967565767e+01    0.2558655    0.2505692  40.85  0.000792888    1.161    0.139
        56  -8.3474    167.6351    112.3203   6.8213322555e+01   2.6082276549e+01    0.1637882    0.1232046 -81.60 0.0007039701    1.782    0.439
        57  -9.4289    205.6258    110.2001   6.0225814600e+01   1.7959458190e+01    0.2595851    0.2420566  38.91 0.0006813416    1.175    0.149
        58 -10.7221    115.1243    109.7768   8.0611481814e+01   3.8194989563e+01    0.4108137    0.2706701 -32.42  0.001293736    1.713    0.416
        59  -9.3874    134.6830    104.4061   7.3877944014e+01   3.5210284778e+01    0.4937963    0.1416376 -43.82  0.001416924    3.403    0.706
        60  -8.1565    141.3004    108.2787   7.3271043280e+01   3.2906177907e+01    0.1535695    0.1254479   3.68 0.0002884216    1.542    0.351
        61  -9.1372    241.3206    101.6648   5.2650954836e+01   1.2032084559e+01    0.1429078   0.09548238 -62.40 0.0007049826    1.705    0.413
        62  -8.4925    129.4494     96.4989   7.2997405191e+01   3.8047198623e+01    0.1548385     0.150354 -56.20 0.0001961516    1.030    0.029
        63 -11.0442     52.3946     93.3717   9.6204175507e+01   5.2486183820e+01    0.4691523      0.37792 -77.26  0.002056261    1.402    0.287
        64  -8.0333    157.3887     89.7099   6.4298783277e+01   3.2959525260e+01    0.1620847    0.1208878 -83.08 0.0003769225    1.763    0.433
        65 -10.3803     42.9202     89.5090   9.8634767351e+01   5.4494518920e+01     0.331062    0.1198042  33.07  0.001321238    2.980    0.664
        66  -9.7131     47.4666    171.9582   1.1156088569e+02   3.3694509421e+01     0.348916    0.2535782 -24.49  0.001780669    2.114    0.527
        67  -7.8643     75.6971     85.3178   8.5867520784e+01   5.0970985692e+01    0.1397909    0.1154878  88.95 0.0004201936    1.624    0.384
        68  -8.7377    157.7688     82.5847   6.2174772439e+01   3.4206902767e+01    0.2053958    0.1482568  67.00 0.0005519632    1.522    0.343
        69  -8.4706    184.3515     77.2971   5.5503000516e+01   2.8743919694e+01    0.1492137    0.1166021  22.79 0.0007034732    1.687    0.407
        70  -9.0163     58.4328     67.0407   8.6369114711e+01   5.7466060202e+01    0.2923052    0.1587813  49.05  0.001275641    2.542    0.607
        71 -11.4026    107.7831    203.8236   1.0145912741e+02   1.7605828656e+01    0.4295035    0.2919728  67.70  0.001692619    1.665    0.399
        72 -10.5616    160.8572    226.2312   9.3368156507e+01   4.4209935232e+00    0.3168975    0.1908681  54.10  0.001558665    1.981    0.495
        73 -10.7656    204.4200    199.1925   7.9933774744e+01   1.8030458726e+00    0.5611624    0.1490179  36.98  0.001831657    3.931    0.746
        74 -11.3714    111.8515    204.9887   1.0070889614e+02   1.6691968127e+01     0.444461    0.2799355 -79.00  0.001368411    2.060    0.514
        75 -11.5140    222.8050     29.7787   3.8283541138e+01   2.6675576968e+01    0.5883911    0.3615399  29.34  0.002636233    3.243    0.692
        76 -10.3535     59.9292    220.4533   1.1388434573e+02   2.1071571296e+01    0.3934993    0.3067749  44.06  0.001690781    1.274    0.215
        77  -8.5074     73.5260     54.5384   7.6384271890e+01   5.7466368646e+01     0.135948    0.1254378 -10.06 5.571385e-05    1.058    0.055
        78 -11.1625    155.4027    216.5953   9.2983850108e+01   7.0487899022e+00    0.3992979    0.2155471  35.61  0.001897376    1.705    0.413
        79  -9.4916     89.8794    212.6446   1.0663076837e+02   1.8520799463e+01    0.2542547     0.187364  76.31 0.0007370133    1.384    0.277
        80  -9.1724    189.6679     14.9679   3.8000839333e+01   3.6088665403e+01    0.1809178    0.1563116 -59.41 0.0006109074    1.129    0.114
        81 -11.7781    185.8690    212.4682   8.6014157920e+01   2.6486398212e+00    0.6181781    0.3889529  16.95  0.003059458    1.844    0.458
