#   1 NUMBER                 Running object number                                     
#   2 MAG_AUTO               Kron-like elliptical aperture magnitude                    [mag]
#   3 X_IMAGE                Object position along x                                    [pixel]
#   4 Y_IMAGE                Object position along y                                    [pixel]
#   5 X_WORLD                Barycenter position along world x axis                     [deg]
#   6 Y_WORLD                Barycenter position along world y axis                     [deg]
#   7 A_WORLD                Profile RMS along major axis (world units)                 [deg]
#   8 B_WORLD                Profile RMS along minor axis (world units)                 [deg]
#   9 THETA_WORLD            Position angle (CCW/world-x)                               [deg]
#  10 FWHM_WORLD             FWHM assuming a gaussian core                              [deg]
#  11 ELONGATION             A_IMAGE/B_IMAGE                                           
#  12 ELLIPTICITY            1 - B_IMAGE/A_IMAGE                                       
         1 -14.9289    187.9636     18.1940   5.1824549305e+01   3.6102826625e+01     0.901049    0.8595049  23.06  0.005032197    1.102    0.093
         2 -12.4684    110.8882    230.3388   1.1500863952e+02   1.4871946172e+01    0.2878972    0.1694141 -69.45  0.001827231    1.954    0.488
         3 -10.4777    103.5948    250.7031   1.1803695692e+02   1.2878350471e+01    0.2211193   0.07560718  43.70 0.0008656976    2.382    0.580
         4 -16.7460     24.3011    130.4076   1.2120233436e+02   4.5108834661e+01     3.211571      2.59484  79.08   0.02390434    1.164    0.141
         5 -17.0931    118.1992    180.3696   1.0768907486e+02   2.2385314534e+01     3.611004     1.904451  89.85   0.01326867    4.155    0.759
         6 -18.7694    139.3928    162.8345   1.0056239528e+02   2.1983258458e+01     6.958241     4.038662  40.26   0.03338489    1.734    0.423
         7 -11.7940    112.1156    205.1523   1.1207131425e+02   1.8853050774e+01    0.1851074    0.1429045  67.48 0.0003140952    1.089    0.082
         8 -13.1568    107.7851    204.0529   1.1273002316e+02   1.9724933820e+01    0.3469069    0.2066727  66.96 0.0008299186    1.662    0.398
         9 -12.0690    110.2433    201.6098   1.1199358213e+02   1.9772277784e+01    0.2104953    0.1593456  88.60  0.001277609    1.301    0.231
        10 -12.7274    140.2006    203.5104   1.0672034899e+02   1.4488376815e+01    0.2006767    0.1706023 -72.18 0.0005663486    1.314    0.239
        11 -14.6518    192.4966    194.8422   9.5754198480e+01   6.3706816410e+00    0.8002214    0.4416238 -62.36  0.003292187    3.741    0.733
        12 -18.6244     72.1913    217.3240   1.2027030432e+02   2.2518480172e+01       4.2759     2.616505  81.79   0.02509177    1.487    0.328
        13 -12.8200    112.9179    195.9892   1.1080869104e+02   2.0354061682e+01    0.4400487    0.3145752   5.51  0.002095258    3.475    0.712
        14 -11.6923    114.7848    229.5778   1.1428210067e+02   1.4400101180e+01    0.2055866     0.171755 -47.39  0.001498561    1.729    0.422
        15 -11.2209    102.0632    244.4315   1.1774203800e+02   1.4015927731e+01    0.1432978    0.1223793 -89.61 0.0004091924    1.337    0.252
        16 -10.4789     13.0064    191.4693   1.2829881241e+02   3.3869924159e+01    0.1534121    0.1243041 -66.68  0.001027239    1.632    0.387
        17 -10.8279     12.3351    188.2758   1.2822283382e+02   3.4524894662e+01    0.1388126   0.09571877 -78.53  0.001078748    1.333    0.250
        18 -11.3860     12.0720    206.2488   1.2926341753e+02   3.1283350591e+01    0.1455168   0.09733736  72.62  0.001176027    1.065    0.061
        19 -11.7930     28.7096    183.8827   1.2510819687e+02   3.3778552115e+01    0.1648847    0.1362669  57.13 0.0007082346    1.381    0.276
        20 -14.2120    157.8829    193.0722   1.0189802049e+02   1.3084656006e+01    0.3172557    0.2982979 -48.32 0.0009391915    1.248    0.199
        21 -19.0420     53.7335     99.1492   1.0925684971e+02   4.9069572723e+01       16.766    0.6708075 -60.69   0.02320246   22.568    0.956
        22 -11.1414      3.4982    179.4505   1.2920432082e+02   3.6956766214e+01     0.106146   0.06877371  78.19 -0.0005578045    1.109    0.098
        23 -10.8446     10.7168    174.7458   1.2766458888e+02   3.7237878198e+01   0.08804999    0.0684894 -69.78 0.0002529262    1.472    0.321
        24 -11.6326    134.3054    240.7248   1.1221177748e+02   9.7158276021e+00    0.1996146    0.1214707 -53.60   0.00127696    2.108    0.526
        25 -10.5400     24.6592    165.7275   1.2445267456e+02   3.7741262602e+01   0.09588718   0.07619765 -57.61 0.0003139229    1.611    0.379
        26 -11.4604    110.3095    222.9956   1.1436098897e+02   1.6129702292e+01    0.1512523    0.1248546  79.89 0.0004314681    1.160    0.138
        27 -13.5026    166.2497    219.8401   1.0427755195e+02   7.4465077095e+00    0.2355334    0.2065071 -83.27 0.0005822411    1.382    0.277
        28 -11.5646    140.4266    220.1544   1.0883366759e+02   1.1778738944e+01    0.2740013    0.1170948 -53.68  0.001374263    2.833    0.647
        29 -18.1143     97.6242    123.0246   1.0254133223e+02   3.7729869522e+01      4.97258      3.68717  25.42   0.02632421    1.766    0.434
        30 -13.0739    103.5329    237.7138   1.1691344629e+02   1.4818276949e+01    0.2800182    0.2338041  88.06  0.001500243    1.275    0.216
        31 -12.1055    167.7937    113.0098   8.3720138405e+01   2.5877063464e+01    0.4041636    0.2817254 -80.49  0.001489098    2.237    0.553
        32 -12.6559    183.4939    207.0684   9.9363697170e+01   6.2412304473e+00    0.1665332    0.1265257 -41.86 0.0007896752    1.583    0.368
        33 -14.3490     17.9169    108.8633   1.2018828739e+02   5.0256018011e+01    0.4456906    0.3046432   5.93  0.002905405    2.309    0.567
        34 -16.5136    119.6952    139.2770   1.0051007273e+02   3.0416675499e+01      1.90488     1.445925   8.35  0.009349297    2.128    0.530
        35 -13.4077    157.7924     62.0748   7.1449503234e+01   3.7704548310e+01    0.3758449    0.3359491  54.73 0.0008878915    1.135    0.119
        36 -11.4175     13.5078     59.9774   1.1358186361e+02   6.0969077852e+01    0.1750247    0.0864948 -63.29 0.0004514188    1.528    0.346
        37 -14.8803    170.8338     47.7850   6.4167929635e+01   3.6709034859e+01     1.175001    0.8879268  11.79  0.004059773    1.595    0.373
        38 -13.0549    175.6372     40.4128   6.0894468214e+01   3.6536166374e+01    0.4167197    0.3584569   5.10 0.0008329246    1.264    0.209
