#   1 NUMBER                 Running object number                                     
#   2 MAG_AUTO               Kron-like elliptical aperture magnitude                    [mag]
#   3 X_IMAGE                Object position along x                                    [pixel]
#   4 Y_IMAGE                Object position along y                                    [pixel]
#   5 X_WORLD                Barycenter position along world x axis                     [deg]
#   6 Y_WORLD                Barycenter position along world y axis                     [deg]
#   7 A_WORLD                Profile RMS along major axis (world units)                 [deg]
#   8 B_WORLD                Profile RMS along minor axis (world units)                 [deg]
#   9 THETA_WORLD            Position angle (CCW/world-x)                               [deg]
#  10 FWHM_WORLD             FWHM assuming a gaussian core                              [deg]
#  11 ELONGATION             A_IMAGE/B_IMAGE                                           
#  12 ELLIPTICITY            1 - B_IMAGE/A_IMAGE                                       
         1 -15.1418     68.4103    144.1296   1.0471771646e+02   3.7273767650e+01     5.353753     2.303571  61.25  0.004068483    4.922    0.797
         2 -13.8801    186.8129     47.4413   4.9751013848e+01   3.2496285167e+01     1.181229     1.027699   5.99 0.0009748029    1.401    0.286
         3 -14.0543    197.2425     39.3915   4.6064907067e+01   3.1047994300e+01     1.358941      1.12948 -43.64  0.003710495    1.178    0.151
         4 -14.7875    207.0037     29.3663   4.2248513192e+01   2.9984514571e+01     1.985362     1.460038  17.21  0.001692569    2.038    0.509
         5 -12.9651    233.8556      4.4390   3.3899482582e+01   2.6687179914e+01    0.5677734    0.4958728  50.83  0.003151959    1.477    0.323
         6 -13.1109    228.2874      5.0071   3.4435639834e+01   2.7851131141e+01     0.574099    0.4109459 -61.49  0.003600667    1.195    0.163
         7 -10.6514     61.9235      8.1337   6.4237518971e+01   6.5659357049e+01    0.1771927    0.1645696  -6.32 0.0009185171    1.299    0.230
         8 -11.9387     57.2901      3.2981   6.3520261162e+01   6.6959835552e+01    0.3560117    0.2100175  38.61   0.00207006    1.498    0.333
         9 -10.1376    134.1188    196.7946   9.7494049893e+01   1.4453735100e+01    0.2156105    0.1828776  67.76 0.0009036578    1.251    0.201
        10 -12.4645    139.5499    248.2315   1.0371632790e+02   4.2064334233e+00    0.5152048    0.4709977  15.89  0.003677683    1.217    0.178
        11 -13.0287     18.5729    192.0473   1.2233491055e+02   3.1657063325e+01    0.3489137    0.2426683  48.89 0.0005387305    1.406    0.289
        12 -14.0241     57.7146    188.9962   1.1362616504e+02   2.7972871590e+01      1.64239     1.121008  68.34  0.009357076    1.386    0.278
        13 -15.8017     48.9133    201.8040   1.1684792390e+02   2.6218842798e+01     7.075402     2.330226  55.45   0.02750167    3.374    0.704
        14 -17.2871      6.0011    214.1053   1.2616391275e+02   2.8180399620e+01     13.66398     1.008469 -75.23   0.02257885    8.040    0.876
        15 -10.6562    128.0914    194.6456   9.8483352023e+01   1.5945860770e+01    0.3697307    0.1926398 -72.46  0.001356476    3.373    0.704
        16  -9.5743    151.5065    195.4991   9.3459817334e+01   1.1629811760e+01     0.266128     0.119133  49.04  0.001041531    2.388    0.581
        17  -9.6886     82.0363    194.9629   1.0888999332e+02   2.3299975121e+01    0.2347787    0.2102769  78.69  0.001467801    1.040    0.038
        18  -8.9762     79.6710    192.3457   1.0908696746e+02   2.4225872815e+01    0.2025169    0.1169207  53.53  0.000800174    1.673    0.402
        19 -16.7716     32.5830    249.4999   1.2347507653e+02   1.8619381420e+01     9.901769     3.048961  27.67   0.02409119   14.169    0.929
        20  -9.2424     92.8407    184.8118   1.0502653311e+02   2.3939921818e+01    0.1917797    0.1465234  65.10  0.000418881    1.292    0.226
        21 -10.9024     98.8463    180.9562   1.0303220207e+02   2.3861547877e+01    0.3754812    0.2656807  18.65  0.001665608    1.910    0.476
        22 -11.0911    150.7715    179.4465   9.0693818113e+01   1.5005017426e+01    0.4446881    0.2906924 -73.43  0.001885493    2.374    0.579
        23 -12.0030    144.0726    178.6796   9.2066677924e+01   1.6419313386e+01     0.535598    0.3907173 -80.57  0.001915242    1.903    0.474
        24 -10.7048    187.8152    172.9482   8.1360270105e+01   9.2395223028e+00    0.4097604     0.223769 -55.03  0.001654542    2.468    0.595
        25  -9.5606     41.1257    178.4952   1.1624085164e+02   3.2374176875e+01    0.1946701    0.1428342 -80.98 0.0003618261    1.170    0.145
        26 -12.2384     71.3026    174.3099   1.0863750293e+02   2.9561162804e+01    0.3832712     0.302695 -26.87  0.002086614    1.785    0.440
        27 -12.2379     75.3428    169.3761   1.0694845935e+02   3.0158183500e+01    0.4827515    0.3551921 -26.18  0.001056419    2.006    0.501
        28 -10.6075     48.4535    171.5580   1.1376126793e+02   3.3155271378e+01    0.4955293    0.2438971 -44.68   0.00216064    2.762    0.638
        29  -9.6977    195.8184    173.1339   7.9762083609e+01   7.6905928689e+00    0.2913173    0.1686063 -58.72  0.001158107    2.732    0.634
        30 -14.2574     43.2064    129.1451   1.0925846680e+02   4.4078584719e+01     2.354193     1.000042 -68.62  0.009925081    2.137    0.532
        31 -14.1625     44.1966    112.1950   1.0596735277e+02   4.8141499636e+01     2.320766     1.470408  65.94   0.01121819    2.118    0.528
        32 -13.6068     55.3280    146.4713   1.0863402133e+02   3.8400722743e+01     1.838374     1.389048 -30.86  0.009937011    1.708    0.415
        33 -13.8581     72.1129    155.5731   1.0563819513e+02   3.3946878062e+01    0.6284146    0.5330207 -49.46  0.001809214    1.258    0.205
        34  -9.1329    169.3498    236.8414   9.6417192660e+01   1.3365254203e+00     0.154698    0.1129517 -27.99 0.0003697049    1.598    0.374
        35 -10.6223     45.8120    166.8381   1.1383347455e+02   3.4584012868e+01    0.3830093    0.2607733 -44.09   0.00152098    1.801    0.445
        36 -10.1155     34.8923    206.0201   1.2009343106e+02   2.6934701854e+01     0.324252    0.1400441  53.81  0.001645811    2.072    0.517
        37 -10.9304     32.2911    164.9939   1.1687489918e+02   3.6488506141e+01    0.3212138    0.1910401 -84.58 0.0009233726    1.502    0.334
        38 -10.0145     37.2606    162.0050   1.1534371478e+02   3.6683822145e+01    0.3599845    0.2056899  21.21   0.00181047    2.376    0.579
        39 -10.4901    157.4661    160.0461   8.5249126377e+01   1.7787019822e+01    0.3867372    0.2686807 -70.08  0.001679834    2.001    0.500
        40  -8.9874     50.4959    161.5102   1.1201616193e+02   3.5314166948e+01    0.1343939    0.1148326 -85.47 0.0008105788    1.009    0.009
        41 -12.3667     90.5392    153.7177   1.0051696673e+02   3.1618368897e+01    0.6698891    0.4902276 -24.86  0.002002867    1.906    0.475
        42 -10.6651    187.9455    152.2644   7.6856666236e+01   1.3210167838e+01    0.2745018    0.2145129 -64.09  0.001329516    1.614    0.380
        43 -11.4786    133.8179    145.0234   8.7611991810e+01   2.5843626577e+01     1.238074    0.3252889 -54.47   0.00294312    5.494    0.818
        44  -9.4934    112.6762    150.9055   9.4231834227e+01   2.8503040469e+01    0.2102643    0.1861596 -69.19 0.0004223681    1.117    0.105
        45 -12.8269     83.5108    160.6913   1.0354097714e+02   3.1031623631e+01    0.9167641    0.5482766  70.61  0.003925388    2.246    0.555
        46 -10.8820    174.3545    148.4977   7.8901300893e+01   1.6759857071e+01    0.3778713    0.2929593 -62.08  0.001298018    1.530    0.347
        47 -10.8849    143.8968    146.0080   8.5357158674e+01   2.3591462064e+01    0.3467221    0.2103484 -62.26  0.001384284    2.063    0.515
        48  -9.3066     84.0405    143.7381   1.0039583909e+02   3.5078662064e+01    0.1921522    0.1826723  81.71 0.0002964868    1.063    0.059
        49 -11.0658    103.7409    139.2218   9.4148314882e+01   3.2899368875e+01    0.5652835    0.3558584 -25.92   0.00224373    2.438    0.590
        50 -12.3672     91.2053    139.0936   9.7529413014e+01   3.5071569180e+01    0.2906728    0.2637618 -44.67 0.0004471708    1.138    0.121
        51 -10.2615     84.2348    173.8113   1.0543739899e+02   2.7799727287e+01    0.1774788    0.1627374 -36.61 0.0003295481    1.309    0.236
        52 -10.8414    105.9015    130.8209   9.1707508436e+01   3.4530689806e+01    0.3628523    0.3207595 -69.69  0.001272594    1.133    0.117
        53 -11.5544    135.6585    127.5303   8.3036304075e+01   2.9456606976e+01    0.7339951    0.1887824 -49.70    0.0019226    4.170    0.760
        54 -10.5628    112.4968    129.7539   8.9662557159e+01   3.3560586903e+01    0.3223495     0.259897   7.27 0.0006943654    1.576    0.366
        55 -10.1916    160.7533    128.1546   7.7103237694e+01   2.3936864692e+01    0.3791335    0.2500865 -63.56  0.001546629    1.979    0.495
        56 -11.8001    118.9946    123.9857   8.6522170396e+01   3.3660896378e+01    0.8260793    0.4591868 -29.45  0.002969365    2.613    0.617
        57 -11.0872     99.7803    125.8655   9.2270955334e+01   3.6820807982e+01    0.3195315    0.2678754  -8.01  0.001065007    1.467    0.318
        58 -11.2733    138.9285    170.8231   9.1753302267e+01   1.9070673083e+01    0.3855612    0.3005064  43.70  0.001040888    1.253    0.202
        59 -10.0031    108.3688    118.9148   8.8187603990e+01   3.6903201759e+01     0.227384    0.2050362  55.34 0.0002756943    1.175    0.149
        60  -9.7952    168.2377    113.1529   7.1562868268e+01   2.5404974790e+01    0.3647742    0.2373349 -69.85  0.001392659    2.383    0.580
        61 -10.5566    134.6633    112.0357   7.9305222935e+01   3.3137468460e+01    0.3739361    0.1440716 -44.51  0.001235141    2.518    0.603
        62 -11.7560    116.8524    109.1698   8.3300441505e+01   3.7500090039e+01    0.8360819    0.5984574 -32.79  0.003804681    1.489    0.328
        63 -10.1908    205.5117    110.1386   6.3306825347e+01   1.7577481388e+01    0.2994881    0.2185436  40.69 0.0008882403    1.505    0.335
        64 -10.2304    134.7576    106.0251   7.7648121109e+01   3.4431794384e+01    0.3948255    0.1576299 -46.39  0.001323102    2.472    0.595
        65 -12.1272     53.5749     93.4117   9.8812112669e+01   5.1578138055e+01    0.6033671    0.4409366 -87.66  0.003076324    1.812    0.448
        66 -10.7042     40.9647     88.5243   1.0199191777e+02   5.4139952742e+01     0.224738    0.1575425 -56.33  0.000762345    1.214    0.176
        67  -8.7979    120.6265     88.2859   7.6303347881e+01   4.1263180489e+01    0.1560419    0.1241229  88.78 0.0007017921    1.714    0.417
        68  -9.9250    157.5066     81.9798   6.5258210792e+01   3.4051090342e+01    0.2364524    0.1509624 -36.76  0.000514914    1.546    0.353
        69  -9.3446    184.5887     77.1930   5.8438308740e+01   2.8361314351e+01    0.2080902    0.1444458 -22.95 0.0005516408    1.632    0.387
        70  -9.9585     93.9023    249.5523   1.1251152120e+02   1.0774334785e+01     0.164229    0.1425527  79.37 0.0007300812    1.179    0.152
        71 -11.4765    113.2188    206.5331   1.0356661314e+02   1.5990444996e+01    0.3489893    0.2492652  68.70  0.001479189    1.541    0.351
        72 -11.9801    109.4684    201.8226   1.0371809263e+02   1.7574270174e+01    0.4817548    0.3541234   5.10  0.002410956    2.129    0.530
        73 -11.9352    147.0837     51.2983   5.8048697241e+01   4.1777969987e+01    0.5133678    0.3463541 -80.07  0.001669285    2.190    0.543
        74 -11.0917    129.1915    172.5863   9.4383530949e+01   2.0496646198e+01    0.2910742     0.148745  34.80  0.001174199    2.075    0.518
        75 -10.7554    148.6431     44.7143   5.5604555661e+01   4.2356377902e+01    0.2698355    0.2343141 -76.91 0.0002902083    1.269    0.212
        76 -11.4212     27.1167     35.5376   9.1544960615e+01   6.6566318208e+01      0.26388    0.1994361  37.75   0.00103126    1.756    0.431
        77 -10.8407    198.0532     23.8532   4.1848389158e+01   3.2789619402e+01    0.2931378    0.2008381 -17.41  0.001047072    1.797    0.443
        78 -17.2409      7.2149    245.6474   1.2749064330e+02   2.1991618488e+01     2.182432     1.703133  18.44   0.01641092    2.171    0.539
        79  -9.7370    189.5097     14.9710   4.0471121387e+01   3.5850568422e+01    0.2035554    0.1666235  82.62 0.0005742489    1.109    0.098
        80 -11.7372    112.4849    196.5426   1.0227488402e+02   1.8194379545e+01    0.4735263    0.3177748  -6.64  0.001975406    3.083    0.676
        81 -13.5247    203.7076    197.5779   8.3047150002e+01   1.9928960637e+00     1.880322    0.9454224  10.09  0.005195927    6.431    0.845
        82 -11.8972    193.6767    195.8706   8.4703136442e+01   4.0176080055e+00     1.176628    0.6139108 -61.77  0.003724199    5.368    0.814
