#   1 NUMBER                 Running object number                                     
#   2 MAG_AUTO               Kron-like elliptical aperture magnitude                    [mag]
#   3 X_IMAGE                Object position along x                                    [pixel]
#   4 Y_IMAGE                Object position along y                                    [pixel]
#   5 X_WORLD                Barycenter position along world x axis                     [deg]
#   6 Y_WORLD                Barycenter position along world y axis                     [deg]
#   7 A_WORLD                Profile RMS along major axis (world units)                 [deg]
#   8 B_WORLD                Profile RMS along minor axis (world units)                 [deg]
#   9 THETA_WORLD            Position angle (CCW/world-x)                               [deg]
#  10 FWHM_WORLD             FWHM assuming a gaussian core                              [deg]
#  11 ELONGATION             A_IMAGE/B_IMAGE                                           
#  12 ELLIPTICITY            1 - B_IMAGE/A_IMAGE                                       
         1 -14.4724    157.3047     50.9831   8.5196115841e+01   3.9891318704e+01      1.79332     1.385703   9.82  0.005770096    1.600    0.375
         2 -13.2752    172.4798     27.5161   7.4762323641e+01   3.9138463284e+01    0.5361953     0.444225  11.56  0.001319177    1.416    0.294
         3 -14.2941    168.9386     35.0226   7.7768789273e+01   3.9127146036e+01    0.9880496    0.9715326  58.24  0.003299075    1.045    0.043
         4 -12.1680    189.1260     14.7278   6.8435777111e+01   3.6178218233e+01    0.3921093    0.2826571 -70.14  0.001493656    1.449    0.310
         5 -13.7269    183.9451      4.0867   6.5885509959e+01   3.8615185021e+01     1.045428    0.5489722  67.78  0.004295448    1.689    0.408
         6 -10.4844    220.6737    229.3764   1.1410218368e+02  -3.6032834485e+00    0.2508265    0.1541442 -44.70  0.001474849    2.274    0.560
         7 -18.9526     71.6247    241.6493   1.4193991020e+02   1.8200713144e+01     6.545235     4.629327  65.42   0.04659237    1.045    0.043
         8 -11.2298    177.7829    189.5670   1.1540247100e+02   9.6001203625e+00    0.2756926    0.2473645 -87.37 0.0008438952    1.362    0.266
         9 -11.3068    178.4735    196.9992   1.1654335668e+02   8.2539391025e+00    0.3372909    0.2418488  65.27   0.00112822    1.725    0.420
        10 -11.4489    180.6413    194.0862   1.1562658809e+02   8.3174250946e+00    0.4075977    0.2548822 -51.25   0.00167924    1.963    0.491
        11 -11.7304    136.2779    197.2366   1.2498207260e+02   1.5972283692e+01    0.3538305    0.2439793  75.42   0.00121042    1.756    0.430
        12 -12.0443    158.4165    194.2260   1.2004495071e+02   1.2466348510e+01    0.3881546    0.2330829 -69.26  0.001760957    2.643    0.622
        13 -11.8216    120.4771    216.8697   1.3071531665e+02   1.5176239383e+01     0.555702    0.2991646  79.66   0.00237186    3.383    0.704
        14 -11.0785    169.8533    195.3183   1.1794856697e+02   1.0141945549e+01     0.204431    0.1834114 -78.32 0.0006374423    1.337    0.252
        15 -10.2211    182.2174    189.2242   1.1447088215e+02   8.8100317777e+00    0.1766359     0.152388  68.23 0.0004428719    1.340    0.254
        16 -12.3982    207.5088    183.9332   1.0865608319e+02   4.8226632420e+00    0.3723011    0.3355489  23.09  0.001127021    1.042    0.040
        17 -12.5614    210.5026    181.5319   1.0764170043e+02   4.6200118985e+00    0.4364234    0.3097721 -18.05  0.002043438    1.578    0.366
        18 -19.2329     56.9780    104.4392   1.2857724329e+02   4.8810112136e+01     17.23115      1.08336 -60.80   0.02821209   14.817    0.933
        19 -13.3005     10.6288    206.6938   1.5020656247e+02   3.1522061288e+01    0.3831086    0.2627035  63.95  0.002967244    1.149    0.130
        20 -10.9004    145.1956    178.3959   1.2013869476e+02   1.7849645613e+01    0.2415199    0.1917728 -16.56  0.001092132    1.781    0.439
        21 -11.4160    197.7297    176.2094   1.0903558485e+02   7.9266581221e+00    0.4122028    0.3032728 -58.59  0.001428116    1.817    0.450
        22 -11.3329    178.8463    173.8280   1.1231161091e+02   1.2081605233e+01    0.2170428    0.1880939  18.62  0.001002376    1.205    0.170
        23 -13.0566    137.7117    171.8811   1.2062525002e+02   2.0543413558e+01     1.206242    0.4397261  46.94  0.004529385    2.521    0.603
        24 -11.5009    145.6119    168.7561   1.1834875056e+02   1.9638779120e+01    0.3714216    0.2620363 -61.38  0.001272136    1.597    0.374
        25 -10.9228    142.5237    167.5081   1.1879617356e+02   2.0487557974e+01    0.2842053     0.213714  40.23 0.0009482421    1.293    0.227
        26 -11.6042    226.4411    168.1887   1.0209148595e+02   3.5924049209e+00    0.5405106    0.2893568 -56.26  0.002015492    3.860    0.741
        27  -9.8318    207.7437    168.3633   1.0556543600e+02   7.2138436379e+00    0.1770437    0.1372355  52.88 0.0003050835    1.372    0.271
        28 -11.8720    165.0036    205.8312   1.2058256869e+02   9.3063672077e+00     0.491244    0.2794673 -60.76  0.001978059    2.525    0.604
        29 -10.6844    205.4317    170.5182   1.0643796574e+02   7.3262772128e+00    0.2615308      0.19346  45.67  0.001000869    1.295    0.228
        30 -10.7990    200.8103    164.7685   1.0615937393e+02   9.1946721111e+00      0.34661    0.2856125  70.28  0.001655332    1.526    0.345
        31  -9.7690    123.2103    166.3530   1.2288399172e+02   2.4378991108e+01    0.2044231    0.1153964  53.23 0.0003606596    1.713    0.416
        32 -11.0230     25.4084    165.5849   1.4470154480e+02   3.8363156296e+01    0.2145398    0.1889666  21.40   0.00105462    1.654    0.395
        33 -10.2650    122.0545    157.4890   1.2159044812e+02   2.6457406252e+01    0.2183349     0.133082  43.96  0.001025225    1.570    0.363
        34 -12.6591    134.0308    145.7283   1.1653303713e+02   2.6653510837e+01     1.246966    0.3336241 -55.93  0.003134362    5.755    0.826
        35 -11.1372    174.3658    148.2841   1.0803967583e+02   1.7689244708e+01    0.3972514    0.2867768 -60.01  0.001294187    1.661    0.398
        36 -12.4236    143.8984    144.9135   1.1406727892e+02   2.4821163998e+01    0.7283383    0.4244563 -76.37  0.002548276    3.343    0.701
        37 -12.3519    115.4864    139.3050   1.1969790094e+02   3.1638381706e+01    0.4968246     0.303533 -44.05  0.002263217    1.809    0.447
        38 -12.8447    105.6911    139.4699   1.2216134574e+02   3.3382833011e+01     0.439087    0.2857867  53.84   0.00213149    1.543    0.352
        39 -11.2174    101.4154    127.2543   1.2081117218e+02   3.6899106105e+01    0.3103273    0.2024867 -71.30  0.001062679    1.698    0.411
        40 -12.1624    105.9636    130.8147   1.2036893118e+02   3.5284458618e+01    0.4193338    0.3410453 -82.28  0.001293781    1.265    0.210
        41 -11.6172    108.7691    125.8033   1.1858724295e+02   3.5905741458e+01    0.2950861    0.2700844 -34.37 0.0006609868    1.243    0.195
        42 -12.0034    119.7029    129.8203   1.1666426372e+02   3.2939062939e+01     0.406934    0.3447401  87.60  0.001320086    1.242    0.195
        43 -11.6131    160.4349    128.3096   1.0655602170e+02   2.4678051854e+01    0.4280183    0.2827317 -38.03     0.001915    1.608    0.378
        44 -12.4069    135.7066    122.7929   1.1107709813e+02   3.1228517544e+01    0.6700444     0.354415 -56.07  0.002643564    2.108    0.526
        45 -10.3569    143.9234    128.3788   1.1040301428e+02   2.8287219505e+01    0.2309276    0.2012802 -68.03 0.0002844419    1.198    0.165
        46 -12.5728    126.3875    127.6707   1.1451398113e+02   3.2091823719e+01    0.6968961    0.4117379  74.95  0.002486948    3.065    0.674
        47 -10.0901    239.3140    126.6848   9.0804992345e+01   7.4015276461e+00    0.1374008    0.1096073 -64.78 0.0003050581    1.642    0.391
        48 -11.2268    113.6593    118.8670   1.1575939493e+02   3.6544978083e+01    0.3084099    0.2227254  61.26  0.000380268    1.506    0.336
        49 -11.8411    170.7576    116.4091   1.0133398420e+02   2.4688285190e+01    0.6728047    0.4165918 -76.64  0.002290976    3.255    0.693
        50 -10.4585    134.7090    112.5340   1.0881197827e+02   3.3642590730e+01    0.2835484    0.1360942 -46.36  0.001075578    2.084    0.520
        51 -12.0710     96.9745    110.5744   1.1834240321e+02   4.1472495707e+01    0.4036455    0.3139768 -26.76   0.00127037    1.614    0.381
        52 -10.7931    205.3829    110.1327   9.2725510488e+01   1.7680370320e+01    0.3333592    0.2247381  46.95 0.0009765994    1.493    0.330
        53 -11.2208    113.8565    110.1821   1.1363437088e+02   3.8441526259e+01    0.2292625    0.1994306 -89.57 0.0004923868    1.225    0.184
        54 -11.5541      4.4773    224.0771   1.5201156298e+02   2.8936121413e+01    0.1273003   0.06316156 -61.79 0.0008077069    2.617    0.618
        55 -10.9717    217.3059    217.0400   1.1271246162e+02  -1.5441292073e+00    0.1714751     0.147717  16.61  0.001175347    1.100    0.091
        56 -11.1611    134.5363    104.5121   1.0677828259e+02   3.5385917894e+01    0.5573835    0.1491276 -45.43  0.001582576    3.723    0.731
        57  -9.5710    180.8078    106.6211   9.6658872342e+01   2.4183570978e+01    0.2180958    0.1474753  64.63 0.0006272426    1.681    0.405
        58 -10.4322    124.5178     94.9408   1.0677754588e+02   3.9570629314e+01    0.2337976    0.2030921  46.93 0.0004869214    1.171    0.146
        59 -14.1328    193.8228    193.7453   1.1303213025e+02   5.8962091456e+00      1.13007    0.8570814 -76.84  0.003965341    2.160    0.537
        60 -12.6472    204.0667    199.0023   1.1203775420e+02   3.2199791605e+00    0.4797926    0.3088259  20.34  0.002514739    1.746    0.427
        61 -10.5330     13.7769    248.8316   1.5156569025e+02   2.3816609976e+01    0.1675991   0.08985949  77.15  0.001259638    1.383    0.277
        62 -10.3421    170.1112    205.0909   1.1948024145e+02   8.4975193168e+00     0.188712    0.1660783  48.55 0.0004375952    1.077    0.071
        63 -10.3607     13.4493     59.8729   1.3388318235e+02   6.2720166061e+01    0.1616018    0.1500567 -75.61  0.000387174    1.221    0.181
        64 -10.9140     19.4965    239.4807   1.5030197203e+02   2.4776487138e+01    0.1021729   0.06896207  69.35 0.0005153348    1.027    0.026
        65 -10.7298    138.5568     31.8119   8.2586212890e+01   4.7401474330e+01    0.3278209    0.2113005  71.54  0.000820526    1.753    0.429
        66 -10.2591    211.3578    201.8074   1.1119421114e+02   1.5096052458e+00    0.1717308    0.1612281 -48.60 0.0006572889    1.386    0.279
