#   1 NUMBER                 Running object number                                     
#   2 MAG_AUTO               Kron-like elliptical aperture magnitude                    [mag]
#   3 X_IMAGE                Object position along x                                    [pixel]
#   4 Y_IMAGE                Object position along y                                    [pixel]
#   5 X_WORLD                Barycenter position along world x axis                     [deg]
#   6 Y_WORLD                Barycenter position along world y axis                     [deg]
#   7 A_WORLD                Profile RMS along major axis (world units)                 [deg]
#   8 B_WORLD                Profile RMS along minor axis (world units)                 [deg]
#   9 THETA_WORLD            Position angle (CCW/world-x)                               [deg]
#  10 FWHM_WORLD             FWHM assuming a gaussian core                              [deg]
#  11 ELONGATION             A_IMAGE/B_IMAGE                                           
#  12 ELLIPTICITY            1 - B_IMAGE/A_IMAGE                                       
         1 -12.3224     33.5320     93.4606   1.1168187186e+02   5.3359194390e+01     2.591812     1.016986 -64.62   0.01151298    2.127    0.530
         2 -12.5564     74.9682     50.6097   8.5242295317e+01   5.7447988833e+01     1.332909    0.7828893 -51.42  0.006307918    1.917    0.478
         3 -11.5675     26.8273     56.0097   1.0553615385e+02   6.2242724152e+01     1.882984    0.5184343 -43.43  0.007355469    3.124    0.680
         4 -11.2251    119.6143     58.0864   7.3895948309e+01   4.7409297500e+01     2.360178     1.418161 -61.90   0.00905102    2.715    0.632
         5 -12.0138    124.8990     27.8405   6.1586341415e+01   5.0772324558e+01    0.7180703    0.5733933  35.04  0.002820541    1.202    0.168
         6 -12.7064    120.0423     38.1618   6.6640664275e+01   5.0510610242e+01    0.9721394     0.772566  84.36  0.003636579    1.659    0.397
         7 -12.1670     61.0075     44.8253   8.8267202719e+01   6.0645791593e+01     1.103192    0.4904602 -42.43  0.004803209    2.016    0.504
         8 -10.9162    178.4205     21.4370   4.9459783087e+01   3.7984897636e+01    0.6280189    0.3642647  27.17  0.002606744    2.531    0.605
         9 -11.4588    182.8523     25.3161   4.9985384838e+01   3.6381573905e+01    0.6482993    0.3800896  48.48   0.00296913    1.750    0.429
        10 -10.3189     22.0232      4.6739   8.8275154245e+01   7.1938759502e+01    0.3038387    0.1765156 -48.61  0.001772925    2.177    0.541
        11 -11.4936     26.3413     27.9544   9.6541537960e+01   6.7751507778e+01    0.5005394    0.4189515 -21.52  0.002876159    1.104    0.094
        12 -11.6104     13.8210     23.8539   1.0100845179e+02   6.9508642195e+01     0.549039    0.3770929 -39.32  0.002076461    1.111    0.100
        13 -11.6042     19.8997     22.4568   9.7461916957e+01   6.9284380188e+01    0.6198317     0.262443 -45.44   0.00205755    1.859    0.462
        14 -12.7769     17.6925     13.6182   9.4836960148e+01   7.0963425203e+01    0.6238157    0.4739031   4.94 0.0007719843    1.324    0.245
        15 -11.1802    240.5361     32.1677   4.4894922641e+01   2.1224513921e+01    0.6520191    0.3753283 -37.88  0.003295136    1.572    0.364
        16 -12.0426    105.9859     20.2500   6.3363170269e+01   5.6049338514e+01    0.4078732    0.3038048 -21.56  0.002240778    1.366    0.268
        17 -10.7474    155.6982     22.9547   5.3558019276e+01   4.3692777523e+01    0.8910157    0.7252556  22.54  0.004787855    1.367    0.268
        18 -10.6423    146.4125     16.4580   5.3006981191e+01   4.6783575248e+01    0.5456457    0.4019637  60.03 0.0001308918    1.240    0.193
        19 -11.1812    165.0807     17.7168   5.0299281710e+01   4.1859523271e+01    0.4920408    0.2975467  34.32  0.001401517    1.975    0.494
        20 -11.2367    138.0145     22.0247   5.6577210271e+01   4.8277680574e+01    0.9381311    0.3168314  48.66   0.00283102    2.681    0.627
        21 -12.1603    132.9033     14.8389   5.5001393402e+01   5.0330376620e+01     1.344874    0.5606297  66.91  0.005077315    2.527    0.604
        22 -12.6219    163.6011     28.0592   5.3857437460e+01   4.1046604587e+01    0.7043396    0.3954827  42.09  0.000622521    1.919    0.479
        23 -10.8026    214.5921     23.4309   4.5444379158e+01   2.8526656459e+01    0.4542194    0.3592647   1.80  0.002465419    1.678    0.404
        24 -10.5444     87.0931      7.4625   6.3162073972e+01   6.1473645592e+01    0.5473424    0.2995836  55.08  0.002460439    1.842    0.457
        25 -11.2476     91.0364     20.5864   6.7773871892e+01   5.9179639762e+01    0.6106541    0.3768345 -23.99  0.002435662    1.611    0.379
        26 -11.4439     85.9246     14.1914   6.6548946416e+01   6.0975793521e+01    0.5937114    0.3383214 -18.12  0.002208156    1.803    0.445
        27  -9.3542     50.4649      6.4495   7.5687271144e+01   6.8111558463e+01    0.3135416    0.1111344  42.18   0.00140602    2.850    0.649
        28 -10.4112     47.1001     19.0706   8.3277159537e+01   6.6865924221e+01    0.3616703    0.2673721 -27.65  0.001517222    1.196    0.164
        29 -10.8351     32.3622     12.3893   8.6883267294e+01   6.9695054291e+01    0.2156122     0.193899  30.60  0.000511107    1.561    0.359
        30 -12.2065     49.3943     12.8464   7.9336201738e+01   6.7438075735e+01    0.5524814    0.3096801  40.78  0.003064515    1.957    0.489
        31 -10.6059     42.0709     14.4992   8.3356625665e+01   6.8204542306e+01    0.3171234    0.1829312  32.41  0.001325629    1.802    0.445
        32 -11.5838     35.5372     18.7149   8.8327246988e+01   6.8361441188e+01    0.5512935    0.2155535 -32.96   0.00159826    2.391    0.582
        33  -9.9614    120.2446     19.3098   5.9431751388e+01   5.2897768714e+01    0.5199931    0.1880599 -24.00  0.001921901    3.002    0.667
        34 -10.2403     64.7663     10.5468   7.2060021557e+01   6.5317909095e+01    0.5612201    0.2377147  34.95  0.002553221    2.390    0.582
        35  -9.9115     62.8316      7.0135   7.1052973228e+01   6.6063572994e+01    0.3097243    0.1997455   3.11   0.00160505    1.569    0.363
        36 -11.8991     68.3112     18.1642   7.4335870715e+01   6.3745669751e+01    0.5348825    0.4471791  41.69  0.002129777    1.370    0.270
        37 -12.1567    238.4915     15.6785   4.1165539717e+01   2.3699894488e+01    0.8552161    0.4417014  69.79  0.004242153    1.883    0.469
        38 -11.7515    233.8661      7.0766   3.9528705402e+01   2.5736308839e+01    0.8626362    0.3683644  87.04  0.003644528    2.620    0.618
        39 -11.8586    246.8921      6.8435   3.8456508685e+01   2.2776108724e+01    0.5936975    0.4532051   1.21  0.002736117    1.947    0.486
        40 -10.8897    242.2985      3.7029   3.8090539718e+01   2.4153324696e+01    0.4295322    0.1913884  71.87  0.001856325    2.124    0.529
        41 -10.9348    218.7859      3.2195   3.9871025539e+01   2.9735327040e+01    0.3281154    0.2767785 -42.66  0.001352593    1.218    0.179
        42 -11.0952    223.6706      1.8932   3.9129211178e+01   2.8693373979e+01    0.5817845     0.239076  77.84  0.002529846    2.335    0.572
        43 -10.1654    225.9291     15.3029   4.2214193362e+01   2.6707163360e+01    0.4171548     0.162336 -36.28     0.001785    2.288    0.563
        44 -12.3577    104.5785     12.7560   6.0639487658e+01   5.7201894002e+01    0.5107965     0.455594 -24.09  0.002028121    1.222    0.182
        45 -11.5038    211.8821      9.8699   4.2200307096e+01   3.0733688523e+01    0.4310136    0.3042629   6.35 0.0006526949    2.072    0.517
        46 -11.3769    192.3734      7.7632   4.3693520419e+01   3.5859867105e+01    0.5368851    0.3733483  15.89  0.001411042    2.008    0.502
        47  -9.0709     95.1230     11.9015   6.2820584467e+01   5.9342522173e+01    0.3445119     0.147688  30.54  0.001309179    3.009    0.668
        48 -11.7452     22.8712     10.8759   9.0893717098e+01   7.0926091580e+01    0.4002827    0.2533633  13.66  0.002110972    1.611    0.379
        49  -9.8907    169.0128      9.7071   4.7195193758e+01   4.1674050982e+01    0.3713667    0.1704257  47.42  0.001545267    2.206    0.547
        50  -9.6795    163.2077      6.9237   4.7136000505e+01   4.3439419446e+01    0.5517256    0.2558609 -14.16  0.002254014    2.757    0.637
        51  -8.9797     72.9944      9.6964   6.8704204850e+01   6.3962354665e+01    0.1774904    0.1457191  24.47  0.001121268    1.097    0.089
        52  -9.1295    155.6765      7.4920   4.8431225450e+01   4.5318918059e+01     0.454513    0.2066955  85.06  0.001411783    3.133    0.681
        53 -11.4091     40.7009      5.8954   7.9691569846e+01   6.9570954848e+01     0.448473    0.2210277 -15.65  0.001838784    2.367    0.578
        54  -9.2639      1.1316      7.3876   1.0112226915e+02   7.3190835106e+01    0.1836602   0.05116712 -49.82 0.0005769763    2.612    0.617
        55  -9.1393     78.5060      7.4886   6.5825314604e+01   6.3170496248e+01    0.2244547    0.1685495  42.38 0.0007001144    1.277    0.217
        56 -10.5621     76.8333      3.4348   6.4437938935e+01   6.3909136615e+01    0.3791533    0.2373318  -0.94  0.001700659    1.652    0.395
        57 -10.6157     72.9919      2.7578   6.5362369007e+01   6.4705399251e+01    0.4592734    0.2453249  21.24  0.002250311    2.083    0.520
        58 -10.3805    183.3749      4.7819   4.3878477092e+01   3.8453809382e+01    0.3120569    0.2764373 -53.38  0.001055642    1.162    0.139
        59 -10.3866    175.9494      5.1522   4.4887270696e+01   4.0325959647e+01    0.4259225    0.2215545  77.22  0.001913807    1.864    0.464
        60 -11.0391    112.2377      2.8789   5.4730056090e+01   5.6412361835e+01    0.6279576    0.3267807  72.07  0.001775255    2.298    0.565
        61 -10.7852    105.4364      1.8270   5.5842855122e+01   5.8057338450e+01    0.4186408    0.3067385 -82.88  0.001074096    1.978    0.495
        62 -11.7394    133.6218      2.7770   5.0438151154e+01   5.1296700681e+01    0.4455009      0.28579  59.46  0.001311289    1.367    0.268
        63  -9.8233    122.3574      1.1124   5.1921435573e+01   5.4177083028e+01    0.8296525          nan  60.09  0.001765107    8.336    0.880
        64 -10.3693    142.2932      3.4025   4.9170047999e+01   4.9084116101e+01    0.4031507    0.2562702  55.86   0.00157552    1.374    0.272
        65  -9.5700    207.8442      3.0690   4.0828304754e+01   3.2435350326e+01    0.2755103    0.1847237  80.73 0.0009033045    1.361    0.265
        66  -9.2263    157.4500      2.5054   4.6534537927e+01   4.5318516244e+01    0.2551678    0.1894913  60.76  0.001402688    1.196    0.164
        67  -9.0626    161.0053      1.0000   4.5553635278e+01   4.4540172777e+01    0.3173766   0.07510301  64.73  0.001051181    3.221    0.690
        68 -11.0618      2.9849      1.7922   9.7498435642e+01   7.3978701441e+01     0.368401    0.1645012   8.11  0.002074113    2.637    0.621
        69  -9.8769     13.0489      1.8490   9.1719638244e+01   7.3194920804e+01    0.2073729    0.1342214   5.67 0.0008913849    1.492    0.330
        70 -10.2557     82.1902      1.3257   6.1778588280e+01   6.3060865953e+01    0.1948659    0.1051984  50.60 0.0003307041    1.702    0.412
        71 -11.2085     63.0701    150.1847   1.1265892114e+02   3.6687187902e+01    0.4159667      0.39753  29.95  0.001851314    1.305    0.234
        72 -10.0663    142.8430    249.3553   1.0855882383e+02   4.9117606857e+00    0.1816812    0.1546021  74.30  0.001306596    1.329    0.247
        73  -9.7769    214.3887    150.9744   7.7855545585e+01   8.0892115136e+00    0.2389488    0.2028016  55.83  0.001222987    1.353    0.261
        74  -9.6541    239.7840    146.5782   7.2313808336e+01   3.8252799325e+00    0.2480024    0.1808801 -28.65 0.0006213819    1.265    0.210
        75 -10.6337    249.6054    142.4294   6.9766864763e+01   2.6317857666e+00    0.5467366    0.2418084 -30.71  0.002326782    2.127    0.530
        76 -10.8804     32.8315    144.4371   1.1941530248e+02   4.1472225766e+01    0.2844328    0.2774701   5.65  0.001361777    1.379    0.275
        77  -9.9269    133.0795    140.0389   9.3142466457e+01   2.7333375036e+01    0.3447443    0.2650371  43.66   0.00136069    1.292    0.226
        78 -12.0097     23.9323    136.1461   1.2069116853e+02   4.4215208946e+01    0.6457894    0.3934482  59.64  0.002836373    1.696    0.410
        79 -12.5846     29.8726    133.0101   1.1880618294e+02   4.4413109785e+01    0.4554614    0.2869303  88.40 0.0003711788    1.499    0.333
        80 -10.1044     81.8303    135.3815   1.0540473675e+02   3.7546709906e+01     0.347668    0.2419243  10.65  0.001253562    2.255    0.556
        81 -10.2112     47.4226    135.6966   1.1458713580e+02   4.1994177602e+01    0.4510049    0.1649134 -62.97  0.001384923    2.264    0.558
        82 -10.4086     39.6423    137.5477   1.1686030565e+02   4.2394347916e+01    0.2568963    0.2318142 -16.67 0.0007918067    1.493    0.330
        83  -9.1502    192.3732    136.2509   7.8830009280e+01   1.5395440578e+01    0.2126295    0.1386313 -47.51 0.0007140765    1.623    0.384
        84  -9.4228     86.6844    135.8941   1.0420961381e+02   3.6676335686e+01    0.2353671    0.1683514 -45.28  0.001188625    1.496    0.331
        85  -9.1581    216.6237    135.2076   7.3855363639e+01   1.0364332331e+01    0.2041814    0.1330111 -24.91 0.0005571045    1.602    0.376
        86 -10.9238     92.7107    129.4800   1.0134017703e+02   3.7222263984e+01    0.4442311    0.2912988 -73.28  0.001548284    1.696    0.410
        87  -9.9484    107.7771    145.9481   1.0066890708e+02   3.0792121435e+01    0.2296951    0.2022304  55.67 0.0003403461    1.118    0.106
        88 -10.5867     74.2964    132.6677   1.0693182833e+02   3.9300917254e+01    0.2527771     0.222991 -42.84  0.001476759    1.269    0.212
        89  -9.7776     62.2446    131.6115   1.1000523099e+02   4.1187496392e+01    0.4085826    0.2088553 -43.23  0.001781972    2.373    0.579
        90  -9.4990    103.8663    130.8339   9.8631455488e+01   3.4992410589e+01    0.2083308    0.1987278 -15.86 0.0002982632    1.202    0.168
        91 -10.2987     82.0017    125.6601   1.0350069624e+02   3.9831245895e+01    0.4243789    0.2682491 -24.69  0.001616363    2.681    0.627
        92  -9.0105    223.9943    126.9567   7.0584590370e+01   1.0237763981e+01    0.2215809    0.1711825 -61.13 0.0005112605    1.621    0.383
        93  -9.5633     22.9856    126.9367   1.1986496929e+02   4.6434945846e+01    0.1800385    0.1436602 -83.03  0.001191413    1.031    0.030
        94 -10.4844     42.3658     94.1302   1.0896740534e+02   5.2361921701e+01    0.4725435    0.3441001  89.61  0.002665452    1.577    0.366
        95 -11.7234      9.8411     97.5425   1.1976969406e+02   5.4193511846e+01     1.106052    0.5102032 -82.61  0.005465523    2.130    0.531
        96 -11.9488      7.1115     88.8940   1.1937569316e+02   5.6322649097e+01    0.7233734    0.4778662   9.84  0.002450587    2.012    0.503
        97 -10.8120     17.2959    100.7969   1.1798388335e+02   5.2952573491e+01    0.3830894     0.316844 -57.49 0.0005490223    1.148    0.129
        98  -9.3149    175.6158    246.8102   1.0232417068e+02   8.0344977141e-02    0.1395698    0.1146474 -63.66 0.0009501769    1.728    0.421
        99 -12.4668     42.2019     85.3186   1.0714060293e+02   5.4410128486e+01      1.46121    0.4109586  25.49  0.005182661    4.543    0.780
       100 -11.7212     22.2507     95.0474   1.1555708130e+02   5.3919648307e+01    0.5008567    0.3399118   0.41  0.001703827    2.022    0.505
       101 -12.2970     18.3107     90.2657   1.1601281652e+02   5.5304633406e+01    0.3740722    0.2392749 -57.99 0.0004105277    1.246    0.197
       102 -11.7326      2.4308    112.2198   1.2369362516e+02   5.1284868081e+01     1.075795    0.4162721 -84.64   0.00398085    2.467    0.595
       103 -11.6652      3.7667    105.6409   1.2258524480e+02   5.2705480959e+01    0.4212446    0.3327635 -83.20  0.001815676    1.089    0.082
       104 -11.7831     22.5614    114.0498   1.1832656920e+02   4.9476582194e+01    0.9281381    0.3699732  13.87  0.003860005    4.244    0.764
       105 -12.2820     25.0596    107.7937   1.1671269083e+02   5.0737576486e+01     1.332804    0.6245224 -31.33  0.005629409    3.575    0.720
       106 -12.1450     18.7194    106.1628   1.1833572900e+02   5.1607242629e+01    0.2697059    0.2177739 -48.68 0.0002641953    1.279    0.218
       107 -10.8463     56.0933    123.6728   1.1035735512e+02   4.3848559665e+01    0.4804175    0.3896869   1.05  0.002114103    1.683    0.406
       108 -10.9275     46.4914    120.7503   1.1256704671e+02   4.5645967050e+01    0.6174768    0.3550899  74.86  0.002269266    2.315    0.568
       109 -10.3032     18.7081    124.5011   1.2070480193e+02   4.7347227100e+01    0.2897132    0.1551398 -69.63   0.00108911    1.470    0.320
       110 -11.7968    104.3289    122.1137   9.6600022413e+01   3.6944011505e+01    0.4368995    0.4339975  75.27  0.001045245    1.077    0.072
       111  -9.3071     67.2738    124.1112   1.0730534224e+02   4.2317452438e+01    0.2873116    0.2097369   7.90  0.001466309    1.989    0.497
       112  -8.9953    148.3967    119.7719   8.4624307449e+01   2.8533154261e+01    0.2228739    0.1474084 -33.40  0.000569386    1.670    0.401
       113  -9.5212    185.3728    118.8467   7.6037341876e+01   2.0305112449e+01    0.2260355    0.1452155 -28.14 0.0009503635    1.714    0.417
       114 -10.4879    113.1282    115.9845   9.2767065149e+01   3.6719396894e+01    0.3892866    0.2333987  43.09 0.0003657053    1.716    0.417
       115 -10.5247    107.7955    111.9603   9.3249450167e+01   3.8655118541e+01     0.539831    0.3849904  86.02  0.002291768    2.003    0.501
       116 -10.9386    101.9636    108.9119   9.4136730656e+01   4.0432476902e+01     0.628962    0.5008414 -11.52  0.003088312    1.637    0.389
       117  -9.4779     79.3755    114.7469   1.0198701396e+02   4.2823018773e+01    0.2914311    0.1648661 -55.20  0.001332485    1.607    0.378
       118  -9.6685     67.7851    114.2032   1.0524595326e+02   4.4612608569e+01    0.3058048    0.2167112  79.28  0.001538866    1.733    0.423
       119  -9.8595     67.2037    110.6211   1.0468299566e+02   4.5542647520e+01    0.2831087    0.2236163  24.47  0.001571495    1.503    0.335
       120  -9.2205    126.8991    113.8165   8.8547141057e+01   3.4454222668e+01    0.2375613    0.2153776  -0.39  0.001219616    1.256    0.204
       121  -9.8075     48.8114    112.2808   1.1045282166e+02   4.7406070680e+01    0.2356254    0.2313123   1.18  0.001140884    1.225    0.183
       122 -11.1016    170.6985    110.3562   7.7007126778e+01   2.5389916925e+01     0.543528    0.4360477  33.28  0.001935957    1.330    0.248
       123 -10.2559     90.7258    104.0660   9.6195107307e+01   4.3517307220e+01    0.3805922    0.2897261  -2.55  0.001834821    1.828    0.453
       124 -11.3077     79.6023    108.2407   1.0048179869e+02   4.4325122775e+01    0.6186967    0.4106928  41.38  0.002121229    1.623    0.384
       125 -10.6748     85.9638    103.8595   9.7558332924e+01   4.4350940272e+01    0.5769676    0.3750046 -22.45  0.002033942    2.308    0.567
       126 -10.0084    130.6195    109.7563   8.6528298493e+01   3.4571158191e+01     0.299985    0.1922676  34.51  0.001270108    1.750    0.429
       127 -10.1255    121.1504    108.7694   8.8782716521e+01   3.6762033202e+01    0.4728555    0.3458174   1.59  0.002026317    2.078    0.519
       128  -9.6306     58.5114    108.2683   1.0680094213e+02   4.7224068274e+01    0.2473108    0.1232262 -65.68 0.0005435159    1.901    0.474
       129 -10.4257    157.5958    106.4971   7.8968422874e+01   2.9233365528e+01    0.3974869    0.3059441  -5.27  0.001281761    1.708    0.415
       130 -10.7991    143.8429    106.1001   8.2185567183e+01   3.2464820297e+01    0.3861987    0.3048496  58.74  0.001542262    1.347    0.257
       131 -11.8756    145.3997    100.6257   8.0304207354e+01   3.3261600051e+01     0.641269     0.556281  42.87  0.002578691    1.168    0.144
       132  -9.3562     45.7540    105.8652   1.1019434684e+02   4.9258141307e+01     0.189988    0.1531142 -52.80  0.001146633    1.151    0.131
       133  -9.8957     57.5201    102.5297   1.0592413152e+02   4.8702002650e+01    0.3916634    0.1937604 -61.43  0.001229034    1.799    0.444
       134 -10.4004     58.0055     97.9911   1.0479485461e+02   4.9707367641e+01    0.4888033    0.3149183  49.70  0.002507002    1.828    0.453
       135 -11.1197     89.8043     89.6023   9.2693757713e+01   4.6960391432e+01    0.7075146    0.3448936 -39.10  0.002808824    2.182    0.542
       136 -10.0676     81.1225     97.7960   9.7529381092e+01   4.6523611925e+01    0.2294932    0.2093108  40.80 0.0009764685    1.194    0.162
       137  -9.9732     77.3208     96.9964   9.8504181452e+01   4.7292140489e+01    0.3059458    0.2453393  38.21 0.0005200342    1.366    0.268
       138 -10.2776     64.7151     99.3751   1.0299754082e+02   4.8526291164e+01    0.4289956    0.2848856 -21.73  0.001631455    2.125    0.529
       139 -10.6022     68.3910     95.4651   1.0092847534e+02   4.8938082939e+01    0.3981824    0.3331084  31.06  0.001691784    1.344    0.256
       140 -10.9084     82.4476     93.1088   9.5919568100e+01   4.7386668689e+01     0.490228    0.3586313  49.05   0.00151424    1.531    0.347
       141 -10.7807     76.7828     92.9992   9.7665740946e+01   4.8290944929e+01    0.4795798    0.3224765 -31.93  0.001807254    1.688    0.407
       142  -9.7344     82.4660    102.3256   9.8235747289e+01   4.5265199318e+01    0.3283258    0.1698667 -36.11  0.001290195    2.444    0.591
       143 -11.0144     51.2195     96.2378   1.0656790229e+02   5.0919880728e+01     1.070555    0.4255956 -68.04  0.003910175    2.880    0.653
       144  -9.4375    120.9644    101.0318   8.6778057508e+01   3.8513196735e+01    0.2446156    0.1919574  -7.70  0.001126713    1.662    0.398
       145  -9.8951    211.0501     97.3862   6.5569864029e+01   1.8269013431e+01     0.480447    0.3204879  28.28  0.002092478    1.937    0.484
       146 -10.3247    117.4509     93.1474   8.5553928421e+01   4.0952944656e+01    0.4715268    0.3162203  41.24  0.001412536    1.547    0.354
       147 -10.4539    121.4393     89.1659   8.3298203920e+01   4.0966990913e+01    0.4945294    0.3238597  41.35  0.001992958    1.580    0.367
       148 -10.6758    120.7386     85.0248   8.2266155412e+01   4.1980864318e+01    0.4258332    0.3088379  46.88  0.001933361    1.418    0.295
       149 -10.1628    126.0102     93.5030   8.3306775460e+01   3.9073467237e+01    0.3905199    0.2980465  54.91  0.001192958    1.396    0.284
       150 -10.0669    122.3484     93.7020   8.4358154545e+01   3.9811985679e+01    0.3493637    0.2522382 -74.22  0.001186454    1.902    0.474
       151  -9.4585    160.4057     93.7021   7.4782714469e+01   3.1142381884e+01     0.293325    0.1998709  63.97  0.001247888    1.686    0.407
       152  -9.1637    138.0569     93.2701   8.0076234425e+01   3.6459304154e+01    0.3538665    0.2300529  11.83  0.001282886    2.740    0.635
       153 -12.4200    101.9916     90.1346   8.9150548080e+01   4.4655390621e+01    0.6054994    0.5084513  17.94 0.0004890366    1.348    0.258
       154 -10.2494    104.5547     76.9666   8.4467774029e+01   4.6962300452e+01    0.4870572    0.3964434 -34.22  0.002520581    1.191    0.160
       155 -10.8904    113.7544     83.6012   8.3805272305e+01   4.3738981939e+01    0.6631658     0.331349 -37.58  0.002434282    2.066    0.516
       156 -10.9054    109.2417     80.6753   8.4223864030e+01   4.5265108336e+01    0.4328558    0.3756295 -10.83  0.001380041    1.244    0.196
       157 -10.5904    152.6743     91.4636   7.5949067255e+01   3.3430432406e+01    0.5564958    0.4146733  62.29  0.002451729    1.471    0.320
       158  -9.8376     66.9216     88.4718   9.9671589080e+01   5.0745635996e+01    0.3119031    0.1950164 -35.83  0.001185883    1.711    0.415
       159 -10.6066     66.9945     81.8184   9.7902135528e+01   5.2233536086e+01     0.510281    0.3701678  15.01  0.002691892    1.685    0.407
       160 -11.5080     72.8784     78.8533   9.5110839254e+01   5.2041986631e+01    0.6909911    0.5375045 -11.13  0.003577589    1.519    0.342
       161 -10.5366     80.9053     83.6066   9.3826865095e+01   4.9760434240e+01    0.5488076    0.3411677 -52.59  0.002193568    1.514    0.339
       162 -10.2057     77.4904     83.9652   9.5030888866e+01   5.0217354505e+01    0.4880264    0.2155771 -51.29  0.001388377    2.069    0.517
       163  -9.4339    200.0036     87.9750   6.5066617167e+01   2.2549408358e+01    0.2330037    0.2237949 -56.31 0.0005138379    1.031    0.030
       164 -10.4295    183.4145     85.4607   6.7528928723e+01   2.7068671677e+01    0.7625114    0.3146043 -46.17  0.002588699    2.584    0.613
       165 -10.4872    165.6356     83.3763   7.0640998590e+01   3.1848746824e+01    0.4420245    0.3638067 -55.12  0.001400428    1.279    0.218
       166 -11.2301    143.0261     84.0642   7.6121993054e+01   3.7171382327e+01    0.4077432    0.3424073  41.44 0.0007646301    1.208    0.172
       167 -10.4072    127.5014     82.8991   7.9780303777e+01   4.0946818632e+01    0.3880097    0.2831502 -41.79  0.001339035    1.346    0.257
       168 -10.3168    127.2432     77.2407   7.8108335383e+01   4.2132720829e+01    0.5003775     0.296655 -58.09   0.00148567    2.216    0.549
       169  -9.7186    123.9977     73.0000   7.7646166023e+01   4.3681276949e+01    0.3420304    0.2138366  52.33  0.001322363    1.682    0.405
       170 -10.5281    119.9810     68.9920   7.7455286518e+01   4.5333866057e+01    0.3027386    0.2753628 -61.19 0.0007292806    1.209    0.173
       171 -11.3141    123.8661     68.1267   7.6106333834e+01   4.4637519915e+01    0.6675562    0.4551787  24.41  0.002216851    1.822    0.451
       172  -9.7017     60.1828     83.1958   1.0055326035e+02   5.2834166016e+01     0.275948    0.1830537 -60.22 0.0008962356    1.423    0.297
       173 -10.8121     58.1011     77.8393   9.9854082488e+01   5.4294671242e+01    0.3450001    0.2502413 -59.11   0.00055211    1.302    0.232
       174 -13.1389     52.5520     73.5446   1.0063857921e+02   5.5918017261e+01    0.5257801    0.2949847 -58.58 0.0009753821    1.667    0.400
       175 -11.4716     46.9472     74.1311   1.0279004473e+02   5.6426503531e+01    0.2881245    0.2054933 -52.88  0.001654389    1.192    0.161
       176 -10.3171    232.4442     76.7601   5.6890526463e+01   1.6719689517e+01    0.6022794    0.3034468 -51.70  0.002454967    2.178    0.541
       177  -9.2594      8.9731     76.2968   1.1672721797e+02   5.9046850263e+01    0.1613074    0.1252997 -58.15 0.0002180178    1.046    0.044
       178 -11.7680     14.1111     74.7302   1.1464740651e+02   5.9090406190e+01    0.4767902    0.3275485 -60.53    0.0021017    1.127    0.113
       179 -10.1920     14.2810     67.3563   1.1310994955e+02   6.0706037859e+01    0.3473413    0.2532481  -2.74  0.002281973    1.679    0.404
       180  -9.2698    170.5125     77.9533   6.8009051751e+01   3.1631886482e+01    0.2347042    0.1535543 -35.60 0.0006981323    1.527    0.345
       181 -10.4439     98.9597     61.7452   8.1205115127e+01   5.1066100913e+01    0.5607216    0.3148973 -18.85  0.001914589    2.751    0.636
       182  -9.3001    199.0022    244.5253   9.7817732716e+01  -3.3097551404e+00    0.1898665   0.09392747  39.92  0.001037469    1.617    0.382
       183 -10.2488     93.8108     76.6687   8.7670084583e+01   4.9053142197e+01    0.5538711    0.3447529  28.71  0.001743809    1.887    0.470
       184 -11.7134     85.6241     73.6738   8.9360727509e+01   5.1118980566e+01    0.6628938    0.5410565  37.00  0.002856833    1.312    0.238
       185 -11.0165     79.5237     67.7814   8.9527314153e+01   5.3355732453e+01    0.7041436    0.4640995  38.53  0.003537708    1.636    0.389
       186 -11.8803     89.5611     57.8546   8.2854953304e+01   5.3574515027e+01    0.7434202     0.601133  10.38  0.003063802    1.328    0.247
       187 -11.6625      1.9824     71.3687   1.1831143877e+02   6.0497472980e+01    0.5712216    0.1461409 -66.75  0.002425024    2.740    0.635
       188 -12.3537      6.4823     62.1006   1.1494133883e+02   6.2291519482e+01    0.6784697    0.3873629 -34.06  0.003040802    1.743    0.426
       189  -9.3630    139.0372     77.4579   7.5109896560e+01   3.9390127015e+01    0.2336301    0.1523873  49.37 0.0003390193    1.540    0.351
       190 -12.0611    186.5656     70.5018   6.2676414998e+01   2.8885849053e+01    0.9207908    0.6472133 -36.80  0.003027357    1.401    0.286
       191  -9.3937    241.9768     75.2626   5.5201395204e+01   1.4803305533e+01    0.1882063    0.1790045 -56.88            0    1.062    0.058
       192  -9.4419    113.6535     75.0440   8.1192120613e+01   4.5508102502e+01    0.3805823    0.1820692  35.79  0.001401904    2.477    0.596
       193  -9.5904     66.2957     74.2577   9.6024167736e+01   5.3990888198e+01    0.2407218    0.2111103  80.74 0.0008412782    1.436    0.303
       194  -9.8669    184.1553     61.6616   6.0555291492e+01   3.0946128313e+01    0.3324726    0.2527563 -29.83 0.0007238286    1.353    0.261
       195  -9.1985    151.0289     73.8014   7.1071349218e+01   3.7206354372e+01    0.2624462    0.1717274  28.67      0.00107    1.944    0.486
       196 -11.5529     40.7709     70.8918   1.0417724972e+02   5.7786352054e+01     0.518871    0.2756251 -51.04  0.002172195    1.536    0.349
       197 -11.2843     32.5173     71.9723   1.0745184742e+02   5.8324848722e+01    0.4901036    0.2744037  26.53  0.002400959    2.108    0.526
       198  -9.5381     24.5565     73.2070   1.1061436646e+02   5.8704675672e+01     0.353635    0.1051754 -64.12  0.001385381    2.894    0.654
       199  -9.7304    162.2928     70.8919   6.7649084259e+01   3.4943696228e+01    0.2978486    0.2605052 -88.02  0.001056582    1.273    0.215
       200  -9.1822     20.0211     71.4935   1.1188275951e+02   5.9416548085e+01    0.1547904    0.1200129   0.44 0.0006874959    1.570    0.363
       201 -10.6935    171.6365     66.6163   6.4409689050e+01   3.3323951682e+01     0.630316    0.3526489 -45.29  0.002565766    1.841    0.457
       202  -9.3259    115.0347     69.4722   7.9003983676e+01   4.6309931106e+01    0.2285731     0.148065  46.50 0.0008691092    1.579    0.367
       203 -11.5169    219.7768     66.3815   5.6066521318e+01   2.1313996697e+01    0.6463995    0.3842326  59.94  0.001873196    1.739    0.425
       204  -9.0255    208.2312     68.5665   5.8412646646e+01   2.3783202955e+01    0.2116606    0.1357167  48.36 0.0009495543    1.654    0.395
       205 -10.6741     21.2924     65.5601   1.1009676509e+02   6.0627043951e+01    0.3096283    0.2247548 -86.67  0.000989237    1.664    0.399
       206 -10.0454     25.9457     65.3264   1.0828611918e+02   6.0326941605e+01    0.2176254     0.159214 -48.44 0.0003415572    1.102    0.092
       207 -11.0515     91.5042     62.5484   8.3840548974e+01   5.2323097590e+01    0.4131301    0.3500318  51.27  0.001883828    1.343    0.255
       208 -10.7485     58.9759     63.4049   9.5369879761e+01   5.7283856078e+01    0.6182191    0.3790675 -57.66  0.003110007    1.695    0.410
       209  -9.7298    192.6086     65.7332   6.0230391969e+01   2.8142368886e+01    0.2894581    0.2371947 -84.03 0.0007779983    1.351    0.260
       210 -10.0139    106.3100     64.1403   7.9779964730e+01   4.9146984102e+01    0.3539459    0.2752692  13.51  0.001760051    1.483    0.326
       211 -11.3349    234.3546     61.1013   5.2708136082e+01   1.8667549203e+01    0.6317035    0.4596212  83.87  0.003268912    1.538    0.350
       212  -9.2497    200.8658     64.3718   5.8453937285e+01   2.6280281598e+01     0.290723    0.1479724  64.15  0.001148719    2.089    0.521
       213  -9.3603    197.7079     62.3292   5.8403786227e+01   2.7396486863e+01     0.277095     0.151726  67.58 0.0007788149    2.006    0.502
       214  -9.8803     22.1855     36.8112   1.0166706127e+02   6.6468925514e+01     1.211882    0.2963381  36.46  0.004399674    5.640    0.823
       215 -10.4993     53.5204     49.6460   9.2908676301e+01   6.0750029288e+01    0.4431593    0.3214955  74.93  0.002170132    2.770    0.639
       216 -11.7361     21.2558     46.8287   1.0522498614e+02   6.4567781055e+01    0.4881948    0.3141239 -36.77  0.001031528    1.317    0.241
       217 -11.1768     19.7508     55.3130   1.0818648210e+02   6.2927650364e+01    0.3582019    0.2919018  15.27  0.001066364    1.470    0.320
       218 -11.3885     33.0701     58.7412   1.0382284691e+02   6.1132090069e+01    0.4085301    0.2391315 -21.93 0.0002903609    2.049    0.512
       219 -11.0237    128.1408    242.1598   1.1041615784e+02   8.3128326019e+00    0.3256141    0.3024738  52.70  0.002426117    1.206    0.171
       220 -11.2414     40.7733     56.8746   1.0026070341e+02   6.0773671492e+01    0.4335832    0.3413157  73.78  0.001755727    1.930    0.482
       221 -11.5525     51.0345     61.2390   9.7647523343e+01   5.8727589888e+01    0.4337557    0.2914092 -51.13 0.0006817867    1.327    0.246
       222 -11.6116     46.0917     58.2004   9.8598136418e+01   5.9927288940e+01    0.6291265    0.3135978 -45.57  0.001769283    1.678    0.404
       223 -11.3682     46.3735     49.0957   9.5547259205e+01   6.1726571905e+01    0.4954802    0.3256818  -1.94  0.001712972    1.861    0.463
       224 -12.4633     42.2379     45.2086   9.5894560795e+01   6.2949018572e+01    0.5611319    0.3674444  13.14  0.001172924    1.745    0.427
       225 -10.3725    159.2082     61.9676   6.5555863251e+01   3.7249808361e+01    0.5046156    0.2774415  42.50  0.002012832    1.945    0.486
       226  -8.9814    163.5075    243.5060   1.0408787121e+02   2.4723665062e+00     0.121717   0.09571473  42.66 1.648952e-05    1.049    0.047
       227  -9.6245     68.0251    240.4791   1.2108525683e+02   1.7340307891e+01    0.1693672   0.09081202  43.49   0.00102922    1.589    0.371
       228 -11.2814    113.3123     49.6290   7.2664916665e+01   5.0244104092e+01    0.7359313    0.4076529  31.73  0.002490187    2.176    0.540
       229 -12.1207    117.7047     43.5110   6.9229977605e+01   5.0244598606e+01    0.6836032    0.4821407  77.07  0.002905103    2.040    0.510
       230 -11.4799    114.1732     38.3826   6.8275576602e+01   5.1812664806e+01     0.545061    0.2796423 -20.61  0.001194695    2.355    0.575
       231  -9.4910    147.4456     60.6626   6.7750471628e+01   4.0402876447e+01    0.3764651    0.1480471  58.78  0.001240416    2.814    0.645
       232  -9.1429    132.0435     45.5001   6.6282530068e+01   4.6596033817e+01     0.223752    0.1414532  52.13  0.000457055    1.530    0.346
       233 -10.9952    140.2587     43.2715   6.3579746306e+01   4.4932015779e+01    0.8928089    0.4235889  34.33  0.002503377    2.926    0.658
       234 -10.7302    136.4133     56.4183   6.8968977461e+01   4.3801026514e+01    0.8285667    0.4816514  27.08  0.003171853    2.441    0.590
       235 -10.4518    134.6332     50.3613   6.7343120647e+01   4.5216612249e+01    0.5260986    0.3694915 -72.46  0.002282612    2.113    0.527
       236 -11.5556    146.1613     47.3033   6.3632981358e+01   4.2865616018e+01    0.8871332    0.4046018 -22.91  0.003152011    2.774    0.640
       237  -9.8057    105.6273     56.9498   7.7507432188e+01   5.0614010115e+01    0.4927029    0.2127069 -52.10  0.001625818    3.458    0.711
       238  -8.4757    219.6729     57.2870   5.3699700687e+01   2.2717742206e+01    0.1505245    0.1041024 -66.92 0.0004247768    1.611    0.379
       239  -9.3300    161.6250     47.7789   6.0561974446e+01   3.8878501885e+01    0.4047494    0.2515942  78.49  0.001382879    2.049    0.512
       240  -9.6939    162.6830     43.9350   5.9126831817e+01   3.9169325307e+01    0.2952465    0.2744804  38.97 0.0008291914    1.091    0.083
       241 -11.0624    157.3505     55.1191   6.3781867098e+01   3.8836636123e+01    0.7203931    0.5045084  72.13  0.003268724    1.617    0.382
       242 -10.8434    155.5929     49.7971   6.2435069694e+01   4.0112410118e+01    0.4120535     0.322607 -15.33 0.0007612648    1.425    0.298
       243 -10.3094    188.0197     55.7817   5.8160956682e+01   3.0877640045e+01    0.2556908    0.2509131   5.88 0.0005066675    1.094    0.086
       244 -10.1280     67.0437     54.7921   8.9585738290e+01   5.7889101983e+01    0.3327112    0.1869648 -50.31 0.0008129939    1.780    0.438
       245  -9.2713      2.0370     56.3123   1.1546333773e+02   6.3745411374e+01    0.1486017    0.1262812 -46.68 0.0004058154    1.150    0.130
       246 -10.7249    244.9548     51.2871   4.9016810716e+01   1.7655597832e+01    0.2817915    0.1982316  76.47 0.0007566202    1.524    0.344
       247  -9.7049    237.6661     54.4230   5.0634523902e+01   1.8873261228e+01    0.2853175    0.1949157 -61.87 0.0008251896    1.506    0.336
       248 -10.7799    240.3221     50.3971   4.9331650203e+01   1.8832610074e+01    0.4298391    0.2937675 -37.18  0.001428345    1.344    0.256
       249 -10.3580    149.2519    237.8287   1.0599100062e+02   5.6151244477e+00    0.3467915    0.1709035  30.86   0.00138862    2.252    0.556
       250  -9.2181     68.6145     32.9043   8.0671382578e+01   6.1532879991e+01    0.6831525    0.3426944  44.39  0.003226544    2.208    0.547
       251  -9.8375     59.6568     24.0223   8.0305363265e+01   6.4318358387e+01    0.2852436    0.1625697 -34.77 0.0004474907    1.623    0.384
       252  -9.3748     60.5828     20.2350   7.8232247943e+01   6.4727949269e+01      0.30199    0.2245151 -54.94  0.001424172    2.076    0.518
       253  -9.6775    167.5136    237.5096   1.0255427008e+02   2.6830360023e+00    0.1234849   0.09884194  38.95 0.0008104477    1.008    0.008
       254 -11.5531     60.5005     36.2071   8.5126765797e+01   6.2241298238e+01    0.3503796    0.2290613 -36.10  0.001129036    1.378    0.274
       255 -10.9551     56.8577     31.0578   8.4461094719e+01   6.3629301777e+01    0.3602799    0.2684807   7.76  0.002159056    1.341    0.254
       256 -11.4327     48.6631     30.5034   8.7608157982e+01   6.4840506891e+01    0.7254801    0.2840697  28.60   0.00312758    3.005    0.667
       257  -9.5673    211.2085     52.8799   5.3720991815e+01   2.5446184654e+01    0.3133455    0.2028579  71.05  0.001466613    1.616    0.381
       258 -11.1677    201.9577     47.1584   5.3493737616e+01   2.8594855137e+01    0.6976008     0.483355 -42.82   0.00342066    1.397    0.284
       259  -9.9721    177.6338     43.3775   5.6246805592e+01   3.5383856618e+01    0.4472944     0.248056  54.20  0.001919885    1.728    0.421
       260 -10.2252     90.8739     47.5128   7.8680565517e+01   5.5193461667e+01    0.2822182    0.2204011 -35.16 0.0004545691    1.241    0.194
       261  -9.3722      2.3347     48.7950   1.1369828271e+02   6.5306780117e+01    0.2474496    0.1888872  -6.84  0.001782277    1.525    0.344
       262  -9.1504      2.5342     44.9739   1.1270637076e+02   6.6083416333e+01    0.2171052    0.1160291 -25.80 0.0009003225    1.960    0.490
       263  -9.5395      5.9770     42.4917   1.1059009980e+02   6.6416231807e+01    0.3393494    0.2215721 -89.37  0.001984733    2.266    0.559
       264 -10.1220     13.7818     46.3667   1.0827106052e+02   6.5178478066e+01    0.3592472     0.130733 -36.21  0.001633486    2.725    0.633
       265  -9.8231     17.8625     41.5733   1.0511880969e+02   6.5867352534e+01     0.360636    0.1928058 -25.26  0.001988077    1.990    0.498
       266  -9.6351    205.4930     52.4830   5.4445316878e+01   2.6932119104e+01    0.2603631    0.1429126  64.18  0.001058399    1.838    0.456
       267 -10.8532    174.3056     48.0259   5.8249100869e+01   3.5575635939e+01    0.5774021    0.4229838  81.00  0.002432823    1.518    0.341
       268 -10.3789    146.2990     43.3118   6.2257673831e+01   4.3424815439e+01    0.3255652    0.2264639  34.76 0.0004312132    1.556    0.357
       269  -9.5046    234.0941     44.8699   4.8692434570e+01   2.1043089165e+01    0.2208017    0.1705783 -65.05 0.0005822627    1.248    0.198
       270 -11.2942    155.9262     41.9345   5.9799196882e+01   4.1187183218e+01    0.3870428    0.3801519   9.16 0.0009702361    1.051    0.048
       271 -11.3095    153.0956     36.0916   5.8425895678e+01   4.2717556988e+01    0.3183901    0.2838266 -54.05 0.0004049055    1.193    0.162
       272 -10.9074     97.5638     41.5212   7.4283293975e+01   5.4876303332e+01    0.6069472    0.3999609  75.93  0.002117336    2.960    0.662
       273 -10.4499     92.4811     41.3265   7.5804784597e+01   5.5915647658e+01     0.378007    0.3191901  48.39  0.001572839    1.307    0.235
       274 -10.7283    189.0857     40.9111   5.3651619492e+01   3.2763787131e+01    0.5893716     0.220565 -28.01   0.00124543    2.869    0.651
       275  -9.4085     86.4527     30.9710   7.3609936551e+01   5.8672121010e+01    0.2293013    0.1983043  23.06  0.001119508    1.097    0.089
       276 -10.6453     80.6020     40.0660   7.9262515835e+01   5.8333585648e+01    0.5921339    0.3904573  41.41   0.00309314    1.576    0.365
       277 -10.9639     77.2765     34.1403   7.8039588326e+01   5.9874482416e+01    0.3917066    0.2653526  41.04 0.0009097317    1.529    0.346
       278 -10.1876     81.7683     31.4629   7.5378228991e+01   5.9477772022e+01     0.433084    0.2756225 -49.42  0.002125988    2.036    0.509
       279 -10.2686    231.8972     39.4722   4.7600415826e+01   2.2290867261e+01    0.4386138    0.2362299 -59.88  0.001711165    2.034    0.508
       280  -8.8667    217.6873     39.3064   4.9240816955e+01   2.5745711570e+01    0.1496768   0.09809557 -64.29 0.0004730309    1.620    0.383
       281 -11.5933    176.5605     35.6327   5.4065121614e+01   3.6719511997e+01    0.8630967    0.6173161  79.97  0.003522572    1.474    0.322
       282 -10.8380    198.5370    232.7162   9.6152484747e+01  -1.7119507352e+00    0.3977648    0.2801487  33.60  0.002515275    1.147    0.128
       283 -10.3160    176.9655     29.8239   5.2225688147e+01   3.7359531152e+01    0.4580264    0.2305673  54.66  0.001396123    1.861    0.463
       284  -9.7407     15.1235    233.7249   1.2959763245e+02   2.4718799562e+01    0.1853806    0.1199429 -86.08 0.0009763242    1.368    0.269
       285  -9.6699    206.8416     36.9857   5.0008000792e+01   2.8757595989e+01    0.2410655    0.2037251  78.41 0.0007623304    1.146    0.127
       286  -9.4912    133.0801     36.7095   6.2918910296e+01   4.7627757237e+01    0.3822815    0.2627299 -81.36  0.001657758    2.249    0.555
       287  -9.2054      6.3410     36.2064   1.0868269759e+02   6.7648361595e+01    0.3628085    0.3043902 -70.59  0.002502888    1.389    0.280
       288  -9.3310      6.7662     30.7673   1.0683202108e+02   6.8677949161e+01     0.314848    0.1690178  -7.06  0.001847752    2.197    0.545
       289 -10.1192    247.5287    231.2926   8.7332238770e+01  -9.0549498091e+00    0.1854601    0.1043129 -31.79 0.0007941091    1.939    0.484
       290  -9.5047     23.7448    231.7516   1.2808561148e+02   2.4178459326e+01    0.1528582   0.08554741  65.38   0.00104473    1.329    0.248
       291 -10.4669    242.3244    230.6247   8.8099406913e+01  -8.2268781658e+00    0.2353479    0.1937941  61.41  0.001523295    2.188    0.543
       292  -9.9697    143.7693    235.5950   1.0673475413e+02   6.8518919102e+00    0.1842723   0.09306522  48.62 0.0009546794    1.678    0.404
       293  -9.3660    108.3698    230.2228   1.1278517706e+02   1.3369290211e+01     0.154272    0.1075018 -84.04 0.0005433681    1.640    0.390
       294 -10.7921    138.8497     32.9019   6.0272634467e+01   4.6727345117e+01    0.5322574    0.4913853  74.10  0.001943937    1.136    0.119
       295  -9.3411     94.5074     36.0331   7.3086084867e+01   5.6342716272e+01    0.2456239    0.1947373  65.40   0.00113756    1.639    0.390
       296 -10.1363    234.3537    222.9302   8.8182775777e+01  -6.1243816687e+00    0.1675332    0.1322455   5.09 0.0005636138    1.100    0.091
       297  -8.9464    209.3178    223.3367   9.2709393370e+01  -2.2092628303e+00    0.1287344   0.08408337  11.13 0.0007048806    1.701    0.412
       298 -12.0648    105.8676     32.8244   6.8436504134e+01   5.4442814381e+01    0.6631653    0.3702371  18.37  0.002261259    2.744    0.636
       299 -12.5710    114.1105     25.1292   6.3195121421e+01   5.3629521287e+01    0.8492365    0.3710496  51.69  0.001707793    2.090    0.522
       300 -10.5671    144.9379     25.5338   5.6433963068e+01   4.6130828892e+01    0.6401683    0.3529816  72.93  0.002692009    2.087    0.521
       301  -9.6991      9.7268    217.9735   1.2974040602e+02   2.8142048587e+01    0.1534938    0.1021961  82.47 0.0008346695    1.131    0.115
       302 -10.3610    165.2776    212.4682   9.9344911631e+01   6.9360645566e+00    0.2964951    0.1774169  53.78  0.001018472    1.745    0.427
       303  -9.1111    204.4936    208.4861   9.1108443254e+01   6.8428027803e-01     0.130633    0.1094107  22.14 0.0003019081    1.010    0.010
       304  -9.3578    152.7910    207.7870   1.0111817894e+02   9.9331698121e+00    0.1805822    0.1437984  61.87 0.0008399563    1.311    0.237
       305  -9.5912     61.0152    206.9889   1.1959611494e+02   2.4528948877e+01    0.1854016    0.1403598  70.16 0.0004471909    1.054    0.051
       306  -9.8241    238.6748    204.6777   8.4225133547e+01  -4.4845084261e+00    0.2524828    0.1462469 -36.33  0.001384864    1.877    0.467
       307  -9.2876    216.3886     32.4618   4.7602881661e+01   2.6963073859e+01    0.2437779    0.1679753  14.16 0.0009376787    2.255    0.557
       308 -10.7866    198.2211     29.0276   4.8943264196e+01   3.1968704633e+01    0.4528049    0.4172916  -1.42  0.001798338    1.268    0.212
       309  -9.3530    199.6946     24.6901   4.7543244537e+01   3.2122218230e+01    0.2105305    0.2021402  22.37 0.0006320347    1.207    0.171
       310  -9.4607    148.6891     31.9950   5.7916213355e+01   4.4377800801e+01    0.1960353    0.1859172  -3.96 0.0003788622    1.105    0.095
       311 -10.2974    189.2247     28.0343   4.9880942060e+01   3.4403249385e+01    0.4421439     0.302607   4.34  0.001917557    2.077    0.519
       312  -9.2023     35.9981     31.5147   9.3519011246e+01   6.6161540727e+01    0.1646444    0.1150568  25.49 0.0006784443    1.584    0.369
       313 -10.2622    230.6509     27.2959   4.4711787719e+01   2.4153232751e+01    0.4373764    0.2029614 -38.48  0.001547909    1.929    0.482
       314  -9.7265    221.7449     29.4407   4.6203833166e+01   2.6031143663e+01     0.240704    0.1800157 -33.84 0.0006097856    1.345    0.256
       315  -9.7208     99.2789     30.2386   6.9312969426e+01   5.6206902132e+01    0.3149558    0.1921072  68.65    0.0013566    2.547    0.607
       316  -9.7449     98.0573     26.7011   6.8233675254e+01   5.6943968429e+01    0.2586794    0.2255221 -46.69 0.0009730157    1.373    0.272
       317  -9.3026     41.2071     28.0693   8.9813832284e+01   6.6173913522e+01    0.3293239    0.1191877 -32.85  0.001084426    2.972    0.664
       318  -9.3000     65.5331     28.5090   7.9978730455e+01   6.2718385631e+01    0.2234338    0.1124708  29.03  0.001029175    2.216    0.549
       319  -9.8596    250.5664     26.6986   4.2663284047e+01   1.9637410790e+01    0.2528152    0.1142464 -33.06  0.000614865    2.033    0.508
       320 -10.1531     16.7553    203.8154   1.2774818155e+02   3.0194882608e+01    0.3166814   0.06802922 -73.76  0.001325416    3.751    0.733
       321  -8.4963    206.2397     25.6230   4.6994248933e+01   3.0350587316e+01    0.1478423   0.09255968 -56.53 0.0004042578    1.626    0.385
       322  -9.1031     55.5986     24.7439   8.2258521835e+01   6.4814246598e+01    0.1636458    0.1091746 -41.19 0.0002483007    1.556    0.357
       323  -9.7566    161.5217     23.4696   5.2726534536e+01   4.2132580861e+01    0.2228121    0.2162657  71.52 1.721212e-05    1.040    0.038
       324  -9.4348     86.1398     23.8591   7.0715330146e+01   5.9728313253e+01    0.1966927    0.1655321  11.59  0.001174203    1.069    0.065
       325 -11.2172      5.0688    202.2736   1.2976877286e+02   3.1596725038e+01    0.7979851   0.08608937 -72.89  0.002853426    5.491    0.818
       326 -12.1273      4.7699    184.5110   1.2885877543e+02   3.5204443625e+01     0.575013    0.3832037  73.61  0.003063331    1.151    0.131
       327  -9.9930     81.1374     19.3039   7.0363771627e+01   6.1283807282e+01    0.3884852    0.1972824  44.08  0.001131868    1.879    0.468
       328  -8.8695    207.4480    201.4480   8.9311169611e+01   1.2131882606e+00    0.1319135    0.1114849  19.38 0.0003996888    1.018    0.018
       329 -10.2594    242.3262     22.2364   4.2367658166e+01   2.2043926564e+01    0.2628945    0.1970969  77.26  0.001021571    1.321    0.243
       330  -8.5531      1.3095    200.2958   1.3033885076e+02   3.2318324682e+01   0.09303817   0.07217645 -66.50 0.0004194915    1.592    0.372
       331 -10.3209    233.8070    197.3807   8.3735620007e+01  -2.7095020573e+00    0.3263977    0.2154585 -19.87  0.001163776    1.513    0.339
       332  -8.7751     83.5220    195.9796   1.1388918355e+02   2.3664715508e+01    0.1763466    0.1174295 -70.86 0.0004617794    1.502    0.334
       333  -8.5109    141.3087    194.6823   1.0144849933e+02   1.4372927065e+01    0.1376903    0.1002832  71.63  0.000365692    1.636    0.389
       334  -9.8340    169.7870    191.5055   9.4966466565e+01   9.7080363013e+00    0.3445614    0.2025514  30.43  0.001026098    1.805    0.446
       335 -10.6609     38.8360     21.8960   8.8229606658e+01   6.7471620667e+01    0.2696706    0.1868515 -23.97 0.0007890823    1.209    0.173
       336  -9.9283    239.8683    184.6273   8.0225857213e+01  -1.9384384603e+00    0.2157073    0.1593068 -10.35 0.0006713055    1.275    0.216
       337  -9.4036    223.1995     22.3719   4.4249794955e+01   2.6542685873e+01    0.2250925    0.1820168 -64.21 0.0006230272    1.127    0.112
       338  -9.0428    220.9797     19.0609   4.3640113881e+01   2.7472640406e+01    0.1837093    0.1576832 -69.26  0.001094178    1.041    0.039
       339 -10.1169    125.8938     21.2505   5.8880386554e+01   5.1331710667e+01    0.5232989    0.1976527  63.81  0.001298137    2.909    0.656
       340 -10.0213    213.2448    180.7914   8.4319170169e+01   3.3598269011e+00    0.2336428    0.1711369 -14.21  0.001259661    1.444    0.307
       341  -9.4016    250.0142    179.4480   7.7459226702e+01  -2.9082923478e+00    0.2874944    0.1432355 -17.42  0.001273231    2.440    0.590
       342  -9.7172     28.1335    176.2711   1.2359046070e+02   3.4783269320e+01    0.2241368    0.1725475 -78.70  0.001542096    1.198    0.165
       343 -10.0645     52.1363    173.8219   1.1817263779e+02   3.2661067981e+01    0.4223576     0.187718  89.49  0.001741527    2.972    0.664
       344  -9.8778     74.3086     19.4683   7.2769175964e+01   6.2522434406e+01    0.2361058      0.16808  38.67 0.0007455421    1.378    0.274
       345  -9.0061    230.4561    175.5026   8.0078921173e+01   1.0434041587e+00    0.1343157    0.1176258   3.91 8.629192e-05    1.021    0.021
       346  -8.9084    224.6610    175.6744   8.1166856499e+01   2.0658017196e+00    0.1439517   0.09683101   7.89 -4.243692e-05    1.727    0.421
       347  -8.9722     57.1907    174.8456   1.1716321781e+02   3.1810128057e+01    0.1543476    0.1429071 -71.64 0.0004458428    1.288    0.224
       348 -10.6511    245.6440    200.9110   8.2327494512e+01  -5.0983516782e+00    0.2194035     0.146222  23.37 0.0007557137    1.338    0.253
       349  -9.8406    247.0494    174.0453   7.6877966013e+01  -1.6452202379e+00    0.3996609    0.1530498  30.76  0.001471302    3.474    0.712
       350  -9.7948     39.5134    173.4937   1.2091065981e+02   3.4191770294e+01    0.1978398    0.1371232  57.19 0.0007706706    1.326    0.246
       351  -9.7555    211.3498     18.8843   4.4608688899e+01   2.9866123231e+01    0.2142553    0.1701676 -84.04 0.0003144215    1.182    0.154
       352 -10.5401     35.2103    169.8895   1.2150715013e+02   3.5451862595e+01    0.3993832     0.182905 -87.92  0.001921329    2.212    0.548
       353  -9.1139    115.4988     17.4971   5.9846252215e+01   5.4210333462e+01    0.1401054    0.1235656  31.01 0.0008105105    1.029    0.029
       354  -9.6448    191.4449     16.6566   4.6314523054e+01   3.5158296721e+01    0.2948684    0.2220626  19.60  0.001527032    1.733    0.423
       355 -10.5901    186.2323     15.1385   4.6533875802e+01   3.6664618739e+01    0.2617576     0.214503  79.86 0.0003562129    1.128    0.114
       356  -8.8848    174.4586     15.5922   4.8247604306e+01   3.9659579729e+01    0.1402273    0.1267713  72.67 0.0001632121    1.021    0.021
       357 -10.0047      9.0366    156.2202   1.2608337892e+02   4.0904887438e+01    0.2823063    0.1453019 -68.52  0.001658736    1.618    0.382
       358  -9.2833    220.5723     12.5259   4.2031912025e+01   2.8312931464e+01    0.2483501     0.117174  89.21  0.001030812    2.443    0.591
       359 -11.7330      9.5419    166.9131   1.2676985656e+02   3.8525328327e+01    0.5097411    0.3196943 -84.83  0.002292948    1.239    0.193
       360 -11.2754     13.6309    158.9155   1.2528573343e+02   3.9932769142e+01      0.47717    0.2159741 -74.87  0.002476365    1.757    0.431
       361  -9.0273    197.8433    167.8850   8.4707768948e+01   8.4652348391e+00      0.18288    0.1718259 -70.22  0.001049995    1.301    0.231
       362 -10.1546     18.9293    165.0493   1.2462764989e+02   3.8116362552e+01    0.2253653    0.2032032   3.93  0.001651708    1.665    0.400
       363  -9.8617    188.8738    164.3487   8.5790213047e+01   1.0891691645e+01    0.2824548     0.188921 -19.00 0.0008925764    1.868    0.465
       364 -10.4657     28.2684    162.8091   1.2237952102e+02   3.7734042715e+01    0.4234085    0.1702824 -78.96  0.002004805    2.222    0.550
       365  -8.6370    209.2637    164.6354   8.1786965205e+01   6.7741982027e+00    0.1339089    0.1127158 -69.46 0.0006984843    1.644    0.392
       366  -9.4667     39.6940    161.3247   1.1964413382e+02   3.6892534120e+01    0.1762626    0.1390361  72.25  0.001142449    1.130    0.115
       367  -9.8246    205.0092    163.0059   8.2270150770e+01   7.8930980155e+00    0.2684965    0.1963098  32.95 0.0005328488    1.327    0.246
       368  -9.4341     79.2965    160.4083   1.1017289086e+02   3.2067778164e+01    0.2435707    0.1534418 -89.09  0.001182969    1.794    0.443
       369  -9.5427    215.1491    158.3108   7.9314241976e+01   6.6867922613e+00    0.2560723    0.1841008 -20.88 0.0007986857    1.435    0.303
       370  -9.2177    223.9804    156.9609   7.7378218782e+01   5.1842215626e+00     0.172536    0.1542917  -5.52 0.0006146884    1.023    0.022
       371 -10.6060    104.7218    154.3264   1.0298189459e+02   2.9407405997e+01    0.3826971    0.3197135 -67.85  0.002114896    1.170    0.145
       372 -11.2308     11.1331    127.0360   1.2295993300e+02   4.7330835970e+01    0.5156701    0.1988935 -59.95  0.001007711    2.098    0.523
       373 -12.1884     22.8398    149.2800   1.2233282495e+02   4.1295568913e+01    0.6307666    0.3484023 -47.94  0.001745457    2.193    0.544
       374 -10.6124     15.1579    147.7795   1.2398968524e+02   4.2294740358e+01    0.3332036    0.2154509  48.57  0.001713966    1.594    0.372
       375 -11.7020     13.0240    138.7803   1.2365999781e+02   4.4505353867e+01    0.8141304    0.3875419 -86.52   0.00426134    1.866    0.464
       376 -10.9424     31.5055    152.9613   1.2066675639e+02   3.9641572338e+01    0.4578799    0.2698341 -86.57    0.0025877    1.495    0.331
       377  -9.2068     74.8766    153.3723   1.1019812426e+02   3.4333054129e+01    0.2584633    0.1753498 -67.71 0.0008916192    1.366    0.268
       378  -9.7404     70.6466    151.4435   1.1095697977e+02   3.5376543214e+01    0.2977883    0.1441784  46.84   0.00111811    2.067    0.516
       379 -11.7599      3.9061    147.1199   1.2652139493e+02   4.3310836110e+01    0.6622579    0.3283301 -79.31  0.003266803    1.557    0.358
       380 -11.3996      3.7413    142.2472   1.2617026492e+02   4.4408566622e+01    0.4350097    0.2950824  41.72  0.002955128    1.651    0.394
       381 -12.4718      3.5841    136.9974   1.2576939320e+02   4.5596465207e+01    0.2592175    0.1822221 -71.35 0.0003243498    1.198    0.165
       382 -11.0707     47.3737    149.0706   1.1639613123e+02   3.8858933339e+01    0.6361611    0.4566185 -80.03    0.0037928    1.198    0.165
       383  -9.8241     46.4619    144.5026   1.1603532110e+02   4.0028398491e+01    0.2144663    0.1696818  31.32 0.0007033931    1.524    0.344
