#   1 NUMBER                 Running object number                                     
#   2 MAG_AUTO               Kron-like elliptical aperture magnitude                    [mag]
#   3 X_IMAGE                Object position along x                                    [pixel]
#   4 Y_IMAGE                Object position along y                                    [pixel]
#   5 X_WORLD                Barycenter position along world x axis                     [deg]
#   6 Y_WORLD                Barycenter position along world y axis                     [deg]
#   7 A_WORLD                Profile RMS along major axis (world units)                 [deg]
#   8 B_WORLD                Profile RMS along minor axis (world units)                 [deg]
#   9 THETA_WORLD            Position angle (CCW/world-x)                               [deg]
#  10 FWHM_WORLD             FWHM assuming a gaussian core                              [deg]
#  11 ELONGATION             A_IMAGE/B_IMAGE                                           
#  12 ELLIPTICITY            1 - B_IMAGE/A_IMAGE                                       
         1 -12.1329     56.0158     66.6315   9.5290569958e+01   5.7028633770e+01     1.611143    0.8767327 -46.35  0.007881588    1.572    0.364
         2 -10.1070     65.4480     19.8527   7.3755958503e+01   6.3999760807e+01     1.019706    0.8375753 -89.59  0.005690541    2.374    0.579
         3  99.0000     71.7445     17.5224   7.0373679526e+01   6.3221466704e+01     1.594784    0.3929302  50.51  0.005042889    5.000    0.800
         4 -11.2842     68.2949     71.3042   9.2292005343e+01   5.4370305924e+01     1.832371    0.6562754 -45.40  0.006961239    2.464    0.594
         5 -12.7128     88.0449     56.7897   8.0672107983e+01   5.4074870395e+01     1.142182    0.6238467 -50.77   0.00492775    2.096    0.523
         6 -11.9861     31.9242     41.7705   9.6886629135e+01   6.4745587440e+01    0.9049389    0.5063725 -35.36  0.003204413    1.533    0.348
         7 -12.4891     80.1175     35.2028   7.5107133028e+01   5.9215648895e+01     1.362578      1.18106  33.81  0.003631355    1.218    0.179
         8 -12.1330     63.1644     30.9235   7.9535139871e+01   6.2738288483e+01     1.060497    0.3960779  29.70  0.001054402    3.642    0.725
         9 -10.9025     98.9921     59.2045   7.8006243419e+01   5.1557815211e+01     3.798438    0.5922421 -44.98  0.007672031    8.502    0.882
        10 -11.6273     20.0564     13.8943   9.1394030809e+01   7.0787644042e+01    0.6067066    0.3327191  20.52   0.00366743    1.936    0.483
        11 -11.4964     15.0123     39.0778   1.0355952126e+02   6.6648831066e+01     1.387893    0.6585847  -8.97  0.006730797    2.950    0.661
        12 -11.4672     12.0975     25.3493   1.0024805437e+02   6.9455646072e+01    0.4580746    0.1902277 -34.22  0.001008361    2.090    0.522
        13 -11.6568      4.7914     25.9641   1.0414034278e+02   6.9799355015e+01     0.465298     0.282148 -29.88  0.002612138    1.380    0.275
        14 -11.2313     27.3533     18.1653   8.9642358966e+01   6.9395375523e+01    0.5300361    0.2522269 -18.19  0.001144882    2.772    0.639
        15 -12.2730     31.2253     23.0512   8.9924994438e+01   6.8193153071e+01    0.9255313    0.7541425 -16.14  0.004729051    1.074    0.069
        16 -11.9714     24.9826      6.6572   8.5300195389e+01   7.1398847031e+01    0.6184823    0.2969672 -40.44  0.003461433    1.929    0.482
        17 -10.9844      7.3511     19.4999   1.0045839538e+02   7.0824608224e+01    0.3567437    0.2587895   7.87  0.001691189    1.502    0.334
        18 -13.3455      4.6218      8.9025   9.7533577676e+01   7.2818343837e+01    0.9616125    0.4145719 -47.52  0.004201724    1.856    0.461
        19 -12.6718     13.6297      4.9668   9.0565772738e+01   7.2750085391e+01    0.6021895    0.5150026  -9.44  0.002395381    1.296    0.228
        20  -9.6594    172.4001     37.6467   5.3198365142e+01   3.7700143641e+01     1.831743    0.8374169 -66.60  0.004678252    6.179    0.838
        21  -9.9269    157.7695      5.3084   4.5304431818e+01   4.5083068555e+01    0.6585089     0.387398  68.50   0.00326178    1.537    0.349
        22 -10.8256    176.6397     19.9953   4.7173739307e+01   3.8800046938e+01    0.8811723     0.321584 -36.66  0.003417856    2.614    0.617
        23 -11.4887    154.2833     16.9149   4.9626072014e+01   4.4815313281e+01    0.6277066    0.5757802  55.10  0.002107315    1.036    0.035
        24 -10.5944    149.0640     14.1180   4.9567126523e+01   4.6420529162e+01     1.461606    0.8010002 -67.64  0.005857018    2.834    0.647
        25 -10.8774    164.0146     15.3111   4.7571716405e+01   4.2520908898e+01    0.6592347    0.3880261  34.40  0.001885738    2.067    0.516
        26 -10.5795    225.6279     27.7833   4.3348401853e+01   2.5761006290e+01     0.683166    0.3331842 -45.21  0.003165675    1.850    0.459
        27 -10.8696    163.6230      6.0006   4.4702251846e+01   4.3543578386e+01     0.658308    0.5290512  32.18  0.003165765    1.377    0.274
        28 -10.0800     86.1423      7.6478   6.1151620297e+01   6.1600539432e+01    0.4507002    0.2368249  35.73  0.002226535    1.790    0.441
        29 -12.0502    117.1313     14.2698   5.5906111564e+01   5.4161257240e+01    0.9696971    0.5290385  35.12  0.004469955    1.906    0.475
        30 -10.4490     90.3579     12.3573   6.2020424287e+01   6.0248196358e+01    0.5384409    0.4214758  44.59  0.002509568    1.221    0.181
        31 -12.0001     98.9457      6.0469   5.6925279109e+01   5.9064795045e+01    0.9588098    0.3319767  49.21  0.001188697    2.390    0.582
        32 -11.2405    113.6383     23.6581   6.0419664474e+01   5.3909586712e+01    0.4778083    0.4319826 -13.73  0.001823252    1.132    0.117
        33  -9.9877    102.2761     11.4347   5.8356052207e+01   5.7810736534e+01    0.5759091    0.2729415  31.09   0.00242672    2.444    0.591
        34 -10.5038    110.9018      7.7000   5.4718343965e+01   5.6245260820e+01     0.748462    0.2964867  68.58  0.002741318    3.306    0.697
        35 -11.2015    111.7611     31.7313   6.4049205309e+01   5.3297582025e+01    0.7043696    0.5630889 -86.91   0.00126265    1.767    0.434
        36 -10.5696    212.7968     12.2560   4.0749850148e+01   3.0646937550e+01      1.00414    0.3144271  59.80  0.003887412    2.906    0.656
        37 -10.8001    208.8385      4.3031   3.9103487731e+01   3.2441542197e+01    0.5573828    0.3546778 -65.93  0.002981828    1.532    0.347
        38 -11.2806    215.1846     23.9817   4.3502242832e+01   2.8719176425e+01    0.8236069    0.4388999 -23.53  0.002129639    2.153    0.536
        39 -10.0061    211.5309     17.1622   4.2136040309e+01   3.0405050380e+01    0.4655841    0.2540659  70.17  0.002262305    1.738    0.425
        40 -11.1546    246.8853     24.4639   4.0524480272e+01   2.1329102568e+01    0.7257584    0.3501629  63.74  0.003559225    2.131    0.531
        41 -10.5387     23.4088     26.2593   9.5019953557e+01   6.8399512657e+01    0.4779368    0.4277044  82.27  0.003140184    1.884    0.469
        42  -9.7546    131.6170     13.8812   5.2680537983e+01   5.0756056135e+01     0.444129    0.2456792  72.88  0.001625276    2.039    0.509
        43 -10.1598    124.1765     22.4502   5.7442162216e+01   5.1606612693e+01    0.6412274    0.3382389  19.18   0.00243506    3.010    0.668
        44 -10.9148    131.6848     19.7388   5.4808099291e+01   5.0115947848e+01    0.5403534    0.3230578  52.97  0.001689565    1.512    0.339
        45  -9.4826    232.5946     17.7373   4.0230098561e+01   2.5353723914e+01    0.4416155    0.2020678 -46.40  0.002072429    1.928    0.481
        46  -9.3484     70.0859      4.2962   6.4668694930e+01   6.5042769093e+01    0.5711923    0.2500751  46.14  0.002765876    2.081    0.519
        47  -9.8588     55.2639     17.5363   7.6686780885e+01   6.5940448301e+01    0.3049948    0.2191807 -29.26  0.001706639    1.319    0.242
        48  -9.8443     50.6201     11.6396   7.5768177990e+01   6.7432154287e+01    0.4769613    0.2068774  41.61  0.002154222    2.412    0.585
        49 -11.3008     57.4061      5.8417   7.0085709349e+01   6.7080905765e+01    0.5636104    0.4080973  -6.22  0.002099324    1.213    0.176
        50  -9.6973     62.5846      2.8460   6.6600137391e+01   6.6532803523e+01    0.3446811    0.1499505  38.12  0.001515505    2.107    0.525
        51 -10.1646     36.2099      6.1134   7.9424793183e+01   7.0151936646e+01    0.2839531    0.1717014  26.11 0.0009618128    1.608    0.378
        52  -9.9612     41.6568      3.0856   7.5287622195e+01   6.9803210524e+01      0.34887    0.1774271 -23.66  0.001693525    1.791    0.442
        53 -12.0030     44.6361     15.6531   8.0328424304e+01   6.7730584518e+01    0.7405844    0.5024005  39.76  0.004375165    1.756    0.431
        54 -10.1725     38.6166      9.6830   8.0126772747e+01   6.9362238598e+01     0.367672    0.2074471 -14.99  0.001645265    1.785    0.440
        55  -9.3498    239.4626     17.7020   3.9615995116e+01   2.3794820970e+01    0.4080701    0.1342694 -38.43  0.001711743    2.477    0.596
        56  -9.4130    243.3331     13.0169   3.8222945951e+01   2.3472611392e+01    0.2372807    0.1957392  69.67  0.001332464    1.317    0.240
        57 -10.7625    244.0557      5.5214   3.6488259023e+01   2.4148727200e+01    0.5232633    0.2649516 -28.87  0.002210452    2.046    0.511
        58  -9.8764    249.7031      6.8492   3.6372082659e+01   2.2769009462e+01    0.3877312    0.1190844 -46.56  0.001650639    2.600    0.615
        59  -9.7176    221.6716     11.9330   3.9824155465e+01   2.8562549432e+01    0.3948177    0.2541745 -50.29  0.001768057    1.418    0.295
        60  -9.5360    226.3898      8.3618   3.8540355074e+01   2.7846672693e+01    0.2963046    0.2132629  32.78  0.001318773    1.985    0.496
        61  -9.9721     31.5663     11.9470   8.4634576107e+01   6.9900684740e+01     0.246738     0.157628 -29.47 0.0007673085    1.302    0.232
        62 -10.1813    232.2525     10.9698   3.8660613987e+01   2.6204938325e+01    0.4556073    0.1904316  70.08   0.00174052    2.273    0.560
        63  -9.0305    233.4952      7.4401   3.7733922737e+01   2.6309039040e+01    0.2116659    0.1107674  75.92  0.001069261    1.828    0.453
        64 -10.6004    200.1874      5.8122   4.0335015857e+01   3.4399235899e+01    0.5767218     0.351287 -46.36  0.001050282    1.588    0.370
        65  -8.6554    195.1974      2.6442   3.9994374618e+01   3.5941530370e+01    0.1867833     0.146971  75.60 0.0001894692    1.156    0.135
        66  -9.0121     77.4947      8.5392   6.4238201478e+01   6.3211386471e+01    0.1974044    0.1174039 -21.10 0.0001825067    1.652    0.395
        67  -8.7508     77.4733      5.0449   6.2597191925e+01   6.3576274972e+01    0.2417852    0.1435899  -4.41 0.0009124096    1.791    0.442
        68 -11.2621    169.3908     13.7371   4.6297649707e+01   4.1320505088e+01      0.76363    0.4216543  80.15  0.001816443    1.932    0.482
        69 -10.6538    139.3315      4.4444   4.7882061790e+01   4.9759782551e+01    0.5326437    0.2850159 -19.91  0.002528599    2.071    0.517
        70  -8.8286    134.3010      1.3514   4.7638646927e+01   5.1256575716e+01    0.2712666    0.1708103  33.60   0.00121946    1.660    0.398
        71  -9.4045    134.4181      6.2295   4.9372163581e+01   5.0807043859e+01    0.3584829    0.1976738 -35.51  0.001589738    1.958    0.489
        72  -9.3590    131.6865      4.6522   4.9294178232e+01   5.1612263391e+01    0.3607608     0.153457  43.41  0.001506417    2.278    0.561
        73  -9.5026    189.9886      6.0037   4.1462575898e+01   3.6907108495e+01    0.4203843    0.1878488 -37.76  0.001887074    2.161    0.537
        74  -9.5560    217.9587      5.2517   3.8516737649e+01   3.0159128736e+01    0.3115297    0.1914315  51.17  0.001633414    1.858    0.462
        75 -10.1938    181.9269      4.8977   4.2061132282e+01   3.9032500506e+01    0.3764759    0.2687441 -84.94  0.001254933    1.386    0.278
        76  -9.0194     29.7977      5.8311   8.2414103902e+01   7.0975630792e+01    0.1761427    0.1194549  -8.01  0.001145823    1.261    0.207
        77 -10.1888      3.1791    136.9245   1.2436408741e+02   4.5354877795e+01    0.4139884    0.2443258 -43.33  0.002047709    2.089    0.521
        78  -9.0669    211.4861    250.4710   9.4506947112e+01  -6.3840880228e+00     0.116621    0.0897901  23.32 0.0008097175    1.021    0.021
        79  -9.4316    182.7563    249.7551   9.9535651062e+01  -1.9934164291e+00     0.225038    0.1222316  35.88  0.001288776    1.474    0.321
        80  -9.4095    125.3251    249.8247   1.1004068094e+02   6.8269908416e+00     0.247262    0.1272458  23.97  0.001084259    3.356    0.702
        81 -10.7085     55.9601    137.6145   1.1086234231e+02   4.0316354476e+01    0.2884674    0.2559417  41.60 0.0008894161    1.286    0.222
        82 -10.9006     62.4879    134.7138   1.0863644502e+02   4.0210475825e+01    0.7092352    0.2579887 -47.63  0.001909715    3.038    0.671
        83 -10.3491     63.9878    113.7435   1.0434961621e+02   4.5127647204e+01     0.371792    0.2025068  48.66  0.001682374    2.137    0.532
        84 -10.2691     61.0994    120.4476   1.0650666515e+02   4.3866459417e+01    0.3723741    0.2607455  20.55  0.001546363    1.812    0.448
        85 -11.7894     67.7506    122.2435   1.0492727244e+02   4.2561729134e+01     1.051884    0.3445021 -52.75  0.003842583    2.650    0.623
        86 -10.2764     62.9806    124.4560   1.0670795581e+02   4.2649267853e+01     0.311736    0.2395633  42.96 0.0009541686    1.425    0.298
        87 -10.1716     23.0902    136.9104   1.1939123993e+02   4.3852493350e+01     0.233362    0.1317149 -59.96  0.001289907    1.549    0.355
        88  -9.8346    236.7834    135.5743   6.8158724525e+01   6.4222229708e+00    0.1856488    0.1395566  61.13 0.0009554725    1.710    0.415
        89  -9.5621    120.9760    133.5160   9.2668179930e+01   3.1048194230e+01    0.3588867    0.2699226  -1.93  0.001456196    1.977    0.494
        90 -11.4603     30.1931    119.9454   1.1531221897e+02   4.7292209886e+01     0.552766    0.4030399  35.54  0.001091823    1.609    0.378
        91  -9.0406     73.1040    129.3063   1.0475441607e+02   4.0102339426e+01     0.186741     0.171473  83.13 0.0003803806    1.089    0.082
        92 -10.9072     55.7865    126.6404   1.0913039286e+02   4.3008617772e+01    0.4339772    0.2155503 -56.98  0.001814265    1.738    0.425
        93  -8.9524     81.9409    124.5107   1.0132982944e+02   3.9974515238e+01    0.2164155    0.1778229 -62.36  0.001166211    1.112    0.101
        94 -11.5984     15.8954    102.2605   1.1693885810e+02   5.2626783795e+01    0.8555602    0.3182679 -65.01  0.003997541    1.984    0.496
        95 -10.5768     90.6693    121.0317   9.8115626932e+01   3.9436876731e+01    0.5292161    0.4427421 -71.78  0.001831918    1.178    0.151
        96 -10.1785     76.3126    120.0677   1.0202352729e+02   4.1891741426e+01    0.3545387    0.3016696  46.84  0.001565815    1.271    0.213
        97 -10.3817    105.2763    116.6566   9.2984967697e+01   3.7951208903e+01    0.4431402    0.3153452  84.84  0.001931892    2.004    0.501
        98 -10.1015    116.3337    116.3733   8.9860975085e+01   3.5931907777e+01    0.2869245    0.2657233 -25.59 0.0006135559    1.144    0.126
        99  -9.7456     91.0129    112.9367   9.6174123290e+01   4.1319971217e+01    0.3585199    0.2880764   5.73  0.001224724    1.600    0.375
       100  -8.7815     81.8035    114.4124   9.9207627509e+01   4.2438145400e+01    0.1968715    0.1433165  17.46 0.0009519726    1.768    0.435
       101  -9.6394     23.3819    108.6995   1.1563958425e+02   5.0552867294e+01    0.3114012    0.1630971  24.77  0.001635348    2.345    0.574
       102  -9.2826    149.3715    106.5767   7.8721549210e+01   3.1123090205e+01    0.4043458    0.1488254 -38.20   0.00125727    2.897    0.655
       103  -9.3238    113.6381    107.6308   8.8378647072e+01   3.8471282418e+01    0.2361443      0.18589  -9.82  0.001059069    1.641    0.391
       104  -8.9341     97.5705    107.7672   9.3005810715e+01   4.1422455114e+01    0.2011865    0.1387884 -63.38 0.0004143768    1.528    0.346
       105 -11.1697     69.3129    105.2209   1.0090419492e+02   4.6469989505e+01    0.5264388    0.2774837 -31.76  0.002043955    2.812    0.644
       106  -9.0287    118.4532    105.4859   8.6474512994e+01   3.8004913722e+01    0.1542904    0.1474251 -42.78 0.0001787293    1.015    0.015
       107  -9.8540     54.5171    100.5146   1.0450451632e+02   4.9488326214e+01    0.3643037    0.2674721  37.57  0.001908277    1.553    0.356
       108 -10.1549     56.8401     85.8435   1.0031713817e+02   5.2655618043e+01    0.4811274    0.2916285 -11.75  0.002096908    2.663    0.625
       109 -10.8710     48.8140    102.5170   1.0672991360e+02   4.9657607391e+01    0.5468278    0.4963593 -46.12  0.003445549    1.128    0.114
       110  -9.9744     50.9719     97.3019   1.0494797649e+02   5.0662090466e+01    0.4410087    0.4312578  17.08  0.002862202    1.192    0.161
       111 -10.0471     51.0722     92.8178   1.0392127879e+02   5.1710926310e+01    0.4284638     0.244901 -47.49  0.001464847    1.543    0.352
       112 -12.1283    192.6405     92.5507   6.5442251839e+01   2.3721660822e+01     1.455379    0.8537267 -16.85  0.004644418    2.514    0.602
       113 -11.2274    143.2455    101.2153   7.8763203164e+01   3.3641619671e+01    0.7505961    0.3714126  32.32  0.002510204    2.885    0.653
       114 -11.1063    116.4794     94.9743   8.4125115603e+01   4.0746628493e+01    0.5678214    0.4910409  47.28  0.001561905    1.213    0.176
       115  -9.5464    133.7640    102.1528   8.1450523002e+01   3.5536606098e+01    0.3401838    0.2340916 -52.59 0.0009146506    1.492    0.330
       116  -9.6797    132.2802     97.2658   8.0470189988e+01   3.6914399739e+01    0.4508169    0.2344336 -40.76  0.001744583    1.895    0.472
       117 -11.1681    125.1018     92.0546   8.0894003329e+01   3.9580073026e+01    0.8251138    0.3429421  47.36  0.002894181    2.517    0.603
       118  -8.4891     95.8707    103.1533   9.2333050915e+01   4.2798274440e+01    0.1978752    0.1710355  -8.34 0.0005403374    1.342    0.255
       119  -9.8173     62.0323    102.8416   1.0263777462e+02   4.8008494690e+01    0.3092095    0.2481408 -22.76            0    1.458    0.314
       120  -9.5320     63.2862     98.5400   1.0126536562e+02   4.8871185254e+01    0.3422187    0.2736637  53.51  0.001904804    1.447    0.309
       121  -9.8470     46.7576     98.5798   1.0657813218e+02   5.0821078071e+01    0.2648039    0.2380944  46.22 0.0008424426    1.290    0.225
       122 -10.8133     41.6440     53.9626   9.6880579540e+01   6.1343292566e+01    0.2422593    0.2034566   4.83 0.0003322586    1.279    0.218
       123  -8.2989    105.6560    102.6827   8.9342696759e+01   4.1132548157e+01    0.1563189     0.119401 -11.72 0.0007048796    1.718    0.418
       124 -10.6507     78.1633    101.5262   9.7296571654e+01   4.6069734091e+01    0.5349046    0.2748608  29.29  0.002167057    2.347    0.574
       125 -10.6459      4.4417     86.5701   1.1821668225e+02   5.6961363984e+01    0.6526576    0.2834288 -55.10  0.003465405    1.738    0.424
       126 -10.1197      4.7555     99.5703   1.1994249570e+02   5.3943833658e+01    0.3553415    0.1930692 -70.83  0.001490588    1.395    0.283
       127  -9.3386      3.1192     94.2505   1.1973549784e+02   5.5263503840e+01    0.4188204   0.05095432 -60.51  0.001517615    3.538    0.717
       128  -9.3884     33.9862     99.4628   1.1083769436e+02   5.1865629042e+01    0.2537051    0.1627753 -81.96  0.001275865    1.625    0.385
       129  -9.6375    156.0043     96.8390   7.4433585822e+01   3.1621945126e+01    0.5247276    0.2586962 -29.48  0.001805164    2.552    0.608
       130  -9.7695     87.7922     97.1304   9.3204807902e+01   4.5572192644e+01    0.2558381    0.2354032 -59.89 0.0006834821    1.069    0.064
       131  -9.8885     39.0687     96.8592   1.0871019524e+02   5.2011510470e+01    0.3039155    0.2037592 -35.24  0.001063683    1.620    0.383
       132  -9.9045     39.5146     92.4765   1.0767505439e+02   5.3004653050e+01    0.2510159    0.2038501 -56.70 0.0005931107    1.026    0.026
       133 -11.2073     33.9672     91.3868   1.0929398980e+02   5.3776901729e+01    0.8548658    0.4190225   6.29   0.00367576    3.403    0.706
       134 -11.2853     71.4205     95.0183   9.7810485113e+01   4.8590441652e+01    0.4579389    0.3670486  71.05 0.0003308516    1.553    0.356
       135  -9.7426    170.2021     92.9293   7.0120354445e+01   2.9031703074e+01    0.3557459    0.2900543   0.40  0.001021993    1.492    0.330
       136  -9.6815    104.5810     91.9824   8.6709182540e+01   4.3749348199e+01    0.4493614    0.2821034  10.20  0.001665334    2.893    0.654
       137 -10.3321    106.5492     86.9735   8.4669970947e+01   4.4468200933e+01    0.5111105    0.3225523 -18.52  0.002016249    2.379    0.580
       138 -11.3100    102.8780     81.1841   8.4025558647e+01   4.6418558367e+01    0.7872171    0.5869665  15.11  0.001736509    1.655    0.396
       139 -10.3765     98.6860     77.1052   8.4045491920e+01   4.8074516209e+01     0.486454    0.3467323  40.47  0.002151969    1.481    0.325
       140 -10.5332     75.2821     90.6672   9.5445347424e+01   4.9035659125e+01    0.7421914    0.3812591  51.52  0.003003816    2.641    0.621
       141  -9.3233     83.0030     85.5059   9.1531883847e+01   4.9003245428e+01    0.2963985    0.1860373 -34.82  0.001356275    1.660    0.398
       142 -10.6166     89.1280     89.0745   9.0594902956e+01   4.7185187514e+01    0.6397608    0.4609846 -21.37  0.001510227    1.680    0.405
       143 -10.4097     83.1868     89.9967   9.2728169336e+01   4.7961159896e+01    0.3691251    0.2452336  36.14  0.001784941    1.643    0.391
       144 -10.0131    112.5957     87.2116   8.2973672261e+01   4.3217784027e+01    0.5931671    0.1288329 -39.03  0.001259404    6.656    0.850
       145  -9.8626     52.6785     83.3529   1.0111525461e+02   5.3725611108e+01     0.666878    0.2611766 -45.99  0.001955537    2.259    0.557
       146  -9.6143    151.7627     59.7390   6.4197805133e+01   3.9577031948e+01    0.3199252    0.2301499  50.55  0.001143846    1.373    0.272
       147  -9.3543    145.9237     87.0457   7.4023409384e+01   3.5951283112e+01    0.4523207    0.2922975  14.20  0.001660252    2.641    0.621
       148 -10.1113    147.7121     80.4735   7.1618221927e+01   3.6820947139e+01    0.8284228    0.4213058 -17.74  0.002319641    4.412    0.773
       149 -10.3567    152.4648     73.6377   6.8408710787e+01   3.6968132284e+01    0.7243335    0.4252474 -25.01  0.002879441    2.014    0.504
       150 -11.0445    150.4099     66.4417   6.6635241226e+01   3.8759948392e+01    0.6986611    0.5029823 -30.97  0.003254006    1.414    0.293
       151  -9.5432    155.2665     86.1682   7.1531856429e+01   3.3921542205e+01    0.3738815    0.2399186  27.14   0.00148145    2.100    0.524
       152 -10.4717    119.0227     86.6615   8.0980830026e+01   4.2011858524e+01    0.3845996    0.2730954  44.69 0.0008931335    1.461    0.315
       153  -9.6096    187.7261     89.5721   6.5578848546e+01   2.5445952882e+01    0.2646141    0.2465056  84.48  0.001388215    1.138    0.121
       154 -11.2327    135.8540     81.4243   7.4859370487e+01   3.9394302956e+01    0.8252059    0.5838942   7.66  0.003439652    2.067    0.516
       155 -10.3774    143.9225     76.8604   7.1430204604e+01   3.8408713312e+01     0.449067    0.2748946 -44.75  0.001722341    1.643    0.391
       156  -9.1265    146.8299     74.8485   7.0104955390e+01   3.8098360232e+01    0.2230306    0.2025869   4.19  0.001138023    1.179    0.152
       157  -8.7810     76.0282     84.2780   9.3459220440e+01   5.0375544052e+01    0.1892837    0.1853492  16.44 0.0009593879    1.127    0.113
       158  -8.6746     45.9859     84.4375   1.0369313995e+02   5.4222917802e+01    0.1693732    0.1328866  25.08 -1.459723e-05    1.491    0.329
       159  -9.4525    161.5715     82.0480   6.8882531693e+01   3.3195414686e+01    0.2872736    0.2107306  36.42 0.0006103616    1.491    0.329
       160  -9.8144    130.8382     74.4366   7.3984425769e+01   4.1902748001e+01    0.4198273    0.2952118  61.19  0.001284366    1.638    0.390
       161 -10.7015    124.5920     74.7149   7.5742350791e+01   4.3245633247e+01     1.451576    0.3845015  39.30  0.003369931    6.022    0.834
       162 -10.1433    107.3138     59.5477   7.5595423710e+01   4.9817038035e+01    0.2922128    0.2569782  32.12  0.000317363    1.143    0.125
       163 -11.0092    107.6764     69.6501   7.8913673321e+01   4.7827858010e+01    0.7653691    0.6589649 -84.22  0.002499273    1.495    0.331
       164 -10.2012    101.7495     68.2457   8.0240347494e+01   4.9286910882e+01    0.4380252    0.3811301 -35.53  0.002231736    1.097    0.088
       165 -11.5299    125.1179     67.5591   7.3281155276e+01   4.4496229537e+01     1.065498    0.7560223  80.02  0.004550184    2.161    0.537
       166 -11.5480    111.8025     63.5364   7.5652592737e+01   4.8143679139e+01    0.4640675    0.3851116 -67.77 0.0002999558    1.508    0.337
       167 -10.9006    114.9657     72.0169   7.7560619705e+01   4.5853009771e+01    0.5277679    0.3461423 -31.25 0.0004360447    1.566    0.362
       168 -10.3329    119.0117     70.1859   7.5818701192e+01   4.5343769151e+01    0.3427404    0.2645458   6.10  0.001620337    1.586    0.369
       169  -8.9726     88.8011     78.4213   8.7573336804e+01   4.9582688776e+01    0.2857954    0.1927472  38.65   0.00137828    1.590    0.371
       170  -9.0459     91.5056     75.5096   8.5804951115e+01   4.9725304465e+01    0.2773795    0.1858659 -52.44  0.001308925    1.523    0.343
       171 -10.9853     81.9793     75.5465   8.8920822474e+01   5.1350231058e+01    0.3484127    0.2775002 -62.82   0.00183302    1.413    0.293
       172 -10.6862     75.5676     74.0524   9.0617589435e+01   5.2693287574e+01    0.3460505    0.2903788 -31.92  0.001945003    1.101    0.092
       173  -9.6288    235.6930    249.4109   9.0162336961e+01  -9.6859240663e+00    0.2106035   0.08975805  39.49  0.001126308    2.096    0.523
       174 -10.0549    107.5153    248.4883   1.1314325277e+02   9.6883757989e+00    0.3097196    0.1484769  66.20   0.00143895    2.955    0.662
       175  -9.0604      3.4728    246.5546   1.3061561018e+02   2.2770824988e+01    0.1680732   0.06695633 -69.48  0.001030704    2.557    0.609
       176 -10.2539    141.8358    243.5171   1.0626891646e+02   5.2773754521e+00    0.2969487    0.1851532  34.08  0.001528991    1.457    0.313
       177 -11.2863     78.2424     62.4904   8.5978053328e+01   5.4664377946e+01     1.015698    0.5477489 -49.56  0.004549814    1.857    0.461
       178  -8.8444    188.6753    243.7084   9.7613589092e+01  -2.0946915351e+00    0.1204094   0.08043466  14.88 0.0003405242    1.615    0.381
       179 -10.4446    105.7312     51.5741   7.3226587787e+01   5.1555361480e+01    0.5382645     0.317227  44.61  0.001424989    1.704    0.413
       180  -9.2173    193.0000    237.9879   9.5984930248e+01  -1.9913286237e+00     0.170863   0.06900371 -41.15 0.0007338308    2.930    0.659
       181 -12.7859     47.9070     39.1989   8.9087437818e+01   6.3472014970e+01     0.842774    0.5501775  29.82  0.000774123    1.670    0.401
       182 -11.9286     56.6218     37.8341   8.4978227203e+01   6.2559743044e+01     0.454082    0.3075331 -15.96   0.00102839    1.495    0.331
       183  -9.2678     55.6077    237.6970   1.2153687418e+02   1.8635666946e+01     0.190425   0.09295013 -68.12 0.0008281136    2.122    0.529
       184 -12.0169     70.3728     30.9017   7.6794700373e+01   6.1575834336e+01    0.5833471    0.3175477 -26.95  0.001113223    1.799    0.444
       185 -10.2195     14.1644    237.2970   1.2854208559e+02   2.3360725650e+01    0.1994171     0.117353 -82.76  0.001429606    1.510    0.338
       186  -9.4812    214.4890     76.1957   5.7271064039e+01   2.1369391433e+01    0.2848774    0.2561201  45.44   0.00122805    1.214    0.176
       187  -9.5451     61.6384     76.4915   9.6156888616e+01   5.4159360517e+01    0.3192786    0.2331801  15.16  0.001320192    1.613    0.380
       188  -8.7606     46.4174     76.7548   1.0163430881e+02   5.5928292616e+01    0.2656792    0.1621456  32.84  0.001392443    1.890    0.471
       189  -9.3434      4.9237     77.1009   1.1653774722e+02   5.9090955290e+01    0.1988226    0.1752189  82.63 0.0008093594    1.307    0.235
       190  -9.9623      3.3141     73.1142   1.1641757680e+02   6.0066080284e+01    0.4459642    0.1538995 -43.35  0.001947267    2.553    0.608
       191 -10.2652    204.2897     73.9425   5.8318238643e+01   2.4175836178e+01    0.4928009    0.3469346  16.28  0.002154598    2.097    0.523
       192  -9.5932    166.0275     73.3185   6.5319147229e+01   3.3705987212e+01    0.4009014    0.2816629 -16.97  0.001753863    1.726    0.420
       193  -9.1784    170.2432     70.5802   6.3626323567e+01   3.3143798264e+01    0.2733915     0.135918  44.99 0.0008292371    2.142    0.533
       194 -10.1737    165.5930     68.5814   6.3983421592e+01   3.4646339980e+01    0.4515059    0.3291594  67.18  0.001463911    1.494    0.331
       195  -9.7043    194.0903     72.1442   5.9565063861e+01   2.6962552934e+01    0.3568657    0.2184281 -29.93 0.0008119362    1.678    0.404
       196 -11.0849    140.0193     71.2270   7.0624418612e+01   4.0386943801e+01    0.7583166    0.4484766  29.31  0.002930082    2.282    0.562
       197 -10.5315    137.2602     69.1843   7.0658330709e+01   4.1411714875e+01    0.4944606    0.3322338  23.85   0.00106952    1.941    0.485
       198  -9.9284    177.9941     69.2470   6.1697127764e+01   3.1443199914e+01    0.5357726    0.3956334  55.70  0.002551236    1.366    0.268
       199  -8.3412    216.2470     70.4000   5.5483337984e+01   2.1896023188e+01    0.1452428    0.1131033   1.52   0.00059553    1.689    0.408
       200  -9.0677     46.5714     68.7554   9.9417934340e+01   5.7684923380e+01    0.1820192    0.1164969 -62.19  0.000942359    1.579    0.367
       201 -11.8200     33.0071     58.9884   1.0187131247e+02   6.1148825543e+01    0.5276865    0.3595237 -20.23  0.001073812    1.570    0.363
       202 -10.1165     24.8849     54.6083   1.0391499780e+02   6.2762960635e+01    0.6409307    0.3809748 -87.86  0.002808409    3.519    0.716
       203 -10.5819      4.2479     56.9632   1.1290809327e+02   6.3566091167e+01    0.4629543    0.2645904  40.26  0.002708315    2.378    0.580
       204  -9.9379      3.9871     51.8639   1.1186350486e+02   6.4664234065e+01    0.2540702    0.1283505 -44.26 0.0005119889    1.548    0.354
       205 -10.3288     25.2469     66.4772   1.0689131699e+02   6.0180882348e+01    0.4652322    0.1641731 -58.41  0.001894505    2.192    0.544
       206 -11.8254     16.2667     62.3763   1.0938151000e+02   6.1717204441e+01    0.9096276    0.4573154  -5.23  0.004529333    2.830    0.647
       207  -8.7636     84.5682     67.7104   8.5568545206e+01   5.2552817532e+01     0.206394    0.1310294 -53.79 0.0004658975    1.701    0.412
       208  -9.5257    131.3527     67.1164   7.1491263621e+01   4.3162578715e+01    0.2760578    0.2021098  34.84 0.0005190054    1.450    0.310
       209  -9.0931    190.3214    236.3213   9.6230591196e+01  -1.3405367841e+00    0.1243647   0.08389647  11.38 0.0007045041    1.673    0.402
       210  -9.8463    166.4138     62.9483   6.2099870340e+01   3.5399557878e+01    0.3613697    0.2283541 -38.46  0.001435777    1.560    0.359
       211 -10.4230    192.8909     49.2467   5.3303760128e+01   3.0869481921e+01    0.8213485    0.2634721  62.54  0.002713353    3.139    0.681
       212  -9.8211    179.2017     45.0498   5.4298081400e+01   3.4938947925e+01    0.4655201    0.2758491   1.32 0.0004126808    3.107    0.678
       213  -9.2009    186.3305     61.3313   5.7859170102e+01   3.0664967342e+01    0.3385195     0.223921 -67.29 0.0007079071    1.909    0.476
       214 -10.5306    185.6773     55.6970   5.6339606302e+01   3.1714595614e+01    0.4052469    0.3613141  72.51  0.001583881    1.121    0.108
       215 -11.1306    183.3414     51.6468   5.5553979134e+01   3.2920888482e+01    0.6237454    0.4042109  70.63 0.0005889007    1.641    0.391
       216 -10.3619    130.0188     61.0265   6.9818122692e+01   4.4563747071e+01    0.5803541     0.293422  59.27  0.002203143    2.344    0.573
       217  -9.1491    207.0267     60.9787   5.4376299198e+01   2.5596632777e+01    0.2236376    0.2056284 -51.09 0.0004724625    1.030    0.029
       218  -8.6681    234.3412     59.7866   5.0280048078e+01   1.9341394275e+01    0.1862505    0.1249032 -25.57 0.0009150843    1.582    0.368
       219  -9.9624    201.4756     59.9680   5.4958873148e+01   2.7113343040e+01    0.2826281    0.2287257  65.48  0.000449626    1.260    0.207
       220 -10.5138    137.9715     58.9936   6.7150989829e+01   4.3048130242e+01    0.2558168    0.2115987  46.83  0.001293453    1.199    0.166
       221  -9.8755    174.1026     57.0169   5.8800455922e+01   3.4429108210e+01    0.4197972    0.2473405 -15.07  0.001644703    2.356    0.575
       222 -10.1387    136.2943     42.2717   6.1851654969e+01   4.6097736436e+01    0.4299514    0.3030734 -70.07   0.00193868    2.004    0.501
       223 -11.3587    142.1101     44.1192   6.1175650658e+01   4.4410711150e+01    0.8184439    0.5064045 -12.09 0.0007653615    2.097    0.523
       224 -10.5581    148.1317     35.1646   5.6863710063e+01   4.4176622787e+01    0.6895205    0.2790011  55.98  0.002062683    2.259    0.557
       225  -9.8021    155.8539     31.6023   5.4191499518e+01   4.2699554376e+01    0.3263916    0.2650501 -16.58  0.001406451    1.344    0.256
       226 -12.1550    147.6797     53.3159   6.3017965245e+01   4.1630522032e+01     0.646748    0.4493961  28.11  0.002923894    1.720    0.419
       227 -10.3265    145.0333     49.0164   6.2179858185e+01   4.2954978949e+01    0.4597135    0.3283733  32.69 0.0003184441    1.545    0.353
       228  -9.4157    244.1358     56.0510   4.8190440572e+01   1.7703576201e+01    0.3361257     0.154269 -41.40  0.001345821    1.862    0.463
       229 -10.2613    193.0295     54.8578   5.4876101058e+01   2.9997120894e+01    0.4833876    0.3479201   7.68  0.001472449    1.998    0.500
       230 -10.1123    166.2144     53.6065   5.9260086246e+01   3.6955668985e+01    0.5167935    0.3004761 -41.04  0.002227032    1.716    0.417
       231 -10.6024    160.6663     52.1490   5.9898875062e+01   3.8579780636e+01    0.5123785    0.4244269 -33.61  0.002636622    1.222    0.181
       232 -10.6041    157.0530     44.9426   5.8313615715e+01   4.0573061140e+01    0.6414514    0.4728198  31.73  0.002876382    1.530    0.346
       233 -10.4261    156.7132     40.0475   5.6791341044e+01   4.1356529599e+01    0.6378927    0.3399762  36.69  0.002196228    2.318    0.569
       234 -10.2648    133.0804     55.1341   6.7053371797e+01   4.4856436159e+01    0.4888427    0.2970681 -11.23  0.001866611    2.380    0.580
       235 -10.2662    120.9375     54.3637   6.9924848473e+01   4.7783850316e+01    0.5321922    0.3649694 -24.12  0.002499254    1.540    0.351
       236  -9.3127     12.5295     56.7422   1.0952350436e+02   6.3166389138e+01     0.210272     0.152169  15.85  0.001120236    1.683    0.406
       237  -9.2958    234.3791     55.1729   4.9137016395e+01   2.0011896692e+01    0.2095065    0.1099445 -43.48 0.0009483763    1.691    0.409
       238 -11.2837     59.5960     49.9731   8.8415157820e+01   5.9929331704e+01    0.5761317    0.3853735  44.97  0.001418495    1.869    0.465
       239 -10.6687     58.2141     46.6086   8.7722646855e+01   6.0755646786e+01     0.426438    0.2697188  27.53  0.001804605    1.705    0.413
       240  -9.0984    212.0489     51.7598   5.1172914506e+01   2.5765559011e+01    0.3114873    0.2214884  32.16  0.001494139    1.851    0.460
       241  -9.8759    117.1179     49.6787   6.9298858422e+01   4.9417458905e+01    0.5664307    0.3616542   5.13  0.002322382    2.371    0.578
       242  -9.9799    118.4177     43.8046   6.6819563781e+01   5.0057276728e+01    0.5739452    0.1639936 -35.41  0.001841363    3.383    0.704
       243  -9.4668     76.3131     51.7737   8.2882826802e+01   5.7044172070e+01    0.2564225    0.1828281   5.33   0.00130585    1.648    0.393
       244  -9.2974     10.1899     52.1125   1.0934298615e+02   6.4285863054e+01    0.1777129    0.1595978   5.91 0.0002922716    1.365    0.267
       245  -8.3395    228.4950     49.5842   4.8467147184e+01   2.2170368643e+01    0.1376593    0.1254198 -62.36 0.0001343828    1.025    0.025
       246  -9.4433    172.3620     47.9106   5.6353528088e+01   3.6261525759e+01     0.420704    0.2886154  10.86  0.001820543    2.123    0.529
       247 -10.3527     66.7345     44.4196   8.3625340907e+01   5.9911306170e+01    0.5068121     0.324563 -34.75  0.002677056    1.410    0.291
       248 -10.2460    207.0347     45.9345   5.0305824029e+01   2.7829306432e+01    0.3752156     0.228737  58.20   0.00107581    1.652    0.395
       249  -8.4016    129.0124     45.3642   6.4670805561e+01   4.7373637997e+01     0.360608    0.2331029  84.53  0.001435017    2.631    0.620
       250  -9.3787    106.2655     45.9968   7.1016537045e+01   5.2371234057e+01    0.3279181    0.2049205  45.76   0.00146666    1.591    0.372
       251  -8.9977     95.3937     46.0861   7.4351261783e+01   5.4578087885e+01    0.2295065     0.182467   7.87 0.0006249539    1.312    0.238
       252  -9.6826     98.0025     41.9647   7.1964637966e+01   5.4727105397e+01    0.3693171    0.2634991   6.32   0.00130585    1.637    0.389
       253  -9.6079    100.3544     38.0446   6.9731394457e+01   5.4851508403e+01    0.5385595    0.3982166 -89.76   0.00250187    2.391    0.582
       254  -9.5541     75.0871     46.3009   8.1276148015e+01   5.8239115353e+01    0.3004723    0.1910814  23.32  0.001352873    1.762    0.433
       255 -10.1436     76.4757     41.5954   7.8956500790e+01   5.8818635223e+01    0.3031545    0.2158855 -27.27 0.0005453434    1.303    0.233
       256  -9.2426    248.9998     44.0042   4.4823186295e+01   1.8331264280e+01    0.1891519    0.1604514  14.57 0.0004054702    1.618    0.382
       257  -8.6506    192.2905     44.6718   5.2093498169e+01   3.1679235205e+01    0.1529547    0.1045833 -63.44 0.0007017005    1.620    0.383
       258  -9.7698    215.3797     39.9488   4.7619632742e+01   2.6623963099e+01    0.4070903    0.3322938  10.23   0.00153414    1.627    0.385
       259  -8.6652    197.1786     41.8131   5.0562171049e+01   3.0852113799e+01    0.1791682     0.162993  35.09 0.0002414966    1.246    0.197
       260  -8.8595     20.9694    232.3569   1.2717634062e+02   2.3568476900e+01    0.1467185    0.1053893  63.65 0.0006097896    1.111    0.100
       261  -9.4116     12.5523    231.7528   1.2854728019e+02   2.4533857860e+01    0.2383447    0.1000258  59.52  0.001446731    1.815    0.449
       262 -11.6438     14.6175     31.2778   1.0115191819e+02   6.8180533043e+01    0.5136204    0.2923034   3.27  0.001389914    2.021    0.505
       263  -8.2760    226.7013    231.7071   8.8911666633e+01  -6.3206849787e+00    0.1208898   0.07720877   9.57 0.0003202958    1.565    0.361
       264  -9.0920    219.3528    230.9069   9.0087999280e+01  -5.1176907742e+00    0.2023172    0.1434745  37.05 0.0005945191    1.334    0.250
       265  -9.2556    135.8109    230.0632   1.0574218445e+02   8.4177878780e+00    0.1879989    0.1431888 -16.27  0.001088839    1.987    0.497
       266 -11.2604     36.5732     27.1771   8.9192749856e+01   6.6919163727e+01    0.3478504    0.2217202  17.87 0.0003254455    1.654    0.395
       267  -9.2978    202.1463    228.9618   9.2907236181e+01  -2.1885491439e+00    0.1830145    0.1506796  21.91 0.0004101586    1.016    0.016
       268  -8.8990    137.2347    224.6931   1.0476406258e+02   9.1060344971e+00    0.1741099   0.09868823 -40.92 0.0008769342    2.309    0.567
       269 -10.8189     31.0026    219.0444   1.2466135621e+02   2.5032950672e+01    0.3141442    0.2515311  80.37  0.002191619    1.146    0.127
       270  -8.7187    224.6814    215.3654   8.6509073130e+01  -3.8723188135e+00    0.1103112    0.1017395  80.48 0.0007039401    1.779    0.438
       271  -9.8724    169.0201    218.9106   9.7653413979e+01   4.7750029698e+00      0.42134    0.2770223  52.08  0.002302958    1.580    0.367
       272  -9.1361    191.0783     40.4688   5.1075408031e+01   3.2570480783e+01    0.3656132    0.2230999  21.29  0.001065258    2.783    0.641
       273 -11.2180    192.8913     32.5582   4.8561631235e+01   3.3163350994e+01    0.4557036    0.3727767  -7.72  0.002458945    1.473    0.321
       274  -9.1936     62.4483     40.0545   8.3562320661e+01   6.1330072947e+01    0.2364928       0.1644  12.24 0.0006716037    1.566    0.361
       275  -9.7908    233.8404    199.8177   8.2050238831e+01  -3.1558329000e+00    0.2014744    0.1520298   2.66  0.001221831    1.203    0.169
       276  -9.6645    185.8165     25.2642   4.7448069059e+01   3.5856846678e+01    0.4909486    0.1746026 -36.76  0.001596366    2.620    0.618
       277  -9.8381    188.8226     19.5021   4.5394848367e+01   3.5768747901e+01    0.3142378    0.2024421  38.43 0.0004460475    1.885    0.470
       278 -10.2289    183.4154     33.2514   5.0126027993e+01   3.5472929473e+01    0.4428382    0.3301439  89.20   0.00105678    1.420    0.296
       279 -11.4420    179.3000     26.3246   4.8683671338e+01   3.7384845820e+01    0.9171624    0.4654258  41.12  0.001360614    2.408    0.585
       280  -9.3401     27.2073    193.5013   1.2362797316e+02   3.0643433306e+01    0.2250687    0.1383908 -82.75  0.001033365    1.360    0.265
       281  -9.9623    177.0043     14.9899   4.5627727879e+01   3.9256012508e+01     0.284083    0.1822416  75.12 0.0007822467    1.491    0.329
       282  -9.2127     10.7096    192.5676   1.2678272090e+02   3.2430599288e+01    0.1789492    0.1087158  29.69  0.001136627    2.071    0.517
       283  -9.8961      2.6612    190.1700   1.2817704007e+02   3.3633727669e+01    0.2315584    0.1954279 -84.48  0.001817583    1.302    0.232
       284  -8.5775    215.4995    189.4905   8.3453400775e+01   1.4601044372e+00    0.1361629    0.1159864   7.49 0.0001311989    1.038    0.037
       285  -9.9176     10.7119    184.8807   1.2630210048e+02   3.4055192920e+01    0.2969709     0.224801   1.92  0.001970383    2.313    0.568
       286  -8.7973    202.2249     38.0041   4.8803808606e+01   3.0112229523e+01    0.1895141    0.1734748 -63.36  0.001090357    1.032    0.031
       287 -11.1746    220.5827     33.4484   4.5322899442e+01   2.6236012353e+01    0.6707727    0.3688357 -35.26  0.003201449    1.715    0.417
       288  -9.0391     32.2944    184.3359   1.2187324440e+02   3.2091405916e+01    0.1121337   0.08331569 -54.49 0.0006427636    1.645    0.392
       289  -8.3695     18.3094    182.6385   1.2462383946e+02   3.3846981237e+01    0.1280657   0.06625899  69.84  0.000704054    1.743    0.426
       290  -8.6335     36.6578    179.3217   1.2051149464e+02   3.2735018275e+01    0.1330999   0.07380652  68.29 0.0007050342    1.725    0.420
       291 -10.0341    110.4390     17.6191   5.8826109237e+01   5.5334764500e+01    0.2508739    0.2304863  47.03 0.0007049663    1.112    0.101
       292 -10.5836     26.2376    177.0683   1.2254319055e+02   3.4308159030e+01    0.3877719     0.249739 -58.96  0.002377858    1.661    0.398
       293 -10.4736     30.6054    172.2164   1.2118027767e+02   3.4957549868e+01    0.3378234    0.2156772 -67.75  0.001671931    1.425    0.298
       294  -9.8668      1.8223    178.1277   1.2764674636e+02   3.6249653137e+01    0.2565237    0.1175702  86.50  0.001426874    1.813    0.449
       295  -9.6453      8.3550    177.0484   1.2626351762e+02   3.5945565734e+01    0.2152383    0.1156698  63.30  0.001011135    1.637    0.389
       296  -8.6796     65.5690    173.2288   1.1340533676e+02   3.0655815275e+01    0.1832475    0.1095001 -58.52 0.0007247092    1.655    0.396
       297 -10.0326    246.5724    171.3064   7.4219454705e+01  -1.0606057273e+00     0.255441    0.1138382 -38.24  0.001141021    2.149    0.535
       298 -11.0669    105.8114     34.2143   6.6647740279e+01   5.4258086018e+01    0.3618377    0.2838373  48.70 0.0003067313    1.280    0.219
       299  -9.7494     16.8614    171.7093   1.2410883796e+02   3.6379064163e+01    0.2360658    0.1386755 -88.76 0.0009530389    1.382    0.276
       300  -8.6829    198.6470     36.6553   4.8917927482e+01   3.1183793047e+01    0.1488894    0.1062021  31.23 0.0007039295    1.819    0.450
       301 -10.7158    245.5399     33.3086   4.2682125682e+01   2.0510398670e+01    0.5545809    0.3165342  62.91  0.002629125    1.848    0.459
       302  -8.6037     80.2959    176.3426   1.1041309385e+02   2.7903391308e+01    0.1277875    0.1025694 -36.60 0.0007032243    1.664    0.399
       303  -9.0865     12.1398    169.8678   1.2497360713e+02   3.7200202907e+01    0.1699829    0.1205615  77.84 0.0002922479    1.138    0.122
       304  -9.1672    207.1788     33.8395   4.7029257249e+01   2.9436743347e+01    0.3102118    0.1936789 -71.64  0.001442769    1.833    0.454
       305  -9.8722    210.8867     32.4904   4.6212739868e+01   2.8701923675e+01    0.3320988    0.2818499 -68.26  0.001250907    1.097    0.088
       306  -9.8312     58.1138    165.9948   1.1424702512e+02   3.3284700517e+01    0.3536091    0.1805238 -74.97  0.001612882    1.863    0.463
       307 -10.3412     32.3337    166.1729   1.2022978328e+02   3.6155326496e+01    0.2358631    0.1884705  42.06 0.0007775389    1.419    0.296
       308  -9.8715    134.9601     34.0721   5.9268741749e+01   4.7567274431e+01    0.2688348     0.222575  15.41 0.0006876338    1.294    0.227
       309  -8.8419    138.3813     31.1961   5.7508916670e+01   4.7109653731e+01    0.2284549    0.1968126  31.40  0.001254105    1.157    0.135
       310  -9.4417     18.9236    165.8639   1.2319318643e+02   3.7503426996e+01    0.1775376    0.1444245 -70.51  0.001209618    1.269    0.212
       311  -9.9385    234.7927     33.6978   4.3843455108e+01   2.2878534598e+01    0.3073305    0.2320252  43.64  0.001008975    1.658    0.397
       312 -10.8030    236.1435     28.0146   4.2344015125e+01   2.3294889284e+01    0.4464912    0.3663191  31.89  0.001656342    1.640    0.390
       313  -9.6358      2.4009    160.5189   1.2638648464e+02   4.0056767794e+01    0.1966215   0.08711269 -79.38 0.0007583484    1.746    0.427
       314  -8.7238    235.4668     40.0099   4.5300354302e+01   2.1889790108e+01    0.2048268    0.1261114 -31.25  0.001023657    1.600    0.375
       315  -9.7474     55.0356     29.8166   8.2307222418e+01   6.4128929340e+01    0.2105492    0.1849438  16.93 0.0002872385    1.229    0.186
       316 -10.5057     50.8924     25.5197   8.2163376168e+01   6.5395062841e+01    0.3867386     0.304932  -5.00  0.002318057    1.106    0.096
       317  -9.1780    203.4510     28.6381   4.6092959650e+01   3.1019672530e+01      0.28537    0.2142269   1.69  0.001458461    1.815    0.449
       318  -9.6033    204.5198     23.5396   4.4590791687e+01   3.1377637974e+01    0.4194765    0.1499577 -31.03   0.00162031    2.692    0.629
       319  -9.6194    167.4948     28.8604   5.1287502615e+01   4.0085402432e+01    0.3113256    0.2855615  30.36   0.00102453    1.171    0.146
       320  -9.6680    146.3882     28.9554   5.5100666405e+01   4.5411193660e+01    0.4047744    0.2561036  55.62  0.001934487    1.468    0.319
       321  -9.5423    147.4179     23.9299   5.3189500715e+01   4.5758983621e+01    0.2687875    0.2120333  45.66 0.0007408231    1.216    0.178
       322  -9.0867    232.4587    159.4975   7.4201004723e+01   3.2636556612e+00    0.1393324     0.121441  -8.28 2.865293e-05    1.010    0.010
       323 -10.0418     44.9419    158.7011   1.1649784256e+02   3.6548246559e+01    0.3552115    0.2206853  47.86  0.001981964    1.616    0.381
       324 -10.6431    129.0463     23.4675   5.6737432794e+01   5.0326432857e+01    0.4489791    0.2048151  55.06  0.001170301    1.977    0.494
       325  -9.5168     22.7745    159.1862   1.2174346210e+02   3.8676073760e+01    0.1646684    0.1262224 -60.72  0.001074012    1.378    0.274
       326  -8.5391    198.3483     26.2814   4.6086192621e+01   3.2579421317e+01    0.1405196    0.1014211  39.83  0.000701395    1.645    0.392
       327  -9.6122    153.2782     24.7732   5.2402853236e+01   4.4187432275e+01    0.3027125    0.2686616 -10.18  0.001718805    1.223    0.182
       328  -8.8369    140.0066     25.7008   5.5240368534e+01   4.7391955399e+01    0.2477671    0.1431737 -26.06  0.001129769    1.827    0.453
       329  -9.5485     97.2941     22.5215   6.4362939841e+01   5.7626292274e+01    0.3521295    0.1994239  33.48  0.001159542    1.800    0.444
       330  -9.7016     81.7916     20.1529   6.8122848801e+01   6.1033565692e+01    0.3787849    0.3310793  58.30  0.002327645    1.440    0.306
       331  -9.5864    229.9937     19.9977   4.1010988096e+01   2.5688287252e+01    0.2852166    0.2132895 -39.06 0.0007265519    1.289    0.224
       332  -8.2093     28.6827    158.3034   1.2029492273e+02   3.8327144894e+01    0.1291164   0.07715727  70.50  0.000283361    1.624    0.384
       333 -10.2494     30.9918    151.5237   1.1904387976e+02   3.9685526972e+01    0.3193054    0.2363301   7.31  0.001301519    2.033    0.508
       334 -11.2192     14.1513    151.1957   1.2301050294e+02   4.1255592833e+01    0.4055195      0.24695  74.50  0.001436677    1.512    0.339
       335 -10.3629      6.1986    142.6202   1.2413195086e+02   4.3835316804e+01    0.2656216    0.1732993 -82.98 0.0005131303    1.178    0.151
       336  -9.0927     93.4892    150.3601   1.0316700850e+02   3.1932734051e+01    0.2411822    0.1343537  38.63  0.001073875    1.859    0.462
       337  -8.3842     45.8443    150.3964   1.1526644788e+02   3.8410953359e+01    0.1432182    0.1285108  11.62 0.0002868567    1.491    0.329
       338  -8.4254     76.4945    149.5274   1.0737345149e+02   3.4720786320e+01    0.1414761    0.1227343  88.54 0.0008092721    1.061    0.058
       339 -10.9281      6.9722    149.4985   1.2453011092e+02   4.2202358132e+01    0.5151588    0.2316581  80.52  0.002551436    2.234    0.552
       340  -9.7654     40.2782    146.5480   1.1617644029e+02   3.9928681822e+01    0.2265248    0.2145666  -0.78 0.0007142899    1.406    0.289
       341 -10.4384     38.1161    142.9963   1.1628022204e+02   4.0999792882e+01    0.3475822     0.308574 -13.50 0.0006901889    1.537    0.349
       342 -10.1096    246.1283     18.6417   3.9267250132e+01   2.2199205010e+01    0.2962697    0.2063381  66.72  0.001351453    1.514    0.339
       343 -10.3609     22.3905    145.5455   1.2050046058e+02   4.1877224021e+01    0.3325858    0.1639378  77.76  0.001594026    2.255    0.557
       344  -8.5677    181.7039     18.6896   4.6090262784e+01   3.7660312180e+01    0.1389211    0.1013505  36.52 0.0003394031    1.594    0.373
       345  -9.2100    198.6712     15.8297   4.3186864846e+01   3.3714714975e+01    0.2302022    0.1940028  21.04   0.00132023    1.495    0.331
       346  -9.4535    126.0527     15.2257   5.4316430380e+01   5.1958079343e+01    0.2125021    0.1643383  38.13 0.0003941926    1.217    0.179
       347  -9.0543    184.9842     14.0118   4.4309366539e+01   3.7341121760e+01    0.2491839    0.1799745  59.21  0.001092655    1.326    0.246
       348  -9.2833     45.6529    144.6440   1.1456830615e+02   3.9806830724e+01    0.1960644    0.1383313 -43.92  0.001088251    1.667    0.400
       349 -10.8234     30.1587    141.9452   1.1817320451e+02   4.2027121683e+01    0.5076708    0.2756759 -76.94  0.001336605    1.558    0.358
       350  -9.2253     10.8050    144.8419   1.2323005851e+02   4.2983789680e+01    0.1844865    0.1329569 -66.25 0.0006997397    1.268    0.212
       351 -10.0286     54.2889    142.9365   1.1210121582e+02   3.9228321637e+01    0.5157111    0.2581757  62.01  0.002208053    2.565    0.610
       352  -9.6174     47.3828    139.1560   1.1336603508e+02   4.0936518015e+01    0.2906786    0.2398241  76.69  0.001007209    1.172    0.146
       353  -9.5397     67.3427     12.9304   6.9813860351e+01   6.4567809496e+01    0.2791705     0.173495  49.41 0.0009788923    1.803    0.445
       354  -9.7060     98.3050    139.8216   9.9942772743e+01   3.3652510723e+01    0.2898999    0.2251712 -63.19 0.0007232209    1.229    0.186
       355 -10.6052     19.2893    119.1691   1.1826976958e+02   4.8374885606e+01    0.6727573    0.2570167 -70.18  0.003091177    2.053    0.513
       356 -11.6017     40.2910     65.3026   1.0081742745e+02   5.9097642382e+01      1.46787    0.5615418 -47.20  0.006439504    2.107    0.525
       357 -10.9411     23.6358     95.3889   1.1341987241e+02   5.3688134666e+01     1.932811    0.9329477  84.40  0.007480363    3.709    0.730
       358 -12.6419     17.0753    131.7392   1.2036126428e+02   4.5564758381e+01     1.554368    0.9313514 -14.39  0.008030724    2.930    0.659
       359 -12.7997     12.0436    125.8608   1.2103058050e+02   4.7323857351e+01     0.727739    0.3647865 -86.05 0.0004569485    1.810    0.447
       360 -11.4410     16.7581     84.7114   1.1380486759e+02   5.6665324245e+01    0.6296304    0.2179981 -49.76  0.002211669    2.291    0.564
       361 -11.5748     25.3449     83.7335   1.1068035057e+02   5.6276507823e+01     1.290792    0.7395372  14.02  0.006975155    2.250    0.555
       362 -11.0410     19.2105     71.6903   1.1036271287e+02   5.9463123879e+01    0.4912776    0.3686067 -79.34  0.001295479    1.405    0.288
       363 -10.8941     44.7601    114.1411   1.1016015962e+02   4.7288643869e+01    0.5009707    0.3190723  -6.80  0.002411106    2.554    0.608
       364 -12.9511     41.4270    122.8553   1.1256716212e+02   4.5520375673e+01      1.53116    0.9662231 -64.38  0.008356272    1.320    0.242
       365 -11.5973     42.4025     49.8413   9.5216942464e+01   6.2091167374e+01    0.6668149    0.3210717  21.81  0.002557226    2.491    0.598
       366 -10.5070     29.1256     76.1037   1.0771631504e+02   5.7720895161e+01    0.2859089    0.2534639 -33.21 0.0003656381    1.169    0.145
       367 -11.4799     30.9866     71.2310   1.0588677502e+02   5.8660067840e+01    0.4036672    0.2624448 -19.54 0.0009060315    1.813    0.449
       368 -12.0135      9.9427    108.6470   1.1957960265e+02   5.1515426463e+01    0.8588896    0.3399185 -51.36  0.003560671    2.222    0.550
