#   1 NUMBER                 Running object number                                     
#   2 MAG_AUTO               Kron-like elliptical aperture magnitude                    [mag]
#   3 X_IMAGE                Object position along x                                    [pixel]
#   4 Y_IMAGE                Object position along y                                    [pixel]
#   5 X_WORLD                Barycenter position along world x axis                     [deg]
#   6 Y_WORLD                Barycenter position along world y axis                     [deg]
#   7 A_WORLD                Profile RMS along major axis (world units)                 [deg]
#   8 B_WORLD                Profile RMS along minor axis (world units)                 [deg]
#   9 THETA_WORLD            Position angle (CCW/world-x)                               [deg]
#  10 FWHM_WORLD             FWHM assuming a gaussian core                              [deg]
#  11 ELONGATION             A_IMAGE/B_IMAGE                                           
#  12 ELLIPTICITY            1 - B_IMAGE/A_IMAGE                                       
         1 -12.2291     12.1115     49.0189   9.7089461331e+01   6.5912128026e+01     1.272965    0.6438121 -54.86  0.006842093    1.744    0.427
         2 -13.5067     37.2156     49.9529   8.5610642270e+01   6.3383348509e+01     1.495853    0.8892096 -58.94  0.007458345    2.226    0.551
         3 -12.4182    128.6130     11.6282   4.2291473464e+01   5.0934365739e+01     0.374546    0.2663479  84.17  0.002123276    1.459    0.315
         4 -12.5977    129.2158     19.1750   4.4631897170e+01   5.0061730598e+01    0.3134789    0.2518346  -9.24 0.0005314487    1.480    0.324
         5 -10.7329     32.0790     16.9686   7.4344929701e+01   6.9341989241e+01    0.4906614    0.2091391  20.42  0.002123586    3.107    0.678
         6 -11.3418     12.1786      2.1280   7.7519910542e+01   7.3640608603e+01    0.3056653    0.1834163   5.65  0.001975713    1.502    0.334
         7 -10.2277     14.9772     14.0034   8.1975254457e+01   7.1741357007e+01    0.2054459    0.1708507 -12.33 0.0006542837    1.210    0.174
         8 -10.0399     33.0399      1.3553   6.5937120922e+01   7.1071120373e+01    0.2505671   0.09898986  44.98  0.001094616    2.612    0.617
         9 -11.8531      8.6436      8.6299   8.3036665889e+01   7.3122540132e+01    0.4173102    0.2072214  31.08  0.002361082    2.167    0.539
        10 -11.1781     16.1157      6.8720   7.7758207587e+01   7.2605089474e+01    0.6717458    0.2107634 -39.78  0.003123132    3.122    0.680
        11 -10.2613      5.4969     13.1135   8.7094779628e+01   7.2737467243e+01    0.2498808    0.1143595 -43.16  0.001043462    1.936    0.484
        12 -10.8507     10.6528     24.2188   8.8984201510e+01   7.0549643363e+01     0.822954    0.3379278   5.42  0.003567521    3.505    0.715
        13 -11.0325     26.5597      2.6015   6.9813864773e+01   7.1847241470e+01      0.28937    0.1766335  38.70   0.00108885    1.717    0.417
        14 -11.9030      4.1843     17.7966   8.9977383423e+01   7.2106510023e+01     0.418676    0.3486848  40.80  0.002189457    1.895    0.472
        15 -10.9765      9.6385     15.9656   8.5961428641e+01   7.1951279538e+01    0.2700537    0.1818156 -15.44  0.001175561    1.198    0.166
        16 -11.9118     21.8302      6.0653   7.4160455991e+01   7.2045142251e+01    0.5325322     0.393306 -43.69  0.002679962    1.976    0.494
        17 -11.2550     20.2786     17.4932   8.0698612648e+01   7.0681093557e+01    0.3385699    0.2662512  13.47   0.00183897    1.245    0.197
        18 -10.7566     22.5283     13.1404   7.7392519997e+01   7.1043106866e+01    0.2349068     0.130464 -30.77  0.001402864    1.632    0.387
        19 -11.2335     98.7254     22.4836   5.2470437959e+01   5.6682032255e+01    0.5193352    0.3153497  35.14  0.002099404    1.640    0.390
        20 -11.9505    238.0215     17.9088   3.1471710777e+01   2.5424627334e+01    0.2704559    0.1917854 -72.75 0.0003285187    1.145    0.126
        21 -11.7529    233.7373     11.9751   3.0601373255e+01   2.6969057768e+01    0.3406981    0.1478241 -32.23  0.001735811    2.466    0.594
        22 -11.2525     48.4723     15.8621   6.6326804867e+01   6.7086801860e+01    0.5748804    0.3947466  11.69  0.003523802    1.360    0.265
        23 -11.0386     43.5204      8.6820   6.4965080330e+01   6.8695977961e+01    0.2747662    0.1999994 -10.71 0.0008051274    1.283    0.220
        24 -11.8450     40.7718     16.9692   7.0224365626e+01   6.8133218584e+01    0.5101075     0.360204 -34.25  0.002130681    1.563    0.360
        25 -10.4894     39.7323     11.0171   6.7806966400e+01   6.9014471182e+01    0.2000755    0.1771927   9.08  0.000715719    1.258    0.205
        26 -11.2930     77.9261     11.0328   5.3637094961e+01   6.2222382438e+01    0.6475729     0.264695  55.14  0.001935889    2.224    0.550
        27 -10.2126     70.7134     13.6454   5.7016034549e+01   6.3388221214e+01    0.2250839    0.1660977  18.16 0.0008006813    1.275    0.216
        28 -11.4018    157.7681     12.6481   3.8179456461e+01   4.3921983241e+01    0.4159677    0.1776494 -46.79   0.00186525    2.513    0.602
        29 -10.5920    100.0463     12.3976   4.8333982622e+01   5.7406468396e+01    0.2927258    0.1947491  24.25 0.0008982242    1.648    0.393
        30 -10.6314    117.8721     11.7085   4.4283650026e+01   5.3432185322e+01    0.4451783    0.2516927 -16.88  0.002273548    2.151    0.535
        31  -9.9330    138.3550     11.6692   4.0696096786e+01   4.8630056655e+01    0.2016482    0.1377223 -67.77   0.00109689    1.693    0.409
        32  -9.6008     65.4427     11.8353   5.7982149827e+01   6.4573565380e+01    0.1601719    0.1059149   1.03 0.0004279639    1.619    0.382
        33 -11.3498    164.1393      7.9631   3.6095281446e+01   4.2863261552e+01    0.3760724    0.2953614  14.90  0.001540946    1.757    0.431
        34 -11.6055    146.2913      7.1031   3.8149169304e+01   4.7163442438e+01    0.4414868    0.2883622  37.88  0.002114087    1.778    0.438
        35 -10.7181    148.4095      1.9249   3.6362227374e+01   4.7108338359e+01     0.234949    0.1616728  81.41 0.0006357002    1.296    0.228
        36 -10.7367    246.1848      8.7913   2.9144827695e+01   2.4845387236e+01     0.137193    0.1242183 -71.99 0.0004767774    1.320    0.243
        37 -13.0185    214.6739      5.8551   3.0752404035e+01   3.1616864446e+01    0.8554569     0.452746 -85.58  0.004715846    1.775    0.437
        38 -11.3309    190.7920      6.7180   3.2969070321e+01   3.6805857340e+01    0.5502884    0.3216005 -52.65  0.003130238    1.617    0.381
        39 -11.5550    194.8710      2.3721   3.1590134060e+01   3.6311259124e+01    0.3806182    0.1864034 -87.34  0.001697718    2.028    0.507
        40 -11.2526     97.9991      4.0855   4.5647276500e+01   5.8573116214e+01    0.3593029    0.2264817  17.97  0.001979312    1.861    0.463
        41 -10.4285     90.0830      7.2844   4.8767990113e+01   6.0028902720e+01    0.3440118    0.1444341  57.98  0.001350921    2.048    0.512
        42  -9.7273     93.5035      4.5002   4.6836032587e+01   5.9522916669e+01    0.1698644    0.1144185   6.27 0.0009697489    1.726    0.420
        43 -10.1711     62.1214     14.8803   6.0530504768e+01   6.4864652137e+01    0.2246374    0.1649542  39.38  0.001396031    1.227    0.185
        44 -10.3329     81.4652      5.4858   5.0286764025e+01   6.1995984663e+01    0.2195587    0.1783341 -49.96  0.001014601    1.625    0.385
        45 -12.2218    179.0055      4.2134   3.3502634465e+01   3.9745965385e+01    0.2372679     0.200637 -84.33 0.0003597165    1.038    0.037
        46 -10.9145    170.1421      3.2752   3.4182460697e+01   4.1888571205e+01    0.3777993    0.1573667 -64.94  0.001517582    3.280    0.695
        47 -10.5689    126.3812      3.3631   3.9986702014e+01   5.2167513657e+01    0.2519338    0.1500849 -28.92 0.0006835156    1.908    0.476
        48 -10.2765     74.4513      2.5849   5.1014336858e+01   6.3666912976e+01    0.2417614    0.2058488 -74.80  0.001149381    1.687    0.407
        49 -11.5899     67.8050      3.7097   5.3526314285e+01   6.4884389553e+01    0.2233695    0.1692017  36.66 0.0003543787    1.081    0.075
        50 -10.2283    243.1617      2.8662   2.8213030750e+01   2.6080140436e+01    0.1377546    0.1241122 -78.52 0.0005393358    1.321    0.243
        51 -11.2461    237.1320      2.5304   2.8519913292e+01   2.7309337399e+01    0.2578066    0.1472068 -75.23  0.001595486    1.490    0.329
        52  -9.7871    118.8181      3.5347   4.1323107925e+01   5.3909699819e+01    0.1822397    0.1070731  64.72 0.0005240557    1.443    0.307
        53 -10.8943    230.7317      1.7114   2.8768518657e+01   2.8687242110e+01    0.1835915    0.1298701  76.84 0.0005227622    1.369    0.270
        54 -10.7842    108.1987      1.6694   4.2634341453e+01   5.6482849732e+01    0.2194598    0.1456981  57.01 0.0007527829    1.244    0.196
        55 -11.2346     44.6102    162.9827   1.0799826053e+02   3.5712265081e+01     0.439905    0.1942248 -69.01  0.001748987    2.052    0.513
        56 -12.5432    232.3912    245.6350   7.8122786334e+01  -9.6268382200e+00     0.592785     0.246471 -33.50  0.003050081    2.290    0.563
        57 -11.9177    224.7680    247.1889   7.9750305643e+01  -8.8967054914e+00    0.5089223    0.1785264 -28.59  0.002113218    3.492    0.714
        58 -11.5269     89.0069    249.5314   1.0745321776e+02   1.0056062535e+01    0.3049665    0.2317912  43.74 0.0008872668    1.118    0.106
        59 -10.7585     72.5484    249.9978   1.1086520098e+02   1.2206533350e+01    0.5247822    0.2031922 -64.65  0.001849133    2.785    0.641
        60 -12.9860     75.6137    238.5374   1.0915265466e+02   1.4070340807e+01    0.7817864    0.5875617  56.54  0.004767654    1.148    0.129
        61 -13.3528      5.9319    245.0385   1.2339985651e+02   2.0889707564e+01    0.9039155    0.5481819  41.30   0.00466449    1.524    0.344
        62 -12.6269     22.1661    249.0609   1.2062410362e+02   1.8442511795e+01       0.6922    0.2243799  37.47  0.003414027    2.505    0.601
        63 -11.1585     17.4821    247.4805   1.2140651941e+02   1.9246866017e+01    0.2360826    0.1620931  62.21 0.0008487315    1.114    0.102
        64  -9.6838     99.2710    164.9802   9.3308074788e+01   2.7438705634e+01    0.2082456    0.1876053 -62.37 0.0003241912    1.088    0.081
        65 -10.3873     10.1244    162.8244   1.1714656064e+02   3.9052441539e+01    0.3225756    0.1372818  41.24  0.001073361    2.358    0.576
        66 -12.6728     21.6512    157.2029   1.1355020136e+02   3.9496599901e+01     0.604114    0.5000831   5.69 0.0009149713    1.559    0.359
        67  -9.3720    216.3927    155.1993   6.4107898984e+01   7.6122895620e+00      0.19248     0.121133 -48.13 0.0003719774    1.578    0.366
        68 -10.1688     11.2558    153.6466   1.1598109011e+02   4.1245330883e+01    0.2365815    0.1714944   5.88  0.001373566    1.847    0.459
        69  -9.9451    177.1919    150.7593   7.0941996614e+01   1.5912301179e+01    0.2395367    0.1992478  69.75  0.001192632    1.487    0.328
        70 -10.4923     33.1492    148.0275   1.0922484725e+02   4.0758325480e+01    0.2002227    0.1918731 -88.20 0.0003076347    1.125    0.111
        71 -10.3463     17.7104    146.9203   1.1348883546e+02   4.2426934510e+01    0.2961348    0.1739006 -35.40  0.001461192    2.146    0.534
        72 -10.3860    207.0435    146.6721   6.3996058542e+01   1.0943204230e+01     0.194294    0.1848238   8.33 0.0005549801    1.113    0.102
        73  -9.9916    220.2861    143.9678   6.1011133038e+01   9.0091157361e+00     0.203639    0.1632953 -37.27 0.0006023396    1.098    0.089
        74  -9.9873     10.4430    144.4930   1.1526347784e+02   4.3597229487e+01    0.1986482    0.1252252  -6.64 0.0008800136    2.292    0.564
        75  -9.7158     82.0431    139.7299   9.3295788075e+01   3.6646078272e+01    0.2095689    0.2017682  62.41  0.001061094    1.077    0.072
        76 -10.2417     55.2854    138.6734   1.0119277746e+02   4.0704018252e+01     0.352944    0.2561095  47.85  0.001796969    1.486    0.327
        77 -10.3338      9.3173    135.7984   1.1462927918e+02   4.5857141662e+01    0.2863946    0.1061979 -81.33  0.001113188    2.721    0.632
        78  -9.5556    122.9863    135.4722   8.0608645311e+01   3.0355221643e+01    0.2165684    0.1347147  64.19 4.879614e-05    2.324    0.570
        79  -9.6389     40.1620    135.3039   1.0526715298e+02   4.3313086543e+01    0.1825173    0.1195174  39.10 0.0002431741    1.660    0.398
        80  -9.6424     20.6930    135.2075   1.1118498315e+02   4.5152791301e+01     0.203435   0.09528117 -62.48 0.0009338775    1.730    0.422
        81  -9.9504    249.2821    134.0272   5.4283883936e+01   5.7449053210e+00     0.193643    0.1449452 -38.10 0.0007060031    1.100    0.091
        82 -10.6043    112.0037    132.5674   8.2965534931e+01   3.3192691232e+01    0.2644553    0.2052173 -50.63  0.001245131    1.252    0.201
        83 -10.8251     55.0089    132.6839   1.0020002380e+02   4.2281431936e+01    0.3735513    0.1960043  44.89  0.001231267    2.115    0.527
        84 -11.5913     36.7812    129.6977   1.0541398666e+02   4.5098754384e+01     0.612791    0.2581199 -48.44  0.002510781    2.241    0.554
        85 -11.3060     74.0718    129.4115   9.3580283086e+01   4.0500781341e+01    0.3389646    0.3077843 -68.17 0.0009679404    1.066    0.062
        86 -10.7339     24.2982    126.0696   1.0879233050e+02   4.7172986319e+01    0.2085647    0.1917317  49.02 0.0003582859    1.237    0.192
        87 -11.4343     13.2678    126.0250   1.1224480439e+02   4.8034570410e+01    0.4701959    0.2331612  14.73 0.0003149641    2.548    0.608
        88 -10.9673     10.3552    122.7027   1.1271863301e+02   4.9064772884e+01    0.2895684    0.2368608 -83.82  0.001525672    1.131    0.116
        89 -10.0748    220.0368    124.3146   5.6748205531e+01   1.2696456807e+01    0.1910716    0.1784955 -47.09 0.0005119528    1.069    0.065
        90 -10.1034      2.8518    122.8472   1.1506981382e+02   4.9492862433e+01    0.2310936    0.1341096 -62.73 0.0006333736    1.373    0.272
        91  -9.7569      1.3361    119.1794   1.1510501444e+02   5.0483396060e+01    0.1947058    0.1028336 -73.66 0.0003494278    1.539    0.350
        92 -10.9302     21.7073    121.2781   1.0889965304e+02   4.8595011462e+01    0.2626691    0.2090114 -31.08 0.0009019153    1.377    0.274
        93  -9.2524     32.4593    121.5417   1.0544572982e+02   4.7595352128e+01    0.1397383    0.1180148 -56.74 3.817685e-05    1.056    0.053
        94 -10.4998     73.0159    118.3536   9.1473477017e+01   4.3441724087e+01    0.3864136    0.2510201  89.61  0.001548114    2.453    0.592
        95 -10.4434     85.9931    116.4982   8.6876954262e+01   4.1823304068e+01    0.2377575     0.197517 -51.81 0.0003473763    1.145    0.127
        96 -10.6165     16.6945    115.3227   1.0963345271e+02   5.0467379696e+01    0.3104079    0.1701905 -25.78  0.001463393    2.337    0.572
        97  -9.9887    213.9958    115.5214   5.5772518201e+01   1.5501535088e+01    0.1947069    0.1427436  50.54 0.0005151525    1.524    0.344
        98 -11.1060    249.2970    112.2191   4.9776049696e+01   9.4387166234e+00      0.23677     0.186679 -52.48 0.0003886076    1.146    0.128
        99 -10.1459     95.0596    112.6382   8.3071505167e+01   4.1166761518e+01    0.2679378    0.2142079 -62.88 0.0009448512    1.318    0.241
       100 -11.6648     55.2714    109.5467   9.5392705427e+01   4.8096280451e+01    0.5013457    0.2576106 -50.80  0.001653994    1.722    0.419
       101 -11.4366     36.9435    110.1117   1.0185071459e+02   5.0032663674e+01    0.4183093    0.2882175  63.58  0.001533775    1.873    0.466
       102 -12.2286     14.7760    109.3396   1.0935024864e+02   5.2085352062e+01    0.4627027    0.3158379  20.05  0.002637197    1.734    0.423
       103 -10.4884      5.6673    106.6519   1.1204291604e+02   5.3314864018e+01    0.2538598    0.1324323 -35.59 0.0009250465    2.034    0.508
       104 -10.3854      1.4071    108.9539   1.1379255292e+02   5.2985053932e+01      0.27082    0.0977314 -68.99 0.0004724904    2.133    0.531
       105  -9.7325      2.5077    105.5045   1.1295228144e+02   5.3766201583e+01    0.1793362    0.1351486  80.25  0.001083065    1.441    0.306
       106  -9.2784    109.3127    108.7496   7.7745750188e+01   3.9365853398e+01    0.1495579    0.1225852  77.02 0.0003892218    1.518    0.341
       107  -9.7373     82.5470    109.0457   8.6117566821e+01   4.4204824907e+01    0.2395929     0.142855 -52.57  0.001030865    1.599    0.374
       108 -10.0086     32.1524    105.3003   1.0258233071e+02   5.1683404927e+01     0.359383    0.1845924 -73.41  0.001565668    2.110    0.526
       109 -10.8985     37.6106    101.7956   9.9910946856e+01   5.2012741303e+01    0.3191837     0.277409 -14.89  0.001898254    1.227    0.185
       110 -10.4011     51.5327    104.6181   9.5572372445e+01   4.9771118425e+01    0.2705127    0.1834651 -39.66   0.00134593    1.422    0.297
       111  -9.9442    243.5567    104.5273   4.8930450719e+01   1.1758025393e+01    0.1334426    0.1109906 -46.01 0.0001411558    1.015    0.015
       112  -9.1697    186.3457    104.2874   5.8013837833e+01   2.3453034325e+01    0.1469126    0.1185286  10.84 0.0002715499    1.652    0.395
       113 -11.1233    120.5868    100.7926   7.2333404471e+01   3.8826509523e+01     0.706004    0.3314966 -28.61   0.00211192    3.723    0.731
       114  -9.5383     14.6856    103.2957   1.0839695319e+02   5.3573628850e+01    0.1254119   0.09384717  70.66 0.0002819487    1.602    0.376
       115 -11.2262      4.6244     98.9620   1.1125365579e+02   5.5233971269e+01    0.3272197    0.2363506 -69.26  0.001988234    1.168    0.144
       116 -10.7690     61.9038     98.8678   9.0511561032e+01   4.9798979147e+01     0.313434    0.2663167 -33.86 0.0008929701    1.117    0.104
       117  -9.8974     50.7560     99.2021   9.4576440955e+01   5.1175757129e+01    0.1947708    0.1828493 -64.36 0.0005244547    1.122    0.108
       118  -9.7343     24.0030     99.2567   1.0432662296e+02   5.3865378681e+01     0.175196    0.1614208 -38.03   0.00038575    1.115    0.103
       119 -11.2357    151.6377     90.8375   6.1687757393e+01   3.3945109119e+01    0.4570256    0.3544092  85.17  0.002150741    1.595    0.373
       120 -12.5927    158.2948     89.9329   5.9961603360e+01   3.2579086045e+01     1.253226    0.5654661 -53.55  0.004321614    2.779    0.640
       121 -12.8245    163.8736     83.3969   5.7003643618e+01   3.2498088379e+01      1.69964    0.6794075  54.37  0.006138168    2.534    0.605
       122 -10.5202     66.1982     98.1239   8.8807669316e+01   4.9361108434e+01    0.2724552    0.2095066  13.03 0.0007293615    1.458    0.314
       123 -10.0699     38.5576     95.6746   9.8211287300e+01   5.3392842888e+01    0.3210914    0.1382843  38.85  0.001328975    2.676    0.626
       124 -11.5664    143.5252     98.4357   6.5697269032e+01   3.4283000606e+01    0.6987816    0.3900461  50.94  0.002846461    1.839    0.456
       125 -10.9933     14.3372     96.0435   1.0725836259e+02   5.5351618975e+01    0.4928234    0.1503875 -62.26  0.001974175    2.455    0.593
       126 -11.1436     10.8885     90.1367   1.0746207772e+02   5.6978227464e+01    0.3974342    0.2789358 -62.28  0.001212623    1.188    0.158
       127  -9.4104     46.5364     92.5595   9.4499412581e+01   5.3255176004e+01    0.1378293    0.1254798 -46.09   6.7441e-05    1.056    0.053
       128 -11.4085     25.7118     90.6962   1.0193796172e+02   5.5774757779e+01    0.4177517    0.2053299 -57.82   0.00199027    1.679    0.405
       129 -11.0496     21.6811     87.7103   1.0284494763e+02   5.6801816091e+01    0.4455011    0.2169103 -58.38  0.002151145    1.681    0.405
       130 -10.5792     57.8900     89.9828   8.9622765311e+01   5.2422831054e+01    0.3833585    0.2441421  22.43  0.001580856    1.739    0.425
       131 -10.5731     96.6406     89.6749   7.6222664233e+01   4.6088580268e+01    0.3769393    0.1840093  38.42  0.001473013    2.117    0.528
       132 -10.2203     83.0203     88.9119   8.0439443347e+01   4.8755604125e+01    0.2252858    0.2049913 -23.61 0.0005716723    1.052    0.049
       133 -10.6752     78.5787     88.0909   8.1710048551e+01   4.9697754067e+01    0.3451165    0.2415044 -54.05  0.001663952    1.474    0.321
       134 -11.0772     66.2137     86.1439   8.5510350721e+01   5.2100315213e+01    0.5929099    0.2994429 -31.44  0.002301539    2.492    0.599
       135 -10.7743     46.6414     87.5994   9.3196880607e+01   5.4396037781e+01    0.4041736    0.3324439  75.81  0.002224335    1.628    0.386
       136 -10.1278     43.6685     83.3084   9.3209171070e+01   5.5720181688e+01    0.2669777    0.1659697  44.82  0.001299693    2.002    0.500
       137  -9.5374     31.4549     93.0177   1.0026842900e+02   5.4719901922e+01    0.1981397    0.1180525 -60.15 0.0003405968    1.478    0.323
       138 -11.2558      4.9963     84.6312   1.0870231970e+02   5.8603415160e+01     0.449284    0.1912457 -46.72   0.00196015    1.887    0.470
       139  -9.6254     51.0433     85.8993   9.1072950105e+01   5.4248962374e+01    0.1674966    0.1426325 -42.83 0.0007262994    1.062    0.059
       140  -9.4738    121.0000     83.9518   6.7333342560e+01   4.2232881247e+01    0.2393593   0.08597214 -41.67 0.0003109431    2.789    0.641
       141  -9.5721    115.9557     84.0000   6.8746029122e+01   4.3318393273e+01    0.2594882   0.08567349  46.39 0.0004134282    3.028    0.670
       142 -10.0182     73.6996     83.0352   8.1911974273e+01   5.1607594937e+01    0.2110752    0.1845954 -33.61 0.0007024625    1.072    0.067
       143  -9.2249     56.4067     83.5258   8.8385903494e+01   5.4083332990e+01    0.1412931    0.1247035 -33.01 9.778851e-05    1.017    0.017
       144 -11.4225     30.5875     81.7037   9.7955357522e+01   5.7435777733e+01    0.4363227    0.2791734 -12.63  0.001775406    1.821    0.451
       145  -9.5420     62.4564     82.5742   8.5850322577e+01   5.3444271257e+01    0.1424224    0.1276868 -23.92 5.099416e-05    1.025    0.024
       146 -11.6715     20.1549     81.0621   1.0198157180e+02   5.8459343608e+01    0.4064529    0.3372417 -18.58  0.001916037    1.221    0.181
       147 -12.3348     30.7645     63.6250   9.2954709219e+01   6.1370479404e+01     1.052724    0.7641739 -86.54  0.005503932    2.286    0.563
       148 -11.6828      6.2496     42.0470   9.7830685113e+01   6.7665433774e+01    0.9083024    0.1103664 -50.88  0.001729826    3.882    0.742
       149 -12.1256     37.0032    243.9865   1.1748126665e+02   1.7811520167e+01    0.6699274    0.3028405 -87.79  0.003158264    2.379    0.580
       150 -13.3054     10.4589     75.2409   1.0463507050e+02   6.0443955310e+01     1.102643     0.762822   7.53  0.006661342    1.637    0.389
       151 -14.1088     16.7260     67.4836   1.0014143187e+02   6.1744106800e+01    0.6118085    0.5102401 -26.66  0.002039275    1.106    0.096
       152 -10.3727    249.9808    246.6915   7.5224205714e+01  -1.1827594761e+01    0.1629111    0.1182583   3.42 0.0007293348    1.086    0.079
       153 -12.4251     26.8357     49.7640   9.0306661637e+01   6.4530902693e+01     1.082399    0.6305183 -68.94  0.004971983    2.986    0.665
       154 -12.0000     27.7275     38.0700   8.5638808362e+01   6.6584613886e+01    0.2515703    0.1978533  -2.54 0.0003771097    1.130    0.115
       155 -11.8469     24.1748     35.0926   8.6233945730e+01   6.7469505937e+01    0.6171502    0.3175375  -2.63  0.001836649    2.610    0.617
       156 -13.1315      4.7884     65.7526   1.0492073121e+02   6.2869047222e+01    0.7070446    0.3983192  89.10  0.002483727    3.028    0.670
       157 -12.2295      5.1729     58.8795   1.0310096871e+02   6.4323169623e+01    0.3385744    0.2727672 -77.92 0.0003051409    1.492    0.330
       158  -9.5848    250.1707     95.8265   4.6260473583e+01   1.1989829712e+01    0.1636838     0.141871 -28.60 0.0004691491    1.270    0.212
       159  -9.3226     71.2394     79.6175   8.1752862561e+01   5.2736899591e+01    0.1375567     0.112613 -76.73    0.0002506    1.637    0.389
       160 -10.8654     60.9361     78.1629   8.5107126116e+01   5.4621994431e+01    0.2828978    0.2278405 -72.84 0.0007085825    1.611    0.379
       161 -10.8450     61.9412     72.2480   8.2895324949e+01   5.5718927692e+01    0.4262312     0.172815 -43.71 0.0006509134    2.300    0.565
       162 -12.7427     44.7339     75.2682   9.0553754847e+01   5.7380526155e+01     0.268352    0.2489797  -1.52 0.0006184995    1.130    0.115
       163  -9.2878    121.6390     76.2552   6.4820293183e+01   4.3571775526e+01    0.1485626     0.118348  84.64 0.0006964729    1.620    0.383
       164 -10.0549     74.7406     75.2273   7.9126638630e+01   5.3076344626e+01    0.2434247      0.18643 -18.63  0.001252594    1.377    0.274
       165 -11.1962     76.4038     70.1850   7.6902187158e+01   5.3804853094e+01    0.4763803    0.3552956  16.76  0.002378065    1.441    0.306
       166 -10.9056     76.8520     63.7514   7.4579361280e+01   5.4960061600e+01    0.3523516    0.2886713 -48.24  0.001621572    1.339    0.253
       167 -10.6742    207.5387     73.4345   4.6940504602e+01   2.4218197031e+01     0.224156    0.2042537 -66.62 0.0002103717    1.041    0.040
       168  -9.9316    145.8391     74.1690   5.8256832635e+01   3.8391978064e+01    0.2035869    0.1800419   5.66  0.000733789    1.322    0.243
       169 -11.1566     94.6025     73.3738   7.1819034819e+01   4.9814132322e+01    0.3073789     0.219932  11.11  0.001077722    1.766    0.434
       170 -10.2864     54.1184     74.2125   8.6524451494e+01   5.6418388255e+01     0.201473    0.1933768  81.92 0.0005587767    1.309    0.236
       171  -9.9386     48.9709     60.2549   8.4116277996e+01   5.9952289170e+01    0.2095425    0.1653467 -36.97 0.0005849464    1.169    0.144
       172 -12.0627     50.3194     68.8163   8.6358850097e+01   5.8053196769e+01     0.476629    0.3273776 -34.13 0.0006567435    1.340    0.254
       173 -10.9345     51.5226     63.0876   8.4018211681e+01   5.9053164036e+01    0.3016902    0.2371646 -28.30  0.001038621    1.146    0.127
       174 -10.8249    100.9463     72.4211   6.9531299366e+01   4.8723854145e+01    0.3866454    0.2704907  73.83 0.0006998719    2.252    0.556
       175 -10.0806    128.9973     71.3626   6.1407161444e+01   4.2803125620e+01    0.2147059    0.1878588  47.24 0.0004635443    1.119    0.106
       176 -10.0926    167.8339     69.8244   5.2520824295e+01   3.3931490353e+01    0.2009973    0.1900579  48.41 0.0003468702    1.137    0.121
       177 -10.2129    123.2392     68.8467   6.2093702057e+01   4.4558522059e+01    0.2706309    0.2293751  -2.42 0.0009735329    1.350    0.260
       178 -10.3582    127.7672     66.6018   6.0239878802e+01   4.3917221457e+01    0.2415366    0.2312894 -15.61  0.001358476    1.082    0.076
       179 -10.4128     42.5772     68.4832   8.9414328765e+01   5.9082481778e+01    0.2365313    0.2081565 -19.35  0.001344327    1.044    0.042
       180 -11.8244     44.3120     38.4991   7.8077740872e+01   6.4491864094e+01    0.5502548    0.3194039  43.01  0.002857935    2.082    0.520
       181  -9.6068    103.5332     67.5673   6.7167809617e+01   4.9087777755e+01    0.1450196    0.1371101  15.93  0.000130199    1.013    0.013
       182 -11.3936     93.7982     66.5741   6.9837366686e+01   5.1254525035e+01    0.3560947    0.2643775  12.93  0.001753698    1.579    0.367
       183  -9.4392     99.5434     64.9337   6.7497440336e+01   5.0389658055e+01    0.2041571    0.1250018 -13.38 0.0008079746    2.489    0.598
       184  -9.5848     70.0000     64.9713   7.7477079172e+01   5.5901179311e+01    0.2210247   0.07608239 -44.68 0.0004984806    2.831    0.647
       185  -9.5638    201.9644     62.0601   4.4997698174e+01   2.7248931924e+01    0.1665302    0.1463274 -67.46 0.0007277267    1.011    0.011
       186 -10.1291    119.8760     60.8188   6.0405641518e+01   4.6690260524e+01    0.2278279    0.1890424  28.72  0.001014172    1.259    0.205
       187  -9.0739    113.3203     61.6493   6.2421829377e+01   4.8016445477e+01     0.147451    0.1155742 -78.08 0.0007048091    1.743    0.426
       188 -11.1126     84.5243     60.7098   7.0872789574e+01   5.4112390066e+01    0.4126897    0.2984418  12.67  0.002065097    1.596    0.373
       189 -10.2174    155.1289     60.1580   5.2236174047e+01   3.8524372921e+01    0.2042489    0.1888782  46.30  0.001153943    1.132    0.116
       190 -10.8066    105.5706     63.3334   6.5166346169e+01   4.9409126432e+01    0.3329969    0.2054066  31.21   0.00105791    1.834    0.455
       191 -11.2880     59.3920     58.5742   7.9318409400e+01   5.8794959018e+01    0.3232777    0.2576265 -32.56  0.001324396    1.176    0.149
       192 -10.0030    147.0811     56.9640   5.2912821096e+01   4.0946129722e+01    0.2124506    0.2027562 -78.29 0.0003691847    1.048    0.046
       193 -10.4852     75.1930     56.3171   7.2561671550e+01   5.6600886504e+01    0.2256845    0.1846639 -35.15 0.0004016732    1.231    0.187
       194 -12.3905    105.1852     52.8310   6.1713867641e+01   5.1231723502e+01    0.3490915    0.3199449  40.78 0.0004395443    1.054    0.051
       195  -9.3247     48.3708     56.2508   8.2990738684e+01   6.0803057981e+01    0.1359901   0.09224191  -6.79 0.0006955981    1.633    0.388
       196 -10.2287    132.0306     54.5351   5.5429863760e+01   4.4887233742e+01    0.3734453    0.2155318  41.84  0.001656433    1.811    0.448
       197  -9.8517     68.4615     56.4360   7.5069626730e+01   5.7741277643e+01    0.1365396    0.1230255  -1.89 3.670312e-05    1.021    0.020
       198  -9.0474     82.4773     54.4782   6.9359335396e+01   5.5581633037e+01    0.1406764    0.1258666   7.21 0.0008096038    1.034    0.033
       199 -10.0036     56.1449     53.6463   7.8857555308e+01   6.0190329475e+01    0.2703716    0.1564351 -18.57  0.001222945    2.183    0.542
       200 -10.1397    120.2345     52.3868   5.7557646538e+01   4.7949185469e+01    0.2655653    0.1925589  23.57 0.0007852282    1.644    0.392
       201 -11.4163     62.6212     50.9155   7.5282170095e+01   5.9672617780e+01    0.3571176    0.2119111 -29.98  0.001086867    1.694    0.410
       202 -10.8341     44.9651     49.8683   8.2160356476e+01   6.2439104479e+01    0.4611088    0.1733027 -47.15  0.001916861    2.603    0.616
       203 -11.4936     88.2613     51.1651   6.6246409071e+01   5.5008511461e+01    0.2838911    0.2433229   9.05 0.0006341356    1.141    0.124
       204  -9.8723    237.3803     51.1916   3.8346394017e+01   2.1273087429e+01    0.1855007   0.09351007 -47.86 0.0008048748    1.657    0.397
       205 -11.5230    129.2015     48.7698   5.4240326479e+01   4.6411196320e+01    0.5359957    0.3748235   2.67  0.002517851    2.038    0.509
       206 -10.3219     78.4865     46.9074   6.7940511593e+01   5.7570789717e+01    0.3094701    0.1926294 -52.08  0.001339677    2.161    0.537
       207 -11.0433    199.9105     49.6217   4.2260632556e+01   2.9547805806e+01    0.2370161    0.1986544 -69.84 0.0003312908    1.066    0.062
       208 -10.6704     53.4533     49.9765   7.8609788044e+01   6.1244126299e+01    0.2733944    0.1852029  23.01 0.0009303237    1.464    0.317
       209  -9.5045    205.8172     48.6527   4.1283761824e+01   2.8353641064e+01    0.1754764    0.1146578  83.50 0.0001065715    1.574    0.365
       210  -9.6104    151.6746     47.6997   4.9267800141e+01   4.1213391401e+01    0.1419057    0.1052999  31.72 0.0002861526    1.635    0.388
       211  -9.6580    120.0665     46.9424   5.5793581699e+01   4.8795182344e+01    0.1929703    0.1590562  25.23 0.0009959132    1.296    0.229
       212 -10.5516    142.8774     45.4870   5.0300674092e+01   4.3634485799e+01     0.278777    0.2063621 -73.11   0.00111276    1.611    0.379
       213 -10.3533     57.2864     45.9694   7.5528070099e+01   6.1359040677e+01    0.6047058    0.2326134 -28.53  0.002074478    3.881    0.742
       214 -11.9137     73.9381     36.8152   6.5619717351e+01   5.9937007863e+01    0.6560104    0.3828316   3.88  0.002829026    2.676    0.626
       215 -10.8752     71.7897     41.7753   6.8340902734e+01   5.9597687771e+01    0.3771665    0.2681067 -40.13  0.001116213    1.529    0.346
       216 -11.9632     66.2950     40.5580   6.9890262198e+01   6.0753021930e+01    0.5129423    0.4023242  19.32  0.002080536    1.179    0.152
       217 -11.2041     69.4022     37.8388   6.7653499574e+01   6.0615523464e+01    0.4760269    0.2578597 -21.48  0.002210362    2.169    0.539
       218 -10.0881     95.5238     35.0173   5.8061280785e+01   5.5870818060e+01    0.2515856    0.1937822 -25.50  0.001156875    1.376    0.273
       219 -10.7666     92.1144     43.5306   6.2239659547e+01   5.5403772169e+01    0.4140831    0.3026463 -61.47  0.002091446    1.979    0.495
       220 -10.1938     95.6882     42.9616   6.0955026719e+01   5.4743805805e+01    0.2418775    0.1840963   0.72 0.0005210402    1.487    0.327
       221 -10.7166     99.6351     39.5174   5.8556461407e+01   5.4389716355e+01    0.4816335    0.2775259  37.01  0.001860078    1.744    0.427
       222 -11.3237     98.0601     31.5897   5.6068565055e+01   5.5765069576e+01    0.5861276    0.3986425 -63.64  0.002847547    2.308    0.567
       223 -11.6795    101.9412     28.6332   5.3934132054e+01   5.5278410869e+01    0.4050977    0.2869292  73.86 0.0006414847    1.731    0.422
       224  -9.9144     83.8002     45.2196   6.5511476122e+01   5.6817838705e+01    0.2931658    0.1570262  49.46  0.001255466    1.900    0.474
       225  -9.7572     50.8241     44.8378   7.7761039645e+01   6.2517745761e+01    0.1629452    0.1516007 -40.50 0.0005441576    1.342    0.255
       226 -10.8320    124.8387     42.7265   5.3269683066e+01   4.8283371029e+01    0.3105838    0.2494578 -62.81  0.001280891    1.456    0.313
       227 -10.3621    107.2768     42.8149   5.7642419332e+01   5.2265986347e+01    0.3052026     0.192521  36.09  0.001168402    1.621    0.383
       228  -9.5215     77.5899     50.8189   6.9710258398e+01   5.7104603478e+01    0.2444464    0.2034609 -48.19 0.0008291026    1.410    0.291
       229 -11.2076     52.9942     40.7693   7.5254892087e+01   6.2872725286e+01    0.3759469     0.230541  31.81  0.001247963    1.581    0.367
       230 -12.5955     57.5228     34.3815   7.0798195320e+01   6.3152104757e+01    0.3461089    0.2990162 -12.12  0.002229573    1.119    0.106
       231 -11.0020    152.6529     39.0445   4.6547609389e+01   4.2152182870e+01      0.24955    0.2409629  40.40 0.0005141755    1.144    0.126
       232 -10.2041    111.5729     46.1932   5.7683554183e+01   5.0828900438e+01    0.4147981    0.1434864  42.00  0.001406132    3.170    0.685
       233 -11.1158    224.6201     38.2953   3.6861331368e+01   2.5667450944e+01    0.3511897    0.1950049  75.92 0.0009090738    1.803    0.445
       234  -9.7461    116.7421     39.5984   5.4121749141e+01   5.0575911302e+01    0.1908106    0.1276559  66.10 0.0007650016    1.587    0.370
       235  -9.4749    160.2424     38.3915   4.5077300365e+01   4.0410602290e+01    0.1784278    0.1225754  77.22 0.0002181516    1.447    0.309
       236 -10.2909      1.7258     37.7178   9.8793313329e+01   6.8762635216e+01    0.2059859    0.1152798 -39.39 0.0008016646    1.372    0.271
       237 -11.0956     83.2920     35.3898   6.1915203448e+01   5.8336719649e+01    0.4197672    0.3045713  33.42  0.001855764    1.270    0.213
       238 -11.0623      8.2041     34.0073   9.4101938717e+01   6.9038784086e+01    0.4022794    0.3255484 -54.77  0.002393184    1.454    0.312
       239 -11.6328     17.2012     31.5038   8.8394232496e+01   6.8755378025e+01    0.4968654    0.2544681  17.24  0.002180674    1.987    0.497
       240 -10.7930     22.1227     25.8721   8.3487677031e+01   6.9207311998e+01    0.3336256    0.2568197 -15.67  0.001743518    1.033    0.032
       241  -9.6953    134.5274     35.5137   4.8860428835e+01   4.6945614291e+01    0.1367039    0.1254061  64.56 0.0001255459    1.010    0.010
       242 -11.2771    221.7404     32.2085   3.5818801294e+01   2.7064543301e+01    0.2322288    0.1765452 -60.44 0.0002712478    1.116    0.104
       243  -9.5173    201.7741     34.3747   3.8382918132e+01   3.1176806957e+01    0.1704077     0.109753  63.00 0.0003278884    1.540    0.351
       244 -10.1160    107.4853     34.5444   5.4653260860e+01   5.3325464095e+01    0.2834465    0.1208058  53.57 0.0009008553    2.108    0.526
       245 -10.3829    205.8620     32.5747   3.7510602920e+01   3.0486755559e+01    0.1928001    0.1663099 -42.67 0.0004543956    1.265    0.210
       246  -9.8154    185.1870     33.3847   4.0130107816e+01   3.5116011343e+01    0.1872634    0.1146604  83.27 0.0005477801    1.650    0.394
       247 -10.4083    166.5560     32.7430   4.2518861682e+01   3.9607549320e+01    0.2334961    0.1367551 -24.86  0.001123967    2.052    0.513
       248  -9.7234    145.6951     31.6185   4.5558349386e+01   4.4753422270e+01    0.2230564    0.1473717 -54.56 0.0008290049    1.688    0.408
       249 -10.2189     89.6108     31.7123   5.8531773988e+01   5.7537217312e+01    0.2298627    0.1783852  41.05 0.0005777998    1.159    0.137
       250 -10.7433     48.3669     31.7848   7.3519439970e+01   6.4962599472e+01     0.241709    0.1849959   8.72 -0.000275831    1.167    0.143
       251 -10.7169     50.2335     27.8503   7.1024894707e+01   6.5249334331e+01    0.2790208     0.172457  14.46  0.001016777    1.729    0.422
       252 -10.9093    236.1999     30.3041   3.4117747691e+01   2.4292902768e+01     0.216551    0.1949129  70.95 0.0008529252    1.372    0.271
       253 -10.3380    111.3209     28.6235   5.1602745630e+01   5.3183693427e+01    0.2625947    0.1803046  -8.73  0.000665121    1.777    0.437
       254 -11.2529     69.6576     26.7588   6.3012037851e+01   6.2085534321e+01    0.4248387    0.2893414  26.02  0.001634834    1.385    0.278
       255 -10.1476    132.8860     27.3757   4.6586532959e+01   4.8308427128e+01    0.2393524    0.1973251 -85.87 0.0007090184    1.309    0.236
       256  -9.5609     57.3006    244.6586   1.1349398786e+02   1.5232381272e+01    0.1311356   0.07448579  63.75 0.0005608368    1.672    0.402
       257 -10.9778    127.8706     26.7808   4.7372857880e+01   4.9561695128e+01    0.3018656    0.2929145  -8.62 0.0006593638    1.146    0.127
       258 -10.3506    109.4425    242.7641   1.0242059403e+02   8.4130912212e+00    0.2508521    0.1638951  55.78 0.0007618368    1.544    0.352
       259 -10.9965    193.1626     25.4159   3.7204246912e+01   3.4236077053e+01    0.3307789    0.1350032 -42.06   0.00150528    2.262    0.558
       260  -9.9441    214.2754     25.7749   3.5116887032e+01   2.9468894941e+01    0.1545746    0.1392859  66.12 0.0006521208    1.326    0.246
       261  -9.9854    203.8622     25.8049   3.6152110041e+01   3.1764746543e+01    0.1850085    0.1254319 -67.02 0.0005065462    1.354    0.261
       262 -10.5875    169.0053     26.0026   4.0334445622e+01   3.9824698489e+01    0.1950514    0.1711787  88.28  -0.03019764    1.006    0.006
       263 -11.8567    164.9725     23.1746   4.0118574631e+01   4.1105739907e+01    0.2559669    0.2087705  69.56            0    1.115    0.103
       264 -10.1121    119.0440     25.8752   4.8899830910e+01   5.1726269014e+01    0.1959628     0.169427  46.01 0.0002969357    1.067    0.062
       265 -10.5237     88.8560    241.2682   1.0662833372e+02   1.1684054073e+01    0.2307272    0.1570427 -34.93  0.001231767    2.162    0.537
       266 -11.4976     74.4879    233.4942   1.0888928993e+02   1.5261280036e+01    0.2653827     0.193786  46.39 0.0009414925    1.193    0.161
       267  -9.3942     50.3204    240.3107   1.1455769196e+02   1.6979325507e+01    0.1076249   0.09495914 -31.09 0.0004507136    1.647    0.393
       268  -9.8864    195.4250    238.7123   8.3943016925e+01  -3.7337198159e+00     0.221455    0.1375403  11.11  0.001186637    1.700    0.412
       269 -10.7553    243.9138    237.3371   7.4722814680e+01  -9.8935107414e+00    0.1924398    0.1439341 -29.66  0.001042364    1.384    0.277
       270 -10.3099     31.3203    236.6759   1.1810701533e+02   1.9947597469e+01    0.1962961   0.09813061 -88.44  0.001038939    1.972    0.493
       271 -11.1946     29.9724    233.0200   1.1812952865e+02   2.0859258006e+01    0.2947098    0.2432662 -80.93   0.00205196    1.262    0.208
       272 -10.2342      1.6747     25.9806   9.4741728091e+01   7.0905179558e+01    0.2005416    0.1188931 -35.52 0.0004778113    1.301    0.231
       273  -9.6954    159.9925    236.2285   9.0770542202e+01   1.9292353644e+00    0.1752287   0.09635049  34.23 0.0004748229    1.605    0.377
       274  -9.5994    177.3186    235.3140   8.7034255013e+01  -5.4110755073e-01    0.1329437   0.09144278  -0.53 0.0004384626    1.650    0.394
       275 -11.7940      4.8543    235.8326   1.2316028348e+02   2.2845291554e+01    0.4314713     0.323043  66.52  0.001863543    1.053    0.050
       276 -10.1981     38.2299    232.8221   1.1644505144e+02   1.9971667270e+01    0.1801969    0.1336007  69.04 0.0006188466    1.113    0.101
       277 -10.2403     24.1180    232.4766   1.1926136583e+02   2.1606060352e+01    0.1974875    0.1680848 -65.68 0.0007023613    1.434    0.303
       278 -10.9183     24.9284     20.3318   7.9552559456e+01   6.9747601837e+01    0.2633305    0.2062875  -9.86  0.001008566    1.033    0.032
       279 -13.2392     19.2005    237.9969   1.2055632826e+02   2.0977149508e+01     1.588043    0.4426658  57.17  0.006465432    3.422    0.708
       280  -9.8929    152.3251    229.9979   9.1453414978e+01   4.2369413229e+00    0.1953228    0.1144387 -76.37 0.0007049592    4.300    0.767
       281  -9.9172     89.9029     20.5724   5.4096397168e+01   5.8783687035e+01    0.2695547    0.1281429  43.70  0.001089547    1.858    0.462
       282 -10.1608    106.5395     22.7366   5.0627599585e+01   5.4924232976e+01    0.3386006    0.1908029 -46.48  0.000982512    2.220    0.550
       283  -9.6262    170.1464    229.1738   8.7541359192e+01   1.6037195304e+00    0.1705541    0.1532792  49.82 0.0004845693    1.321    0.243
       284 -10.6241     93.9689     22.6557   5.3792554091e+01   5.7692190471e+01    0.3174824    0.2193529  36.69   0.00139877    1.332    0.249
       285 -10.6878    103.3015     19.4207   5.0186029949e+01   5.5997870479e+01    0.2455289    0.2059878  66.08 0.0007803275    1.212    0.175
       286 -11.4975    108.4990     17.6116   4.8317252370e+01   5.5015390363e+01    0.3161365    0.2085267  46.18 0.0009343553    1.342    0.255
       287 -11.4962     59.5651     22.4672   6.4881081097e+01   6.4431837404e+01    0.3635873     0.303286  37.29  0.001889031    1.247    0.198
       288 -10.2635    186.0605     22.9846   3.7411431745e+01   3.6157272374e+01    0.1997804    0.1637913 -80.81 0.0005217558    1.070    0.066
       289  -9.9845    226.3246     22.1239   3.3253972095e+01   2.7331230579e+01    0.1867631    0.1442157  76.41 0.0005235538    1.297    0.229
       290 -10.5055     67.4259     21.7300   6.1657471914e+01   6.3115200112e+01    0.4011703    0.1608299  53.25   0.00150581    2.820    0.645
       291 -10.5583    139.3968     20.1386   4.3138281992e+01   4.7547527273e+01    0.3179677    0.1552441  47.07  0.000960713    2.032    0.508
       292  -9.0951    120.4848     21.4331   4.7082811803e+01   5.1873567080e+01    0.1331223    0.1154811  52.80 0.0002682738    1.028    0.028
       293 -11.3159      4.7000    226.7528   1.2273469546e+02   2.4745652028e+01    0.3336456     0.169753  58.92  0.001958012    1.611    0.379
       294 -10.6732    120.6297    226.4918   9.7890964620e+01   9.9049193875e+00    0.2123652    0.1301727 -57.00  0.000906409    1.815    0.449
       295  -9.9843    181.4341     19.7342   3.7130661904e+01   3.7599138696e+01    0.1519006    0.1271071 -12.08 0.0005450837    1.573    0.364
       296  -9.5736    172.6560     20.2783   3.8329778739e+01   3.9601079630e+01    0.1354874    0.0873619 -73.44 0.0007007015    1.629    0.386
       297 -10.1001     66.0563    226.3090   1.0999612419e+02   1.7917061249e+01    0.1979398    0.1695748 -68.90 0.0006027751    1.274    0.215
       298 -11.5085     21.2169    222.4627   1.1919791812e+02   2.4047749806e+01    0.2363178    0.1804072  76.78 0.0007805114    1.051    0.049
       299 -10.3595    126.7195    222.0384   9.5895987758e+01   9.8424774240e+00    0.2243328    0.1718001  46.41   0.00044485    1.230    0.187
       300  -9.9329     37.9860    217.7079   1.1532020555e+02   2.3275979354e+01    0.1766265    0.1428548  57.70 0.0006921827    1.116    0.104
       301 -10.1716     84.0956     18.7116   5.5009070027e+01   6.0192813676e+01    0.3701908    0.1856952  59.14   0.00153485    2.090    0.521
       302 -10.2295     54.7039     18.9519   6.5206381961e+01   6.5692273037e+01    0.1668168    0.1441075   8.68  0.001120513    1.098    0.089
       303  -9.7740    151.4601     18.5145   4.0738023710e+01   4.4834997105e+01    0.1311948    0.1144029  83.28  0.000120441    1.041    0.040
       304 -11.8584      9.8551    217.2175   1.2118649335e+02   2.6311495322e+01    0.3288992    0.2186275  52.72  0.001960283    1.316    0.240
       305 -10.1353     74.8808     16.0914   5.6727743917e+01   6.2323525418e+01    0.4143589    0.1676285  53.49  0.001146881    2.337    0.572
       306 -10.3638     69.5007     16.4735   5.8655501723e+01   6.3322637840e+01    0.2074265    0.1563858  54.40 0.0005952768    1.444    0.308
       307 -11.3368     29.7014    215.9930   1.1696522256e+02   2.4577641838e+01    0.3256048    0.2663045  18.23  0.001581729    1.624    0.384
       308 -10.4642     23.4100    216.6756   1.1834924964e+02   2.5090966182e+01    0.1771574    0.1517657  -3.96  0.001161876    1.752    0.429
       309 -11.8935    236.4585    214.0703   7.1998897119e+01  -5.6005798016e+00    0.5766442    0.3059792  -1.29  0.002235401    2.891    0.654
       310  -9.3866     96.5506     13.4918   4.9591734352e+01   5.8071790918e+01    0.1295374    0.1088289  40.41 0.0001163004    1.036    0.035
       311  -9.3808     26.2349     14.3293   7.6022644689e+01   7.0439074372e+01    0.1167522   0.07284085  -9.20 0.0006875803    1.527    0.345
       312  -9.3634    190.5029    226.4881   8.2912735362e+01  -1.0401301413e+00    0.1325056    0.1107117   4.85 -8.864189e-05    1.044    0.042
       313  -9.6147     30.9156     12.8615   7.2920910497e+01   7.0034714178e+01    0.1789916    0.1252228   1.36 0.0005791257    1.237    0.192
       314 -10.3884     21.6827    212.6199   1.1842827017e+02   2.6172525500e+01    0.2883718     0.130324  55.31  0.001440429    1.993    0.498
       315  -9.9041    208.8474    211.9656   7.6742240705e+01  -1.3544287139e+00    0.2071932    0.1525253  -7.10 0.0006814795    1.318    0.241
       316  -9.5192     76.3385    212.3061   1.0616459933e+02   1.9605384448e+01    0.1286772    0.1057292 -22.30 0.0004156691    1.678    0.404
       317 -10.6222     10.7801    208.4359   1.2045589003e+02   2.8172212920e+01    0.2453574    0.1875484 -39.28 0.0004223312    1.881    0.468
       318 -12.2855      5.6671    209.0240   1.2156104686e+02   2.8506036637e+01    0.4284952    0.2636957 -86.98  0.002132821    1.352    0.260
       319  -8.9291    107.6546     10.7182   4.6009206997e+01   5.5858095860e+01    0.1362127   0.08130065  38.48 0.0007013606    1.640    0.390
       320  -9.2979    188.2591    205.3453   7.9663087617e+01   3.0159926490e+00    0.1392602    0.0978325 -11.06 0.0003470829    1.595    0.373
       321 -11.5366     20.8018    199.3592   1.1763886723e+02   2.9293283288e+01    0.3865052    0.3040588 -84.09  0.002493944    1.128    0.113
       322 -10.2843    175.3276    202.7139   8.1908492293e+01   5.6434423002e+00    0.2198694    0.2047392  45.05 0.0004960434    1.226    0.184
       323 -10.4856    244.0711    202.3181   6.8535064073e+01  -4.8110761549e+00    0.2312358    0.1045758  28.49  0.001095377    2.475    0.596
       324 -10.9472     16.8087    193.1887   1.1806448991e+02   3.1122415211e+01     0.325834    0.2362156  24.36  0.001905572    1.692    0.409
       325  -9.4037    211.6674    188.6729   7.1822493805e+01   2.2521555462e+00    0.1436574   0.09751856  -6.03 0.0007051499    1.714    0.417
       326 -10.0800    108.6471    210.3226   9.8346989582e+01   1.5196299636e+01    0.1496287    0.1006143  64.94 0.0007047405    1.755    0.430
       327 -11.6219     16.0234    183.3232   1.1746041645e+02   3.3545600083e+01    0.5349172    0.2537346  85.08  0.002487468    2.134    0.531
       328  -9.9680     58.7084    182.0546   1.0674687706e+02   2.9190859745e+01    0.2000254    0.1723405 -78.13 0.0009340909    1.084    0.077
       329 -10.2147    167.7996    183.6010   7.9939323982e+01   1.0779084973e+01    0.2078897    0.1345664  47.26 0.0005950116    1.670    0.401
       330  -9.8029    244.3893    178.3762   6.3946896649e+01  -1.0091318050e+00    0.2540231   0.09667221 -29.04 0.0009478139    3.111    0.679
       331 -10.8290     46.4450    177.8454   1.0937436666e+02   3.1747829304e+01    0.3210638    0.2392954 -86.09  0.001172793    1.236    0.191
       332  -9.6276     69.5757    178.2050   1.0341097601e+02   2.8692502104e+01    0.1928596    0.1236536 -53.88 0.0005463447    1.565    0.361
       333 -10.8692     17.9636    173.1874   1.1610806961e+02   3.5839061026e+01    0.3409569     0.218783  65.04  0.001856385    1.507    0.337
       334 -10.8349     34.1702    174.0555   1.1209497736e+02   3.4055128121e+01    0.2544958      0.18178 -68.62 0.0005238494    1.261    0.207
       335 -12.4728     37.2300    164.4582   1.1018610482e+02   3.6147412341e+01    0.9218231     0.544898 -67.40  0.004636689    1.484    0.326
       336 -12.5092     50.0015    161.7183   1.0634524479e+02   3.5407353200e+01    0.4947979    0.3477517  73.72   0.00065704    1.520    0.342
       337  -9.7210      4.5209    168.5557   1.1904009034e+02   3.8078123504e+01    0.1265335    0.1017469 -88.60 0.0001533141    1.008    0.008
