#   1 NUMBER                 Running object number                                     
#   2 MAG_AUTO               Kron-like elliptical aperture magnitude                    [mag]
#   3 X_IMAGE                Object position along x                                    [pixel]
#   4 Y_IMAGE                Object position along y                                    [pixel]
#   5 X_WORLD                Barycenter position along world x axis                     [deg]
#   6 Y_WORLD                Barycenter position along world y axis                     [deg]
#   7 A_WORLD                Profile RMS along major axis (world units)                 [deg]
#   8 B_WORLD                Profile RMS along minor axis (world units)                 [deg]
#   9 THETA_WORLD            Position angle (CCW/world-x)                               [deg]
#  10 FWHM_WORLD             FWHM assuming a gaussian core                              [deg]
#  11 ELONGATION             A_IMAGE/B_IMAGE                                           
#  12 ELLIPTICITY            1 - B_IMAGE/A_IMAGE                                       
         1 -13.7574     67.9755    145.1513   1.2590925744e+02   3.7116416441e+01      3.08635     1.350226  88.04    0.0029878    6.127    0.837
         2 -13.1835    214.8411      2.6424   5.4360569322e+01   3.0107808026e+01      1.46885    0.7365592  58.44  0.002946522    1.896    0.473
         3 -14.1348    190.7611     26.7876   6.4477482095e+01   3.3926801575e+01     2.118866      1.40888 -11.40   0.00655162    1.634    0.388
         4 -13.4868    197.6635     21.4312   6.1841563968e+01   3.2704981025e+01    0.9838619    0.7428793 -78.26  0.003700128    1.529    0.346
         5 -13.4822    204.3656     13.2764   5.8540989179e+01   3.1794769948e+01    0.9212393    0.8269213  52.36  0.001413311    1.103    0.093
         6 -11.0753     21.8256      6.0022   1.1022755058e+02   7.2163109664e+01    0.2200669   0.09985359 -31.59  0.001095964    2.028    0.507
         7 -11.8094     74.9725    184.2989   1.2868933860e+02   2.8402281394e+01    0.2414249    0.2139052 -48.44 0.0007190277    1.436    0.304
         8 -11.5408    247.9635    248.7706   1.0458043267e+02  -5.3993507817e+00    0.3324312    0.1603332  31.73   0.00219155    1.450    0.310
         9 -12.0239    175.7690    249.6132   1.1661113561e+02   4.4503584077e+00    0.5039924      0.12637  36.60  0.002172801    3.049    0.672
        10 -13.0989    126.2522    246.8281   1.2486746033e+02   1.1678974014e+01     0.727018    0.4465527  26.75  0.004848192    1.699    0.412
        11 -12.9559    141.2199    249.3669   1.2252274064e+02   9.3169144137e+00    0.5964748    0.4466724  48.90  0.004635977    1.215    0.177
        12 -11.3986    148.8813    248.6867   1.2113219850e+02   8.3385154007e+00    0.2327994    0.1850878  54.58  0.001721945    1.361    0.265
        13 -12.4608    100.1897    237.5521   1.2861416137e+02   1.6389113943e+01    0.5108378    0.2068298  42.68  0.002248554    1.787    0.440
        14 -13.6044     95.8282    247.9654   1.3018349744e+02   1.5480654560e+01      1.04638    0.3817054  36.59  0.002794378    2.190    0.543
        15 -12.5522     82.4006    246.2538   1.3233068004e+02   1.7356076283e+01    0.4541273    0.3036324 -61.74  0.003526453    1.960    0.490
        16 -12.2451    107.8650    245.0451   1.2789356933e+02   1.4350793984e+01    0.3329045    0.2762887  60.05  0.001350421    1.207    0.172
        17 -11.6296     61.5760    249.6863   1.3598107428e+02   1.9255226728e+01     0.511394   0.09619961  42.11  0.002530962    2.999    0.667
        18 -12.3896     71.2823    245.5826   1.3414909798e+02   1.8752083113e+01     0.414887    0.2399848  45.50  0.002723357    1.250    0.200
        19 -14.9550     13.6489    240.1187   1.4316684783e+02   2.5394135107e+01     2.671154    0.5758704  42.28   0.01574897    2.593    0.614
        20 -16.1895      3.7865    237.1509   1.4459369003e+02   2.6678695306e+01      12.5651    0.8793579 -78.38   0.02340781    9.217    0.892
        21  -9.4482    169.2007    215.2043   1.1346260220e+02   9.5799035734e+00    0.1575414    0.1251579  49.74 0.0007496655    1.361    0.265
        22 -13.3368     71.1599    170.1288   1.2806932561e+02   3.1594282437e+01    0.4091011    0.2572203 -44.00  0.001649372    2.126    0.530
        23 -10.3192    230.5677    166.7824   9.3797267345e+01   5.6316005320e+00    0.1688693    0.1166467 -33.51 0.0009537841    1.676    0.403
        24 -12.7253     43.3924    147.8663   1.3221944681e+02   3.9244172826e+01    0.3860118    0.3784734 -49.66  0.002378564    1.281    0.220
        25 -10.1358    102.0063    148.7020   1.1799600127e+02   3.1670140899e+01    0.2741656     0.234715  -7.33 0.0008892477    1.472    0.321
        26  -9.7128    104.4640    145.0246   1.1679088340e+02   3.2044241284e+01     0.285347    0.2038496 -25.54  0.001131994    1.947    0.486
        27 -12.1934     90.8259    147.9885   1.2063531325e+02   3.3480277099e+01    0.2459265    0.2360076 -15.67 0.0004376856    1.219    0.180
        28 -10.0758    133.9230    145.1843   1.0963596111e+02   2.7026551359e+01    0.6911983    0.1711974 -54.17  0.001742498    6.778    0.852
        29  -9.9028    112.1879    135.0118   1.1307257850e+02   3.2864901671e+01    0.2806727    0.2046759 -20.19 0.0009434302    1.876    0.467
        30 -11.2607     83.5535    172.9514   1.2562269962e+02   2.9458165450e+01    0.2141136    0.2018099  87.12 0.0004518441    1.147    0.128
        31 -10.5993     99.6343    131.8680   1.1573897874e+02   3.5566907312e+01    0.2662372    0.2065454 -22.71 0.0008023093    1.657    0.396
        32 -12.5739     43.9519    126.9672   1.2984452679e+02   4.3719000234e+01    0.4865589    0.2606653  67.90  0.002439738    2.195    0.544
        33  -9.0506    117.3638    128.2966   1.1043011627e+02   3.3374161005e+01    0.1437433    0.1106253  -1.16 0.0003318849    1.716    0.417
        34  -9.5925    108.6191    122.5583   1.1156332093e+02   3.6093675427e+01    0.2083953    0.1591031 -41.27  0.001092352    1.381    0.276
        35 -14.6247     10.9779    206.6321   1.4248237182e+02   3.0956092161e+01     1.594205      1.30892 -17.09   0.01086911    2.187    0.543
        36 -10.9042    168.1712    113.0786   9.4409995240e+01   2.6242877593e+01    0.3286181    0.2917818  84.02 0.0006707276    1.476    0.322
        37  -9.4296    204.8460    110.9181   8.6144818206e+01   1.8565698510e+01    0.3252213    0.1604951  28.38  0.001192703    2.614    0.617
        38 -14.6060     46.5189    223.4569   1.3707679165e+02   2.4835224075e+01     1.306419    0.8857912 -56.18  0.006370483    2.039    0.510
        39  -9.7539     33.9645    100.9583   1.2936151787e+02   5.0494342760e+01    0.1983578    0.1303892  68.53 0.0009100246    1.680    0.405
        40 -15.7245     54.8879    211.5267   1.3486017172e+02   2.5904980508e+01     6.909546     0.477078  41.95   0.02100392    4.464    0.776
        41 -10.3511    225.6570    200.3217   1.0082155025e+02   2.4480925202e+00    0.2082663    0.1922778 -21.49 0.0008051018    1.585    0.369
        42 -10.6248    193.4364    195.6743   1.0593202530e+02   8.2512838914e+00    0.6633188     0.376819 -61.35  0.002287879    6.701    0.851
        43 -11.8192     70.3532    191.0539   1.3028050315e+02   2.7722120377e+01    0.3221219    0.2292507 -39.54  0.001908233    2.088    0.521
        44 -12.3990     57.9970    239.0431   1.3598297666e+02   2.1196015319e+01    0.4622295    0.2245753  59.03  0.003133961    1.697    0.411
        45 -12.8967     89.1884    165.0859   1.2339192522e+02   3.0234945865e+01     1.972665    0.5283797  48.34 0.0009975969    4.114    0.757
