#   1 NUMBER                 Running object number                                     
#   2 MAG_AUTO               Kron-like elliptical aperture magnitude                    [mag]
#   3 X_IMAGE                Object position along x                                    [pixel]
#   4 Y_IMAGE                Object position along y                                    [pixel]
#   5 X_WORLD                Barycenter position along world x axis                     [deg]
#   6 Y_WORLD                Barycenter position along world y axis                     [deg]
#   7 A_WORLD                Profile RMS along major axis (world units)                 [deg]
#   8 B_WORLD                Profile RMS along minor axis (world units)                 [deg]
#   9 THETA_WORLD            Position angle (CCW/world-x)                               [deg]
#  10 FWHM_WORLD             FWHM assuming a gaussian core                              [deg]
#  11 ELONGATION             A_IMAGE/B_IMAGE                                           
#  12 ELLIPTICITY            1 - B_IMAGE/A_IMAGE                                       
         1 -13.1268    244.0741     23.0361   3.5990493699e+02   2.3803209566e+01     0.872124    0.6416267 -48.82  0.004322913    1.042    0.040
         2 -11.0154      1.9653      9.5479   6.0009982375e+01   7.7031345639e+01    0.3300067     0.131451 -48.11  0.001343588    1.976    0.494
         3 -10.4591      2.5367      2.8451   5.5230117097e+01   7.8195861289e+01    0.4483709    0.1203177 -42.85  0.001899451    2.890    0.654
         4  -9.9209     71.7748      7.3963   1.8660964859e+01   6.6175888594e+01    0.1944571    0.1073643  47.42 0.0007614043    1.630    0.386
         5 -10.2043     93.5661    242.2469   7.3225743571e+01   1.1747003428e+01    0.1943838    0.1605865  34.86 0.0002758761    1.096    0.088
         6  -9.5056     74.4833    250.0274   7.7707780704e+01   1.2720846343e+01    0.1982664     0.129599 -47.63  0.001243022    2.059    0.514
         7 -10.0696     69.0437    250.6058   7.8819743788e+01   1.3258581097e+01    0.1652896   0.08897094  36.23 0.0003328553    1.499    0.333
         8 -16.2971     27.8587    177.7591   8.2527798910e+01   3.3174765674e+01     6.875745     2.866545  79.75   0.02763973    2.733    0.634
         9  -9.9460    176.1658    230.5791   5.5203800495e+01   2.6776255513e+00    0.1865626     0.132286 -27.72  0.000783501    1.451    0.311
        10 -11.7100    133.3626    229.6873   6.3636805311e+01   8.6563154622e+00    0.2613513    0.2370015  55.28  0.001798251    1.245    0.197
        11 -10.8740    148.0341    228.5052   6.0472473645e+01   6.8291930544e+00    0.2066452    0.1815093 -76.99  0.001371598    1.565    0.361
        12 -11.7329    127.0138    229.0840   6.4879438923e+01   9.6340189307e+00    0.3467084    0.2501981  12.84  0.002066717    1.498    0.332
        13 -11.0579    106.3197    228.3530   6.9153436186e+01   1.2583169142e+01    0.2654442    0.1891861  79.08    0.0015426    1.817    0.450
        14 -11.9126     96.8279    221.3560   7.0423498376e+01   1.5180414343e+01    0.5410329    0.3218279 -87.23  0.002698921    2.423    0.587
        15 -12.6665     87.8748    222.3096   7.2478419800e+01   1.6181145822e+01    0.9025583    0.4666136  52.71   0.00453957    1.921    0.479
        16 -10.9337     72.1671    225.9775   7.6226564768e+01   1.7455153106e+01    0.3192554    0.2021632  47.36  0.001279703    1.330    0.248
        17 -10.3097    174.8107    223.1880   5.4365236266e+01   3.9823671729e+00    0.1720264    0.1264468   2.16 0.0004833865    1.311    0.237
        18  -9.8275    139.4796    218.9785   6.0930575261e+01   9.6591973671e+00    0.1698924    0.1262235 -49.95  0.000495806    1.526    0.345
        19  -9.2126    198.4769    217.5014   4.8969227406e+01   1.6322595904e+00    0.1222444   0.09913713   2.63 6.945859e-05    1.018    0.018
        20 -10.0134    131.1841    203.7531   6.0534085344e+01   1.3703779672e+01    0.2183335    0.1752827 -65.76 0.0009358093    1.475    0.322
        21  -9.6102    136.9165    200.7202   5.8799388924e+01   1.3422022907e+01    0.1910288    0.1627529  33.78 0.0006836313    1.096    0.088
        22  -9.8402    210.8797    198.7798   4.3504332008e+01   2.7346108235e+00    0.1895386    0.1422284  -1.72 0.0004916277    1.164    0.141
        23 -10.1423    194.7279    197.5014   4.6269989174e+01   5.2321642795e+00    0.2516751    0.1464561 -49.58  0.001258022    2.185    0.542
        24 -11.4868     68.6153    193.1344   7.3831283399e+01   2.4895587273e+01     0.373434    0.2327656  79.42  0.001111267    1.808    0.447
        25 -10.3696    102.0066    194.4740   6.5929589565e+01   1.9978068190e+01      0.21241    0.1263404  33.63 0.0008805483    1.593    0.372
        26 -10.3559     54.7653    193.5964   7.7238915539e+01   2.6499874030e+01    0.2852179    0.2022744  53.36   0.00155717    1.258    0.205
        27 -11.1459    108.2862    190.0746   6.3800849240e+01   1.9997038184e+01    0.3599713    0.2005543 -44.04  0.001647118    2.034    0.508
        28  -9.2276    206.9997    190.2560   4.2659051657e+01   4.6044646140e+00    0.1545149    0.1024002  29.49  0.000358548    1.498    0.332
        29 -15.4626      4.9024    138.9234   8.5863503721e+01   4.4910209449e+01     9.409361    0.9274666 -77.77   0.02213422    7.115    0.859
        30  -9.6568     59.8646    186.0782   7.5231045965e+01   2.7638996479e+01    0.2032206    0.1556257  69.28 0.0003419833    1.216    0.178
        31  -9.3714    103.1240    238.5209   7.0905511385e+01   1.1178042224e+01    0.2022544    0.1280865 -34.08 0.0006684876    2.242    0.554
        32  -9.3305     98.6942    181.5279   6.4886064143e+01   2.3359549899e+01    0.2582257    0.1373459  29.06  0.001118253    1.985    0.496
        33 -10.6093     72.8088    232.4800   7.6648546809e+01   1.6117160636e+01     0.270303    0.2003816  89.07 0.0008110115    1.449    0.310
        34  -8.9063     72.2771    177.6487   7.1084842864e+01   2.8056499997e+01     0.146497   0.09696545  69.82 0.0007007616    1.643    0.391
        35  -9.5332     96.5048    174.9927   6.4450096073e+01   2.5209845901e+01    0.2020253    0.1850175  49.31 0.0003631752    1.057    0.054
        36 -14.5172     44.1492    242.7300   8.3206171043e+01   1.7476210688e+01     1.886168     1.090102  49.91   0.01138998    1.344    0.256
        37  -9.1681     78.2745    171.2873   6.8658683525e+01   2.8778006060e+01    0.3855947    0.1629727 -42.29  0.001323682    3.478    0.713
        38 -10.7131    180.7596    169.1647   4.3655297090e+01   1.2360435761e+01    0.3497166    0.1810617 -43.55  0.001564736    1.884    0.469
        39 -17.0425      5.5181    220.9106   8.9881521898e+01   2.5543251476e+01     2.648611     1.652923  63.19   0.01224396    1.221    0.181
        40 -11.0720     71.7828    166.2664   6.9694882108e+01   3.0921347164e+01    0.3598453    0.2501313  86.90 0.0004490083    1.554    0.356
        41 -12.8077     64.6145    125.5262   6.5136941637e+01   4.2560365137e+01     1.627063    0.9294609  79.96  0.006016298    2.722    0.633
        42 -13.4574     59.5744    135.0750   6.8477640727e+01   4.0673845215e+01     1.700692    0.9419816 -78.63  0.007083192    1.949    0.487
        43 -12.6594     84.0187    145.2413   6.2861138784e+01   3.4499392027e+01     1.279793    0.4711533 -52.24  0.004483408    2.562    0.610
        44 -11.9827     64.0503    162.3049   7.1270813684e+01   3.2953548956e+01    0.6264189    0.4288698 -14.82  0.002531432    2.323    0.570
        45 -12.0430     68.9803    158.2358   6.9318850168e+01   3.3335918678e+01    0.5729794    0.4796635  -9.91  0.001605629    1.548    0.354
        46 -12.9605     70.3988    145.2075   6.6867291546e+01   3.6519185362e+01    0.7190358    0.5684698  89.80  0.002505028    1.277    0.217
        47 -11.9717     65.8401    145.8796   6.8333988314e+01   3.6971142517e+01    0.4333471    0.3781007 -21.08 0.0008280983    1.400    0.286
        48 -15.1648      2.4099    210.0002   9.0128353041e+01   2.8084643510e+01     1.008577     0.273925 -82.65  0.002770303    3.302    0.697
        49 -11.5141     29.9172    161.4754   8.0620143611e+01   3.7039631440e+01    0.5150595     0.215055  56.21  0.001400318    2.480    0.597
        50 -10.4980    127.6788    159.8837   5.3841107426e+01   2.3591266144e+01    0.3627927    0.2410288 -72.90  0.001096842    2.048    0.512
        51 -10.8007     94.9942    159.4845   6.2312511502e+01   2.9183865155e+01    0.3186506     0.223818  78.68 0.0007652127    1.786    0.440
        52 -11.4466     92.7973    155.7410   6.2259510525e+01   3.0459678794e+01    0.5605532    0.3964715  69.30  0.001547251    1.679    0.404
        53 -14.9882     46.2666    174.3409   7.7489889315e+01   3.2087930551e+01     7.389526    0.6612015  43.57   0.01897911    6.252    0.840
        54 -11.3143     31.7173    154.3332   7.9429600448e+01   3.8706012499e+01    0.3710293    0.2365081  48.90 0.0009242329    1.525    0.344
        55 -10.0862     53.8232    159.1686   7.3716978179e+01   3.5040747607e+01    0.2832377    0.2078635  53.99 0.0004878858    1.325    0.245
        56 -12.0566     46.4112    157.4707   7.5601777930e+01   3.6345424374e+01    0.6184481    0.4206856  49.79   0.00199047    1.433    0.302
        57 -10.5088     45.8751    150.8428   7.4947858806e+01   3.8135546862e+01    0.5530351    0.2428049  61.83  0.001878662    2.993    0.666
        58  -9.5342    167.4820    156.0520   4.3722916821e+01   1.7233063959e+01     0.218837    0.1370336 -42.54  0.000508177    1.527    0.345
        59 -10.9549    133.6350    145.9746   4.9453335100e+01   2.5695339254e+01     1.053015    0.2374542 -53.28  0.002422988    5.865    0.830
        60 -10.4959    108.8821    145.3626   5.5838861238e+01   3.0349984185e+01    0.2792339    0.2736343 -54.54 0.0006611292    1.029    0.028
        61 -10.7859     37.2703    143.1991   7.6562011607e+01   4.1083402706e+01    0.5002241    0.2666385  80.21  0.001763759    2.130    0.530
        62  -9.9136    151.3464    141.0311   4.4028409650e+01   2.3418962443e+01    0.2134975    0.1892517 -42.31 0.0006283153    1.085    0.078
        63  -9.9555     28.2036    142.8613   7.9260288725e+01   4.2052840825e+01    0.2529121    0.1778325  37.73   0.00102951    1.503    0.335
        64 -11.7721    103.8687    131.7886   5.4329664065e+01   3.4616027130e+01    0.8121561    0.5257679   3.07  0.002935023    2.800    0.643
        65 -11.5000     87.3398    132.6254   5.9406917125e+01   3.7240062439e+01     0.308225     0.265768 -52.20 0.0005108895    1.127    0.113
        66 -10.6479     44.2113    130.7822   7.2699159773e+01   4.3681118394e+01    0.3800259    0.2539584 -89.99   0.00173806    1.510    0.338
        67 -15.0205     56.2878    234.1800   8.0214375940e+01   1.7744484186e+01     5.049044     2.348585 -41.60   0.02115489    4.463    0.776
        68 -10.5193     26.1495    129.3008   7.8354541161e+01   4.5866067552e+01    0.2383494    0.1947945  82.85 0.0002273569    1.119    0.107
        69  -8.8879    145.2953    129.6645   4.2774656758e+01   2.7122639872e+01    0.1556224    0.1239415 -81.32 0.0003711761    1.646    0.393
        70 -10.2553    136.4594    128.9695   4.4798301182e+01   2.9057364551e+01    0.2971045     0.245028 -53.23 0.0009773932    1.195    0.163
        71 -10.6028    134.5645    124.7426   4.4235128855e+01   3.0410810577e+01    0.3873854    0.1473842 -50.76   0.00124766    2.680    0.627
        72  -9.5045     77.2356    128.2270   6.1620711438e+01   3.9995156013e+01    0.2079549    0.1692597  77.07 0.0004974958    1.337    0.252
        73  -9.6231    109.9348    126.7922   5.1429226014e+01   3.4748483936e+01    0.2408985    0.2126834 -17.00  0.000825957    1.275    0.216
        74 -10.2702    127.3390    122.5922   4.5584043897e+01   3.2371788401e+01    0.3238224    0.2323335 -70.80  0.001055419    1.747    0.428
        75 -10.4311    116.0251    122.8427   4.8742929956e+01   3.4553425075e+01    0.2768264    0.2215876 -51.55 0.0004492712    1.192    0.161
        76 -10.1349     46.7726    122.7700   7.0571605046e+01   4.5565403890e+01    0.4276704    0.1766227  44.49  0.001336908    2.618    0.618
        77 -11.0707     44.8347    116.8983   7.0221709771e+01   4.7380526015e+01    0.5238332    0.3003584  75.19  0.001352555    2.319    0.569
        78  -9.8510     97.2286    121.5936   5.3935686871e+01   3.8386130049e+01    0.2760221    0.2233054 -10.57 0.0007566068    1.566    0.362
        79 -10.7656     24.8968    120.5346   7.7668442671e+01   4.8343339359e+01    0.2997553    0.2246866  50.93  0.001639384    1.413    0.292
        80 -10.8135     24.4314    116.2633   7.7257968955e+01   4.9540091395e+01    0.4931529    0.2140872  53.25  0.001755032    2.748    0.636
        81 -12.7676     64.8149    154.3587   6.9933757934e+01   3.4893683330e+01     1.059092    0.6530433  59.66 0.0009584196    1.762    0.432
        82  -9.9952     35.4920    116.5097   7.3423884643e+01   4.8470943472e+01     0.330273    0.1777236  64.33 0.0007440679    2.339    0.572
        83  -9.4255    106.7147    116.1229   4.9733217075e+01   3.7999665598e+01    0.2212504    0.1906095 -46.80 0.0003145363    1.108    0.098
        84 -11.6784     28.6547    108.6168   7.4617316075e+01   5.1254945734e+01    0.6066158    0.2291277  38.21   0.00237651    2.778    0.640
        85 -10.9769     24.4165    104.9769   7.5612649572e+01   5.2600657955e+01    0.3164873     0.311754 -12.11 0.0008597336    1.205    0.170
        86  -9.3636    134.3167    105.6447   3.9226085260e+01   3.4808266515e+01    0.1658033    0.1259279 -79.02 0.0007045617    1.746    0.427
        87 -12.6501     78.6745    150.6171   6.5355457491e+01   3.3920597137e+01    0.9825999    0.5685938 -44.48  0.001492874    1.922    0.480
        88  -9.5330     59.9467     99.9538   6.1217387756e+01   5.0041590862e+01    0.2489216    0.1781427  73.96  0.001126026    1.789    0.441
        89  -8.8333    134.6951     95.6982   3.6258732176e+01   3.6912885888e+01    0.1579847     0.126534  -2.15 0.0002291504    1.595    0.373
        90 -10.1384     57.2408     94.2295   6.0812493081e+01   5.1918481165e+01    0.2080848    0.1727915  76.40   0.00105795    1.387    0.279
        91  -8.6921     27.3245     94.2619   7.2646404770e+01   5.5244109946e+01    0.1425833   0.09463265 -39.46 0.0003374483    1.559    0.358
        92 -10.5042     51.8403     90.1434   6.1876512025e+01   5.3704112124e+01    0.2156348    0.1945428  89.37 0.0005002648    1.190    0.160
        93  -9.5786     26.0168     83.9859   7.1143905974e+01   5.8083181381e+01    0.2092863    0.1570017  69.01 0.0004789356    1.564    0.361
        94  -9.4428     33.9891     82.4823   6.7369483501e+01   5.7745315969e+01     0.198965    0.1430191  25.29  0.001027402    1.588    0.370
        95 -10.6749     14.3365     79.7211   7.5398295991e+01   6.0065851117e+01    0.2259106    0.1570846  34.82 0.0007426795    1.681    0.405
        96 -10.7028     25.4912     77.4345   6.9929618340e+01   5.9836564433e+01    0.3056846    0.2211819  50.97  0.000560471    1.655    0.396
        97  -8.7653    172.3518     76.1809   2.2215545073e+01   3.2014972921e+01    0.2131694    0.1250355 -45.29 0.0003566414    1.584    0.369
        98  -9.5262     39.9990     73.0473   6.2238493129e+01   5.9518936685e+01    0.1754473    0.1507462 -50.44 0.0003577142    1.014    0.014
        99  -9.4938     30.5106     72.4912   6.6418693333e+01   6.0652480146e+01     0.142952    0.1221228 -53.18 0.0001946296    1.003    0.002
       100 -11.3694    193.3802     61.4194   1.4608303560e+01   2.9560638833e+01     0.356969     0.318985 -23.56 0.0007742862    1.196    0.164
       101  -9.1776    135.2620     61.9942   2.5292684771e+01   4.3460178150e+01    0.1993239    0.1296038 -36.45 0.0004828252    1.481    0.325
       102 -10.9685     13.5811     60.1657   7.1520907649e+01   6.5099372519e+01    0.2484311    0.2045959 -67.21 0.0006248472    1.133    0.117
       103 -12.6337    206.2268     52.9372   1.0637270554e+01   2.7915824665e+01    0.8455626    0.6994668 -51.61  0.002900249    1.044    0.042
       104 -12.9701    215.6001     45.9180   7.7646422010e+00   2.6832674177e+01    0.6354247     0.604351 -44.82  0.001340593    1.179    0.152
       105 -10.0773     20.4929     52.0753   6.5539981391e+01   6.6551855427e+01     0.195256    0.1735486 -19.52 0.0006697982    1.157    0.135
       106 -10.4108     67.1911    240.1572   7.8420519952e+01   1.5351223558e+01    0.3204603    0.1538195 -70.88  0.001743508    2.350    0.574
       107 -10.3908      2.4734     39.9835   7.2340951317e+01   7.0556695886e+01    0.1998911    0.1740362  38.73 0.0005969678    1.453    0.312
       108 -10.4142     26.1733     35.1809   5.5825779988e+01   6.9777427694e+01    0.1615272    0.1581471  54.10 0.0004838993    1.333    0.250
       109  -9.5440    220.1195    246.7767   4.9659085545e+01  -4.8753793928e+00    0.1512104    0.1192225   8.21 0.0004665071    1.191    0.161
       110 -11.0478      2.0766     24.1163   6.7076781915e+01   7.4102861591e+01    0.3696575    0.1296034 -56.30  0.001502198    2.168    0.539
       111  -9.7597     60.8153     21.3205   3.0536892568e+01   6.6823760342e+01    0.1975696    0.1720324  63.09 0.0009180756    1.433    0.302
       112 -10.8468      6.3246     13.9053   5.8878074106e+01   7.5876035025e+01    0.1882888    0.1580454  12.28 0.0006381346    1.329    0.247
       113 -16.4692      4.6226    232.6759   9.0452357375e+01   2.3275508440e+01     1.930318    0.8033152  77.78   0.01066323    2.143    0.533
       114  -9.4356    147.0033    242.9507   6.2558608652e+01   4.6728596139e+00    0.1406696    0.1189877  20.25 0.0004754057    1.040    0.038
