#   1 NUMBER                 Running object number                                     
#   2 MAG_AUTO               Kron-like elliptical aperture magnitude                    [mag]
#   3 X_IMAGE                Object position along x                                    [pixel]
#   4 Y_IMAGE                Object position along y                                    [pixel]
#   5 X_WORLD                Barycenter position along world x axis                     [deg]
#   6 Y_WORLD                Barycenter position along world y axis                     [deg]
#   7 A_WORLD                Profile RMS along major axis (world units)                 [deg]
#   8 B_WORLD                Profile RMS along minor axis (world units)                 [deg]
#   9 THETA_WORLD            Position angle (CCW/world-x)                               [deg]
#  10 FWHM_WORLD             FWHM assuming a gaussian core                              [deg]
#  11 ELONGATION             A_IMAGE/B_IMAGE                                           
#  12 ELLIPTICITY            1 - B_IMAGE/A_IMAGE                                       
         1 -12.4572    248.4626    134.3090   8.6890587471e+01   3.6546543280e+00     1.052131    0.5934921 -36.33  0.004886301    1.624    0.384
         2 -14.2896    200.5864     16.9768   6.5718626565e+01   3.3241905062e+01     2.410261     1.504447  32.23   0.01026147    2.391    0.582
         3 -13.7355    205.6840     10.2606   6.3490264777e+01   3.2740177155e+01     1.422724    0.6829322  50.87  0.001399423    2.249    0.555
         4 -12.0436      2.3847     24.0099   1.2224110024e+02   6.8843490592e+01    0.6957274   0.08358144 -49.66  0.002631633    4.578    0.782
         5 -12.8277      2.0014     12.5979   1.1824869923e+02   7.0612858695e+01      0.65631    0.4066456 -31.65  0.004893249    1.166    0.142
         6 -12.7508      2.1712      3.8879   1.1460351977e+02   7.1823631822e+01    0.9833032    0.3283304  24.83  0.005528436    3.149    0.682
         7 -11.8673    136.1410    227.8156   1.2715319989e+02   8.4237641817e+00    0.5499126    0.3443439 -35.04  0.002710037    2.443    0.591
         8  -9.5969    205.4574    250.4951   1.1735732447e+02  -7.2430862608e+00    0.1231259   0.09948857  28.00 0.0001592728    1.019    0.019
         9  -9.5695    184.0043    250.3414   1.2126446971e+02  -3.6475997678e+00     0.179023    0.1370942  37.16 0.0004813139    1.073    0.068
        10 -11.2267    150.2746    248.6758   1.2728321755e+02   2.3676383337e+00    0.5243098    0.2624124  49.96  0.002671933    1.714    0.417
        11 -10.6225    143.2200    249.0907   1.2864421850e+02   3.5017388077e+00    0.2715684    0.2022101  63.29 0.0009255096    1.292    0.226
        12 -11.4172    143.6496    244.7299   1.2800024957e+02   4.1497160812e+00    0.4655808    0.1956252  42.35  0.001511872    2.009    0.502
        13 -11.4919     96.5066    239.1548   1.3610217363e+02   1.2928409119e+01    0.4459514    0.2766888 -83.36  0.001817727    1.757    0.431
        14 -11.2187    133.5488    249.4468   1.3047234189e+02   5.0744169208e+00    0.5593928    0.2119557  52.51  0.002414997    2.494    0.599
        15 -12.2999    100.1662    246.0650   1.3617171703e+02   1.1093315201e+01    0.8678113    0.6250597  32.85  0.005297686    1.749    0.428
        16 -10.7416    104.6803    237.8772   1.3445087476e+02   1.1871538142e+01    0.3607551    0.2039016  57.73  0.001623355    1.556    0.357
        17 -12.1465    109.9541    230.1521   1.3254595109e+02   1.2463260891e+01    0.8671121    0.2935378  45.36  0.003617433    2.497    0.600
        18 -11.4410     98.5220    231.1444   1.3484016313e+02   1.4124268303e+01    0.4463957    0.3183858 -75.03  0.001536904    1.435    0.303
        19 -11.1069    124.8705    248.9878   1.3200910643e+02   6.5969636865e+00    0.5799792    0.2765179  36.32  0.002781281    2.235    0.553
        20 -11.8497    110.8111    248.5737   1.3452029773e+02   8.9606633304e+00    0.8320396    0.3454127  47.98  0.004073675    1.949    0.487
        21 -12.3190    125.4939    241.6503   1.3101024943e+02   7.7648686790e+00    0.7199528    0.5678369   6.86  0.004154252    2.123    0.529
        22 -10.8352     92.7324    226.0754   1.3536242457e+02   1.6021631282e+01    0.2784695    0.1806337  59.95 0.0004206744    1.330    0.248
        23 -11.9558     98.7024    223.5791   1.3392218185e+02   1.5569300914e+01    0.5011936    0.2890521  42.90  0.001391119    1.634    0.388
        24 -10.9734     81.0190    245.8586   1.3955635469e+02   1.4035809180e+01    0.5664398    0.2821524  87.29  0.002777356    2.619    0.618
        25 -10.0556     87.9589    250.5615   1.3878729104e+02   1.2156804330e+01    0.3956186     0.150266  40.40  0.001768487    2.525    0.604
        26 -10.8348     87.8570    247.1953   1.3848107509e+02   1.2777174635e+01    0.3180312    0.2147332  31.72  0.001776148    2.009    0.502
        27  -9.8317     68.1974    248.6600   1.4202072983e+02   1.5357229340e+01    0.3228881    0.1833339 -84.89  0.001936186    1.739    0.425
        28 -12.0733     55.1563    196.8062   1.3947787246e+02   2.7542192841e+01     1.074998     1.057583  53.15  0.007679148    1.450    0.310
        29 -14.5474     16.9574    168.3564   1.4439079487e+02   3.8041751941e+01     2.085114     1.375693 -66.94   0.01358586    1.322    0.243
        30 -11.6160     42.8872    237.3659   1.4539917947e+02   2.0805131613e+01     0.242993    0.2014047  87.25 0.0001397055    1.273    0.214
        31 -13.1994     44.1826    228.4569   1.4448599339e+02   2.2369862952e+01     0.525771    0.4117681  56.57 0.0008241713    1.305    0.234
        32 -14.6739     50.8931    217.8782   1.4238219535e+02   2.3644636597e+01      2.22075     1.494067  38.44   0.01390648    1.747    0.427
        33 -12.5917     13.8023    248.8499   1.5077110057e+02   2.2031539237e+01    0.3056856    0.2065756  67.14 0.0008867802    1.130    0.115
        34 -11.5072    135.8075    240.9525   1.2898286304e+02   6.1368551607e+00    0.3667823    0.2862074  20.06 0.0009235669    1.730    0.422
        35 -11.9275    134.9789    237.0532   1.2863081634e+02   6.9613845375e+00    0.4254521    0.3723739 -50.52  0.001003676    1.401    0.286
        36 -10.2977    165.6364    241.8511   1.2346192092e+02   8.0851016404e-01    0.2993863     0.177712  26.90 0.0007384545    2.036    0.509
        37  -9.1768     83.9232    242.3097   1.3870277164e+02   1.4260857297e+01      0.17377    0.1258017  58.59  0.001058899    1.125    0.111
        38 -10.3036    173.1903    239.9178   1.2174808353e+02  -2.0564955351e-01    0.2617948    0.2046786 -59.87 0.0008672438    1.603    0.376
        39 -10.9160    145.6171    240.8616   1.2711552323e+02   4.4613772300e+00    0.3032784     0.156291  51.16 0.0009976594    1.711    0.415
        40 -10.5922    115.7852    240.0630   1.3263410922e+02   9.6643792950e+00    0.2248577    0.1719265  70.53 0.0006755617    1.190    0.160
        41  -9.0718     74.7053    250.5975   1.4107887706e+02   1.4088373857e+01    0.2182932   0.09808318  41.39  0.001146572    2.117    0.528
        42 -11.1131     89.8115    236.0483   1.3700139641e+02   1.4546589798e+01    0.3641578    0.2064038  72.37   0.00193894    1.865    0.464
        43 -10.0774     83.5149    238.4355   1.3839355420e+02   1.5046303229e+01    0.3379604    0.2256383  40.69  0.002053231    1.590    0.371
        44 -10.7308     86.2893    237.3093   1.3777660204e+02   1.4842945143e+01    0.3211223    0.2146393  89.56  0.001850772    1.464    0.317
        45 -14.8519      7.8943    210.4766   1.4944545721e+02   2.9970023912e+01     2.430805    0.9314781 -74.72   0.01350438    2.068    0.516
        46 -10.3734    165.7698    235.4530   1.2249898769e+02   1.8251798634e+00    0.2396895    0.2257499 -77.42    0.0015971    1.238    0.192
        47  -9.9226    162.0582    232.7944   1.2281824347e+02   2.9303566004e+00    0.2423823    0.1624769  60.20 0.0007276903    1.596    0.373
        48 -10.2487     70.8733    234.6135   1.4029941848e+02   1.7614747998e+01     0.300185    0.1962039 -88.43  0.001870925    1.414    0.293
        49 -11.1203    122.2337    232.8893   1.3053071461e+02   9.8951776337e+00      0.37435    0.3134223 -84.47  0.001582001    1.246    0.197
        50  -9.8143     77.4627    232.6460   1.3891613924e+02   1.7046357135e+01    0.4275088    0.2029878  83.70  0.001857299    3.074    0.675
        51 -10.9832    156.6612    231.6584   1.2369638278e+02   4.0889745111e+00    0.2441502    0.2161896  39.46 0.0004748611    1.104    0.094
        52 -11.0118    128.3129    232.2523   1.2927798638e+02   8.9734894309e+00    0.3736841    0.2429129 -73.39  0.002031308    1.847    0.459
        53 -14.4473      4.0077    244.0543   1.5198995159e+02   2.3921035416e+01     1.278095    0.4635566 -83.98  0.003342137    2.306    0.566
        54 -10.7088    141.5501    231.0230   1.2654464812e+02   6.8877166624e+00    0.2663408    0.2253408 -21.23 0.0008930885    1.643    0.391
        55  -9.6233     93.8816    217.5954   1.3414515356e+02   1.7536650560e+01    0.2507083    0.1714627 -83.17  0.001426498    1.468    0.319
        56 -10.4837     84.6221    229.8047   1.3730288053e+02   1.6535939350e+01    0.2377134    0.2097999  33.00  0.001031704    1.556    0.357
        57  -9.5740    179.8922    228.3864   1.1867819746e+02   4.6080354345e-01    0.2489029    0.1628871  86.79  0.001037013    3.434    0.709
        58 -10.9935    165.3953    226.9881   1.2128386550e+02   3.3192643340e+00     0.458029    0.2668612 -66.94  0.002087663    2.702    0.630
        59  -8.7616    150.2993    229.6663   1.2464414384e+02   5.5743253129e+00    0.1324709   0.09484652  72.38 0.0002734193    1.651    0.394
        60 -10.7748     80.1693    227.9903   1.3794257066e+02   1.7557339639e+01    0.3510793    0.3024637  -9.90  0.001567968    2.122    0.529
        61 -10.1352     78.9636    224.5433   1.3780683571e+02   1.8419160427e+01    0.2517883    0.2221977   5.56 0.0008592927    1.911    0.477
        62 -10.8721     77.6760    221.0672   1.3768085354e+02   1.9307369692e+01    0.2683335    0.1861266  73.42 0.0003752784    1.262    0.208
        63  -8.9902    198.4336    227.9247   1.1503733714e+02  -2.7765441681e+00    0.1657172    0.1153166 -70.81 0.0008067862    2.574    0.611
        64 -10.0351    190.8547    228.1483   1.1652434639e+02  -1.4665811505e+00    0.1853111    0.1604696  48.00 0.0002772312    1.161    0.139
        65 -11.3130    132.1529    224.3771   1.2745863482e+02   9.7657146248e+00    0.3283096    0.2700377  74.08  0.001840542    1.186    0.157
        66 -10.6303    149.6639    222.8339   1.2375612144e+02   6.9152480541e+00     0.321447    0.2475723   3.59  0.001535304    1.967    0.492
        67 -11.8726    142.0773    221.6151   1.2508715871e+02   8.5134076708e+00    0.3846997    0.3613446  85.64 0.0001502402    1.134    0.118
        68 -11.3064    137.7948    214.6407   1.2490860446e+02   1.0614254744e+01    0.5597108    0.3319313  32.38  0.001284031    1.950    0.487
        69  -8.9613     73.4631    225.4786   1.3893400808e+02   1.9034865320e+01    0.1260179   0.09635865  73.47 9.643043e-05    1.042    0.040
        70  -9.2693    219.9801    223.8756   1.1028150715e+02  -5.9083323473e+00    0.1747657    0.1569596  79.72  0.001048264    1.617    0.382
        71 -10.7694    160.6762    223.5302   1.2167578700e+02   4.7822941982e+00    0.2756395    0.2162668  34.87  0.001596809    1.230    0.187
        72 -10.0473    110.5997    222.0952   1.3141184332e+02   1.3912892785e+01    0.3009186    0.2118088 -51.56  0.001137662    1.693    0.409
        73 -10.4530    105.2119    219.2502   1.3211249564e+02   1.5371432536e+01    0.3635918    0.2144994  74.91 0.0004714089    2.037    0.509
        74 -11.2678     70.5386    219.1745   1.3883787258e+02   2.0724395792e+01    0.5021267    0.3184107 -75.50   0.00201107    1.482    0.325
        75 -10.5199    246.2741    218.8285   1.0459716465e+02  -9.5234596852e+00    0.2505057    0.1427865  16.24  0.001246387    2.078    0.519
        76 -10.8575    117.3554    224.3239   1.3037138275e+02   1.2339593572e+01    0.2320709    0.2022507  66.15 0.0002868605    1.055    0.052
        77  -8.8439     89.5447    218.4984   1.3510313914e+02   1.8033308698e+01    0.1294501    0.1056672  73.09 0.0002802316    1.004    0.004
        78  -9.2629    100.9826    216.1151   1.3255478632e+02   1.6696420600e+01    0.1987722    0.1611279  71.26 0.0003955826    1.053    0.051
        79  -9.7861    101.9441    212.1099   1.3184634621e+02   1.7357689205e+01    0.3675034    0.1856603  59.87  0.001643363    2.080    0.519
        80 -10.2474     88.2380    213.2571   1.3473866511e+02   1.9310534000e+01    0.2781687    0.1780816 -80.30  0.000622732    1.574    0.365
        81  -9.1323    152.1307    211.8657   1.2154620364e+02   8.5024814824e+00    0.2119903    0.1713534  66.77 0.0006756909    1.264    0.209
        82  -9.0664    131.6661    212.3030   1.2580960079e+02   1.2180967434e+01    0.1420637   0.09666011  71.20    0.0001904    1.660    0.397
        83 -10.8108     72.7963    210.1672   1.3743452593e+02   2.2265877475e+01     0.382087    0.2500893  59.64  0.001050513    1.347    0.258
        84 -14.6601     29.8152    246.2213   1.4814440510e+02   2.0718290483e+01     2.102735     1.233397  45.67   0.01435149    1.675    0.403
        85  -9.6559     33.3933    211.4290   1.4502235962e+02   2.7091608511e+01    0.1622531    0.1466304  70.71 0.0005787562    1.378    0.274
        86 -10.6225    174.9084    206.0477   1.1590512712e+02   5.2682130606e+00    0.3932249    0.2965228  -7.00  0.002002152    1.825    0.452
        87  -9.8329    108.9563    207.9635   1.2985567764e+02   1.7043370290e+01    0.3241532    0.1590666 -60.42  0.001490846    2.126    0.530
        88  -9.6392    135.5951    208.0079   1.2434334845e+02   1.2319427576e+01    0.2865017    0.1909206  37.18  0.001455074    1.531    0.347
        89 -11.5544     92.7004    204.8445   1.3278438219e+02   2.0373628336e+01    0.6199669    0.3809424  52.23  0.001573432    1.478    0.323
        90 -11.5963    247.7588    205.4407   1.0182945450e+02  -7.8566415595e+00    0.4845657    0.2875307  17.83  0.002441901    1.953    0.488
        91  -9.6770    125.9222    205.7019   1.2600329697e+02   1.4542591879e+01    0.1985631    0.1589898  56.24  0.000475463    1.118    0.105
        92  -8.4676    114.2671    206.6786   1.2857559345e+02   1.6399382601e+01    0.1369199   0.09521509  77.37 0.0002170748    1.562    0.360
        93  -9.3660    149.3347    204.6744   1.2094597508e+02   1.0417371773e+01    0.2778777    0.1723598 -27.71  0.001186271    2.651    0.623
        94 -10.7520    102.3726    202.6145   1.3047902994e+02   1.9272879196e+01    0.4380699    0.2468725  60.87  0.001186583    1.829    0.453
        95 -10.5698     98.4229    196.8227   1.3049999613e+02   2.1169867106e+01    0.5059561    0.2568711  52.67  0.001723378    1.886    0.470
        96  -9.8416    166.9685    203.2355   1.1703740473e+02   7.3196250829e+00    0.2047594    0.1815682  23.16            0    1.195    0.163
        97 -10.6228    169.6827    200.1944   1.1593554622e+02   7.3705710346e+00    0.2473281     0.217803  43.09 0.0003246444    1.046    0.044
        98  -9.7452    133.1376    202.7365   1.2402806363e+02   1.3834994183e+01    0.2155006    0.1942844 -74.84 0.0003942309    1.154    0.134
        99 -10.0553    134.0981    197.9301   1.2304823753e+02   1.4645524603e+01     0.231246    0.1932628 -87.35  0.000334172    1.248    0.198
       100 -10.4812    113.0441    193.9319   1.2693746676e+02   1.9310046700e+01     0.494626    0.2687993 -65.82  0.001546817    1.998    0.500
       101 -11.0470    115.2835    200.2328   1.2741668146e+02   1.7570758260e+01    0.2981928    0.2429568 -44.03 0.0002299437    1.503    0.335
       102 -10.2088    120.0124    199.1098   1.2624123113e+02   1.6970921022e+01    0.4264589    0.2441906  65.09   0.00145439    2.087    0.521
       103  -9.3932     76.3791    203.0673   1.3589921310e+02   2.3252734552e+01    0.2896405    0.1744219  40.61  0.001552746    1.729    0.422
       104  -9.8012    138.1133    201.7233   1.2281547805e+02   1.3118327147e+01    0.2121694    0.1815956 -87.83  0.000343324    1.216    0.177
       105 -10.5184    197.0939    200.7180   1.1046239689e+02   1.9696498459e+00    0.3327385    0.2165274  48.38    0.0016594    1.516    0.341
       106  -8.8424    158.7890    199.4124   1.1806785934e+02   9.6382957537e+00    0.1941663    0.1281145  35.59 0.0003899519    1.536    0.349
       107  -9.2168     82.0197    194.2772   1.3363024213e+02   2.4321279619e+01    0.1760231    0.1465303  64.28 0.0002203336    1.117    0.104
       108  -9.3319     84.7075    192.3297   1.3280057847e+02   2.4339775850e+01    0.2333963    0.1794724  58.86 0.0003279897    1.203    0.169
       109  -9.0857     86.2770    199.2698   1.3338896227e+02   2.2578593592e+01    0.1900288    0.1501167 -78.60  0.000176416    1.180    0.153
       110  -9.5949     85.9921    195.9726   1.3301554532e+02   2.3340478024e+01    0.2019938    0.1664262  79.92 0.0003169818    1.044    0.042
       111  -8.5400    149.7145    198.7223   1.1986010126e+02   1.1526088570e+01    0.1314043     0.111456   7.82 0.0001844117    1.513    0.339
       112 -11.9174     69.0974    194.8405   1.3640614121e+02   2.6088234502e+01    0.4623371    0.3772202 -12.89  0.002644238    2.177    0.541
       113  -9.2289    107.2472    196.2184   1.2853013848e+02   1.9820472802e+01     0.194099    0.1442444  75.53 0.0005185023    1.344    0.256
       114  -9.9081    159.8713    194.2114   1.1691266056e+02   1.0453824080e+01    0.2484185    0.2197688  81.93 0.0004492333    1.215    0.177
       115 -10.7075     38.7284    192.4209   1.4230621499e+02   3.0504868749e+01    0.2703654    0.1819558 -58.90 4.681976e-05    1.606    0.377
       116  -9.2114     42.2481    189.2396   1.4128254733e+02   3.0790365949e+01    0.1690867    0.1141717  74.83 0.0007979097    1.310    0.237
       117  -9.3058     30.6921    194.9773   1.4411528780e+02   3.0854246976e+01    0.1664255    0.1222579  87.51 0.0004349111    1.043    0.041
       118 -10.6328    120.6131    192.6163   1.2509020175e+02   1.8245461571e+01    0.4014743    0.3302093 -52.61  0.001002981    1.334    0.250
       119  -9.5281    117.7349    189.6955   1.2524748054e+02   1.9395510583e+01    0.2073568    0.1714622  59.44 0.0001533067    1.116    0.104
       120 -13.6576     13.1247    238.1394   1.5027936537e+02   2.4069767379e+01    0.8452366    0.3861813  77.60  0.005125766    1.845    0.458
       121 -10.9670     26.0797    192.9809   1.4482505053e+02   3.1776362646e+01    0.2524591    0.1683935  81.33 0.0008512028    1.218    0.179
       122 -10.7461     31.4087    190.0095   1.4352048765e+02   3.1847443290e+01    0.4422128    0.2477128  57.52  0.001754064    1.675    0.403
       123 -11.5154     26.4771    184.5451   1.4398602733e+02   3.3558849494e+01    0.3392834    0.2449441  79.47  0.001945224    1.145    0.126
       124 -10.4792     30.5393    183.5238   1.4307481318e+02   3.3356381296e+01    0.3539535    0.1962229  71.37  0.001383424    1.767    0.434
       125  -9.4838     47.6346    192.9018   1.4057625141e+02   2.9341497430e+01    0.1752918    0.1249135 -77.65  0.001091759    1.202    0.168
       126 -10.2427    191.5184    191.5091   1.0982325791e+02   4.7091927540e+00    0.2709477    0.2473522  13.90 0.0006590827    1.096    0.088
       127  -9.4811    135.3427    190.1346   1.2146960207e+02   1.6044601418e+01    0.1948151    0.1728272 -81.50 0.0004913326    1.138    0.121
       128 -11.9837    249.7220    187.6302   9.7996951765e+01  -5.4942016582e+00    0.7258327     0.284822 -32.74  0.002989846    2.549    0.608
       129 -12.5848    248.1961    171.9523   9.5059362659e+01  -2.7156866046e+00     0.781409    0.5025697 -28.05  0.004033836    1.490    0.329
       130 -13.8262    244.8354    158.0156   9.2692779242e+01   2.4664573971e-01      2.60263     1.028104 -45.54   0.00989926    2.678    0.627
       131  -9.9463    169.3931    248.9086   1.2376317580e+02  -9.4517157762e-01     0.251233    0.1737562  16.09 0.0009271004    1.938    0.484
       132  -9.2276     67.7862    186.7457   1.3568370424e+02   2.8067552395e+01    0.1761747     0.159471  34.58 0.0005429597    1.435    0.303
       133  -8.8897     45.3782    187.2377   1.4043498601e+02   3.0860083843e+01    0.1776035   0.09834512 -83.09 0.0005498424    1.647    0.393
       134 -12.7106    248.3135    101.6469   7.9552242574e+01   9.3702591495e+00     1.023747    0.5251843 -35.50  0.004488275    1.849    0.459
       135  -9.2914    143.3317    184.7211   1.1876120499e+02   1.5652529854e+01    0.2166853    0.1481011 -55.81 0.0004598588    1.535    0.349
       136 -10.6859    140.2513    183.0675   1.1913983656e+02   1.6605880521e+01    0.5667071     0.362885  26.27  0.000408403    2.109    0.526
       137  -9.6385     86.3174    183.5519   1.3122581108e+02   2.6051086186e+01    0.3604431    0.1984438  34.91  0.001176762    2.105    0.525
       138  -9.5654     36.8006    184.1621   1.4186798731e+02   3.2532725185e+01    0.2472244    0.1584688  42.93 0.0006647556    1.678    0.404
       139 -10.6410     54.3841    181.9641   1.3795598655e+02   3.0925826996e+01    0.2193256    0.2069547  40.70 0.0004028359    1.402    0.287
       140  -9.5996     65.9546    182.0053   1.3547296881e+02   2.9387788951e+01    0.1912818     0.163212 -87.98            0    1.061    0.057
       141  -9.0293    104.0741    180.7031   1.2683020102e+02   2.3788242616e+01    0.1875846    0.1646616  62.69 0.0003043426    1.093    0.085
       142 -13.1870    248.4085    114.4813   8.2450118337e+01   7.1303748223e+00     1.617808    0.9302059 -27.25  0.007179138    1.948    0.487
       143  -9.3552    170.0949    180.1067   1.1205865169e+02   1.1234406676e+01    0.2077165     0.192549  13.27  0.001142423    1.163    0.140
       144  -9.9012    134.8402    179.5727   1.1970811595e+02   1.8410812681e+01     0.328511    0.1617868 -39.44  0.001240879    2.698    0.629
       145  -9.9700    129.2341    179.6835   1.2098690038e+02   1.9460717416e+01    0.2865506    0.1645673  58.70 0.0009652892    1.929    0.482
       146  -9.2691     48.0250    179.7220   1.3904666798e+02   3.2217399795e+01    0.1660827    0.1346133  65.59 0.0004262249    1.191    0.161
       147  -9.7394    174.9623    179.6812   1.1093462663e+02   1.0322131806e+01    0.3178902    0.1280438  39.02  0.001119871    2.601    0.616
       148 -11.4757     82.9669    175.7624   1.3083041554e+02   2.8341385616e+01      0.35124    0.3296152 -88.25  0.001211583    1.159    0.137
       149  -9.6627    179.4737    176.1028   1.0925431601e+02   1.0106692935e+01    0.3857426    0.1449928 -48.30  0.001121465    2.877    0.652
       150 -11.7605     68.9950    174.2439   1.3376285353e+02   3.0735506086e+01    0.4977338    0.2862073 -51.64   0.00248852    1.858    0.462
       151 -10.8566     68.9834    166.9207   1.3272105181e+02   3.2428454730e+01    0.3521586    0.1860212 -55.76 0.0003085478    1.797    0.443
       152 -13.7466     25.7010    155.4141   1.4112750726e+02   4.0130358688e+01     1.477868    0.8521919  51.76  0.008573473    1.846    0.458
       153  -9.5902    114.8334    176.5701   1.2370096837e+02   2.2825258798e+01    0.1981034    0.1258303  56.02 0.0009229886    1.584    0.369
       154 -10.2113     76.4332    175.1789   1.3222128459e+02   2.9455050796e+01    0.4032596    0.2101343  63.83  0.001484071    2.332    0.571
       155  -8.9451    107.3340    173.6706   1.2492113550e+02   2.4817261872e+01    0.1526543    0.1041955  77.45 0.0007052011    1.724    0.420
       156 -10.5722     95.5590    172.8561   1.2749881764e+02   2.7007156866e+01     0.268937    0.2098591  78.87 0.0004305862    1.271    0.213
       157 -10.2791     80.8262    163.7839   1.2947073146e+02   3.1441469771e+01    0.2554074    0.2059004  65.97  0.001453812    1.214    0.176
       158 -12.6727     88.1768    167.0462   1.2826813360e+02   2.9544065286e+01    0.9508028    0.6476899 -58.47  0.004949804    1.402    0.287
       159 -10.2444     89.9328    160.6453   1.2677935617e+02   3.0757955072e+01    0.2331931    0.1806577 -58.38 0.0005180432    1.246    0.197
       160 -11.3805     28.7611    171.3185   1.4220910474e+02   3.6246844057e+01    0.3678854    0.2574081 -73.20  0.001363061    1.186    0.157
       161  -8.8385    154.5880    172.4433   1.1392443731e+02   1.6010740497e+01    0.1470624    0.1410733  69.26 0.0001031206    1.009    0.009
       162  -9.0186    167.3224    170.2064   1.1065883389e+02   1.3841834040e+01    0.2097351    0.1375685 -54.83 0.0009347107    1.652    0.395
       163  -9.1428    100.5455    170.5058   1.2595404458e+02   2.6713464598e+01    0.1427161    0.1280938  88.84 2.953667e-06    1.006    0.006
       164 -10.7435     43.7300    168.6866   1.3867305601e+02   3.5222868815e+01    0.3375484    0.2963972 -77.45  0.001502995    1.173    0.147
       165 -10.0518     47.9867    168.4854   1.3770389427e+02   3.4772134844e+01    0.2623847    0.1741539  76.70  0.001485669    1.489    0.328
       166 -11.8137    247.9172    142.2725   8.8741339172e+01   2.3742353215e+00    0.7027083    0.4942752 -24.66   0.00319942    1.442    0.306
       167  -9.2730    107.1434    168.3291   1.2403733229e+02   2.6073902967e+01     0.198971    0.1694692  62.78 0.0004978917    1.131    0.116
       168  -9.0195     58.4806    167.5118   1.3521339492e+02   3.3698108415e+01    0.1328044    0.1095991 -87.54  0.000110596    1.021    0.021
       169  -9.0509    136.2231    165.4268   1.1670001726e+02   2.1263545124e+01    0.1980888    0.1372602  56.35 0.0001974198    1.471    0.320
       170  -9.2752     53.9381    164.7462   1.3587494114e+02   3.4910572286e+01    0.1760564    0.1461151 -86.83 0.0002403223    1.016    0.016
       171 -10.6562     46.8640    163.0291   1.3726186114e+02   3.6156843161e+01    0.2412402    0.1874414  81.08   0.00150128    1.175    0.149
       172 -11.9112     73.5825    187.6181   1.3455548120e+02   2.7049390612e+01    0.3454125    0.2694902 -57.80 0.0008454018    1.394    0.283
       173 -13.1765     46.3107    248.6573   1.4566259247e+02   1.8266921362e+01     1.578471    0.5314088  38.11  0.007419564    3.313    0.698
       174 -11.1411     95.9833    157.2878   1.2472549075e+02   3.0555012430e+01    0.4512146    0.2305752 -57.36 0.0008023278    1.846    0.458
       175 -10.1231     96.3669    152.3259   1.2371790284e+02   3.1655919443e+01     0.249588    0.2177594  35.65  0.001386452    1.301    0.232
       176 -10.9210    101.2950    150.7691   1.2220230079e+02   3.1182378368e+01    0.4017022    0.3643606  68.58  0.001825388    1.095    0.087
       177  -9.6472    104.2190    145.9823   1.2052805809e+02   3.1794534914e+01    0.3537565    0.2549784 -21.48  0.001596202    2.116    0.527
       178  -9.1432    104.4002    142.4171   1.1975523768e+02   3.2598376981e+01    0.2629412       0.2128 -37.66  0.000921598    1.384    0.278
       179 -10.8771     73.5594    157.6884   1.3022428170e+02   3.3938975830e+01    0.4295893    0.3586832 -87.20  0.002450217    1.084    0.078
       180  -9.7894     79.0441    158.9473   1.2910988898e+02   3.2841542887e+01    0.2080667     0.180668 -84.96 0.0004110555    1.019    0.019
       181  -9.1716     52.2666    158.4034   1.3539272258e+02   3.6584814260e+01    0.1691172    0.1126565  52.60 0.0009416579    1.563    0.360
       182  -9.6231     47.7125    157.8254   1.3637719367e+02   3.7259550609e+01    0.2021237     0.172461  73.66 0.0008526983    1.159    0.137
       183  -9.7738    134.4824    155.9319   1.1517863566e+02   2.3747948349e+01    0.2285281    0.1475945 -52.68 0.0003986917    1.547    0.354
       184  -9.6386    132.2435    152.2817   1.1494701526e+02   2.5026381129e+01    0.2388383    0.1984684 -80.12 0.0003219166    1.283    0.221
       185  -9.3110    228.4247    155.1261   9.4991489503e+01   3.9717026026e+00    0.2212091     0.134415 -37.50 0.0006565987    1.575    0.365
       186 -11.4728    113.9986    150.8297   1.1907771357e+02   2.8889860029e+01    0.3734484    0.3267285 -36.78  0.001993949    1.293    0.227
       187 -10.1377     60.0009    150.9850   1.3244962037e+02   3.7353825674e+01    0.3266299    0.1764741  56.78  0.001234159    2.136    0.532
       188 -11.2187     56.0906    150.5084   1.3332933876e+02   3.7958086688e+01    0.5261513    0.3616836 -43.48  0.002522121    1.688    0.408
       189  -9.9796     53.1600    146.3870   1.3341696841e+02   3.9280035716e+01    0.2458944    0.1867664 -82.53  0.000724219    1.194    0.162
       190 -10.3447     90.2378    149.7941   1.2476664093e+02   3.3260314190e+01     0.235369    0.2218571 -64.07 0.0003596218    1.120    0.107
       191 -13.2051     67.4100    144.2216   1.2950457515e+02   3.7968230142e+01     1.019985    0.6273695  89.10  0.004378963    2.060    0.515
       192 -12.3295     74.0410    139.1169   1.2690116957e+02   3.8248747053e+01    0.6918266    0.5136085  85.49  0.002607451    1.496    0.332
       193 -10.6889    133.0635    140.4712   1.1216937065e+02   2.7550097099e+01    0.4539344    0.3032544 -60.60   0.00107022    1.588    0.370
       194 -11.4461     33.7403    136.2223   1.3673095703e+02   4.3750134238e+01    0.2662166     0.191397 -28.72  0.001326298    1.895    0.472
       195 -10.9206     35.1749    148.8666   1.3812655496e+02   4.0696523037e+01    0.2935434    0.1683085  54.02  0.001478412    1.912    0.477
       196 -11.2400     32.3418    145.5764   1.3836690261e+02   4.1736044084e+01    0.2878412    0.1405263 -55.38 0.0009374722    1.820    0.451
       197  -8.2733    122.2712    148.2785   1.1651988765e+02   2.7912048170e+01    0.1399647     0.119958 -15.64 0.0006892283    1.490    0.329
       198 -10.9313    134.0000    144.9942   1.1295022737e+02   2.6329388137e+01    0.7107285    0.2191347 -51.55  0.002148471    3.344    0.701
       199 -11.1977     37.4415    143.9707   1.3691734943e+02   4.1593212087e+01    0.2458869    0.2039495  86.72 0.0006119819    1.134    0.118
       200 -12.7019      7.8869    143.5462   1.4384658978e+02   4.4305450645e+01    0.5221635    0.2627124 -66.29  0.003037144    1.512    0.339
       201 -11.7350      2.0657    144.5238   1.4526199272e+02   4.4512457254e+01    0.5262113    0.1675509 -73.54  0.002444994    2.393    0.582
       202 -11.1869     25.8398    139.8834   1.3918358689e+02   4.3651518895e+01    0.2379147    0.1389664 -66.32 0.0009550059    1.355    0.262
       203 -11.0171     41.8914    140.7966   1.3536489507e+02   4.1861331881e+01    0.2407047    0.1798297  88.74  0.001396057    1.292    0.226
       204 -11.8848     18.1708    140.3550   1.4108524848e+02   4.4208723770e+01    0.2865877    0.2229144  71.40  0.001469591    1.319    0.242
       205  -8.9163    118.9942    138.7373   1.1527711357e+02   3.0751205873e+01    0.1880597      0.13128  44.06 0.0006420881    1.472    0.321
       206 -10.7061     13.0668    137.5644   1.4196367421e+02   4.5246500367e+01    0.1979814    0.1232346 -72.09  0.001225184    1.232    0.188
       207 -10.6875    112.0215    136.1257   1.1647144831e+02   3.2680282286e+01    0.3686408    0.3095893  21.57  0.001242963    1.435    0.303
       208 -11.3375     32.4915    141.5211   1.3778498691e+02   4.2653040714e+01    0.3820339    0.1484699 -76.11  0.001576755    2.708    0.631
       209 -12.9062     45.9313    131.8596   1.3294020737e+02   4.3499465444e+01     0.642831    0.4503827  62.94  0.003670203    1.630    0.386
       210 -11.6160     48.2117    138.1369   1.3336685092e+02   4.1784656248e+01    0.4841186    0.2253967  20.04  0.002007345    3.596    0.722
       211 -12.0975      2.3960    131.0471   1.4375347478e+02   4.7461553572e+01    0.4362316    0.2129119 -69.68  0.002527271    1.509    0.337
       212 -10.0032     77.3202    188.7303   1.3389995756e+02   2.6254424210e+01    0.1854028    0.1549438 -82.30 0.0002543879    1.091    0.083
       213  -8.8540    161.9738    129.9697   1.0280652157e+02   2.3615975459e+01    0.1849895    0.1812193  78.49  0.000967477    1.013    0.013
       214  -9.5990    106.0734    128.0648   1.1621293276e+02   3.5645029052e+01    0.3909024    0.2309508 -61.41 0.0008727333    1.785    0.440
       215  -9.9870    117.2361    128.9611   1.1350987784e+02   3.3343997842e+01    0.2520757    0.1727211 -25.14  0.001071232    2.030    0.507
       216 -12.5294     19.3288    121.8408   1.3833948595e+02   4.8292062699e+01    0.4300623    0.3142891 -21.66  0.002730092    1.843    0.457
       217 -12.1366     31.2277    126.7738   1.3596764060e+02   4.6155580395e+01    0.3267261    0.2626416  43.01  0.001678739    1.469    0.319
       218 -11.8488     24.8841    125.9265   1.3748934123e+02   4.6912777145e+01     0.362288    0.1665995  36.44  0.001879583    2.499    0.600
       219 -10.5574    209.7587    125.8347   9.1755156454e+01   1.3486903224e+01    0.3146707    0.2588074 -35.03  0.000523918    1.200    0.166
       220 -11.3614     10.1533    126.6262   1.4133039448e+02   4.7909320005e+01    0.2636214     0.149679 -39.41  0.001510861    2.103    0.524
       221 -11.7898     68.0377    128.3570   1.2644788922e+02   4.1613901973e+01    0.4632649    0.3633226  63.92  0.002610358    1.423    0.297
       222  -9.3863     86.1060    126.1251   1.2111407849e+02   3.9487434152e+01    0.3054632    0.2025723  -3.69  0.001247425    2.888    0.654
       223 -10.2878     60.4948    125.1976   1.2787960888e+02   4.3336705709e+01    0.2882881    0.1606986  37.62  0.001419201    2.008    0.502
       224  -9.2585     50.5741    122.8247   1.3013701528e+02   4.5075375264e+01    0.1860622    0.1124711 -73.87 0.0006966033    1.659    0.397
       225 -10.9488     38.6185    122.0128   1.3323874857e+02   4.6536233962e+01    0.2544836    0.1644468  52.25  0.001426852    1.829    0.453
       226 -10.5847     55.1090    120.8742   1.2852942925e+02   4.4998581735e+01    0.2604295    0.2015752  18.81   0.00151194    1.628    0.386
       227 -12.6612      9.8636    119.2392   1.4043667227e+02   4.9571691217e+01    0.3615219    0.3307801 -10.50  0.002271757    1.440    0.306
       228  -8.8815    130.7412    119.0173   1.0763793570e+02   3.2866945997e+01    0.1928291    0.1309541 -48.08 0.0002912889    1.440    0.305
       229  -9.3695     47.5063    119.4956   1.3036835922e+02   4.6184874070e+01    0.1317114    0.1096675 -59.72 -0.0002366336    1.040    0.039
       230 -11.9803     31.1597    117.4181   1.3449333587e+02   4.8291192592e+01     0.379907    0.2559426 -49.95  0.001551166    1.343    0.256
       231 -11.3969    168.2534    113.4198   9.7219252055e+01   2.5658294217e+01    0.3809455     0.320494 -82.73 0.0007022967    1.358    0.264
       232  -8.6613     82.0082    114.2267   1.1960208335e+02   4.2872380571e+01    0.1667479    0.1187727  36.95  0.000212583    1.548    0.354
       233 -11.0103     64.4531    112.7318   1.2425398338e+02   4.5705173993e+01    0.3881018    0.1516415 -46.82  0.001553265    2.386    0.581
       234 -10.7170     69.8731    111.0829   1.2234071182e+02   4.5354536027e+01    0.2278741      0.20475  77.17  0.001363898    1.241    0.194
       235  -9.5830    203.7661    111.4175   8.9376382764e+01   1.7645464107e+01    0.2182702    0.1433261  42.21  0.000950815    1.659    0.397
       236  -8.8581     83.6863    111.2982   1.1844601974e+02   4.3278890285e+01    0.1393923    0.1092319  84.60 0.0003176441    1.605    0.377
       237 -10.6589     54.9865    111.2364   1.2665162381e+02   4.7222101419e+01    0.2623222    0.1642172 -12.91 0.0008132322    2.686    0.628
       238 -11.6786     15.4325    114.5763   1.3830684760e+02   5.0211916088e+01    0.2915893    0.1995506 -72.75 0.0005912253    1.195    0.163
       239  -9.2861    175.6451    186.8707   1.1220408674e+02   8.7608240117e+00    0.1970965    0.1355757 -57.73 0.0004022121    1.685    0.407
       240  -9.8367    114.3488    107.0617   1.0886409351e+02   3.8826923513e+01    0.2088238    0.1860375 -52.05  0.000560464    1.087    0.080
       241 -10.3987     62.3385    107.0396   1.2362240392e+02   4.7268531307e+01    0.1997768    0.1584481 -56.98 0.0009246033    1.108    0.098
       242  -8.9810    150.7161    187.3036   1.1761920662e+02   1.3660478337e+01    0.1440662    0.1105601  80.17  0.000239886    1.557    0.358
       243 -11.2446     27.8898    106.5180   1.3353277781e+02   5.1024413933e+01    0.2664486    0.1811135 -38.82  0.001059365    1.509    0.337
       244  -9.2768     21.8240     98.1556   1.3378876194e+02   5.3353695333e+01     0.163754    0.1117147 -47.02 0.0002315659    1.276    0.216
       245  -8.7129    136.7060     94.2832   9.9531346824e+01   3.6841727656e+01    0.1496359    0.1215074 -84.49 0.0002490567    1.538    0.350
       246  -9.8268     45.7841     90.1488   1.2478864864e+02   5.2916650819e+01    0.2936545   0.09645518  25.96  0.001124786    3.947    0.747
       247  -8.7866    124.0161     51.0502   8.9569785851e+01   4.7360343752e+01    0.1656719    0.1565128   9.30 0.0009647845    1.033    0.032
       248  -9.2515    199.8036    245.7715   1.1766153315e+02  -5.6550426577e+00    0.1589229    0.1323266  50.41 0.0003937103    1.295    0.228
       249 -12.3536    247.9885    241.3636   1.0827758295e+02  -1.2731599658e+01    0.4996435    0.4182846  18.10  0.003564642    1.144    0.126
       250 -10.1804    223.0096    244.4954   1.1322594095e+02  -9.2816096158e+00    0.1898348     0.101767  37.81 0.0005379128    1.582    0.368
       251 -10.2654    152.5604    243.5415   1.2616756719e+02   2.8102709407e+00    0.2272501    0.1267872 -52.24  0.001196975    2.149    0.535
