#   1 NUMBER                 Running object number                                     
#   2 MAG_AUTO               Kron-like elliptical aperture magnitude                    [mag]
#   3 X_IMAGE                Object position along x                                    [pixel]
#   4 Y_IMAGE                Object position along y                                    [pixel]
#   5 X_WORLD                Barycenter position along world x axis                     [deg]
#   6 Y_WORLD                Barycenter position along world y axis                     [deg]
#   7 A_WORLD                Profile RMS along major axis (world units)                 [deg]
#   8 B_WORLD                Profile RMS along minor axis (world units)                 [deg]
#   9 THETA_WORLD            Position angle (CCW/world-x)                               [deg]
#  10 FWHM_WORLD             FWHM assuming a gaussian core                              [deg]
#  11 ELONGATION             A_IMAGE/B_IMAGE                                           
#  12 ELLIPTICITY            1 - B_IMAGE/A_IMAGE                                       
         1 -10.1388      5.0321     40.7108   6.8885833688e+01   7.0834227378e+01    0.4932524    0.2513226 -82.19  0.001973039    3.562    0.719
         2  -9.6909     97.8126     12.2124   1.5505809759e+01   5.7520102687e+01    0.3024996    0.1898404 -14.54  0.001264043    2.250    0.556
         3  -8.4297      3.4019     12.2646   5.8054402677e+01   7.6472110971e+01    0.1460032    0.1199893 -55.68 0.0009441088    1.566    0.361
         4  -8.4853     65.0401      4.9552   1.9972779702e+01   6.5872800061e+01    0.1914532    0.1258501  41.33 0.0002981854    1.541    0.351
         5 -10.2716     41.0649     13.7269   3.3284071559e+01   7.0151111741e+01    0.2425926    0.1849867  40.62 0.0001989984    1.123    0.109
         6  -8.4220     52.0007      2.9959   2.3084994438e+01   6.8992595810e+01     0.190966    0.1251958  36.79  0.001085597    1.554    0.357
         7  -9.1362      2.5640      3.0482   5.3252800968e+01   7.8052007660e+01    0.1916005    0.1326226  22.94 0.0007225985    1.207    0.171
         8  -9.4518     67.5553      1.3845   1.7648377532e+01   6.5608959839e+01    0.2312766     0.100909  65.57 0.0002426584    1.872    0.466
         9  -9.0926     87.1150    247.6707   7.1396935997e+01   1.0935212854e+01    0.2763942   0.08039974  30.11  0.001095076    2.604    0.616
        10 -10.5565    247.1200    248.3471   4.0434796189e+01  -3.6708848007e+00    0.2510583     0.174548  -7.66 0.0009123699    1.167    0.143
        11  -9.5099    214.2120    250.2410   4.5701585016e+01  -1.5290104077e+00    0.2097821    0.1182921  15.71  0.001437147    1.650    0.394
        12  -9.8018    204.9833    249.8517   4.7181768601e+01  -7.4562251515e-01    0.2240803    0.1230393  25.23  0.001479967    1.867    0.464
        13  -9.4139    157.4676    221.5815   5.2113936610e+01   8.1830059139e+00    0.2457968    0.1804301  -8.43  0.000788957    1.223    0.182
        14 -11.3130    164.9625    248.5284   5.4322096285e+01   2.9474532409e+00     0.700783    0.3242775  27.04   0.00376799    1.983    0.496
        15 -11.3799    167.0580    242.0801   5.3053298535e+01   3.7649827508e+00    0.5426635    0.3297983  15.01  0.002006639    1.457    0.314
        16 -10.2499    169.8124    224.9726   5.0117647813e+01   6.2809939340e+00    0.4300465    0.2488572  40.75  0.001632531    2.281    0.562
        17 -10.9006    169.6177    233.6389   5.1391218080e+01   4.8719220672e+00    0.4862774    0.4151481 -42.96  0.002145051    1.458    0.314
        18 -12.0508    162.2213    227.5737   5.2004901806e+01   6.6369514857e+00     0.988045    0.4885677 -42.51  0.003141081    1.901    0.474
        19  -8.2283     39.2918    250.3247   8.3301375236e+01   1.5055458456e+01    0.1209496   0.08964331 -22.10 0.0003091511    1.615    0.381
        20 -10.6726      7.8863    241.8868   9.0594325673e+01   1.9443819045e+01    0.6662961    0.4313555   1.66  0.003750153    1.739    0.425
        21  -9.3479     12.5359    244.4855   8.9559321838e+01   1.8532214410e+01    0.2530376     0.205611  32.76  0.001189817    1.047    0.045
        22 -11.2940     19.8215    248.6718   8.7967612583e+01   1.7071602511e+01    0.5120099    0.3674553  36.05  0.003058615    1.130    0.115
        23 -10.6914     73.6411    244.5389   7.4378885209e+01   1.2925958502e+01    0.2825726    0.2371996   6.31 0.0005525246    1.114    0.102
        24  -9.6393     16.5029    244.4760   8.8586079828e+01   1.8217954400e+01    0.2420799    0.1726727  14.88 0.0008227131    1.339    0.253
        25 -11.4340    237.5609    240.8681   4.0810687515e+01  -2.0580880968e+00    0.3946867    0.2653834  -9.66  0.002007789    1.155    0.134
        26  -9.7235    250.5121    241.5323   3.9046822523e+01  -3.0614987236e+00    0.2255369    0.1122137 -38.91 0.0007992333    1.684    0.406
        27  -9.8041    248.5380    237.5023   3.8776514944e+01  -2.4201337325e+00    0.1976267    0.1200784 -23.63  0.001273066    1.139    0.122
        28  -9.4729    221.2579    240.0049   4.3178216394e+01  -7.0068528461e-01     0.205185    0.1380908 -23.63 0.0006971105    1.111    0.100
        29 -10.3493    231.1376    234.5490   4.0896635449e+01  -7.4248336640e-01    0.2585694    0.1788503 -21.47 0.0007619066    1.042    0.040
        30 -10.9394     54.1474    248.8074   7.9545700156e+01   1.3987198761e+01    0.5835564    0.3289107  -2.51  0.002173707    2.177    0.541
        31 -10.1493     12.9697    250.0800   8.9684405973e+01   1.7332816698e+01    0.3800755    0.2013566  34.47  0.002092586    1.470    0.320
        32 -10.8815    106.5941    224.2173   6.4012620680e+01   1.3463255945e+01    0.7793543    0.3981982 -14.34   0.00305881    3.111    0.679
        33 -10.1809    101.2719    233.6865   6.6462073098e+01   1.2163790614e+01    0.5017594    0.3237464  63.52  0.002459715    2.460    0.593
        34 -11.5513     90.6728    231.5734   6.8828637848e+01   1.3753126592e+01     1.369934    0.4200183 -65.18  0.004769406    4.408    0.773
        35 -10.1316     87.3260    227.9363   6.9262806217e+01   1.4874232287e+01    0.2820738    0.2397599 -28.82 0.0009944357    1.236    0.191
        36 -11.4680     98.7551    225.4891   6.6105687270e+01   1.4099031693e+01    0.6368507    0.4388622  -9.08  0.001372156    1.561    0.360
        37 -11.8455     95.6011    217.8616   6.5963429156e+01   1.6060076031e+01    0.7052127    0.4189426  32.63  0.002135437    1.527    0.345
        38 -10.4553    100.0160    217.4757   6.4792491987e+01   1.5623563850e+01    0.3223462    0.2434559  42.07 0.0007749503    1.393    0.282
        39 -11.3427    239.1647    230.0427   3.9080533811e+01  -7.6503602059e-01    0.4601127    0.2495329  -9.01  0.002158397    1.805    0.446
        40  -9.4949    242.8508    223.8416   3.7679204080e+01  -2.2904321957e-01     0.205994    0.1094182 -36.38 0.0006882764    1.450    0.310
        41 -11.7727    126.8126    221.7150   5.8860222035e+01   1.1624949692e+01    0.7908417    0.5128061 -63.89  0.002719772    2.047    0.511
        42  -9.9419    117.7963    227.5448   6.1746860850e+01   1.1525799410e+01    0.3461305     0.263005  32.34  0.001180051    1.310    0.236
        43  -9.6199    249.2775    227.1613   3.7248167248e+01  -1.1540261401e+00    0.2574295    0.1298214 -12.26    0.0016711    2.045    0.511
        44  -8.9322    178.3289    222.6866   4.8139659768e+01   5.7784640388e+00    0.1748514    0.1331879 -29.10   0.00073869    1.174    0.148
        45  -9.4182    184.7073    226.6532   4.7526050427e+01   4.4986788074e+00    0.1969035    0.1633979 -35.16  0.000714934    1.341    0.254
        46 -10.2984    181.2077    226.2084   4.8111688945e+01   4.9162797290e+00    0.3296966    0.2467656  38.18  0.002159337    1.790    0.441
        47  -9.0243    144.9592    227.5089   5.5603695975e+01   8.5011413240e+00    0.2314831    0.1491967 -27.38 0.0006682193    1.492    0.330
        48  -8.1360    195.6939    227.7177   4.5701583659e+01   3.2770495412e+00    0.1159546   0.06919132 -14.46 0.0002146605    1.559    0.359
        49  -8.5408    191.7006    227.0362   4.6311252928e+01   3.7602595127e+00    0.1589871    0.1179616 -21.25 0.0003458187    1.079    0.073
        50  -9.5107     66.7532    223.6864   7.4144735456e+01   1.8033120595e+01    0.2251744    0.2147015  37.93 0.0005251791    1.109    0.098
        51  -9.0766    213.5787    220.7679   4.1668257022e+01   2.6664349812e+00    0.2395411    0.1474316  31.33  0.001592364    1.948    0.487
        52  -9.4455    219.0353    219.1654   4.0561726309e+01   2.4096239623e+00    0.2967656    0.1646806 -22.69  0.001897089    1.556    0.357
        53  -9.7077    133.2832    220.6492   5.7228332500e+01   1.1081943658e+01    0.2293734    0.1992349 -84.62 0.0008944359    1.685    0.406
        54 -10.2358    131.0135    214.9334   5.6935254685e+01   1.2449983391e+01    0.3961657    0.3427123 -83.01  0.001617554    1.646    0.392
        55  -9.3424    128.0764    211.7711   5.7160866861e+01   1.3426349699e+01     0.332039    0.1736814  39.49  0.001121118    2.051    0.513
        56  -9.4523    115.0492    220.8079   6.1516345273e+01   1.3171400936e+01    0.2142885    0.1856232 -30.62 0.0005469471    1.177    0.151
        57  -8.5995    149.3763    219.7948   5.3557052065e+01   9.4025483321e+00    0.2309246    0.1577858 -41.16 0.0009431093    1.431    0.301
        58  -9.4199    151.4915    216.0515   5.2556298839e+01   9.8432585542e+00    0.2907515    0.1885171   9.21 0.0009366614    1.508    0.337
        59  -9.9631     75.0520    219.0219   7.1458040736e+01   1.8160416407e+01    0.3061258    0.2530727  56.35   0.00109238    1.336    0.252
        60 -10.2629    190.3779    216.4219   4.4981072289e+01   5.5621474783e+00    0.4505616    0.2394059 -37.52  0.002620313    1.612    0.380
        61  -9.7944     64.2318    213.6928   7.3806253705e+01   2.0560417745e+01    0.5721999    0.3053297  31.63  0.002530797    1.625    0.384
        62 -10.3194     84.3738    215.7385   6.8617855053e+01   1.7827644410e+01    0.5609518    0.2535536 -51.36  0.002438468    2.288    0.563
        63  -9.7444    175.9955    216.0728   4.7600601124e+01   7.1206820406e+00    0.2677871    0.1453255 -38.38  0.001185752    1.639    0.390
        64  -8.1851    143.5998    217.1917   5.4430082302e+01   1.0541131943e+01    0.1766553    0.1068258 -36.59 0.0008534681    1.586    0.370
        65 -10.3402    170.7858    215.1986   4.8479981603e+01   7.8327668861e+00    0.2694231    0.2085072  -9.73  0.000710326    1.102    0.093
        66  -9.8397     22.8528    216.4927   8.5453548168e+01   2.3946990605e+01    0.5270482    0.1175521  19.53  0.001649525    3.985    0.749
        67 -10.2072    121.7618    222.6044   6.0160001906e+01   1.2035675102e+01    0.2884767    0.2790555  40.43  0.001645706    1.283    0.221
        68  -9.9492    113.1228    212.6063   6.0871507957e+01   1.5073886744e+01    0.6343988    0.3505978 -13.19   0.00266794    2.580    0.612
        69  -9.6847    228.8444    213.1275   3.8165969189e+01   2.4068158180e+00    0.3667677    0.1289692 -31.74  0.001839213    2.573    0.611
        70  -9.7726    202.5067    211.1662   4.2066736355e+01   5.1713499066e+00    0.4074037    0.1763766 -47.34  0.002111112    2.311    0.567
        71 -11.0877    212.2229    206.9361   3.9814708818e+01   4.8632936979e+00    0.5875996    0.3321269 -37.68   0.00371616    1.446    0.308
        72  -8.2639    135.6275    208.7678   5.4970695431e+01   1.3100183752e+01    0.1586097    0.1251844 -57.86 0.0002418971    1.511    0.338
        73 -10.6198     77.8389    210.3438   6.9724194933e+01   1.9793468336e+01    0.4404779    0.3795226  83.29  0.001960843    1.379    0.275
        74 -10.8742      1.5875    162.8963   8.8559808289e+01   3.9237639899e+01     1.316527    0.4808742  33.06  0.005113543    2.415    0.586
        75 -11.9253     15.3117    197.6167   8.6417553447e+01   2.9170393453e+01      1.82541    0.3385287 -53.80  0.003713077    5.656    0.823
        76 -11.0358     20.1165    181.2640   8.3811329078e+01   3.2989797243e+01    0.7303793    0.3381503 -51.44  0.002999695    2.292    0.564
        77 -10.8331     10.4787    186.5079   8.7173773383e+01   3.2375621065e+01     0.654359    0.3320126  46.47  0.001551773    1.828    0.453
        78 -11.8284     12.7816    179.9366   8.6028687034e+01   3.3919740800e+01     1.075176    0.9119512  77.93  0.006098905    1.157    0.136
        79 -11.0373      5.5036    177.0254   8.8143481705e+01   3.5208361004e+01    0.5375602    0.3505212  34.40  0.002153983    1.424    0.298
        80 -11.3596      4.1343    171.5939   8.8253385165e+01   3.6741108770e+01    0.6890013    0.4380555  43.13  0.002719554    1.477    0.323
        81  -7.9326    124.4917    205.4686   5.7083533428e+01   1.5141842065e+01    0.1373873    0.1183336  -5.17 0.0008092378    1.052    0.050
        82  -9.3057    129.7694    201.2309   5.5187255306e+01   1.5340270112e+01    0.3078217    0.2371488  44.76  0.001555824    1.516    0.340
        83  -9.1346    185.6915    189.9388   4.1655267082e+01   1.0490965619e+01    0.2143418    0.1654509  17.53  0.001049863    1.342    0.255
        84 -10.0129    183.1259    185.6743   4.1414964375e+01   1.1542408247e+01    0.2786686    0.2238007 -65.15  0.001181817    1.749    0.428
        85 -10.1671    166.6609    199.1321   4.6796862232e+01   1.1141341681e+01    0.4419283    0.2717374 -29.87  0.001532726    1.530    0.346
        86 -11.0672    176.0181    184.9962   4.2631778740e+01   1.2545370834e+01    0.5579563    0.3822386 -57.46  0.002181993    1.802    0.445
        87  -9.4604    171.3711    201.2330   4.6198419581e+01   1.0204678649e+01    0.2614054    0.2245834 -65.52 0.0009092091    1.645    0.392
        88 -11.3023    178.8600    196.5651   4.4005765944e+01   1.0146965661e+01    0.7537646    0.3923578 -28.73  0.002987208    1.953    0.488
        89 -11.4845    172.7615    195.5415   4.5009638380e+01   1.1053171555e+01    0.6429142    0.3192262 -40.22  0.002230135    1.798    0.444
        90  -7.9332    250.2772    200.6594   3.3306177669e+01   2.2888105575e+00   0.09147746   0.06953792 -46.43 0.0003016333    1.620    0.383
        91 -10.1215    237.6145    210.3446   3.6474127096e+01   2.0358553488e+00    0.2218366    0.1493869  41.03  0.001533605    2.382    0.580
        92  -7.9035    148.7218    211.3003   5.2440249891e+01   1.1041819425e+01    0.1123422    0.1013948  56.92 0.0001540626    1.541    0.351
        93  -9.7349    104.8459    197.7874   6.0855202137e+01   1.9294602466e+01    0.4516546    0.2797584  -3.91  0.002021171    2.049    0.512
        94  -8.8893     58.5704    196.4906   7.3548253662e+01   2.5285272276e+01    0.1947193    0.1391852 -85.98 0.0001331849    1.636    0.389
        95  -8.4429    113.5086    198.5271   5.8745199668e+01   1.8007271589e+01    0.2469483    0.1105418  38.23   0.00101621    2.222    0.550
        96  -9.0907    112.7862    194.5772   5.8329376702e+01   1.8960504751e+01    0.3701204      0.22712 -24.55  0.001116803    1.951    0.487
        97  -8.4301     44.0284    199.0000   7.8070400078e+01   2.6221012644e+01    0.2414758   0.07548591  21.42 0.0008054118    2.963    0.663
        98  -9.7013    126.7867    196.6344   5.5184134739e+01   1.6674063005e+01    0.3159227    0.2267549   7.69  0.001122364    1.417    0.294
        99  -9.1277    124.6134    193.2105   5.5169916264e+01   1.7680408031e+01    0.3381202    0.1967639 -44.13  0.001629801    1.689    0.408
       100  -8.6773    248.4035    195.8019   3.2831408692e+01   3.1172739446e+00    0.1512482   0.06991648 -32.99 0.0004163654    1.637    0.389
       101  -9.1646    131.6688    194.9628   5.3757633564e+01   1.6379100033e+01    0.1851234     0.167745 -28.10 0.0005545873    1.101    0.092
       102  -8.4077     40.5124    194.9929   7.8732542642e+01   2.7576335394e+01    0.2098618     0.094952 -45.69 0.0008103107    2.542    0.607
       103 -10.9122     93.8096    181.7801   6.1419227452e+01   2.4445301415e+01    0.5492258    0.3360949 -41.45  0.001786198    1.719    0.418
       104 -11.9864     98.0679    188.8998   6.1335078434e+01   2.2200927199e+01    0.6071866     0.444332  61.71  0.001142938    1.754    0.430
       105  -8.2523     66.6996    194.9485   7.1002246518e+01   2.4728449622e+01    0.2802265    0.1112958  51.66 0.0009019607    3.525    0.716
       106  -8.8886     51.5362    198.0124   7.5770433290e+01   2.5681715105e+01    0.2745959    0.1270393  30.86  0.001143917    1.877    0.467
       107 -10.1545    104.0422    189.4755   5.9819572890e+01   2.1266515015e+01    0.3162507     0.252712  14.56 0.0008130215    1.204    0.169
       108  -9.8820    203.8841    187.9256   3.8172639963e+01   8.7305691547e+00    0.2746351    0.2382398  61.46  0.001897482    1.858    0.462
       109  -8.6299    199.3046    185.3250   3.8509073136e+01   9.6774508704e+00    0.2032194    0.1133125  24.52  0.001017707    2.044    0.511
       110  -8.9377    155.0386    187.9345   4.7358084673e+01   1.4699930082e+01    0.3461747    0.1487121 -37.20  0.001468419    2.374    0.579
       111  -8.4129    128.8188    188.2379   5.3349105032e+01   1.8163407775e+01    0.2149448    0.1430286  66.13 0.0008145283    2.676    0.626
       112  -9.4441    231.5866    185.7271   3.3584143310e+01   6.1373733488e+00    0.3066221    0.1397949 -35.83  0.001790123    1.711    0.415
       113  -9.5739    226.9082    183.2527   3.3861299317e+01   6.9836337657e+00    0.2886038    0.2669996  74.34   0.00120518    1.787    0.440
       114 -11.4684    179.2013    178.7011   4.0956637629e+01   1.3273085938e+01     1.383953    0.6233334 -37.30  0.006545337    2.052    0.513
       115  -9.8949     46.4528    185.5208   7.5973690207e+01   2.9373575588e+01    0.3928142    0.2914515  78.80  0.001377205    1.511    0.338
       116 -10.2277     47.0000    182.0136   7.5417823582e+01   3.0219562011e+01    0.8354638    0.1858966 -65.52  0.002486505    4.029    0.752
       117  -9.9591    209.6056    184.7761   3.6732094779e+01   8.6013396463e+00    0.2408662    0.1729145 -45.03  0.001604513    1.371    0.271
       118  -8.7882    212.5340    182.4503   3.5890693211e+01   8.6476054823e+00    0.1773693    0.1031049  15.71 0.0007139189    2.173    0.540
       119  -9.6110    108.5401    185.5127   5.8011319255e+01   2.1550716244e+01    0.3746259    0.2726452  82.82  0.001562888    2.098    0.523
       120  -8.8058    111.5155    184.4499   5.7062544586e+01   2.1377800194e+01    0.2640567     0.206805  13.28 0.0007349631    1.261    0.207
       121  -8.6571    249.8663    185.3212   3.1058725431e+01   4.4423208244e+00    0.1376942    0.1269148 -33.66  0.001195723    1.467    0.319
       122  -8.7181    217.6792    183.0035   3.5188463510e+01   7.9977032251e+00    0.1643843    0.1197192 -30.52 0.0006509463    1.068    0.063
       123  -9.7231    138.5709    180.2802   4.9706629836e+01   1.8474926675e+01    0.3064249    0.2782425  42.99  0.001569189    1.264    0.209
       124  -8.1428    209.3621    180.2804   3.6032727952e+01   9.3504177733e+00    0.1182725   0.07665528 -13.85 0.0007014164    1.674    0.403
       125  -9.2109    112.3327    179.3295   5.6008262534e+01   2.2416350851e+01    0.2558596    0.2064138   0.79  0.001358864    1.282    0.220
       126  -9.4600    105.4928    175.0040   5.7103648229e+01   2.4390981679e+01    0.3213435     0.205276  69.09  0.001220725    2.651    0.623
       127  -9.6762    104.2943    179.5282   5.8177391089e+01   2.3512939509e+01    0.3257347    0.2301125 -56.86  0.001612095    1.488    0.328
       128  -8.9288    100.9661    177.7837   5.8799136909e+01   2.4390346640e+01    0.2916282    0.1611353  17.96  0.001015754    2.025    0.506
       129  -8.4861    219.4234    178.5978   3.4209608641e+01   8.4949208046e+00    0.2097399    0.0907508 -45.07 0.0006859451    1.984    0.496
       130  -9.1933    157.9844    177.0196   4.4861018601e+01   1.6418529689e+01    0.5334441    0.3573772  23.18  0.002894693    1.575    0.365
       131 -10.7160    152.0232    174.5000   4.5683542196e+01   1.7747777089e+01     0.475397    0.3832148  40.56  0.002769765    1.393    0.282
       132 -10.0755    148.6701    174.6759   4.6445684505e+01   1.8188958939e+01    0.3126215    0.2177806 -27.75 0.0009844202    1.452    0.311
       133  -8.7161    240.6172    177.6212   3.1071792592e+01   6.4247793794e+00    0.2032333   0.09907141 -40.48 0.0008246496    1.559    0.359
       134 -11.2326    218.0200    165.3678   3.2221841196e+01   1.0734180467e+01    0.4281317    0.3280351  18.04   0.00208812    1.529    0.346
       135  -9.6401    220.0973    159.3223   3.0897495440e+01   1.1443635403e+01    0.2059364    0.1374584 -40.16 0.0009210386    1.196    0.164
       136 -10.7913    204.2011    175.4819   3.6057660709e+01   1.0731960616e+01    0.3830312    0.3064539   3.32   0.00265484    1.312    0.238
       137 -11.2665    207.6934    168.6899   3.4349691605e+01   1.1430028587e+01    0.5549838    0.3984594 -43.84  0.003656809    1.257    0.205
       138  -8.8632     89.3684    177.3691   6.1989614676e+01   2.6113596835e+01    0.2977171    0.1959863  61.12 0.0008275956    2.007    0.502
       139  -8.7724    118.0084    176.1743   5.4005447906e+01   2.2307679948e+01    0.2449362    0.1949773 -46.15  0.000780543    1.251    0.201
       140  -8.4109     77.2245    175.7521   6.5304396608e+01   2.8159397728e+01    0.2379667    0.1355401  61.05 0.0009104575    2.506    0.601
       141  -9.8595     24.3140    174.5754   8.1909587190e+01   3.4404501303e+01    0.6489925    0.2044206  40.46  0.001915395    2.828    0.646
       142  -9.5862     19.3325    166.6943   8.2862686672e+01   3.6944069709e+01    0.2255338    0.1461663 -86.44  0.000331615    1.594    0.373
       143  -8.7527     31.5221    166.4725   7.8737175507e+01   3.5921761468e+01    0.4226343    0.1915536 -88.20  0.001514037    2.807    0.644
       144  -9.7639     28.9671    173.5217   8.0295460848e+01   3.4268285069e+01    0.4963797    0.2427851 -29.21  0.001817902    2.897    0.655
       145  -9.9346     28.5430    169.9870   8.0091372924e+01   3.5254355933e+01    0.4223213    0.3149375  13.03  0.002127183    1.370    0.270
       146  -9.3146     92.0048    172.4476   6.0444485371e+01   2.6935947143e+01    0.3331551    0.2387286  37.54  0.001040885    1.364    0.267
       147  -8.3009     87.9714    173.0000   6.1701038880e+01   2.7371166312e+01    0.2802261    0.1989178  19.01 0.0007438853    1.419    0.295
       148  -8.3617    224.1935    205.2482   3.7686274029e+01   3.9690690048e+00    0.1331151    0.1098696 -33.31 0.0003523162    1.309    0.236
       149  -8.4093    223.6501    172.2716   3.2553881577e+01   9.0113183597e+00   0.09811925    0.0841574 -63.62 0.0002079457    1.628    0.386
       150  -8.8615    193.4610    172.5119   3.7337222070e+01   1.2545723490e+01    0.1752136    0.1122293  16.73 0.0005359319    1.887    0.470
       151  -8.6393    176.6979    171.3584   4.0143342468e+01   1.4933099380e+01    0.2429519    0.1648761 -66.41 0.0009131214    2.227    0.551
       152  -8.7070    179.5009    169.5491   3.9300164945e+01   1.4885506471e+01    0.2289451    0.1685133  -1.39  0.000613571    1.537    0.349
       153  -9.0024    176.8197    167.6690   3.9463324295e+01   1.5591740716e+01    0.2623145    0.1612395 -43.48 0.0007203305    1.447    0.309
       154  -8.2519    135.4845    171.5040   4.8882907473e+01   2.0758821594e+01    0.1378033    0.1292562 -15.61 8.145355e-05    1.030    0.029
       155  -8.8196    121.3275    169.7829   5.2038959308e+01   2.3242473172e+01    0.2579198    0.2142943 -89.33 0.0009489274    1.583    0.368
       156  -9.7628    199.8961    167.3093   3.5359731016e+01   1.2621603952e+01    0.3175062    0.1912543 -19.12  0.001059674    1.987    0.497
       157  -8.3358     54.8818    169.2606   7.1347766508e+01   3.2657265281e+01    0.2716796    0.1311733  57.88 0.0009441743    2.842    0.648
       158  -9.0276    160.3657    166.5193   4.2484566498e+01   1.8125633044e+01    0.4537584     0.224674 -59.31  0.001729166    2.826    0.646
       159 -10.3877    247.1905    163.1885   2.7946739039e+01   7.8435422122e+00    0.5160487    0.2182525 -32.01  0.002859625    2.144    0.534
       160 -11.3419    249.1870    153.4397   2.6145659262e+01   9.0330056002e+00    0.6771005    0.2147242 -42.98  0.003451757    2.352    0.575
       161 -10.6896    149.8816    163.8038   4.4204160032e+01   2.0209445569e+01    0.4094032    0.3361692 -21.16  0.001496174    1.201    0.167
       162  -8.9006    139.1395    165.3035   4.6897886514e+01   2.1520729613e+01    0.2888567     0.205483  84.57  0.001289054    2.555    0.609
       163  -9.1055     97.7635    165.3404   5.7594299040e+01   2.7813104662e+01    0.4870989     0.274751  67.34  0.001630903    3.646    0.726
       164  -8.6384     92.6690    160.2762   5.8176559632e+01   2.9806657997e+01    0.2392489    0.1700156  65.06  0.001071677    1.829    0.453
       165  -8.4079     38.0029    164.9763   7.6388058065e+01   3.5680971364e+01    0.2475335    0.1604846  55.55 0.0006316085    1.638    0.390
       166  -7.9958     80.3762    164.6714   6.2616176956e+01   3.0509335554e+01    0.1645044     0.109727  59.09  0.000702413    1.840    0.457
       167  -7.8463     74.3059    163.2757   6.4267607088e+01   3.1711353239e+01    0.1516332    0.1136513 -20.37 0.0002420085    1.547    0.354
       168 -10.3498     23.3403    160.0900   8.0877216927e+01   3.8403481138e+01    0.6034383    0.3150648  -5.07  0.002112179    2.509    0.601
       169  -8.7183     28.0249    158.0000   7.9027804730e+01   3.8555373236e+01     0.262779    0.1970101   4.67 0.0008422996    1.427    0.299
       170 -10.0260     99.7558    158.8253   5.5861673593e+01   2.9077435149e+01    0.4160001    0.3152566 -58.72  0.001293576    1.374    0.272
       171  -8.9245     99.8725    154.1189   5.4954654198e+01   3.0191124947e+01    0.2243493    0.2125942 -11.13 0.0002843884    1.050    0.047
       172  -8.1000    177.3338    160.6293   3.8091881211e+01   1.6811674523e+01    0.1252132    0.1003533 -79.46 0.0007028022    1.839    0.456
       173 -10.2384    143.0723    158.4984   4.4718325430e+01   2.2340039950e+01    0.5929747    0.2375371  45.45  0.002125299    2.978    0.664
       174  -9.2066    105.1703    157.5620   5.4101257558e+01   2.8535426731e+01     0.288241    0.2250651  82.06 0.0008678362    1.706    0.414
       175 -10.1138    224.5182    156.9205   2.9869783414e+01   1.1293290985e+01    0.2032693    0.1692394 -63.16  0.001470914    1.543    0.352
       176 -10.3776    209.5546    156.2828   3.1918472707e+01   1.3232743293e+01    0.4766483    0.2436809  31.40  0.002575089    2.514    0.602
       177 -11.6067    206.0217    150.1671   3.1370679003e+01   1.4699594301e+01    0.6439523    0.4087465 -53.10  0.003108124    1.614    0.381
       178  -9.7202    206.7084    142.0462   2.9803413667e+01   1.5950948187e+01    0.2468636    0.1626428 -34.83 0.0006904152    1.315    0.240
       179  -8.8649    127.4862    156.8487   4.8094479663e+01   2.5153571190e+01    0.2221988    0.1875913 -19.73 0.0005456882    1.224    0.183
       180  -9.6143    165.9264    156.6595   3.9532762267e+01   1.9213927502e+01    0.3426736    0.2533711  57.64  0.001361832    1.809    0.447
       181  -8.8481     49.9778    155.2896   7.1046373402e+01   3.6963155177e+01    0.4112287    0.1840807  49.69  0.001450582    2.598    0.615
       182 -10.2068    134.5181    153.7400   4.5785512751e+01   2.4701443622e+01    0.5186582    0.3669705  62.94  0.001802064    1.965    0.491
       183  -8.7041    119.3916    154.6384   4.9719314500e+01   2.6945405786e+01    0.2701159    0.1382596 -67.61 0.0009198078    3.130    0.681
       184  -9.4797     82.1100    154.5936   6.0361129372e+01   3.2803011765e+01    0.3195585    0.2289289  71.30  0.001317466    1.826    0.452
       185  -9.8376     68.5620    153.4441   6.4498211119e+01   3.5048576989e+01    0.6051012     0.395112 -78.31  0.001975752    1.839    0.456
       186 -10.3100     70.0880    142.7290   6.2112282282e+01   3.7625683053e+01    0.6389669    0.4570402 -63.52  0.002555653    1.449    0.310
       187  -8.7370    233.8796    153.6427   2.8068674114e+01   1.0701674245e+01    0.2097514    0.1194348 -34.93  0.001331225    1.402    0.287
       188  -9.1286    195.0086    153.9806   3.3796105042e+01   1.5537253744e+01    0.1799223    0.1457858 -72.55 0.0005911713    1.680    0.405
       189  -9.7516      5.2429    152.0364   8.6548723311e+01   4.1972482927e+01    0.4324079      0.21714  56.77  0.001572826    2.100    0.524
       190 -10.8457    223.3318    148.6312   2.8615332624e+01   1.2728824265e+01    0.3861671    0.3358288 -15.56  0.001900908    1.213    0.176
       191  -8.9930    190.0499    151.0080   3.4075971035e+01   1.6742777393e+01    0.2334335    0.1804647  44.55  0.001078133    1.550    0.355
       192  -8.3811     87.8005    151.4043   5.8026493929e+01   3.2742169253e+01    0.2105293    0.1451976  16.75 0.0009400108    1.598    0.374
       193  -9.1468     28.5199    149.5933   7.7897598978e+01   4.0818995368e+01    0.5184793    0.2120271  63.42   0.00155484    3.934    0.746
       194  -8.1924     23.3153    151.6875   8.0018312201e+01   4.0712989456e+01    0.1593403     0.101644  54.71 0.0007033546    1.639    0.390
       195  -9.7186    118.5812    145.0193   4.8023018648e+01   2.9255822024e+01     1.013702     0.571776  61.54  0.003732636    3.029    0.670
       196  -9.2559    108.4460    138.6765   4.9451207928e+01   3.2439222660e+01    0.5158086    0.3218254  70.39  0.001951188    2.810    0.644
       197  -8.5073     82.7950    149.2321   5.9175589055e+01   3.4054897458e+01     0.214281    0.1750144 -18.09 0.0004862792    1.370    0.270
       198  -9.6494     39.2555    146.7541   7.3628515690e+01   4.0509040032e+01    0.6089047    0.2811928  65.43  0.001926169    3.539    0.717
       199  -8.6705     77.1511    147.1853   6.0597797657e+01   3.5428664184e+01    0.2364644    0.2067114 -11.99  0.001153866    1.229    0.186
       200 -10.0872     57.3191    145.3404   6.6958565284e+01   3.8713434377e+01    0.7963085    0.3087404  31.44  0.002821529    2.358    0.576
       201 -10.5142    244.4077    142.4704   2.4917465160e+01   1.1146641818e+01    0.2818142    0.1916126 -43.24  0.002053714    1.148    0.129
       202 -10.1126    244.8105    135.3761   2.3693090481e+01   1.2129814092e+01    0.3821202    0.1844321  32.73   0.00212622    3.443    0.710
       203  -9.4908    148.8726    145.0472   4.0798457057e+01   2.4181859719e+01    0.4211567    0.2911857  88.88  0.001845262    2.680    0.627
       204  -8.7774    142.9123    145.8097   4.2268360168e+01   2.5006846166e+01    0.2183751    0.1807609 -14.59 0.0007445042    1.323    0.244
       205  -9.3458    106.9220    144.9060   5.1156456700e+01   3.1239343372e+01     0.483648    0.2994871  72.54  0.001767882    3.054    0.673
       206  -8.5092     13.3965    146.2285   8.3089692170e+01   4.3019083493e+01    0.1989317    0.1337255  84.47 0.0004260314    1.555    0.357
       207  -8.5070    188.0000    143.9998   3.3112672996e+01   1.8271423776e+01    0.1705768    0.1007079 -43.15 0.0004438506    1.452    0.311
       208  -9.0101      3.4994    143.5270   8.6529107977e+01   4.4423634615e+01    0.3554295    0.1354954 -78.22  0.001221078    2.523    0.604
       209  -9.2308    125.1360    142.7979   4.5886971639e+01   2.8641405998e+01    0.4452835    0.2724567 -79.29  0.001634092    3.222    0.690
       210  -8.7486     88.0332    143.8091   5.6509272312e+01   3.4597414038e+01    0.3298395    0.2103959  66.03  0.001232291    2.274    0.560
       211 -10.7827    192.6635    133.9810   3.0447894625e+01   1.9327073327e+01    0.5855022    0.2491426 -51.61  0.002611074    2.410    0.585
       212 -10.4571    197.3488    136.5166   3.0195803772e+01   1.8200092224e+01    0.4338306    0.2450728 -32.76  0.001499019    1.746    0.427
       213 -10.0790    201.9087    136.0168   2.9408352668e+01   1.7625222095e+01    0.3453222    0.2209915  60.05  0.001961454    2.233    0.552
       214  -9.5780     24.7601    126.9510   7.6424834278e+01   4.7432333264e+01    0.4993415    0.3026003 -58.39   0.00222104    1.580    0.367
       215  -9.3567     23.8398    138.5524   7.8313259815e+01   4.4302309130e+01    0.4981233    0.2066918  51.46  0.001718892    2.856    0.650
       216  -9.9910     19.8544    133.9520   7.9301719603e+01   4.5921785085e+01    0.3675353    0.2653989 -22.68  0.000372998    1.531    0.347
       217  -9.6651    234.2112    137.0677   2.5226055371e+01   1.3156889197e+01    0.2782789    0.1844873 -29.75  0.001310086    1.388    0.280
       218 -10.2474     41.4915    135.0504   7.1057873436e+01   4.3462042506e+01    0.8067232    0.4308243 -69.86    0.0026235    1.941    0.485
       219 -10.6820     45.2945    131.0746   6.8952968181e+01   4.4090979548e+01    0.7238428    0.4071683  77.56  0.002627799    2.736    0.634
       220  -8.5183    161.8818    137.1710   3.6520056370e+01   2.3601836919e+01    0.1853003    0.1553378 -14.52 0.0007895283    1.318    0.241
       221  -8.1720     91.5039    135.5792   5.3774975223e+01   3.6061627335e+01    0.1503863     0.146065  42.82 0.0001504168    1.031    0.030
       222  -8.2666    187.3222    134.6563   3.1439871850e+01   2.0018711078e+01    0.1255077    0.0937403 -71.08  0.000705025    1.730    0.422
       223  -9.7938    110.3176    131.3840   4.7373390817e+01   3.3797770389e+01    0.5237311    0.4104347  31.88  0.001763609    1.311    0.237
       224 -11.1524    107.4361    113.2988   4.4031252325e+01   3.8420746873e+01     1.243844    0.8521212 -46.15  0.005305117    1.466    0.318
       225 -10.5114    117.2126    125.1561   4.4130054065e+01   3.3955538181e+01    0.7838532     0.471092  44.52  0.002856253    1.697    0.411
       226  -9.8503    118.8015    118.7214   4.2242992298e+01   3.5071861597e+01    0.5555415     0.212533 -47.19  0.001997017    2.562    0.610
       227  -9.2124    104.5043    123.5165   4.7258665489e+01   3.6654042384e+01    0.2801673    0.2540505   6.35 0.0008823077    1.203    0.169
       228  -9.8987    108.6872    121.8111   4.5682864874e+01   3.6275816435e+01    0.4294636    0.2660441 -42.39  0.001046733    1.669    0.401
       229  -9.5693     83.6040    132.0231   5.5529588977e+01   3.8253124213e+01    0.4080367    0.2762443  65.14  0.001617671    1.948    0.487
       230  -9.5830    209.5114    131.7471   2.7514562247e+01   1.7247453837e+01    0.2374833    0.1989718 -40.22  0.000973486    1.034    0.033
       231  -9.3750    131.9291    131.0374   4.1733717024e+01   3.0008341267e+01     0.391174    0.2273288 -63.43  0.001494078    2.200    0.546
       232  -9.4667     13.3051    129.6347   8.1407233365e+01   4.7631585557e+01    0.5519634    0.2212989  54.52  0.001867322    3.124    0.680
       233 -11.0564    246.5785    128.2436   2.2305092405e+01   1.2947818609e+01    0.3790362    0.1396217 -47.54  0.001988694    2.250    0.555
       234  -9.8520     99.4990    128.2627   4.9784711352e+01   3.6445268698e+01    0.5248311    0.3433447  84.58   0.00201603    2.676    0.626
       235  -8.7820     73.4894    129.4854   5.8375928084e+01   4.0526786849e+01     0.349076    0.2153428  65.36 0.0009316181    2.341    0.573
       236 -10.0132    232.9736    127.2224   2.3675988965e+01   1.4788095485e+01     0.225076    0.1677789  54.06  0.001187839    1.782    0.439
       237 -10.6038    227.9774    125.2799   2.3933752750e+01   1.5733648548e+01    0.3757353    0.2551879 -73.08  0.001703092    2.164    0.538
       238  -9.5846    222.9162    122.5051   2.4059082693e+01   1.6840633543e+01    0.2044477    0.1793844 -19.36 0.0007198848    1.289    0.224
       239 -10.0208     60.0022    124.2750   6.2127900074e+01   4.3927399716e+01    0.7545143    0.3978578  68.80  0.002315655    3.869    0.742
       240  -8.9985    153.0787    128.9719   3.6592632859e+01   2.6691545784e+01       0.3917    0.2109397 -65.68  0.001491602    3.101    0.677
       241 -10.1485     44.3351    122.9944   6.7899003062e+01   4.6392304697e+01    0.7503104    0.3956058  68.33  0.002534137    3.172    0.685
       242  -9.6696     28.8412    122.9606   7.4165870197e+01   4.8140640834e+01    0.5667016    0.3119793  54.74  0.002275734    2.142    0.533
       243  -9.4661     29.2666    116.2613   7.2910784940e+01   4.9928224136e+01    0.6615809    0.2536193 -37.63  0.002060862    3.504    0.715
       244  -9.2238    181.5887    119.2181   2.9315948653e+01   2.3643891687e+01    0.2492192    0.1651884 -22.41  0.001114944    1.976    0.494
       245  -8.0525    168.5120    124.4994   3.2661381067e+01   2.4887980808e+01    0.1320026    0.1182279 -45.46 0.0008105713    1.005    0.005
       246  -9.1177    134.3348    124.2250   3.9670383724e+01   3.1008605601e+01    0.3393255    0.1939802  27.38  0.001380883    2.405    0.584
       247  -8.4633    149.0458    123.1438   3.6178892788e+01   2.8554919625e+01    0.2056718    0.1823903 -11.25 0.0006629664    1.278    0.218
       248  -8.7020     83.9590    121.9024   5.3217329149e+01   4.0694720584e+01    0.2401215    0.2087975 -15.43 0.0008370261    1.284    0.221
       249  -8.2164    158.4303    121.2337   3.3871177171e+01   2.7250543662e+01    0.1956697    0.1185606 -55.73 0.0009395799    1.702    0.413
       250  -9.1301    142.2813    119.4185   3.6803705897e+01   3.0529499371e+01    0.3523761    0.2254356 -73.02  0.001522603    2.350    0.575
       251  -8.9256     71.1992    119.9983   5.7153825562e+01   4.3302810704e+01    0.2499805    0.1766608  81.20   0.00104254    1.950    0.487
       252  -7.9740    194.2252    119.6583   2.7429778506e+01   2.1526464126e+01    0.1216848   0.08243149 -59.21 0.0002458509    1.537    0.350
       253  -8.7622    130.9616    118.4569   3.9163248916e+01   3.2836694661e+01    0.2815986    0.1745555 -82.76   0.00100681    3.309    0.698
       254 -10.7491     15.3146    113.1540   7.8485343965e+01   5.2029567650e+01    0.8037115    0.4715615 -89.06  0.002515031    1.940    0.485
       255 -10.0865     22.4484    109.8668   7.4821834107e+01   5.2324027888e+01    0.4458458    0.3145031 -79.79  0.001619413    1.506    0.336
       256 -10.9545     24.9434    103.7817   7.2647456420e+01   5.3724944357e+01     1.214966    0.5128909  58.42  0.003635976    4.227    0.763
       257 -11.1007     17.1685    104.2261   7.6305548435e+01   5.4306171911e+01    0.6171329    0.3870327 -47.23  0.001402087    1.545    0.353
       258 -10.7417    248.5225    116.9073   2.0197159568e+01   1.4322992908e+01    0.3146584    0.2286923 -51.26  0.002409877    1.186    0.157
       259  -9.5487      2.4233    115.5419   8.4431786291e+01   5.2217133173e+01    0.7616429    0.3097346  87.46  0.002680432    2.996    0.666
       260  -9.9176    185.2378    114.0972   2.7690027324e+01   2.3925352820e+01    0.3268713    0.2484255  76.53  0.001742307    1.671    0.402
       261  -9.0061    183.9722    110.1535   2.7078893106e+01   2.4811708276e+01    0.2366735    0.2049405 -71.66 0.0008177603    1.194    0.162
       262  -9.6685     92.9210    112.7092   4.8194029550e+01   4.1287628719e+01    0.4508766    0.3212894  84.30  0.001435602    2.028    0.507
       263  -9.7428     79.3517    112.5252   5.2593034055e+01   4.3779026980e+01    0.5276322    0.3367589  81.98  0.001963612    2.756    0.637
       264  -9.9313     66.5143    110.5053   5.6704771487e+01   4.6447990375e+01    0.5041745    0.2704543  58.60  0.001779379    2.760    0.638
       265  -9.6361     61.6715    106.0420   5.7491235039e+01   4.8342376158e+01    0.2845781    0.2531443  30.41 0.0006910029    1.098    0.090
       266  -9.4066    133.8728    108.6666   3.6206994874e+01   3.4280967868e+01    0.5236244    0.1863409 -47.81  0.001877885    2.731    0.634
       267 -10.7007    132.4432    101.6766   3.4853388840e+01   3.5949377790e+01     0.741424    0.4410894  27.20  0.002787094    2.708    0.631
       268  -8.5962     59.5540    109.7348   5.9173757928e+01   4.7745341537e+01    0.2041582    0.1510624 -76.77 0.0007091785    1.575    0.365
       269 -11.0030    249.8161    102.4506   1.7628101561e+01   1.6172822886e+01     0.667902    0.1746214 -36.18  0.002706685    3.933    0.746
       270  -9.3896      8.1514    108.3272   8.1044081903e+01   5.3854187526e+01    0.2362583    0.1692365 -23.86 0.0009350121    1.456    0.313
       271  -8.7691    121.7734    112.2390   3.9957460501e+01   3.5892930671e+01     0.300433    0.2141947  87.94  0.001034393    2.036    0.509
       272 -10.3635     45.8487    102.3370   6.3069432719e+01   5.1636088996e+01    0.8553652    0.4094655  59.73  0.002624528    3.912    0.744
       273  -8.6120    139.9397    104.7784   3.3944087995e+01   3.3865608232e+01    0.2264981     0.158307  81.73 0.0008190828    1.980    0.495
       274  -8.4727    150.3167    103.8194   3.1584077552e+01   3.2038831785e+01    0.2702584    0.1104079 -51.28  0.001044128    2.514    0.602
       275  -8.6314     93.5028    103.6469   4.5758633674e+01   4.3251572681e+01    0.2844778    0.1903266  10.23   0.00113667    2.418    0.586
       276 -10.7861     23.1570     92.4123   7.1315126951e+01   5.6894410655e+01    0.5024118     0.445972 -63.63  0.001835071    1.147    0.128
       277  -9.5562     35.2518    102.2303   6.7678217464e+01   5.3020399178e+01     0.361526    0.2724822 -86.16   0.00174334    1.542    0.351
       278  -9.9242     29.5726    100.3705   6.9874047164e+01   5.4151975661e+01    0.5246072    0.2406726  43.72  0.001632286    2.371    0.578
       279  -8.8361      6.9990    103.0293   8.0878227767e+01   5.5363669201e+01    0.2369427    0.1568106  53.15 0.0006883004    1.677    0.404
       280  -9.9542    109.0345     98.4881   3.9884369775e+01   4.1306676762e+01    0.6287577    0.4072388  78.76  0.002187249    2.499    0.600
       281  -8.4627     82.4179    100.1819   4.8466980416e+01   4.6140630385e+01    0.2129816      0.14562 -68.71 0.0009348147    1.767    0.434
       282 -10.1023     64.3411     96.2749   5.4018367300e+01   5.0289861691e+01    0.6170433    0.3532774  67.86    0.0019379    3.300    0.697
       283  -8.6381    108.2361     91.4476   3.8244765790e+01   4.2921768045e+01    0.3891534    0.2096172  29.34  0.001426239    2.920    0.658
       284  -8.8252     95.2100     97.0448   4.3509904150e+01   4.4380069445e+01    0.2825043    0.1911821  70.71 0.0007483268    2.009    0.502
       285  -9.6278     44.4944     91.7299   6.1140595684e+01   5.4499560338e+01    0.4651046    0.2159409  18.39  0.001656248    2.658    0.624
       286  -9.6814      4.9383     91.7653   8.0289798569e+01   5.8497042635e+01    0.2798338    0.1646694  62.72 0.0009022416    2.098    0.523
       287  -8.8221    124.8083     90.7412   3.3868263068e+01   3.9627315144e+01     0.275465    0.1785407 -71.83 0.0009618316    2.078    0.519
       288  -9.8911     34.7956     89.3130   6.5016759953e+01   5.6391533659e+01     0.524322    0.3142507  88.71  0.002003123    2.626    0.619
       289  -9.4727     36.9343     81.0412   6.1907913879e+01   5.8153686913e+01    0.5436296    0.2985804  -8.15  0.001924635    3.144    0.682
       290  -9.3770     86.9366     86.8370   4.3320957566e+01   4.8221690120e+01    0.4603604    0.2870444  69.27  0.001746844    2.394    0.582
       291  -9.0780     65.9075     86.5721   5.0767666813e+01   5.2280013071e+01     0.476439    0.1957524  26.39  0.001449319    3.663    0.727
       292  -9.3924     48.6718     84.1280   5.7280557064e+01   5.5725305655e+01    0.4011863    0.2605661  64.47  0.001233871    2.185    0.542
       293  -8.8646     12.2929     82.9796   7.4977440109e+01   6.0283192487e+01    0.2692866    0.1956102   0.76  0.001377864    1.389    0.280
       294  -9.0293      7.7896     84.1828   7.7589175473e+01   6.0298493497e+01    0.3255994    0.2306153 -54.19   0.00124836    1.325    0.245
       295  -8.6618      8.3313     80.6812   7.6667507471e+01   6.1160531108e+01    0.2609835    0.1521266  28.42  0.001000618    1.707    0.414
       296  -9.2517    104.8281     83.1606   3.6900958750e+01   4.5288423977e+01    0.3827406    0.2495523 -79.07  0.001219808    2.369    0.578
       297  -8.8056    116.9148     83.0171   3.3713576654e+01   4.2756053760e+01    0.2055784    0.2018567 -80.36 0.0003526931    1.083    0.077
       298  -9.5235     24.5640     80.6100   6.8014160026e+01   5.9749330136e+01    0.3978684    0.2556359  67.70  0.001558704    2.197    0.545
       299  -8.3009     74.9903     80.6950   4.5638323812e+01   5.1882600031e+01    0.2930657    0.1894183 -80.64  0.001093131    2.629    0.620
       300  -8.8251    185.5561     82.4827   2.1020253809e+01   2.9052640119e+01     0.278539    0.1406759  47.94  0.001389352    2.473    0.596
       301  -9.1400     88.0402     79.9297   4.0960148750e+01   4.9434771848e+01    0.4850497    0.1921112  32.87  0.001392095    4.360    0.771
       302  -9.4668    175.8532     77.2467   2.1204883965e+01   3.1673196910e+01    0.4091227    0.2300927 -76.25  0.001865765    2.652    0.623
       303  -8.9769     49.4419     76.8403   5.4850886329e+01   5.7295703943e+01    0.3003156    0.1960882  10.56  0.001140623    1.948    0.487
       304  -7.9956    216.3119     76.3413   1.6182530883e+01   2.4677150722e+01    0.1028137   0.08620911 -13.98 0.0006439824    1.698    0.411
       305  -8.5108    128.0301     75.5053   2.9115975609e+01   4.1743837561e+01    0.2801498    0.1537511 -72.10 0.0009109849    3.304    0.697
       306  -9.9737     10.5897     74.1877   7.4127812550e+01   6.2632655296e+01     0.405075    0.2010059  16.65  0.001214292    1.964    0.491
       307  -9.8777     27.4001     71.2491   6.4116864217e+01   6.1697792668e+01    0.5472298    0.2741582 -10.87  0.001819258    3.698    0.730
       308  -8.7559     95.5683     71.3412   3.6069668550e+01   4.9530544152e+01    0.3434739    0.1647058 -58.30   0.00125781    2.894    0.654
       309  -9.3094     82.5458     72.6065   4.0535114875e+01   5.2032882683e+01    0.3781246     0.262967 -88.58  0.001396368    2.204    0.546
       310  -9.4134     51.6518     69.5993   5.1621789635e+01   5.8535090346e+01    0.4142692    0.2488411 -72.39  0.001329934    2.637    0.621
       311  -8.9158     16.5149     69.3335   6.9640834629e+01   6.3316218177e+01     0.403877    0.1915897 -77.65  0.001533749    2.978    0.664
       312  -8.8267      1.4560     68.9807   7.8372750468e+01   6.4528299541e+01     0.206218    0.1275823 -66.02 0.0007603521    1.577    0.366
       313  -7.8149    121.6943     66.2982   2.7945949232e+01   4.4702144880e+01     0.140931    0.1023303 -80.62 0.0005545585    1.589    0.371
       314  -9.0087     84.0389     63.9542   3.7281374900e+01   5.3370776528e+01    0.3611159    0.2158068  21.72  0.001341521    3.149    0.682
       315  -8.7331     37.6587     64.2865   5.6635939630e+01   6.1916995252e+01     0.220901     0.164616  65.41  0.001082425    1.785    0.440
       316  -8.2374    110.3105     63.6611   2.9804470946e+01   4.7669378021e+01    0.1460532    0.1048994 -80.42  0.000704486    1.689    0.408
       317  -9.5751     18.1909     61.6512   6.6617416606e+01   6.4962979424e+01    0.3225423    0.1981472 -35.90 0.0008541431    1.663    0.399
       318  -8.0280    170.2238     60.9456   1.8247080200e+01   3.5228347999e+01    0.1613679   0.09169115 -43.08 0.0004716872    1.599    0.375
       319  -9.2908     73.4001     59.5941   3.9443670175e+01   5.6408159606e+01    0.3131209    0.2371102 -75.27  0.001049876    1.717    0.418
       320  -8.8675      4.9267     61.0000   7.4568900173e+01   6.6251740936e+01    0.2210523   0.07343393  14.60 0.0007994817    2.922    0.658
       321  -7.9770    111.2605     58.0015   2.7872654465e+01   4.8393716685e+01    0.1667383    0.1190069 -43.47 0.0003954252    1.466    0.318
       322  -9.3007     39.2689     57.7007   5.3598236790e+01   6.3080402474e+01     0.251173     0.214913  -6.86  0.001147086    1.216    0.177
       323  -9.9641      7.1833     56.5269   7.2030561019e+01   6.7139578075e+01    0.3873135    0.2246657 -83.11  0.001766238    2.348    0.574
       324  -9.8106      2.3368     56.1704   7.5094439334e+01   6.7561468722e+01    0.3466117    0.2425146 -63.64  0.001891857    1.452    0.311
       325  -7.8481    119.3296     55.6512   2.5375742707e+01   4.6949516900e+01      0.14625   0.09889065 -76.58 0.0007048956    1.763    0.433
       326  -8.9128     62.8664     54.5620   4.1661072789e+01   5.9470749824e+01    0.2622412     0.187975 -67.57 0.0006934615    1.857    0.461
       327  -8.7526     43.8447     54.9966   5.0324218280e+01   6.2890518655e+01    0.2595578    0.1932747 -86.57   0.00125379    2.071    0.517
       328 -11.2313     45.5653     48.8824   4.7184482704e+01   6.3780712210e+01    0.3083444     0.265599 -28.89  0.000408676    1.250    0.200
       329  -8.8282     25.9233     55.0248   6.0002840275e+01   6.5549897491e+01     0.250285    0.1397342   0.14 0.0007109572    2.570    0.611
       330  -8.3543    100.5252     54.4919   2.9415833286e+01   5.1378345540e+01    0.1391078    0.1276208  67.89 9.945689e-06    1.035    0.034
       331  -8.7057     54.3871     53.9235   4.4996739999e+01   6.1225769740e+01    0.2755788    0.2022109 -81.57  0.001314733    2.082    0.520
       332  -8.3693     20.4875     52.9717   6.2570631515e+01   6.6657370609e+01    0.1774708    0.1212301  80.45 0.0008088496    2.432    0.589
       333  -8.9129     92.6106     50.8520   3.0340361828e+01   5.3743503650e+01    0.2693976     0.161153 -54.74  0.001086801    1.931    0.482
       334  -8.8840     74.8056     50.7790   3.5837169582e+01   5.7671162439e+01    0.2384943    0.1540004  14.56  0.000962988    2.859    0.650
       335  -8.8880     31.0077     51.0748   5.5694141740e+01   6.5689685123e+01    0.2123535    0.1638627  61.96  0.001024469    1.694    0.410
       336  -8.8932     64.2430     46.9149   3.8262314413e+01   6.0543810131e+01    0.3743347    0.2116614  20.22  0.001328718    3.646    0.726
       337  -8.8741     23.0783     46.4704   5.8701533769e+01   6.7715093573e+01    0.2094836    0.1238473  24.99  0.001016294    1.570    0.363
       338  -8.7142      1.6121     45.9430   7.2949937668e+01   6.9946511195e+01    0.1760203     0.152426 -38.33 0.0005414785    1.111    0.100
       339  -9.6305     16.6250     44.4225   6.2085071558e+01   6.8918350625e+01     0.289506    0.2130267  80.27   0.00144424    2.136    0.532
       340  -8.5162    150.3376     44.1523   1.6822594575e+01   4.1724889446e+01    0.1837283   0.09906191 -48.42 0.0006597523    1.722    0.419
       341  -8.5290     58.6585     42.6810   3.8836887340e+01   6.2393652501e+01    0.2612876    0.1652474 -65.90  0.001157149    2.503    0.600
       342 -10.3850    195.8648    248.6250   4.8587481435e+01   1.7863505646e-01     0.281088    0.1697924  19.20  0.001876026    1.556    0.357
       343  -8.8029    113.8719     41.1784   2.2108953940e+01   5.0319085379e+01    0.1949863    0.1623282 -88.76 0.0003078815    1.125    0.111
       344  -8.9307    123.4282     40.0752   1.9948455351e+01   4.8274983102e+01    0.2109826    0.1623327  62.41 0.0004132634    1.243    0.195
       345  -8.6391     84.2635     39.6832   2.8785780036e+01   5.7332358714e+01    0.2769923    0.1378696  39.99  0.001150029    2.391    0.582
       346  -8.7133     36.7125     40.3987   4.8324881525e+01   6.6867881025e+01    0.2048181    0.1596925  64.20 0.0008139316    1.677    0.404
       347  -8.4811    216.6494     38.7055   8.8746616172e+00   2.9528212075e+01    0.1370616    0.1274257  19.09 0.0008311409    1.741    0.426
       348  -8.8609     26.1629     36.4509   5.2782229303e+01   6.9248499992e+01     0.237854    0.2058917  66.83 0.0009207599    1.521    0.342
       349  -8.5812     81.9820     46.9416   3.2103784885e+01   5.6737738155e+01    0.2128151    0.1623698 -88.46 0.0005060844    1.604    0.377
       350  -8.3307     38.3066     35.3101   4.5269667948e+01   6.7489967291e+01    0.1349322   0.09947451   6.54 0.0002424387    1.615    0.381
       351  -8.5882    119.4798     33.5068   1.8663834937e+01   5.0039744667e+01    0.2181046    0.1055889 -47.55 0.0006719007    2.105    0.525
       352  -9.1228    221.7719     32.4444   7.3254712889e+00   2.9396731069e+01      0.18428   0.09232707  85.20  0.001139313    2.127    0.530
       353  -8.1731     60.5372     32.5141   3.3883450266e+01   6.3594090641e+01    0.1352919    0.1199315  55.42 0.0001766087    1.060    0.056
       354  -8.2619     49.5630     32.5049   3.8472490180e+01   6.5842882866e+01    0.1339706    0.1193941  44.02 0.0001253706    1.047    0.045
       355  -8.9287     12.8516     31.0499   5.9460473790e+01   7.2019355620e+01    0.1900841    0.1705591  38.12 0.0007687006    1.282    0.220
       356  -9.5951    148.2767     28.3146   1.2945241242e+01   4.4169520829e+01    0.2078605    0.1856562  63.38  0.001410041    1.314    0.239
       357  -9.8003      6.4233     33.4964   6.5287393657e+01   7.2211817416e+01    0.4262303    0.2356093 -21.34  0.001205885    2.035    0.509
       358  -8.0057     61.6770     26.6884   3.0939230045e+01   6.4167906125e+01     0.136018   0.09521805  28.90 0.0006085373    1.654    0.396
       359  -9.7606     44.3500     25.1690   3.7508939513e+01   6.7964412434e+01    0.2237645    0.1771079  43.91 0.0003827928    1.101    0.092
       360  -9.1749     64.9592     22.1455   2.7791500832e+01   6.4035389039e+01    0.4496152     0.252376 -85.66  0.001516585    4.819    0.792
       361  -7.8984    137.5428     22.4703   1.2690318898e+01   4.7225467908e+01    0.1257882     0.103589 -82.96 0.0008083431    1.012    0.012
       362  -8.3128     58.6403     22.1707   3.0045506421e+01   6.5417327939e+01    0.1605775    0.1251672 -11.08 0.0003027882    1.612    0.380
       363 -10.0251     13.0559     21.0349   5.4625771017e+01   7.3814627250e+01    0.2853794    0.2094769  17.63 0.0006834922    1.193    0.162
       364  -9.7285    188.9954     20.5121   7.1977785252e+00   3.6650061626e+01    0.1791814    0.1558362 -31.93 0.0009878067    1.495    0.331
       365  -8.6575     84.8530     21.1521   2.1627802908e+01   5.9611546586e+01    0.1973057    0.1590566 -87.05 0.0005361398    1.270    0.213
       366  -8.5235    110.4928     24.1493   1.7297009172e+01   5.3260698736e+01    0.1678377    0.1269801 -38.53 0.0003838709    1.465    0.318
       367  -8.8186     41.0031     20.9822   3.7078497787e+01   6.9210372964e+01    0.1934428    0.1634056  36.28  0.001203195    1.027    0.026
       368  -9.0945      1.5959     19.7587   6.3486216688e+01   7.5323169571e+01    0.1495393    0.1224594 -66.14 0.0008060461    1.594    0.373
       369  -8.0871     73.6914     19.3588   2.3875294306e+01   6.2397590811e+01    0.1331216   0.09520712 -76.59 0.0007041501    1.734    0.423
       370  -9.3616     29.8497     18.9002   4.2056779593e+01   7.1572627599e+01    0.2802696    0.1565215  46.50  0.001431492    1.662    0.398
       371  -8.6412     50.5512     15.1437   2.9843804816e+01   6.8017699947e+01    0.2164497     0.147635  39.59 0.0005345727    1.364    0.267
       372 -11.3612    173.6140    245.2342   5.2207729455e+01   2.6516083732e+00    0.6405244    0.3850004 -42.86  0.004024061    1.686    0.407
       373  -8.3862     80.5579     12.7230   1.9328626700e+01   6.1526785775e+01    0.1670702    0.1145127 -48.97 0.0009422432    1.644    0.392
       374  -8.9757     27.5107     13.4483   4.0457646609e+01   7.2758008163e+01    0.1285542    0.1058311  29.09 8.392279e-05    1.033    0.032
       375  -8.9986    148.0964    249.1302   5.7810273999e+01   4.4664048456e+00    0.2171955    0.1427699  21.88  0.001354722    1.355    0.262
       376  -8.2279     31.9848     11.4874   3.6725532178e+01   7.2200521331e+01    0.1928115    0.1072295  45.48 0.0005202667    1.519    0.341
       377 -10.9377     98.2987    241.5802   6.8074048177e+01   1.0942167594e+01    0.4955033    0.2695076  17.33  0.001119284    1.637    0.389
       378 -10.4181    107.7273    238.1317   6.5435337904e+01   1.0595995940e+01    0.4091028    0.2884659 -61.22  0.002366321    1.741    0.426
       379  -9.8269      4.1694    249.0850   9.1750944910e+01   1.8214906893e+01    0.3581036    0.1656947  44.52  0.001179869    1.721    0.419
       380 -10.1338    107.2975    246.2896   6.6471756760e+01   9.1066727083e+00    0.5021694    0.3093629 -73.24  0.002618707    2.499    0.600
