#   1 NUMBER                 Running object number                                     
#   2 MAG_AUTO               Kron-like elliptical aperture magnitude                    [mag]
#   3 X_IMAGE                Object position along x                                    [pixel]
#   4 Y_IMAGE                Object position along y                                    [pixel]
#   5 X_WORLD                Barycenter position along world x axis                     [deg]
#   6 Y_WORLD                Barycenter position along world y axis                     [deg]
#   7 A_WORLD                Profile RMS along major axis (world units)                 [deg]
#   8 B_WORLD                Profile RMS along minor axis (world units)                 [deg]
#   9 THETA_WORLD            Position angle (CCW/world-x)                               [deg]
#  10 FWHM_WORLD             FWHM assuming a gaussian core                              [deg]
#  11 ELONGATION             A_IMAGE/B_IMAGE                                           
#  12 ELLIPTICITY            1 - B_IMAGE/A_IMAGE                                       
         1 -10.6444    113.3917     32.3671   6.1009960470e+01   5.2516514698e+01     1.074738     0.410839 -16.54  0.003112134    5.026    0.801
         2 -11.3612    137.1816      5.2073   4.6100405483e+01   4.9775953154e+01     1.706728    0.4716839  55.71  0.006369334    2.761    0.638
         3 -13.2675     90.2777     54.8625   7.6210156867e+01   5.3888061045e+01     2.258856     1.350721  36.69  0.007375863    1.725    0.420
         4 -11.1277     20.7778     60.5736   1.0427111161e+02   6.2015549835e+01     1.615455    0.6901675 -40.42  0.007818129    2.034    0.508
         5 -12.2821     32.7739     58.9924   9.8964050645e+01   6.1328854465e+01    0.7479519    0.4074637 -34.60  0.003577179    1.716    0.417
         6 -11.4352    106.9288     32.0404   6.2572839211e+01   5.4000720190e+01      1.31895    0.7615083  -0.27  0.005488886    2.543    0.607
         7 -12.1863     90.7711     22.7246   6.3354038714e+01   5.8613386705e+01     2.214929    0.7144535 -21.89  0.007285657    4.163    0.760
         8 -11.4823     53.8968     15.6854   7.2927856640e+01   6.6192134792e+01    0.8446937    0.6803159 -63.42  0.004923605    2.318    0.569
         9 -13.4147     69.5038     30.7243   7.3790017229e+01   6.1560791536e+01     2.333906     1.050467  46.66   0.01039906    2.439    0.590
        10 -11.4313     50.7221     25.0980   7.8624582746e+01   6.5362595933e+01    0.5040618    0.3655294  -1.84  0.001025172    1.284    0.221
        11 -12.4635    115.4795     14.5832   5.3695148800e+01   5.4088591521e+01     1.188018    0.6383102  48.47  0.005728698    1.644    0.392
        12 -12.1914    107.4731      9.4878   5.3499095292e+01   5.6410687603e+01     1.206032    0.6243854  44.06  0.002290316    1.720    0.419
        13 -11.3217     99.9020      5.7397   5.3744881298e+01   5.8435863521e+01    0.4283373    0.2607398  31.46 0.0003817375    1.589    0.371
        14 -10.9724     57.7437      3.9017   6.5583371058e+01   6.6923187156e+01    0.6985915    0.4021133  42.70  0.003985477    1.635    0.388
        15 -10.8791    208.7974      3.9619   3.7055343624e+01   3.2324564487e+01     0.613741    0.4298327 -85.98   0.00357122    1.307    0.235
        16  -9.7792    203.1390     20.7910   4.1896551723e+01   3.1877960216e+01    0.4355893    0.2702436 -71.10  0.001349165    1.720    0.419
        17  -9.3760    204.5972     15.7518   4.0433427658e+01   3.2092095798e+01    0.3350677    0.2632249 -58.12  0.001978272    1.188    0.158
        18 -11.3341    213.1755     31.1270   4.3441740666e+01   2.8223346146e+01    0.7223392    0.6627794  -4.91   0.00442708    1.334    0.250
        19 -10.4913     23.3540     27.2999   9.1978497591e+01   6.8283486915e+01    0.7385854    0.3169388 -41.91  0.003194536    1.872    0.466
        20 -10.8679     11.7856     25.7269   9.7073208460e+01   6.9534016928e+01     1.061783    0.2200892 -40.97  0.004069122    3.607    0.723
        21 -11.4331      4.6460     26.3363   1.0093268901e+02   6.9908153088e+01    0.5041343     0.268766 -23.87  0.003007581    1.753    0.430
        22 -11.2465      7.7522     19.6191   9.6711107459e+01   7.0894721514e+01    0.5831972    0.3132422  24.50  0.003581043    2.127    0.530
        23 -11.7239     25.1285      8.1421   8.2201117542e+01   7.1087884634e+01    0.7438373     0.367591 -35.28  0.002499688    1.768    0.434
        24 -11.9665     18.2645     15.0608   8.9159041508e+01   7.0777589425e+01      1.15788      0.32915 -43.37  0.004169483    2.903    0.656
        25 -12.1003     30.4263     23.3054   8.6871948033e+01   6.8227537943e+01    0.9415441    0.4573661 -44.61  0.004970225    1.958    0.489
        26 -12.3301     13.2925      6.8261   8.7809784999e+01   7.2490217277e+01    0.6544766    0.4157377 -37.43  0.003455204    1.414    0.293
        27 -13.1764      5.0651      9.5887   9.3779734861e+01   7.2748954396e+01    0.6088641    0.3699227 -31.03  0.001034565    1.228    0.185
        28 -12.4593      2.2004      2.0982   9.1781612686e+01   7.4116589543e+01    0.2462992    0.1881893 -25.78  0.001889215    1.169    0.144
        29 -10.6637    212.9822     12.2482   3.8721182929e+01   3.0475746982e+01    0.6297933    0.3177072  75.75  0.002244096    1.892    0.471
        30  -9.8465    211.5714     17.3520   4.0128930955e+01   3.0246377987e+01    0.4267283    0.2422799  66.52  0.002171986    1.680    0.405
        31 -10.3457    181.8319     15.4756   4.2940406057e+01   3.7703513210e+01     0.846157    0.3446084  51.98  0.003476684    2.439    0.590
        32 -10.6947    164.2275      5.9822   4.2391846616e+01   4.3023941701e+01    0.6510918    0.5035626  40.44  0.003471659    1.381    0.276
        33 -10.3557    157.2938      5.3848   4.3133707640e+01   4.4801724084e+01    0.7710755    0.3407286 -16.09   0.00325013    2.810    0.644
        34 -11.4029    188.9866     19.4361   4.3172006660e+01   3.5498259499e+01    0.2937726    0.2602542  77.01 0.0003179237    1.068    0.064
        35  -9.9972    152.7669     26.0850   5.0456315522e+01   4.3814861389e+01    0.9394891    0.5280512  35.39   0.00409153    2.140    0.533
        36 -10.8950    181.2493     31.8456   4.7715224638e+01   3.5963498136e+01    0.8812919    0.5261566 -54.32  0.004089803    1.810    0.448
        37 -11.8153    168.8499     15.5661   4.4663466149e+01   4.0936372689e+01     1.513837    0.7598964  60.53  0.004754865    1.779    0.438
        38  -9.9144    173.2158     10.7597   4.2660644429e+01   4.0331531791e+01    0.2845637    0.2040721  49.92 0.0004753001    1.408    0.290
        39 -10.8933    154.3942     17.3094   4.7345810361e+01   4.4374762070e+01    0.5835516    0.3007583  53.32  0.000655689    1.766    0.434
        40 -10.4997    149.1762     16.0635   4.7783328686e+01   4.5803481746e+01    0.5157381    0.3735219 -20.43  0.001362345    1.522    0.343
        41 -10.4018    151.9792      8.9857   4.5038017535e+01   4.5795278762e+01     0.452868    0.3300544   8.94  0.001378341    1.681    0.405
        42  -9.2729    133.1714     14.1857   4.9946197111e+01   4.9926812526e+01    0.4553136    0.2511258  71.40  0.001867512    1.909    0.476
        43 -11.2351    131.3236     19.5754   5.2221328263e+01   4.9821181409e+01    0.7315615    0.2531645  55.15  0.002630555    2.436    0.589
        44  -9.4299     71.3188     16.6851   6.6902045535e+01   6.3110067420e+01    0.3902448    0.2563507  27.20  0.002076093    1.427    0.299
        45 -10.3117     81.2539     19.8783   6.5047959310e+01   6.0856683290e+01    0.5503528    0.4451662  65.31  0.003223091    1.639    0.390
        46  -9.6077     38.8893     20.7506   8.1775855891e+01   6.7620449871e+01    0.4736896    0.1761162 -32.43  0.002106697    2.531    0.605
        47  -9.1970     36.6610      6.1532   7.5550905700e+01   6.9912591888e+01    0.2622885     0.177668  34.18  0.001109598    1.558    0.358
        48 -10.2898     42.3510      3.7079   7.1693896869e+01   6.9397505929e+01    0.3298416    0.2168532 -12.90  0.000767032    1.328    0.247
        49  -8.9761     38.6285      9.6846   7.6485731196e+01   6.9199357434e+01    0.2369471    0.1485377   0.83  0.001070507    1.579    0.367
        50  -9.0370    232.3896     10.5718   3.6638157997e+01   2.6195247597e+01    0.3106774    0.1618755  81.59  0.001583889    1.883    0.469
        51 -10.1345    231.4084     19.0908   3.8682834045e+01   2.5450983479e+01    0.4599408    0.3726114 -27.07  0.002847527    1.399    0.285
        52  -9.8707    242.6870     13.6489   3.6517571143e+01   2.3581747811e+01    0.4234332    0.2082108  51.36   0.00204067    2.617    0.618
        53  -9.5444    198.4268     16.1610   4.1197556769e+01   3.3541336957e+01    0.2642955    0.2070292  28.13  0.001480798    1.655    0.396
        54 -10.8956    215.4533     22.3382   4.0982591497e+01   2.8753098907e+01    0.4747778    0.4484737 -38.24  0.001730955    1.201    0.167
        55  -9.0113    229.4472      3.5709   3.5275163665e+01   2.7602539788e+01    0.3391254    0.1878743  18.43  0.001243116    5.290    0.811
        56  -9.4465    221.8691     12.7868   3.8041369441e+01   2.8343080591e+01    0.3058338    0.2035359  59.48  0.001102929    1.588    0.370
        57  -9.8131    225.6389      8.4844   3.6705260594e+01   2.7945800816e+01    0.2957094    0.2499104 -15.53  0.001542856    1.494    0.331
        58 -10.2216     31.7621     11.7187   8.0741539912e+01   6.9812578647e+01    0.2837477     0.161143 -25.32 0.0007294453    1.517    0.341
        59  -8.8912     85.8340     11.0969   5.9774424098e+01   6.0916842974e+01    0.2858597    0.1323755  45.24 0.0008338409    1.897    0.473
        60  -9.8852     77.7206      9.0249   6.1272015892e+01   6.2744356990e+01    0.2633034    0.2320625 -14.91  0.001037176    1.230    0.187
        61  -8.5118     77.6517      4.6878   5.9282157500e+01   6.3177882457e+01    0.1832164    0.1149586   5.18 0.0009893166    1.663    0.399
        62 -10.4383    199.6047      5.6087   3.8320413620e+01   3.4354780145e+01    0.5776855    0.3436424 -49.34  0.002043044    1.616    0.381
        63  -8.8737    250.6267      7.4099   3.4593968873e+01   2.2581813663e+01     0.224534   0.09217818 -37.28  0.001108042    2.066    0.516
        64  -9.0456    190.2690      7.5963   3.9791185398e+01   3.6425942259e+01    0.2758569    0.1906729  53.68  0.001013693    1.485    0.327
        65  -8.4815    189.0000      3.9815   3.8950627773e+01   3.7086059409e+01    0.1975574    0.1377858 -63.14 0.0009000596    1.416    0.294
        66  -9.8317    243.7549      4.9399   3.4540737154e+01   2.4312531405e+01    0.3494899     0.191446 -31.21  0.001918397    1.841    0.457
        67  -8.8896    233.7316      7.0040   3.5725392646e+01   2.6283306348e+01    0.1724493    0.1434927 -62.70  0.000439757    1.054    0.051
        68 -10.1836    182.7293      4.9486   3.9882126750e+01   3.8533102843e+01    0.4934964    0.3417256  87.26  0.002277927    1.366    0.268
        69  -9.1720     67.5227      5.9880   6.3145515344e+01   6.4979129852e+01    0.2471616    0.1345723 -20.76 0.0006684873    1.801    0.445
        70  -9.5790     71.4887      3.6373   6.0701336369e+01   6.4467142478e+01    0.3311102    0.2427104 -32.41  0.001992242    1.578    0.366
        71  -9.4044    218.1848      5.1829   3.6545107425e+01   3.0004521691e+01    0.2569619     0.215207  51.56  0.001631195    1.416    0.294
        72  -9.4776     84.0863      3.3253   5.6788956246e+01   6.2008227287e+01    0.3048836    0.2733277  26.93  0.001249429    1.107    0.097
        73  -9.0632    248.3407      1.7279   3.3549160362e+01   2.3676626289e+01    0.1964272    0.1525557 -89.68 0.0008626114    1.197    0.164
        74 -10.7878     29.8749    142.4989   1.1624786063e+02   4.2041267879e+01    0.6298535    0.2528574 -70.19  0.002836448    2.056    0.514
        75  -9.0673    211.4062    250.2468   9.2330516875e+01  -6.6773651524e+00     0.192666    0.1284532  46.28  0.001190505    1.745    0.427
        76  -9.0255    124.9926    249.9947   1.0821038783e+02   6.4468739323e+00    0.1790004    0.1384605  12.85 0.0008437853    1.736    0.424
        77  -9.2361     98.7448    139.8616   9.7384102184e+01   3.3571821114e+01     0.252583    0.2127212  67.39 0.0005592823    1.257    0.205
        78  -9.9052     58.9604    138.0628   1.0785301996e+02   3.9931076732e+01    0.3052379    0.2294082  35.47  0.000922767    1.496    0.331
        79 -10.5851     56.1897    126.6172   1.0665384576e+02   4.3088716625e+01    0.3729879    0.2427391 -52.68   0.00151054    1.403    0.287
        80 -10.8852     74.0329    102.6499   9.6175198185e+01   4.6505406208e+01     1.056175    0.7271208  29.27  0.005256133    1.651    0.394
        81  -9.2011     62.1827    103.2855   1.0007359659e+02   4.8011389161e+01    0.2897008    0.2127818 -47.69 0.0007154238    1.224    0.183
        82 -10.2355     87.5292     96.8170   9.0442747863e+01   4.5725222973e+01    0.3810557    0.3478558  -8.78  0.001346168    1.167    0.143
        83  -9.9121     66.5884    134.5554   1.0514443828e+02   3.9798281123e+01    0.2570129    0.2189019  88.58 0.0002293499    1.160    0.138
        84 -10.2382     61.9483    134.5112   1.0642566332e+02   4.0422389007e+01    0.3262519    0.2239818 -39.27  0.001106737    1.677    0.404
        85 -10.6680     89.8293     88.4844   8.7378518400e+01   4.7207808902e+01    0.6317359    0.4935319 -16.91  0.001694531    1.458    0.314
        86 -10.0733     82.7859     87.7987   8.9418773804e+01   4.8557662179e+01    0.6294979    0.2893839 -48.77  0.002527272    1.994    0.498
        87 -10.2339     74.3286     95.7572   9.4329081220e+01   4.8078112865e+01    0.3788444    0.3385208 -49.81  0.001030316    1.027    0.026
        88 -11.0359     74.2701     90.0042   9.2804826427e+01   4.9409884538e+01      1.02959    0.4493093  41.89  0.004096307    2.571    0.611
        89 -11.8977     64.6211    123.1715   1.0356419171e+02   4.2859718344e+01    0.8541605    0.7510774 -86.83  0.003006187    1.136    0.120
        90 -10.5297     68.1844    114.3608   1.0068865377e+02   4.4529627314e+01    0.6887413    0.5346074 -33.39  0.003665284    1.412    0.292
        91 -10.5699     22.9108    136.5390   1.1733535561e+02   4.4102037616e+01    0.3572488    0.2257587 -74.31  0.001376438    1.281    0.219
        92 -10.0203      3.5522    136.4497   1.2230371469e+02   4.5597948880e+01    0.3114388    0.2170819  -2.24  0.001940444    2.167    0.538
        93 -10.0447     61.5880    110.6906   1.0190996195e+02   4.6305181977e+01    0.5799427    0.4444053  -3.86  0.003056906    1.717    0.417
        94  -9.6224     73.5695    129.7342   1.0227935612e+02   4.0010244671e+01    0.3072191    0.2209236 -89.43   0.00118622    1.615    0.381
        95  -7.8626    150.0000    128.9911   8.1733282490e+01   2.6070987135e+01    0.2581992   0.08795362 -44.67 0.0005462145    2.876    0.652
        96  -8.9798     74.5043    124.9656   1.0105676933e+02   4.1044009670e+01    0.1990462    0.1890694 -74.49 0.0004602911    1.059    0.056
        97  -8.7934    131.6031    124.2558   8.5138739323e+01   3.1016544287e+01    0.2170255    0.1449603 -38.19 0.0004108377    1.542    0.352
        98  -8.5438     81.5290    124.5209   9.8942380048e+01   4.0099909379e+01    0.1473666    0.1328416 -49.95 0.0008081261    1.087    0.080
        99 -10.6006     91.5490    121.4477   9.5389502829e+01   3.9233560489e+01    0.4980535      0.44285 -44.79  0.002046671    1.105    0.095
       100 -11.4427     75.5915    120.0217   9.9703020898e+01   4.2092620944e+01    0.2744375    0.2542679  39.91   0.00157934    1.192    0.161
       101  -9.7167     53.0762    120.3653   1.0641864108e+02   4.4998145432e+01    0.1835081    0.1727375 -83.05 0.0004797912    1.104    0.094
       102  -9.2116    108.5762    115.3740   8.9098804524e+01   3.7639899995e+01    0.3742324    0.1871167 -43.59  0.001448936    1.970    0.492
       103  -9.4149    104.5489    116.0858   9.0409509881e+01   3.8224990645e+01    0.2678328    0.2168557 -59.05  0.001335258    1.212    0.175
       104 -10.0672    116.3002    116.4356   8.7230754891e+01   3.5902511240e+01    0.2941139    0.2759195   8.58 0.0005772251    1.154    0.134
       105  -9.2496     97.5018    115.5406   9.2285180823e+01   3.9624395522e+01    0.2588459    0.2521688 -74.84 0.0006447108    1.052    0.049
       106  -8.9302     28.2333    115.7543   1.1298917975e+02   4.8666145478e+01    0.2125799    0.1164098 -52.64 0.0003069855    1.596    0.374
       107 -10.7257     14.6938    132.2990   1.1900110449e+02   4.5782312539e+01    0.4484235    0.2927959   0.88  0.001980047    2.330    0.571
       108  -9.2346     30.5556    107.4735   1.1091986280e+02   5.0462293416e+01    0.1834465    0.1312761  26.92 0.0004672599    1.687    0.407
       109 -10.2314     32.9267    110.1809   1.1065781429e+02   4.9595479689e+01    0.6409387    0.1797475 -52.69  0.002433807    2.803    0.643
       110 -10.4065     37.3700    108.9940   1.0907678403e+02   4.9462587773e+01    0.3567226    0.2132984 -50.43   0.00106289    1.477    0.323
       111  -9.5143     82.7693    114.7142   9.6396712727e+01   4.2283907982e+01    0.3560985    0.2621198  16.94  0.001734497    1.719    0.418
       112 -10.2661     96.3150    109.6459   9.1163644416e+01   4.1225941688e+01    0.5617939    0.4590697 -19.21  0.002684977    1.423    0.297
       113  -8.9172    104.6307    109.5761   8.8734795268e+01   3.9731543739e+01    0.3794452    0.2354053  69.91  0.001407077    2.789    0.641
       114  -8.9110     23.5392    109.0208   1.1333652060e+02   5.0681132573e+01    0.2351654    0.1697645  41.68  0.001412661    1.631    0.387
       115  -9.5837    113.1572    107.5168   8.5775048611e+01   3.8568464022e+01    0.3493465    0.2696436 -46.91 0.0006332833    1.236    0.191
       116 -10.7732    106.0223    101.9634   8.6303955392e+01   4.1216067885e+01    0.6962129    0.5085779  89.86  0.002489955    2.068    0.516
       117  -9.8651     57.0251     85.6855   9.7436218630e+01   5.2797271658e+01    0.5084969    0.2980348  -7.17  0.002077471    2.982    0.665
       118  -9.7731     51.9294     86.0575   9.9293048532e+01   5.3337479925e+01     0.359865    0.2628164 -18.78  0.001177753    1.589    0.371
       119  -9.1718     52.5751     82.0669   9.8025789142e+01   5.4169770532e+01    0.2456855    0.2047244  22.18  0.001332289    1.361    0.265
       120 -10.3537     49.4221    102.8521   1.0405655897e+02   4.9676359041e+01    0.6401067     0.478646 -34.84  0.003549909    1.407    0.289
       121 -10.2056     51.4425     92.2373   1.0098937639e+02   5.1961901005e+01    0.6063934    0.2350717 -51.40  0.002489533    2.120    0.528
       122  -9.0842     54.4390    100.5191   1.0192685853e+02   4.9647919970e+01    0.2512124    0.1636776 -65.56 0.0001083387    1.459    0.314
       123  -9.6034     54.7639     97.2316   1.0106605831e+02   5.0389968592e+01    0.3854662    0.2560751   8.99  0.001591066    2.023    0.506
       124 -10.3389    133.3449    102.7922   7.9019737437e+01   3.5416786616e+01    0.4487592    0.2805413 -37.37  0.001059637    1.611    0.379
       125  -9.4328    132.3715     97.7702   7.7851907214e+01   3.6705372199e+01    0.3184847     0.249027 -52.90  0.001503262    1.312    0.238
       126  -9.4462     39.3542    103.1367   1.0734231983e+02   5.0679367690e+01    0.2710779    0.2394468  43.77 0.0007424083    1.326    0.246
       127  -9.9912    158.5407    101.9810   7.2616119995e+01   2.9890924823e+01    0.3448924    0.2935593 -85.36 0.0007957358    1.401    0.286
       128  -9.7574    156.0779     96.5939   7.1674691568e+01   3.1553490928e+01    0.4630082    0.2544165 -34.74  0.001364831    1.869    0.465
       129 -11.3955    142.8313    101.3234   7.6195033785e+01   3.3625786247e+01    0.6835588    0.3722267  30.26  0.002429767    2.589    0.614
       130  -8.3730     96.2937    103.2818   8.9517685949e+01   4.2713176395e+01    0.1474909    0.1157105 -16.60 0.0006320963    1.535    0.349
       131  -8.7203     27.3107    102.9681   1.1114869363e+02   5.1822851667e+01    0.1952094    0.1395091 -64.02  0.001146149    1.134    0.118
       132  -9.8926      4.4491     98.7893   1.1768166310e+02   5.4402666953e+01    0.3805332    0.2052383  83.92  0.001142665    2.180    0.541
       133  -8.9312      3.5255     93.4457   1.1719989101e+02   5.5697765471e+01    0.3476432   0.09710807 -56.99   0.00152292    2.389    0.581
       134 -10.6421      4.7666     86.5325   1.1571572878e+02   5.7228557018e+01    0.6510656    0.3101262 -52.06  0.003533257    1.643    0.391
       135  -9.1636     46.2460     98.3413   1.0411447602e+02   5.1107867611e+01    0.4509915    0.2210325  22.59  0.002019938    2.573    0.611
       136 -12.6425    114.9317     67.7408   7.3284710563e+01   4.6537818673e+01     1.756327     1.197534  65.86  0.007508894    1.963    0.491
       137  -9.4739    235.6820    249.4368   8.7969186607e+01  -9.9637126781e+00     0.212195   0.09229955  39.42  0.001130423    2.155    0.536
       138  -9.3019    182.1558    249.6028   9.7529524187e+01  -2.2567119879e+00    0.1832552   0.09252643  29.76 0.0009563822    1.807    0.447
       139 -11.9717     71.0428     68.6343   8.7508820981e+01   5.4551276995e+01     1.576524    0.9113692  49.82  0.007107207    2.281    0.562
       140 -12.1845     55.2140     65.9403   9.2379545919e+01   5.7357086355e+01     1.231415    0.7518888 -46.99  0.005560325    1.433    0.302
       141  -9.9570    107.3023    248.1707   1.1130060073e+02   9.3804154072e+00     0.320537    0.1489838  61.58  0.001481406    2.757    0.637
       142 -11.8150     34.2135     69.6972   1.0144146476e+02   5.8899994412e+01     1.545272     0.841112 -17.51  0.005874939    2.594    0.614
       143 -10.9047     19.1195     72.7931   1.0793423066e+02   5.9463027762e+01     0.575609    0.3342889 -51.99  0.002261223    1.332    0.249
       144 -10.0218    149.0207    247.8960   1.0346548235e+02   3.0953122778e+00    0.2663524     0.131981  57.07  0.001224338    2.732    0.634
       145  -8.7037     30.5446    248.2546   1.2488299940e+02   1.9347358524e+01    0.1352243    0.0861171 -71.55 0.0008067695    1.685    0.407
       146 -11.2905    100.1864     41.1738   6.8003100223e+01   5.4157523827e+01     1.021482    0.7741771  35.03  0.005164961    1.276    0.216
       147  -9.3030      4.0280    245.9876   1.2905704240e+02   2.2501300039e+01    0.2198523    0.1157487 -72.69   0.00152106    1.897    0.473
       148 -10.5346    141.9542    244.3573   1.0435325116e+02   4.7437587977e+00    0.2882462    0.2726985  18.78  0.001407668    1.199    0.166
       149  -9.5563    241.4371    239.3324   8.5360221826e+01  -9.5719234517e+00    0.2206535    0.1541409  14.09  0.001490365    1.140    0.123
       150 -12.1183     31.7081     41.8182   9.3737598708e+01   6.4851200194e+01    0.5818423    0.3892873  31.01  0.003494084    1.753    0.429
       151  -9.6838     55.8672    238.2443   1.1984888684e+02   1.8187642079e+01    0.1972066    0.1295717  85.98  0.001300664    1.401    0.286
       152 -10.1425     14.4936    237.8537   1.2699954526e+02   2.2940301620e+01    0.2890388    0.1367503  81.73  0.001779794    1.814    0.449
       153  -8.2217    220.5238    237.4903   8.8714759806e+01  -6.3980559729e+00    0.1215453   0.09431299  13.63 6.734882e-05    1.028    0.027
       154  -8.1963    172.3315    237.3290   9.7612288981e+01   1.0319394030e+00     0.126124   0.08805966   9.34 0.0006883264    1.716    0.417
       155 -12.6985     47.7215     39.4393   8.5955544139e+01   6.3441523997e+01    0.8212564    0.3708988  29.06 0.0007788477    2.433    0.589
       156 -12.0331     56.5583     37.5640   8.1601794514e+01   6.2543526013e+01    0.4958039     0.379337  -6.43  0.001261818    1.224    0.183
       157  -9.0354     10.6334     99.6495   1.1587280325e+02   5.3832950512e+01    0.1789002    0.1550553  26.33 0.0006389216    1.458    0.314
       158  -8.4797     62.4357     98.2405   9.8799985969e+01   4.9177556173e+01    0.2004056    0.1270525 -67.20 0.0009431819    1.660    0.398
       159  -9.7149     44.5147     93.1504   1.0353658989e+02   5.2523437614e+01    0.2676134    0.1992253 -73.78  0.000373524    1.385    0.278
       160  -9.9029     39.1042     96.7596   1.0612923536e+02   5.2227199629e+01    0.3411191    0.2199043 -29.95  0.001174669    1.797    0.443
       161  -9.9336     39.5065     92.0507   1.0498248962e+02   5.3299515695e+01    0.2852085    0.1805121 -52.42  0.000823806    1.306    0.235
       162 -11.2805     34.2687     91.5805   1.0665705554e+02   5.3913091793e+01    0.7742344    0.4066766   2.35   0.00277763    3.098    0.677
       163 -10.6557    117.0611     95.3336   8.1289315631e+01   4.0493414101e+01     0.644264     0.420138  62.93  0.002676597    2.056    0.514
       164  -8.4072     93.7703     97.4447   8.8698198766e+01   4.4501540241e+01     0.187546    0.1464727  20.42 0.0003817397    1.482    0.325
       165  -8.8111    151.1441     95.8862   7.2630570468e+01   3.2845914808e+01    0.2408759    0.2133054 -78.78 0.0005754938    1.279    0.218
       166  -8.3093    228.2943     95.6404   5.7670137595e+01   1.5032029805e+01     0.151811    0.1032734 -60.36 0.0007031159    1.700    0.412
       167  -9.5327    189.5762     93.9076   6.3861545340e+01   2.4139762869e+01    0.3078621    0.2459743 -13.03 0.0008769486    1.441    0.306
       168  -9.0866    187.3432     89.4159   6.3068349849e+01   2.5491360202e+01    0.2366829    0.1687996 -55.84 0.0003554172    1.515    0.340
       169  -9.3986    124.4739     92.4055   7.8393179873e+01   3.9558627841e+01    0.4821518     0.304316  73.54  0.001750487    2.834    0.647
       170 -10.9482    118.9816     87.1857   7.8341973877e+01   4.1825811916e+01    0.4486721    0.4272992 -55.57  0.001539303    1.092    0.084
       171  -9.4043    104.6320     92.0774   8.3916927608e+01   4.3688626924e+01    0.4635813    0.2717618  16.09  0.001626702    3.128    0.680
       172  -9.6423    106.6836     87.3623   8.1915464938e+01   4.4307937663e+01    0.4490252    0.2101637 -38.78 0.0009941107    2.150    0.535
       173  -8.2370    174.4950     91.9896   6.6335317396e+01   2.8085835678e+01    0.2148777    0.1393263  -9.83 0.0008080612    2.385    0.581
       174  -9.0896    193.9800     89.7057   6.1905527469e+01   2.3861611820e+01    0.2561214    0.2103223 -38.92 0.0004965112    1.156    0.135
       175  -9.2834    112.5487     88.2029   8.0465000322e+01   4.2950189408e+01    0.3729766    0.1372306 -35.88   0.00113147    3.290    0.696
       176  -8.7344    154.7944     86.4257   6.9033656426e+01   3.3857235953e+01    0.3822333    0.2260511  24.26 0.0009965566    2.771    0.639
       177 -10.1785    146.6182     83.9753   7.0219216319e+01   3.6264190054e+01    0.7767322    0.3770387 -30.08  0.002244064    2.412    0.585
       178 -11.1853    135.7211     81.7095   7.2213879900e+01   3.9235580228e+01    0.8215281    0.6781662  15.63  0.003909384    1.389    0.280
       179 -10.6577    145.8570     76.7941   6.8215724546e+01   3.7806861409e+01    0.8314625    0.4983462  56.74  0.001363612    1.778    0.438
       180 -11.4019    138.6088     69.4904   6.7661420252e+01   4.0858209006e+01    0.9076806    0.5012894  60.75 0.0008888345    2.118    0.528
       181 -10.6830    148.3855     34.4905   5.4017893639e+01   4.3879876478e+01     1.350312    0.4085424  52.05   0.00460807    2.919    0.657
       182 -10.4444    136.3818     42.5684   5.9229092414e+01   4.5735328762e+01     1.648426    0.4423742 -44.54  0.004399171    5.182    0.807
       183 -11.6026    149.0838     66.1304   6.4145701623e+01   3.8941289684e+01    0.9992535    0.6356355 -34.53  0.004396813    1.571    0.363
       184 -10.5915    145.5218     48.6314   5.9278579813e+01   4.2625690955e+01    0.4565763    0.3441716  25.13 0.0006040661    1.527    0.345
       185 -10.4847    143.7895     57.9620   6.2719885672e+01   4.1593180808e+01    0.3212587    0.2666383  44.80 0.0004922904    1.194    0.163
       186 -12.4536    147.4667     53.6817   6.0514728953e+01   4.1378229388e+01    0.6099855    0.3818135  46.32 0.0001378122    1.589    0.371
       187  -9.2101    223.1138     85.4228   5.5930293575e+01   1.7878564432e+01    0.2973552    0.2502328 -36.20  0.001627492    1.102    0.093
       188  -8.2647    189.8189     86.3900   6.1775170796e+01   2.5445293893e+01    0.1903932    0.1437491  44.39 0.0003500266    1.413    0.292
       189  -8.5095     72.5367     84.4750   9.1828608966e+01   5.0918500746e+01    0.1440722    0.1284327 -38.76 0.0001213989    1.002    0.002
       190  -8.5760     76.0234     83.7750   9.0464567299e+01   5.0538595923e+01    0.2777533    0.1320333  37.54  0.001078133    2.290    0.563
       191 -10.1239    160.0858     81.6214   6.6429994329e+01   3.3498100912e+01    0.5991484    0.3000887  62.19  0.002162941    2.462    0.594
       192 -10.0900    122.9137     80.2812   7.5134081984e+01   4.2386698701e+01    0.3808259    0.2978403  36.37  0.001216695    1.328    0.247
       193  -9.6628    168.8116     78.2911   6.3595911678e+01   3.1986764596e+01    0.3453899    0.3115578  46.41  0.001795226    1.137    0.120
       194  -9.9902    189.9669     77.1075   5.9193939211e+01   2.7034612224e+01    0.5444251    0.2971317  36.81  0.002088561    2.442    0.591
       195  -9.1625     88.5065     78.5112   8.4791126663e+01   4.9597579107e+01    0.2451285    0.2062453  17.93  0.001307117    1.274    0.215
       196 -11.3579     44.0855     53.1207   9.2494199839e+01   6.1330415606e+01    0.8452063    0.6917595 -63.93   0.00501005    1.522    0.343
       197  -8.2606     47.4613     78.4742   9.8886623003e+01   5.5577118165e+01    0.1364511    0.1147989 -43.73 0.0001727859    1.007    0.007
       198  -9.5325      5.3005     77.1118   1.1389660332e+02   5.9347936240e+01     0.259634    0.1941424  77.77  0.001031606    1.625    0.385
       199  -9.6054      3.6463     72.6541   1.1366255785e+02   6.0434731054e+01    0.2936139     0.193079 -71.64  0.001249718    1.329    0.248
       200  -9.2495     70.2794     76.3506   9.0200096195e+01   5.3040383033e+01    0.2973619    0.2428574 -14.71  0.001429809    1.282    0.220
       201  -9.6245    248.0254     75.7822   5.0188756163e+01   1.4046468414e+01    0.3067472     0.129138 -52.29  0.001188141    2.656    0.623
       202  -8.3499     62.5229     76.4182   9.2926898046e+01   5.4141782349e+01     0.141203    0.1200745 -30.75 -0.0001401483    1.080    0.074
       203  -9.6583    130.6710     75.1371   7.1453403424e+01   4.1655257206e+01    0.3624805    0.2375015  62.15  0.001553935    1.828    0.453
       204  -8.4145    212.9776     74.7315   5.4747083586e+01   2.1949325189e+01    0.1855232     0.128181  60.46  0.000894714    1.536    0.349
       205 -11.3717    141.8468     44.8420   5.8805660514e+01   4.4081703213e+01    0.4167828     0.327632  15.15 0.0004820707    1.472    0.320
       206  -9.9478    190.2157    235.2474   9.3915438673e+01  -1.4917288796e+00    0.1858023    0.1427361  69.62  0.001064622    2.155    0.536
       207  -9.5519    166.4723     73.0185   6.2523535717e+01   3.3493125436e+01    0.3056544    0.2243216  78.46  0.001384052    1.659    0.397
       208  -9.3253    164.4453     68.4522   6.1572408943e+01   3.4779827619e+01    0.3031367    0.2540214 -65.89 0.0008685099    1.306    0.234
       209  -9.7407    177.5018     68.7950   5.9120223026e+01   3.1495619207e+01    0.5215394    0.3209065  64.18  0.002262067    1.746    0.427
       210  -8.7700    221.0902     68.8618   5.2053571342e+01   2.1009508640e+01    0.1819489    0.1645281  29.61  0.001026642    1.307    0.235
       211  -9.1568    203.9187     75.8518   5.6470173158e+01   2.3896248537e+01    0.3208595    0.2020925  37.32  0.001397714    1.992    0.498
       212  -9.2681     84.9476     67.4745   8.2378506563e+01   5.2487979073e+01     0.252529    0.1924676  44.84  0.001310597    1.457    0.314
       213  -8.8965     21.0054    232.4707   1.2561799057e+02   2.3276059109e+01    0.1610435    0.1127975  78.64 0.0005276002    1.093    0.085
       214  -8.5221    226.0000     65.9447   5.0648092643e+01   2.0341419524e+01    0.2430685   0.07437846 -33.77 0.0002314174    3.010    0.668
       215 -11.2112    155.3993     43.7509   5.5685740495e+01   4.0885662704e+01    0.7968649    0.7090757 -45.84  0.004398139    1.155    0.134
       216 -10.4761    166.4008     54.1799   5.6853920227e+01   3.6601190962e+01    0.8502987    0.3547867 -49.78  0.002889175    2.994    0.666
       217 -10.6242    160.8725     52.7534   5.7471453704e+01   3.8200297559e+01    0.5058875    0.3823832 -12.82  0.001765108    1.546    0.353
       218 -10.6199    133.5314     53.7308   6.3697593957e+01   4.4735823280e+01    0.7232727    0.3990636 -11.64  0.001854687    2.960    0.662
       219 -10.0325    131.1503     62.0599   6.7077271436e+01   4.3914021671e+01    0.6202205    0.3562403  74.35  0.001242422    3.168    0.684
       220 -10.9631    137.8286     59.1919   6.4501309689e+01   4.2824692784e+01     0.387217    0.2834085  13.45 0.0003905663    1.740    0.425
       221  -9.1423    207.2061     60.8722   5.1975604039e+01   2.5503700047e+01    0.3360718    0.1836242 -38.25  0.001033385    1.698    0.411
       222 -10.7633    194.1462     54.8256   5.2302871641e+01   2.9591280883e+01    0.8643036    0.5888782 -36.08  0.004221654    1.427    0.299
       223  -9.8983    172.6622     47.4839   5.3695247420e+01   3.6023722388e+01    0.4964073    0.3599361  67.84   0.00245788    1.385    0.278
       224 -10.6583    190.7710     42.4860   4.9365987677e+01   3.2193805741e+01    0.9206278    0.4492009 -42.47  0.002334069    1.973    0.493
       225  -9.8836    197.7843     37.3093   4.6957961113e+01   3.1154927512e+01    0.5847923    0.3441034  34.26  0.002509376    2.468    0.595
       226 -12.0140    192.2385     32.4076   4.6350284483e+01   3.3153751764e+01    0.4615234    0.3583205  71.12 0.0001093507    1.239    0.193
       227  -9.6008    180.5051     43.9022   5.1334669656e+01   3.4560839664e+01    0.3330824    0.2608841  19.68  0.001234484    1.614    0.381
       228 -11.9385    184.0973     55.2020   5.4022591890e+01   3.2022603474e+01     1.183759    0.6057733 -54.34  0.004611554    2.347    0.574
       229  -9.8618    174.0887     57.2199   5.6350603999e+01   3.4210480343e+01     0.484586    0.2699869 -17.27  0.001512112    2.481    0.597
       230  -9.0655    234.0612     59.9208   4.8138052918e+01   1.9438415525e+01    0.2020126    0.1782594 -50.99            0    1.027    0.026
       231 -10.1191    233.7218     55.4185   4.7089642897e+01   2.0171697108e+01    0.3504115    0.3265882 -84.91  0.002175122    1.117    0.105
       232  -9.9407    238.4061     52.2181   4.5782451703e+01   1.9592468816e+01    0.2367377    0.2155087  28.08 0.0006007289    1.392    0.281
       233  -9.2668    212.7208     58.7462   5.0627883367e+01   2.4513690893e+01    0.3661475    0.2356942 -14.21  0.001635818    2.101    0.524
       234  -9.2478    201.2157     59.9622   5.2626505171e+01   2.7086180371e+01    0.2690341    0.2013822  65.11 0.0005586653    1.368    0.269
       235 -10.3279      5.3327     57.0804   1.0969024502e+02   6.3750786944e+01     0.907046    0.5535427  87.28  0.004799074    2.552    0.608
       236 -10.1966     71.0595     52.6390   8.1960167319e+01   5.7669761810e+01    0.5419391    0.3512008 -48.51  0.002736575    1.645    0.392
       237 -11.7553     19.7551     84.1880   1.1013605837e+02   5.6828152191e+01     1.910028     1.841666  53.44   0.01363355    1.283    0.221
       238 -10.7981     76.2188     43.1165   7.6485756314e+01   5.8463661573e+01    0.5787635    0.2690926 -31.82  0.002353479    2.132    0.531
       239  -9.4873    121.4991     36.0520   6.0370980563e+01   5.0168392423e+01    0.6010805    0.1927698  55.99  0.002058247    3.009    0.668
       240 -10.3549    121.2604     54.2283   6.6939726267e+01   4.7505230992e+01    0.5771708    0.4514323  -3.23  0.002891819    1.442    0.307
       241 -10.2248    117.1335     49.5533   6.6376058676e+01   4.9189369065e+01     0.541027    0.3812306   1.90  0.002521279    1.785    0.440
       242  -9.7398    118.1359     42.4905   6.3562559355e+01   5.0037535356e+01    0.5286787    0.2931169 -30.91  0.002351667    1.826    0.452
       243  -8.7878    224.1245     56.1596   4.8449599924e+01   2.2237056316e+01    0.1952042     0.186374  26.03 0.0005222101    1.248    0.199
       244  -9.0773     12.7952     56.5561   1.0647935741e+02   6.3426129350e+01    0.2585002    0.1162242  18.73  0.001329465    2.649    0.623
       245  -9.0234    244.3089     54.9530   4.5768418060e+01   1.7920346310e+01    0.1895062    0.1545153 -42.59 0.0004282852    1.110    0.099
       246  -9.4244     51.0592     53.3445   8.9784561123e+01   6.0435016977e+01    0.2689933    0.1855714 -13.27 0.0008787561    1.569    0.363
       247 -11.3797     57.8404     48.2703   8.5287037527e+01   6.0479569286e+01    0.7429563    0.6047459  31.50  0.004490357    1.365    0.267
       248  -9.6523     64.0008     47.0381   8.2462481254e+01   5.9793551874e+01    0.2587425    0.1922999 -25.96 0.0007995613    1.209    0.173
       249 -10.7344     66.7799     43.3366   7.9985136553e+01   6.0005368190e+01    0.4124285    0.3408973 -46.62  0.001914968    1.400    0.286
       250  -8.9610    211.7054     51.1598   4.8790554727e+01   2.5871562385e+01    0.3888702    0.2211698 -30.70  0.001780539    1.767    0.434
       251  -8.5753      9.9133     52.1343   1.0652404047e+02   6.4533611040e+01     0.160229      0.10748 -34.80 0.0004501948    1.286    0.222
       252 -10.3808    228.3776     49.8306   4.6361088958e+01   2.2174625817e+01     0.318047    0.2236138  72.47 0.0004288688    1.486    0.327
       253  -8.0885     16.6396     50.6876   1.0323617175e+02   6.4389630593e+01    0.1327147   0.07049289 -32.48 0.0007042096    1.748    0.428
       254 -10.2086    202.6462     47.7057   4.9109774897e+01   2.8546520531e+01    0.3017844    0.2200633  19.80 0.0004763156    1.961    0.490
       255 -10.2735    207.1292     46.0432   4.8057523430e+01   2.7694462616e+01    0.4915448    0.1884795  61.43  0.001206541    2.542    0.607
       256  -8.6075     21.2556     49.0535   1.0075068089e+02   6.4374514409e+01    0.2376862    0.1313643 -36.04 0.0002839892    1.548    0.354
       257  -8.3958     24.0026     46.0000   9.8577182038e+01   6.4758364983e+01    0.1748259    0.0685164  22.76 0.0008009427    2.932    0.659
       258  -8.6062      6.5722     47.0063   1.0657871814e+02   6.5786631934e+01     0.177177   0.09500846 -60.15  0.001004027    1.571    0.363
       259  -9.7674    203.2195     28.7093   4.3967384473e+01   3.0918221249e+01    0.4961951    0.2182144 -18.65   0.00176144    3.324    0.699
       260  -9.0922     12.6336    232.0196   1.2702036851e+02   2.4215471930e+01    0.2194459    0.1006707  55.48  0.001158759    1.679    0.404
       261 -10.8708    220.4063     35.1219   4.3638636001e+01   2.6008211512e+01    0.5244282     0.403381  72.05  0.001738232    1.301    0.232
       262  -8.3575    227.0071    231.7318   8.6614403460e+01  -6.6057577970e+00    0.1491194   0.08921216  32.26 0.0005136951    1.453    0.312
       263  -8.8370    219.2321    230.7410   8.7841001549e+01  -5.3285902530e+00    0.1835963    0.1405107  41.71 0.0005239031    1.486    0.327
       264 -10.8506    218.9601     41.9410   4.5512867110e+01   2.5443572497e+01    0.7310169    0.3118913 -58.14  0.001861981    3.021    0.669
       265  -9.1469    188.5142    243.5613   9.5486585508e+01  -2.3977110189e+00    0.1225592   0.09709448  23.77 0.0002139128    1.041    0.039
       266  -9.5097    249.3743     42.9979   4.2497565141e+01   1.8494578303e+01    0.3992808    0.2250555 -15.35  0.001758588    2.804    0.643
       267  -9.1001    128.5191     44.5566   6.1731361536e+01   4.7326797161e+01    0.3488135    0.2426192  42.35  0.001492616    1.407    0.289
       268  -9.1581    202.1441    228.9709   9.0686239461e+01  -2.4673668469e+00    0.1845209    0.1530307  19.37 0.0004087751    1.024    0.024
       269  -8.4560    152.5913    227.7663   1.0006217133e+02   5.7458528148e+00    0.1619959    0.1237919 -68.01 0.0009510956    1.706    0.414
       270  -9.1936    137.0000    224.9332   1.0277167410e+02   8.7872015355e+00     0.186027   0.07410774 -52.82  0.000522176    2.900    0.655
       271  -9.0149    110.9968    225.0000   1.0800173587e+02   1.2924670903e+01    0.2150247   0.06310873  39.08 0.0008083237    2.983    0.665
       272  -9.1847     40.9039    221.6652   1.2135682978e+02   2.3179950024e+01    0.1847457    0.1369245 -77.47 0.0006647721    1.334    0.250
       273 -11.2559     17.6648     38.1068   9.8775366967e+01   6.6806230407e+01    0.9602587    0.6219178  -5.91  0.005932974    1.645    0.392
       274 -12.0093     15.8448     30.8796   9.7033971011e+01   6.8296344818e+01    0.3133302    0.2025581 -25.92 0.0003348587    1.316    0.240
       275  -8.4421    235.6569    219.3133   8.2950797317e+01  -6.2511311936e+00    0.1050227   0.09937758  58.53 0.0004534301    1.706    0.414
       276 -10.6597     36.5007     27.1865   8.5755002661e+01   6.6906172694e+01    0.2284832     0.166969 -14.97 0.0003360293    1.170    0.145
       277  -9.0719     13.5362    212.5243   1.2580910859e+02   2.7931655307e+01    0.1134389   0.08223125  76.37 0.0001034991    1.009    0.009
       278  -9.1286    124.0178    206.0115   1.0277788523e+02   1.4474838892e+01     0.191704    0.1716718  54.78            0    1.004    0.004
       279  -8.9735    233.8257    199.6752   7.9680608003e+01  -3.2423975757e+00    0.1838154    0.1404167  -8.99  0.001117411    1.165    0.141
       280  -9.7604     27.2901    193.4949   1.2186825424e+02   3.0540265419e+01    0.1886875    0.1763093 -56.99 0.0009370763    1.468    0.319
       281  -9.2837     11.0096    192.6246   1.2506304804e+02   3.2307556201e+01    0.2306147    0.1008074  33.23  0.001254896    2.478    0.596
       282  -8.2847    229.6375    187.8028   7.8135549763e+01  -7.8545806592e-01    0.1756058    0.1148831 -41.21 0.0004222758    1.656    0.396
       283  -8.7392    166.2351     42.3227   5.3244667878e+01   3.8366792658e+01    0.2855932    0.1607566  49.98  0.001249426    1.754    0.430
       284  -9.3533    167.7478     62.5568   5.9137727251e+01   3.4943292123e+01    0.4091457    0.3061469 -70.72  0.001259726    1.610    0.379
       285  -8.4555    225.0184     41.3472   4.4663605447e+01   2.4114955001e+01    0.1882222    0.1655493  85.11 0.0008357097    1.137    0.120
       286  -8.1782    197.4308     41.4987   4.8148585599e+01   3.0682779624e+01    0.1381122    0.1323547 -76.68 9.057747e-05    1.055    0.052
       287  -8.4669    112.4781     41.4770   6.4671355622e+01   5.1459443423e+01    0.1409317    0.1344767  14.23 2.359292e-05    1.048    0.045
       288  -9.6631    173.8266     39.3035   5.1047841940e+01   3.6865657969e+01    0.3310827    0.2464158  51.09 0.0009776598    1.344    0.256
       289  -9.1185    202.6016     37.9429   4.6497706145e+01   2.9892827666e+01    0.2676528    0.1905815  79.30 0.0006387538    1.416    0.294
       290  -9.9086    173.6524     30.3792   4.8407382098e+01   3.8053049530e+01    0.3988116    0.2813796  28.75  0.001200696    1.778    0.438
       291 -10.0679     10.2575    185.1479   1.2471393046e+02   3.3988915625e+01    0.3317518    0.2224783   6.73  0.001987514    2.639    0.621
       292  -9.6922     31.8584    184.4074   1.2015847861e+02   3.2064085543e+01    0.2071308    0.1239589 -72.80  0.001105221    1.453    0.312
       293  -8.3891     18.3112    182.6567   1.2287598230e+02   3.3801653785e+01    0.1286375   0.06936753  69.84 0.0007045825    1.701    0.412
       294 -10.0151    147.2392     23.9239   5.0719329637e+01   4.5440067744e+01    0.3694458    0.2733826 -44.16  0.001953755    1.450    0.310
       295  -9.8954    186.0145     25.4886   4.5239818613e+01   3.5543124896e+01    0.4949659    0.2251552 -43.67  0.001389543    2.169    0.539
       296  -9.2576     26.1022    180.0954   1.2101592541e+02   3.3619024470e+01    0.1826691    0.1490043 -70.33    0.0012398    1.277    0.217
       297  -9.7113    146.8356     29.5272   5.2662043845e+01   4.4884016471e+01    0.4823425    0.2869155  64.08  0.001715155    1.628    0.386
       298 -10.1815      2.0774    178.2180   1.2591695549e+02   3.6194179179e+01    0.3610938    0.1792265 -69.76  0.002114507    1.696    0.411
       299  -8.8504     37.0021    179.5097   1.1858902988e+02   3.2617091307e+01    0.1855323   0.07355259  54.92 0.0008105475    2.594    0.615
       300 -10.5315    180.6770     25.7327   4.6028097107e+01   3.6847208601e+01    0.7403144    0.3606347 -75.87  0.001572341    3.593    0.722
       301  -8.8067     79.8841    176.9451   1.0848266410e+02   2.7749291168e+01    0.2255333    0.1458913 -39.91  0.001087999    2.073    0.518
       302  -8.1393     65.4808    173.4265   1.1139444933e+02   3.0578672921e+01    0.1336935    0.1148358  83.37 0.0001150671    1.017    0.017
       303 -10.7429     32.3424    166.2547   1.1831905823e+02   3.6158856959e+01    0.2351255    0.2142821  57.38 0.0002704081    1.263    0.208
       304  -9.4659     13.0599    165.6671   1.2264993044e+02   3.8095668146e+01    0.1597561    0.1321185  89.48 0.0005463006    1.099    0.090
       305  -8.2188     26.6494    165.6998   1.1957739350e+02   3.6853671905e+01    0.1190988   0.08578485 -47.49 0.0007037731    1.693    0.409
       306  -9.9268    136.0176     33.0648   5.6020637086e+01   4.7103588189e+01    0.5764821    0.3413027  11.67  0.002327787    2.629    0.620
       307 -10.3380    245.3425     33.5838   4.0750060041e+01   2.0594599862e+01    0.4830399    0.2689449  76.04  0.002061559    1.891    0.471
       308 -10.8270    235.7309     32.5110   4.1414378043e+01   2.2841820174e+01    0.4444343    0.3681999   2.12  0.001788743    1.675    0.403
       309 -10.2519    238.4778     26.3437   3.9726893233e+01   2.3003705173e+01     0.552021    0.2566974  57.17  0.002589183    2.344    0.573
       310  -8.4158      3.7440     33.8592   1.0395975110e+02   6.8551426484e+01    0.3284301     0.113832 -33.73  0.001378952    2.700    0.630
       311  -8.0729     29.2423     34.2926   9.2011550302e+01   6.6481684489e+01    0.1217564   0.07465306 -25.47            0    1.471    0.320
       312  -8.8476    228.2938     30.7017   4.1723065115e+01   2.4750174279e+01    0.1943094    0.1624592 -47.45 0.0004125004    1.126    0.112
       313 -10.2906    226.4869     27.3204   4.1091248069e+01   2.5584681812e+01    0.4605736    0.3813357  74.56  0.002825792    1.225    0.184
       314 -10.0861    167.5595     29.1374   4.8973060953e+01   3.9738100505e+01    0.3057327    0.2641183  70.93  0.000965339    1.096    0.088
       315  -9.0162    167.3245     25.6733   4.7950307644e+01   4.0207904475e+01    0.2726586    0.1976474 -80.81  0.001354337    1.543    0.352
       316  -9.2123     18.9860    165.5139   1.2130685046e+02   3.7612139548e+01    0.1619132     0.115772  38.73 0.0008825009    1.580    0.367
       317 -10.2512    123.5333     22.5161   5.4915978919e+01   5.1362002624e+01    0.3379127    0.3091401  -5.22  0.001745891    1.130    0.115
       318 -11.0182    128.2312     23.7962   5.4374571217e+01   5.0099710850e+01    0.8844247    0.1890008  48.71   0.00118077    3.974    0.748
       319  -9.9988      1.9202    159.2339   1.2462216190e+02   4.0447003819e+01    0.4488656    0.1345365 -84.78  0.001781076    3.244    0.692
       320  -8.4110    250.4662     25.5095   3.8503185877e+01   2.0510989806e+01    0.1295272    0.1015439 -61.20 0.0001960973    1.058    0.055
       321  -8.9408    198.6037     24.4309   4.3377436138e+01   3.2558443495e+01    0.2982988    0.1256994 -30.09  0.001241767    2.384    0.581
       322  -8.9248    140.2335     24.2223   5.2114571931e+01   4.7137621828e+01     0.300414    0.1758216   0.10  0.001276946    2.446    0.591
       323  -8.4886    136.8610     24.1591   5.2745211795e+01   4.7971016322e+01    0.1891159    0.1507215  29.99 0.0004103843    1.296    0.228
       324 -10.7396     18.1534    158.5969   1.2086481174e+02   3.9287161117e+01    0.2837762    0.2268015  47.50  0.001608001    1.385    0.278
       325  -9.3205     28.6463    158.2775   1.1835614749e+02   3.8396290529e+01    0.1954016    0.1598062  49.81 0.0004677499    1.328    0.247
       326  -9.5075     74.8387     19.0167   6.6764086343e+01   6.2180737892e+01    0.2367556    0.1984656  40.03 0.0005695874    1.259    0.205
       327  -9.4134     11.5851    153.7776   1.2195818262e+02   4.0958334732e+01    0.2675955   0.09900123 -79.80  0.001198558    2.325    0.570
       328  -8.9022     43.3008     15.9535   7.7521366724e+01   6.7722796148e+01    0.2077798    0.1606464 -15.52  0.000759737    1.098    0.089
       329  -8.7908     41.9782     12.7518   7.6529688223e+01   6.8338141092e+01    0.3080439    0.1325388  36.90  0.001517828    2.338    0.572
       330 -10.7836     20.1663    152.1214   1.1975460132e+02   4.0628192220e+01    0.2859002    0.2116121 -69.43   0.00114522    1.188    0.159
       331 -11.2016     15.1738    151.6767   1.2091145954e+02   4.1156798913e+01     0.478182    0.2241662  67.98  0.002043192    2.404    0.584
       332  -8.9063     37.4669     12.5612   7.8475542583e+01   6.8973980902e+01    0.2013185    0.1555561 -11.92 0.0005661297    1.054    0.052
       333  -9.5412     36.2003    151.6114   1.1575393031e+02   3.9227773984e+01    0.3225101    0.1802969  57.67  0.001033605    1.908    0.476
       334 -10.2332    246.8994     18.9706   3.7358219697e+01   2.2057423711e+01    0.5331727    0.2395362  80.56  0.002525932    2.379    0.580
       335  -9.9726     30.6513    151.6530   1.1713911663e+02   3.9772460421e+01    0.2635298    0.2013829 -65.67 0.0005287582    1.207    0.171
       336  -9.0772      8.0567    151.3148   1.2256843436e+02   4.1806264996e+01    0.2043707    0.1304246 -61.85 0.0005893161    1.444    0.307
       337  -8.4359    235.6753     13.6663   3.7076210814e+01   2.5118547108e+01    0.1887818    0.1456074  67.21 0.0009412856    1.380    0.275
       338  -9.7244     45.3929    150.6606   1.1331345291e+02   3.8469985506e+01    0.2501251    0.1943759 -51.13  0.000582723    1.379    0.275
       339  -9.1519    101.0520     18.8879   5.8892364829e+01   5.6882454077e+01    0.1936385    0.1677309  25.44 -0.0009232552    1.029    0.028
       340  -8.9291     67.6854    148.3422   1.0720212001e+02   3.6273008438e+01    0.1469593    0.0990044  76.19 0.0004827839    1.707    0.414
       341  -8.8638    193.9583     14.8799   4.1349734761e+01   3.4771696427e+01    0.2208828    0.1381744 -65.95  0.001104589    1.679    0.405
       342  -9.6160     47.7020    139.3135   1.1110464348e+02   4.0969365103e+01    0.3284206    0.1481007 -58.33  0.001276082    1.892    0.471
       343 -10.2986     40.4974    146.4675   1.1401175073e+02   4.0017942726e+01    0.3325422    0.2531377 -32.42  0.001831907    1.728    0.421
       344 -10.7753     38.0295    143.0751   1.1420267365e+02   4.1097652360e+01    0.3633675    0.3068052 -21.85  0.001422102    1.580    0.367
       345  -8.9874     10.4504    144.7549   1.2138859763e+02   4.3155677070e+01    0.1988025    0.1631869 -41.72 0.0006212678    1.520    0.342
       346 -10.0012     67.5604     13.0057   6.6495570611e+01   6.4219138766e+01     0.249222    0.1763306  50.12 0.0007040914    1.588    0.370
       347 -10.2738      6.3185    142.5755   1.2219411216e+02   4.3971884155e+01    0.2591196    0.1867144 -84.10 0.0004798706    1.076    0.071
       348 -10.0233      5.2117    147.2395   1.2288403646e+02   4.2964167543e+01    0.2266074    0.1799395  62.66 0.0005876262    1.291    0.225
       349  -9.7017      1.4208    147.5094   1.2380628736e+02   4.3169998088e+01    0.2122026   0.08361346 -71.03 8.857637e-05    1.907    0.476
       350  -8.4231     96.3418    147.2934   9.9493704214e+01   3.2189595152e+01    0.1443911    0.1155822 -19.55 0.0007028854    1.656    0.396
       351 -12.1478     16.1690    141.1154   1.1959488974e+02   4.3568006208e+01     1.034162    0.5811802  70.48  0.005089115    1.892    0.472
       352 -11.1969     25.5309    128.5434   1.1561281295e+02   4.5804186227e+01     1.337758    0.3092964  35.42   0.00506807    4.059    0.754
       353 -11.9706     47.6781    124.8636   1.0879687373e+02   4.4514837404e+01      1.02208    0.6248517  32.93  0.005281433    1.865    0.464
       354 -11.3537     44.9864    114.7757   1.0780360196e+02   4.7278152970e+01    0.7723796    0.4487277 -31.89  0.002533943    2.275    0.561
       355 -12.1877    102.2598     76.1627   7.9753805327e+01   4.7513059944e+01     1.323183    0.8751796 -47.61  0.006144273    1.512    0.338
       356 -12.5014     11.8133    125.8316   1.1902311076e+02   4.7536774280e+01    0.7674423    0.3847512 -83.38 0.0003714422    1.802    0.445
       357 -10.4426     33.6140    124.0892   1.1270983835e+02   4.6153865345e+01    0.4959231    0.3252476  -1.56  0.002209025    2.325    0.570
       358 -10.8730     31.9058    119.6285   1.1251568926e+02   4.7398400193e+01     0.837857    0.3967098  20.25  0.003829975    2.807    0.644
       359 -11.7786      9.4865    108.2977   1.1746749401e+02   5.1863445810e+01    0.8561335    0.5502634 -51.31   0.00431737    1.407    0.289
       360 -11.5317     15.2824    102.7617   1.1489607340e+02   5.2790485157e+01    0.7035604    0.2979122 -58.06  0.002892588    1.784    0.439
       361 -10.0026     18.1833    121.8092   1.1676188910e+02   4.8027228396e+01     0.263972    0.1598925 -69.22 0.0003238623    1.303    0.233
       362 -10.6205     19.8669    117.6786   1.1572055231e+02   4.8889701879e+01    0.3849561     0.239259 -83.78  0.001981088    1.491    0.329
