#   1 NUMBER                 Running object number                                     
#   2 MAG_AUTO               Kron-like elliptical aperture magnitude                    [mag]
#   3 X_IMAGE                Object position along x                                    [pixel]
#   4 Y_IMAGE                Object position along y                                    [pixel]
#   5 X_WORLD                Barycenter position along world x axis                     [deg]
#   6 Y_WORLD                Barycenter position along world y axis                     [deg]
#   7 A_WORLD                Profile RMS along major axis (world units)                 [deg]
#   8 B_WORLD                Profile RMS along minor axis (world units)                 [deg]
#   9 THETA_WORLD            Position angle (CCW/world-x)                               [deg]
#  10 FWHM_WORLD             FWHM assuming a gaussian core                              [deg]
#  11 ELONGATION             A_IMAGE/B_IMAGE                                           
#  12 ELLIPTICITY            1 - B_IMAGE/A_IMAGE                                       
         1 -15.4182      6.3830     69.2643   1.2032702853e+02   6.1419952381e+01     1.677063     1.069117 -83.62  0.005697451    1.372    0.271
         2 -14.2749      6.9334     47.4290   1.1626042551e+02   6.6581343534e+01      1.22413    0.9707694  74.97  0.007925753    1.403    0.287
         3 -12.7624    120.2903     26.3407   6.3146360819e+01   5.1853377951e+01     1.010407    0.6160082  27.57  0.004293506    1.986    0.496
         4 -14.7364    119.7148     54.6260   7.4421870465e+01   4.7669507265e+01     1.008039    0.8611016  31.65  0.001644042    1.205    0.170
         5 -14.8505    119.7430     38.1054   6.8106955611e+01   5.0337610810e+01     1.962007    0.7664058  48.51  0.007045459    2.512    0.602
         6 -13.3279    131.8771     32.6177   6.3133583165e+01   4.8096736746e+01    0.8190321    0.5144321 -24.09  0.002709304    1.592    0.372
         7 -13.0590    138.9718     22.0851   5.7584078780e+01   4.7581022840e+01     0.795433    0.3864996  55.89  0.001826455    1.943    0.485
         8 -14.7441    166.6808     30.1689   5.5953933960e+01   3.9413366972e+01     1.197115     1.129212  84.18  0.004008574    1.105    0.095
         9 -14.7969    147.3928     30.4288   5.9242048150e+01   4.4390974178e+01     1.557505    0.9168924  63.47  0.004959913    1.725    0.420
        10 -12.6803    232.5016      2.3115   4.0944035862e+01   2.5987986826e+01    0.5895422    0.3381095  58.37  0.002288869    1.914    0.478
        11 -14.9379    212.5696     41.0971   5.3327819130e+01   2.6773942801e+01      2.62886    0.9499763  71.17  0.009380224    3.468    0.712
        12 -15.0043    189.6614     20.7315   4.9840687275e+01   3.4544628467e+01     2.182104     1.084054 -31.70  0.009548523    1.826    0.452
        13 -14.6836     42.1122      6.5335   7.9862877320e+01   7.1364517315e+01     1.676242     1.098481  -3.70  0.008739462    1.795    0.443
        14 -13.4888      2.9310     10.5068   1.0741707239e+02   7.5106056578e+01     0.797523    0.3504052 -61.52  0.004034766    1.931    0.482
        15 -12.8522      7.7847      2.6190   9.9726929422e+01   7.6348787461e+01    0.6209243    0.3982544  31.72  0.002795894    1.882    0.469
        16 -15.0945      8.6728     29.2594   1.1061140806e+02   7.0664939705e+01     1.196183    0.7950204  21.85  0.007261789    1.782    0.439
        17 -15.2645     13.7603     19.7743   1.0401880503e+02   7.2371663796e+01     1.099163    0.9640336 -50.53   0.00754283    1.122    0.109
        18 -14.6327     23.6200     13.9617   9.4998385878e+01   7.2606016117e+01    0.8047015    0.5203176  28.63   0.00291324    1.744    0.427
        19 -12.9357     71.9483     16.6277   7.2621923977e+01   6.4347325914e+01    0.7969423    0.3905904 -25.00   0.00204069    2.091    0.522
        20 -11.9880     46.6682     21.2458   8.6009364987e+01   6.8164601320e+01    0.4347049    0.3483905 -27.15  0.002108295    1.103    0.093
        21 -15.5161     98.0960     12.5889   6.2329387208e+01   5.9015645954e+01      1.85155    0.8723287  54.69  0.003257134    2.018    0.504
        22 -11.7589    153.0134      8.6787   5.0204294252e+01   4.5249636008e+01      0.30992    0.2883137  14.56 0.0008018311    1.096    0.088
        23 -11.3290     60.1554     17.2391   7.7650987792e+01   6.6553832571e+01    0.3524843    0.1919976 -31.37  0.001135275    1.719    0.418
        24 -11.2282     59.5883      6.6616   7.1776805744e+01   6.8211395229e+01    0.3522023    0.2566098  75.34  0.001787068    2.186    0.543
        25 -10.5823    161.1125      6.1458   4.8243294071e+01   4.3326973291e+01    0.2287886    0.1826112  38.40 0.0009598373    1.296    0.228
        26 -11.0110     68.1971      4.5069   6.7139246043e+01   6.6737502065e+01    0.3245111    0.1545497 -42.02    0.0013661    2.441    0.590
        27 -11.9893    182.6357      2.6547   4.4780207440e+01   3.7994382276e+01    0.5090529    0.2896987 -79.14  0.002283056    2.027    0.507
        28 -12.6010    117.3433      2.0334   5.3050287852e+01   5.5248014699e+01    0.7001178    0.3531953 -85.44  0.001382955    3.231    0.690
        29 -11.5549    112.1362      1.9357   5.3986229456e+01   5.6598334804e+01    0.2897035    0.2659135 -87.15   0.00107034    1.202    0.168
        30 -12.0753     78.1825      2.2565   6.2484990872e+01   6.4810495056e+01     0.358839    0.3061586  40.65   0.00135293    1.140    0.123
        31 -11.1092     83.0125      1.2334   6.0477315896e+01   6.3809849778e+01    0.2975965    0.1328604  61.06  0.001095281    2.280    0.561
        32 -15.2986    217.3924     14.3045   4.5266394009e+01   2.8396033004e+01     2.181193     1.207341 -16.82   0.01050156    1.781    0.439
        33 -12.0834     61.8239      2.0028   6.7993744151e+01   6.8356493693e+01    0.3905607    0.2314134  55.04  0.001946283    1.836    0.455
        34 -10.8594     28.3048      1.6446   8.4558414356e+01   7.4221178446e+01    0.2069203     0.151308  14.40  0.001074287    1.425    0.298
        35 -10.5842     54.0184      1.3501   7.0783075152e+01   6.9978774286e+01    0.1772416    0.1190187  43.72            0    1.512    0.339
        36 -11.2329    121.4843    156.5104   1.0007335511e+02   2.7431056726e+01    0.1302995     0.119575  34.68 0.0001191788    1.042    0.041
        37 -12.4031    109.9176    249.3129   1.1350921695e+02   1.4420222299e+01    0.3497119     0.162902  39.93  0.002265865    1.534    0.348
        38 -13.0656     55.5020    246.7301   1.2267985992e+02   2.0987456759e+01    0.7618126    0.3340113  26.67  0.004394879    2.693    0.629
        39 -12.0238     40.4932    243.9034   1.2509683480e+02   2.2928620754e+01    0.3025854    0.1835288  83.30  0.002374613    1.691    0.409
        40 -13.5933     27.6770    245.3684   1.2731299256e+02   2.3947103726e+01    0.5740667    0.3059834  71.58  0.004365641    1.682    0.406
        41 -11.7702      2.6987    249.8435   1.3150257758e+02   2.5494445391e+01    0.2971745    0.1147796  42.56  0.001959649    1.671    0.402
        42 -13.8064      9.0144    245.6749   1.3039184075e+02   2.5571025376e+01    0.6492532    0.2871999  50.90  0.003136822    1.479    0.324
        43 -13.4367     22.3395    181.2738   1.2545446151e+02   3.5276748071e+01    0.5296159    0.4744696 -69.10  0.002842264    1.393    0.282
        44 -12.5509    211.5070    155.0053   8.1707072364e+01   1.1972647907e+01    0.2637744    0.1569435  26.13   0.00140621    1.635    0.388
        45 -11.4855     85.8098    152.8821   1.0796245577e+02   3.3671284164e+01     0.316689    0.2054771 -53.00  0.001738884    1.656    0.396
        46 -11.6231    103.1720    150.2352   1.0332680227e+02   3.1599053530e+01     0.348535    0.2466561 -33.08  0.001860425    1.813    0.448
        47 -11.6839      6.4580    147.7458   1.2724979647e+02   4.3373850281e+01     0.378912     0.216007  65.61  0.002360916    1.490    0.329
        48 -11.9405    244.4110    147.2915   7.4906790544e+01   7.4643010769e+00    0.2382284    0.1038731 -22.33  0.001148449    2.161    0.537
        49 -10.4739     38.4141    145.7698   1.1906191437e+02   4.1015144707e+01    0.1601203    0.1006168 -64.50 0.0004820339    1.564    0.361
        50 -11.1813    148.8176    140.9671   9.1021931254e+01   2.5465358490e+01    0.2172585     0.165513 -77.38  0.001093413    1.986    0.496
        51 -12.6044     44.6108    134.6143   1.1622746584e+02   4.2828309102e+01    0.6130673    0.4001833 -77.14  0.003541838    1.428    0.300
        52 -12.9120    245.6869    134.4787   7.2072920227e+01   8.7266852210e+00    0.3526047    0.2694728 -53.25  0.002078881    2.090    0.522
        53 -10.7995     81.0676    135.9657   1.0658446134e+02   3.7917741291e+01    0.1852343    0.1743787  80.63            0    1.030    0.029
        54 -13.7971    232.3658    134.0103   7.3957553344e+01   1.1041177772e+01    0.5744178    0.3105057  38.74  0.003005569    1.816    0.449
        55 -10.6515     63.1045    134.3026   1.1114852881e+02   4.0725189193e+01     0.192593    0.1691904  16.90  0.001201279    1.369    0.270
        56 -10.5055     11.1558    134.2064   1.2522239732e+02   4.5959601556e+01    0.1611791     0.109378  62.98 0.0005523641    1.292    0.226
        57 -13.3416    222.8227    127.9693   7.4133372379e+01   1.3500880248e+01     0.393623    0.3113487 -49.52  0.002288611    1.705    0.414
        58 -11.1833     25.6546    127.0914   1.2066761811e+02   4.6382580869e+01    0.2531241    0.1918074 -63.97  0.001020064    1.313    0.238
        59 -12.9799     28.5186    122.5407   1.1938391435e+02   4.7167731437e+01     0.492182    0.3180754 -66.68  0.002901286    1.416    0.294
        60 -12.3582    133.8756    102.7934   8.5675367187e+01   3.5526593988e+01     1.303138     0.361419  50.48  0.003694271    4.286    0.767
        61 -13.2004    120.7072    102.2422   8.8871824826e+01   3.8305075514e+01    0.6699624    0.3881698  41.20  0.002830226    1.742    0.426
        62 -12.4514     77.2310    117.1551   1.0434578469e+02   4.2637032874e+01     1.004043    0.4893836 -71.99   0.00401104    2.694    0.629
        63 -13.4369     86.3067    113.2797   1.0096315666e+02   4.2116673421e+01     1.585129    0.9336194 -30.68  0.005999635    2.587    0.613
        64 -13.8491    105.4713    121.9858   9.7505978342e+01   3.7035661418e+01     1.538128    0.9118935  36.06   0.00723064    1.725    0.420
        65 -14.8219    106.4012    105.9585   9.3646074756e+01   4.0267883238e+01     1.674725     1.386901 -18.39   0.00829266    1.427    0.299
        66 -10.8365     59.9770    125.2463   1.1068058141e+02   4.3153644709e+01    0.2422764    0.1596656   2.44  0.001153643    2.521    0.603
        67 -11.9736    181.0302    121.2853   7.9966059188e+01   2.2519255380e+01    0.3229847     0.232698  56.56  0.001519843    1.622    0.383
        68 -11.5368     34.4870     86.6014   1.1240299413e+02   5.5103264447e+01    0.2426762    0.2006479 -46.27 0.0006639358    1.252    0.201
        69 -12.3123      5.2765    119.1044   1.2577990061e+02   4.9757714766e+01    0.5896521    0.4111222 -20.08  0.003661528    2.080    0.519
        70 -14.2456     17.8325    111.0043   1.2135185653e+02   5.0735849297e+01     1.012847    0.7457861 -12.65  0.006188768    1.907    0.476
        71 -13.3017    170.9268    242.9477   1.0249264324e+02   7.3879509006e+00    0.5925845    0.3263208  25.07  0.003902053    1.589    0.371
        72 -14.4120     95.0239    237.0009   1.1511033818e+02   1.7893902603e+01    0.9256056    0.5313625  62.60  0.004771905    1.933    0.483
        73 -15.2918     19.4745     97.5098   1.1929425644e+02   5.3792824934e+01     2.089873     1.360329 -19.29   0.01147142    2.205    0.547
        74 -13.3174      2.2323     97.2013   1.2498527473e+02   5.5007170529e+01    0.7247226     0.232656 -77.62  0.003175081    2.509    0.601
        75 -12.7346     33.0616    111.3763   1.1669912680e+02   4.9342287580e+01    0.4692111    0.2477829  87.37  0.002248292    2.096    0.523
        76 -11.5811     44.9260    110.4597   1.1288945597e+02   4.8345244679e+01    0.4727075    0.3284548 -60.16  0.002688832    1.347    0.258
        77 -11.7464    176.6527    110.4771   7.8204369528e+01   2.5154420806e+01     0.389025    0.2751974 -15.21  0.001921035    1.535    0.349
        78 -11.5934    120.9573    111.6607   9.1144480753e+01   3.6344308308e+01    0.3440227    0.2363796  67.72  0.001561878    1.974    0.493
        79 -11.3403     62.1806    110.2068   1.0752318173e+02   4.6325789275e+01    0.3736753    0.2265217 -69.47  0.001863472    1.624    0.384
        80 -10.5997    222.6767    109.6915   6.9964297214e+01   1.5920763538e+01    0.1401298   0.09373801  12.43 0.0003621268    1.648    0.393
        81 -11.9874     43.2636     91.2913   1.1016708456e+02   5.3072479848e+01     1.093755    0.4002214 -78.06   0.00327884    4.887    0.795
        82 -12.5652     62.4843     99.5317   1.0536294284e+02   4.8771912099e+01    0.9485732    0.4867766  58.06  0.003919391    2.650    0.623
        83 -12.7543     52.4391     98.0408   1.0834550627e+02   5.0408771858e+01    0.7167354     0.455417 -12.92  0.003224922    2.732    0.634
        84 -12.1330     49.1557     94.2737   1.0871749649e+02   5.1693386810e+01    0.3861833    0.2876752  78.21  0.001304809    1.472    0.321
        85 -11.8232    249.5054    100.0155   6.3914182870e+01   1.2094848945e+01    0.2045073    0.1081016 -25.29 0.0008439735    1.606    0.377
        86 -11.3655    162.2700     97.9393   7.7895608088e+01   3.0335832106e+01    0.3375979      0.24032 -24.67  0.001211492    1.447    0.309
        87 -12.7252    137.3595     95.6858   8.2924365565e+01   3.6155797150e+01    0.4308867    0.3817342  80.59  0.002288087    1.335    0.251
        88 -12.2160    125.6084     92.7951   8.5066561980e+01   3.9198943299e+01    0.3618719    0.2868385 -85.97  0.001744187    1.708    0.415
        89 -10.2860    144.6559     92.6792   8.0358504029e+01   3.5136242828e+01    0.1567575    0.1156581  10.32 0.0007049878    1.728    0.421
        90 -12.1781     89.8165     88.1661   9.3954042662e+01   4.7113762637e+01    0.5232853    0.3644335  44.42   0.00209113    1.492    0.330
        91 -12.2136    126.9665     86.1578   8.2824290319e+01   4.0209346945e+01    0.4941132    0.4143967  -9.47  0.002531825    1.332    0.249
        92 -12.7958    132.1160     85.6592   8.1372264752e+01   3.9190377556e+01     0.420494    0.3454386 -26.29  0.001341757    1.243    0.195
        93 -13.0367    135.5211     79.9563   7.8828063170e+01   3.9502225215e+01    0.7646198    0.4972152  48.95  0.002555561    1.562    0.360
        94 -12.5983    149.6614     85.0982   7.7048017495e+01   3.5383666916e+01    0.7851091    0.3518897  36.84  0.002744718    2.796    0.642
        95 -13.5534    164.0478     71.3301   6.9882534391e+01   3.4339984672e+01      1.52406    0.5276453  44.79  0.004988204    3.096    0.677
        96 -12.5922    159.9299     68.1335   6.9718301325e+01   3.5831168721e+01    0.7602291    0.3712691 -44.98  0.002507362    2.216    0.549
        97 -13.6229    160.9615     80.4508   7.3244775145e+01   3.3587111093e+01    0.8369594    0.6032116  18.78  0.002642642    1.671    0.402
        98 -14.4976    169.3321     77.1684   7.0596598743e+01   3.2168232780e+01     1.590518    0.6508962  52.74  0.005888782    2.459    0.593
        99 -13.0284    188.7798     84.2871   6.9039191693e+01   2.6602431198e+01    0.7419749    0.3469182  41.51  0.002348937    2.310    0.567
       100 -12.6028    242.0210     84.1773   6.1108368949e+01   1.5367961715e+01    0.3081543    0.2322867  70.18  0.001770025    1.764    0.433
       101 -12.6280    237.5151     80.2915   6.0720273389e+01   1.6718269236e+01    0.4355755    0.3290237  71.37  0.002475159    1.734    0.423
       102 -13.7025     58.3075     64.2842   9.8022956645e+01   5.7521439610e+01     1.529223    0.9277204 -24.16  0.003048489    2.408    0.585
       103 -13.2006     90.8433     57.3147   8.3929816816e+01   5.3425325539e+01    0.7522903    0.4901101 -53.11  0.002764158    1.657    0.396
       104 -13.7894     86.3476     66.1950   8.8501460958e+01   5.2479214765e+01     1.165673    0.7595085   7.90  0.003792907    2.639    0.621
       105 -12.9215     70.8583     75.6022   9.6722277909e+01   5.3081679683e+01    0.5841606    0.4950061 -35.50  0.002145195    1.199    0.166
       106 -12.0265     77.1204     73.8455   9.4038087350e+01   5.2458809676e+01    0.3436191     0.280566 -47.21 0.0009679751    1.149    0.130
       107 -12.9539     55.0873     81.6278   1.0391414777e+02   5.3951872064e+01    0.5871035    0.3815372 -46.04  0.002370594    1.502    0.334
       108 -13.8602     61.0326     75.2920   1.0015012942e+02   5.4620098787e+01    0.7192035    0.4870528 -42.20 0.0009961294    1.468    0.319
       109 -10.1784     98.6151     84.2506   9.0177235809e+01   4.6353194171e+01    0.1466071    0.1138399  75.50 0.0006954213    1.663    0.399
       110 -12.5893    217.3462     73.9402   6.1762237037e+01   2.1700478445e+01     0.638224    0.4191472 -66.09  0.002624785    2.304    0.566
       111 -11.6834    216.9984     81.2534   6.3734876655e+01   2.0826315719e+01    0.5568762    0.3119389 -22.80  0.001434103    1.670    0.401
       112 -12.5996    210.7485     77.8346   6.3745391604e+01   2.2626039107e+01    0.6413218    0.4668298 -76.92  0.003139065    2.053    0.513
       113 -10.8547     90.3004     81.4317   9.1926389680e+01   4.8498751178e+01    0.2947268    0.2062282 -65.74  0.001389872    1.661    0.398
       114 -11.3933     93.6561     79.1915   9.0219178398e+01   4.8364379081e+01    0.5088071    0.1886199  46.61  0.001777844    2.920    0.658
       115 -12.0697    114.0058     80.0516   8.4474687400e+01   4.4155702030e+01    0.4290706    0.3663289 -57.16   0.00115246    1.238    0.193
       116 -10.6026     32.7217     81.0043   1.1200924064e+02   5.6616350447e+01     0.189679    0.1472817 -70.88 0.0008461804    1.124    0.111
       117 -11.6423     42.4985     77.1985   1.0753003681e+02   5.6517512446e+01    0.3126465    0.2810209  50.71  0.001512435    1.221    0.181
       118 -13.9170    198.3408     69.8297   6.3425046714e+01   2.6489003122e+01     1.039666    0.7120564  22.88  0.003089253    1.716    0.417
       119 -11.0356    100.0000     75.9325   8.7279461580e+01   4.7834824296e+01    0.2491547   0.08165616 -45.01 0.0008026435    2.944    0.660
       120 -13.4574    133.4526     66.8749   7.5187197110e+01   4.2332639985e+01     1.040429    0.7542188   1.75   0.00386409    1.797    0.444
       121 -11.5753    240.9488     70.9813   5.7984441228e+01   1.7135778456e+01    0.2877862    0.2090175  78.39  0.001592928    1.866    0.464
       122 -11.0263    100.7871     70.0581   8.5172521867e+01   4.8882272804e+01    0.2652436    0.2023075 -60.69 0.0009230301    1.482    0.325
       123 -11.6623    100.2558     64.8351   8.3591637197e+01   5.0037175031e+01    0.4056455    0.3373623 -35.97  0.001400501    1.160    0.138
       124 -12.4321     38.9698     68.1766   1.0678362535e+02   5.9042948763e+01    0.7528615    0.3645355  27.61  0.003483419    2.358    0.576
       125 -13.9795    178.1294     57.8319   6.3144847248e+01   3.2947496444e+01    0.9523489    0.7444326 -35.79  0.002898395    1.236    0.191
       126 -13.2273    157.6746     43.7315   6.2129770964e+01   4.0010390334e+01     1.069613    0.6421907  22.80  0.004279055    2.283    0.562
       127 -13.9575    101.1193     49.4368   7.7723963933e+01   5.2774744110e+01      1.01453    0.7878011  76.34  0.002264292    1.711    0.416
       128 -11.9800    147.1944    238.9567   1.0607879175e+02   1.0968801248e+01    0.1603981    0.1203155  45.44  0.001008074    1.268    0.211
       129 -14.0602     23.8685    224.3082   1.2716536282e+02   2.7543535924e+01    0.8475921    0.5494946  78.39  0.006708866    1.391    0.281
       130 -12.8452    135.5200     50.6716   6.9111455404e+01   4.4543973248e+01    0.6234496    0.3970908  29.67  0.002421828    1.904    0.475
       131 -13.5888      8.9572    210.7851   1.2938300899e+02   3.1103617192e+01     1.060694    0.5272056  66.55  0.007334385    1.603    0.376
       132 -12.6450     16.7366    195.8516   1.2732225461e+02   3.3057173026e+01    0.7763672    0.2716473 -77.16  0.004243454    2.743    0.635
       133 -13.4798     29.9315    169.3743   1.2305020997e+02   3.6909844287e+01    0.6312321    0.4238402 -43.13  0.001825463    2.132    0.531
       134 -13.8820     18.4415    161.4430   1.2517930629e+02   3.9559945861e+01     1.854464     1.032126  16.14   0.01059896    2.454    0.593
       135 -14.7932      8.3495    183.4671   1.2849975673e+02   3.6057122019e+01    0.9881933    0.7519956  58.50  0.007760428    1.079    0.073
       136 -13.2359     81.9106     54.8287   8.6048926695e+01   5.5645905624e+01    0.8250175    0.5996972  17.45  0.003627064    1.720    0.419
       137 -12.0135     24.2917     59.5542   1.1089739717e+02   6.2498674976e+01    0.4138726    0.2290165 -64.33   0.00213956    1.520    0.342
       138 -12.7583    248.2760     51.6171   5.2356322949e+01   1.7833630387e+01    0.6667291     0.384377 -19.60  0.003466502    1.550    0.355
       139 -11.2614    231.0315     55.5637   5.5176753416e+01   2.0983648529e+01    0.3700843    0.1347071  63.85  0.001450252    3.131    0.681
       140 -13.2188     66.0116     48.8720   8.9728231855e+01   5.9678120674e+01    0.5617776    0.5113274  84.29  0.003253928    1.334    0.250
       141 -11.1222     23.5579     49.8248   1.0877982459e+02   6.4845693631e+01    0.3428772    0.1994047 -17.88  0.001205381    2.378    0.579
       142 -11.1295     26.9066     46.2901   1.0615939957e+02   6.5360612246e+01    0.4151711    0.2779944 -80.20  0.002109344    1.731    0.422
       143 -10.2764     33.3851     49.4970   1.0406256184e+02   6.3983400864e+01     0.132875    0.1111038 -52.85   0.00079915    1.027    0.027
       144 -12.7610     57.1965    203.3057   1.1965834325e+02   2.7677934466e+01    0.6964145      0.27279 -74.81  0.003640705    2.918    0.657
       145 -13.3808     66.7539    223.3186   1.1924489045e+02   2.3277616357e+01    0.7093608    0.4392586  32.65  0.004903425    1.501    0.334
       146 -14.0963     62.8108    214.5765   1.1937352790e+02   2.5134721502e+01    0.9125909    0.3922314  42.81  0.005372955    1.753    0.429
       147 -12.3432     79.6643     61.0299   8.9045442421e+01   5.4782904612e+01    0.5031632     0.394052  26.88  0.001963911    1.417    0.294
       148 -10.9024     39.1807     60.6487   1.0473615279e+02   6.0785781825e+01    0.3005363    0.2076398  75.27   0.00152422    1.977    0.494
       149 -11.8839    169.8269     43.3292   5.9891940389e+01   3.6978068355e+01    0.3602242     0.248435  44.31  0.001367102    1.498    0.332
       150 -11.5422     55.6084     41.0688   9.0964982680e+01   6.2948025340e+01    0.2160145    0.1978982  21.31 0.0002961934    1.180    0.153
       151 -11.5225    104.5552     36.7351   7.1578347192e+01   5.4155115850e+01     0.444364    0.1808433 -27.57  0.001556022    2.676    0.626
       152 -11.4878    104.9967     31.4810   6.9209114467e+01   5.4858846797e+01    0.4503598    0.4191119  52.42  0.002513774    1.134    0.118
       153 -12.6550     75.9932     37.4702   8.1218618210e+01   6.0109838943e+01    0.3538299    0.2840973  40.60 0.0008582798    1.315    0.239
       154 -11.7466     69.7235     36.5616   8.3211306364e+01   6.1453314594e+01    0.4270543    0.2618487  32.29  0.001415114    1.833    0.455
       155 -13.4560    242.1495     34.5640   4.8605356354e+01   2.0887611645e+01    0.7594442    0.6485936  63.75  0.002922999    1.336    0.251
       156 -11.5367     58.4644     35.4717   8.7363272231e+01   6.3612951504e+01    0.5688189    0.2994052  31.50  0.002532476    2.221    0.550
       157 -13.2211     94.5378    218.7445   1.1362967417e+02   2.0647341609e+01    0.3985488    0.2191698  42.21  0.001831814    1.409    0.290
       158 -12.2813     29.4722     32.1883   9.9967057156e+01   6.8237781521e+01    0.6122679    0.3712685  -4.29  0.001906839    2.352    0.575
       159 -11.0910     85.4733    215.9922   1.1511942210e+02   2.2214653290e+01    0.2287985    0.1159116  48.02  0.001379944    1.602    0.376
       160 -11.0098    200.5193    215.4889   9.3953733012e+01   6.3780821326e+00    0.1134043   0.08422378  20.23 0.0005744012    1.022    0.022
       161 -11.4960    185.5076    213.5345   9.6226987374e+01   8.7272487839e+00    0.1692115    0.1077606 -49.31  0.001039603    2.398    0.583
       162 -11.2148    136.8251    211.2872   1.0477185690e+02   1.6037451088e+01    0.1684016    0.1563753  82.13 0.0008863158    1.356    0.263
       163 -12.2458     45.6380    209.2077   1.2233987376e+02   2.7911155884e+01     0.313439    0.1697216  72.95    0.0019924    1.840    0.457
       164 -12.3003     45.9456     33.9324   9.2372240642e+01   6.5826080352e+01    0.5066866    0.3369546 -33.90  0.002678975    1.426    0.299
       165 -11.3826     91.6837     33.1171   7.3883583457e+01   5.7627990644e+01    0.3492631    0.2656694   9.55   0.00100644    1.506    0.336
       166 -10.2499     89.3041     30.2908   7.3371290505e+01   5.8599269309e+01    0.1471031    0.1396116 -24.27  0.000169052    1.080    0.074
       167 -10.9160     80.4441    208.3201   1.1542822589e+02   2.4081895721e+01    0.2079991   0.09978453  50.20  0.001181895    1.780    0.438
       168 -12.8108     56.5317     27.5139   8.4536081326e+01   6.5434829874e+01    0.6593055    0.3368635  46.57  0.001947863    2.266    0.559
       169 -12.9538     67.8565     24.5427   7.8298976057e+01   6.3922721844e+01    0.7461036    0.4094253  43.11  0.003143212    1.906    0.475
       170 -12.7605    223.6343     21.0287   4.6609810885e+01   2.6313618685e+01    0.3903633    0.2998718  67.33  0.001000819    1.412    0.292
       171 -10.9166     97.9024     27.1346   6.9289962371e+01   5.7150826924e+01     0.221123    0.2030869 -66.91  0.001221488    1.275    0.216
       172 -11.0848    150.1185    206.9200   1.0170608121e+02   1.4731017737e+01    0.2733105    0.1375364  34.45   0.00107392    1.656    0.396
       173 -10.4108     54.2419     19.8129   8.1655683698e+01   6.7182933579e+01    0.2566445    0.1623802  18.47  0.001034875    2.000    0.500
       174 -12.8468     41.4487    200.7329   1.2264304372e+02   2.9823828051e+01    0.2451794    0.1437498  79.14  0.001606273    1.664    0.399
       175 -12.9102     40.5895    195.2464   1.2247040202e+02   3.0898193930e+01    0.4273317     0.183972  76.51  0.002171266    2.777    0.640
       176 -14.2269     15.7680    175.6758   1.2657256289e+02   3.6937192925e+01     1.343409    0.3222284  48.12   0.00622594    2.961    0.662
       177 -12.0855    164.1748    195.7068   9.7477157028e+01   1.4181917578e+01    0.2717575    0.1917275 -77.02   0.00142431    3.081    0.675
       178 -12.6488    201.3307    191.6115   9.0119176831e+01   9.0076586008e+00    0.3424113    0.2352231  13.58  0.001692009    1.332    0.249
       179 -11.7366     49.0605    181.4348   1.1968305938e+02   3.2581025674e+01    0.3299852    0.2325645 -54.99   0.00217811    1.727    0.421
       180 -12.5026    198.4619    181.6160   8.8931533802e+01   1.0689832633e+01    0.2487542    0.2113873  23.58  0.001435754    1.146    0.127
       181 -11.6306     84.9830    179.9999   1.1163251616e+02   2.8480693572e+01    0.2061933    0.1264884  63.10  0.001152384    1.748    0.428
       182 -10.6577    218.4983    176.5301   8.4606542774e+01   8.1661521526e+00    0.1214903   0.09628506  12.00 8.486295e-05    1.009    0.009
       183 -12.0325    124.5196    167.9816   1.0126536325e+02   2.4847199401e+01    0.4141348    0.2441211 -48.28  0.002193911    1.895    0.472
       184 -12.3059    121.6838    164.3387   1.0131454108e+02   2.5957473687e+01     0.239809     0.195486  82.85  0.001175745    1.504    0.335
       185 -10.6595    177.3075    167.3418   9.0281163352e+01   1.6115969699e+01    0.1324702    0.0905313   7.46 0.0006308011    1.689    0.408
       186 -12.0569     77.2007    156.9072   1.1061682410e+02   3.4042521440e+01    0.4507624    0.2543598  37.54  0.001677575    1.655    0.396
       187 -12.8350     74.1220    153.1812   1.1088347294e+02   3.5224413641e+01    0.6406676    0.3819047  30.74  0.002986781    1.758    0.431
