#   1 NUMBER                 Running object number                                     
#   2 MAG_AUTO               Kron-like elliptical aperture magnitude                    [mag]
#   3 X_IMAGE                Object position along x                                    [pixel]
#   4 Y_IMAGE                Object position along y                                    [pixel]
#   5 X_WORLD                Barycenter position along world x axis                     [deg]
#   6 Y_WORLD                Barycenter position along world y axis                     [deg]
#   7 A_WORLD                Profile RMS along major axis (world units)                 [deg]
#   8 B_WORLD                Profile RMS along minor axis (world units)                 [deg]
#   9 THETA_WORLD            Position angle (CCW/world-x)                               [deg]
#  10 FWHM_WORLD             FWHM assuming a gaussian core                              [deg]
#  11 ELONGATION             A_IMAGE/B_IMAGE                                           
#  12 ELLIPTICITY            1 - B_IMAGE/A_IMAGE                                       
         1 -12.3524     60.5807     46.0024   1.0999919232e+02   6.0830437663e+01     1.409207    0.4802672 -44.02  0.005632802    2.612    0.617
         2 -11.0406    139.2965     22.7070   7.7788648652e+01   4.8144814485e+01     1.498561    0.6888983  46.04  0.006086821    2.094    0.523
         3 -12.2353    125.2028     27.6285   8.2677545006e+01   5.1026242318e+01     1.767729    0.9816911  31.41  0.007463582    2.153    0.535
         4 -10.7865    121.9925     18.6122   7.9947369704e+01   5.2871343148e+01     1.080127    0.5804788  80.03  0.004121079    3.045    0.672
         5 -11.5553    145.5944     47.7587   8.5257511167e+01   4.3191362057e+01     1.104058    0.4965236 -24.22  0.003742808    2.714    0.631
         6 -12.2871    105.0035     12.9492   8.1744448761e+01   5.7426102294e+01     0.556716    0.4195394 -16.28  0.003084385    1.355    0.262
         7 -10.7946    105.9928     21.2812   8.4968790618e+01   5.6257154213e+01     0.385726    0.2453077 -26.10  0.001513488    1.597    0.374
         8 -12.6113    112.9847     24.8226   8.4577368578e+01   5.4245738380e+01    0.9436756    0.4402937  51.33  0.004045308    1.972    0.493
         9 -11.4657    178.2484     21.1513   7.0637124416e+01   3.8169861848e+01     0.565913    0.3678659  23.01   0.00208682    2.092    0.522
        10 -11.2280    163.8359     27.8196   7.5012376155e+01   4.1194851278e+01    0.4832161    0.3008931  51.59  0.001787839    1.524    0.344
        11 -10.4704     60.7453     25.6136   1.0170545038e+02   6.4259303687e+01    0.5460084    0.2270081 -40.92  0.002459811    2.332    0.571
        12 -11.3364    120.5852     57.7291   9.4827167621e+01   4.7563199519e+01     1.689148     1.315946 -87.01  0.008062738    1.786    0.440
        13 -11.4910     26.2052     27.7837   1.1757968994e+02   6.8144062677e+01    0.4753188     0.462053 -74.80  0.002950033    1.451    0.311
        14 -11.3484     22.8177     11.0059   1.1201095280e+02   7.1269633673e+01    0.5724384    0.3175754   3.80  0.002767692    2.199    0.545
        15 -11.6726     19.9145     22.9068   1.1866590503e+02   6.9557050831e+01    0.4824445    0.2173008 -43.92  0.001519783    1.727    0.421
        16 -12.0584     15.0481     21.7506   1.2061376046e+02   7.0147691697e+01    0.6877687    0.5586703 -81.85  0.003570391    1.960    0.490
        17 -11.4977     16.8581     13.5796   1.1628198762e+02   7.1397532867e+01    0.3294622    0.1754854 -40.01 0.0003045936    1.470    0.320
        18 -11.2116     13.7005      9.4129   1.1606359555e+02   7.2335658809e+01    0.3537763     0.210789  18.34  0.002331672    1.825    0.452
        19 -10.3967    152.9883     26.0642   7.6341396017e+01   4.4242277325e+01    0.5734447    0.3765712   2.74  0.001904306    2.022    0.505
        20 -10.0071     87.0671      7.2249   8.4134679550e+01   6.1863301977e+01    0.6082438    0.3439308  52.27  0.002988535    1.697    0.411
        21 -11.6191     90.6331     20.2788   8.8926918139e+01   5.9646384986e+01    0.5887318    0.4218628 -18.70  0.002382374    1.373    0.271
        22 -11.4535     85.8865     14.5709   8.7853220900e+01   6.1293614284e+01    0.5876992    0.3193828 -11.51   0.00189304    2.142    0.533
        23 -10.3171    206.5347     21.1677   6.7004811870e+01   3.0757559563e+01    0.4551005    0.2527412 -17.12  0.001585925    2.244    0.554
        24  -9.2486     32.1288     12.1930   1.0794162031e+02   7.0108650403e+01    0.2282318    0.1655322  46.07  0.000387864    2.072    0.517
        25 -12.5718     48.6699     13.9672   1.0125829460e+02   6.7744723138e+01    0.7402421    0.5402569   4.10   0.00471439    1.291    0.225
        26 -11.5922     35.5648     18.7672   1.0939888305e+02   6.8702404287e+01    0.4370327    0.1875274 -38.16  0.001767296    1.980    0.495
        27 -12.0252     68.9270     18.1798   9.5235034542e+01   6.3992872173e+01    0.7424505    0.5487034  42.21  0.004452654    1.429    0.300
        28 -10.9261     71.8263      3.4080   8.7095941795e+01   6.5226750224e+01    0.5770779    0.3280402 -14.41  0.003081774    1.763    0.433
        29 -10.8980     66.1353     10.7549   9.2727165126e+01   6.5421154023e+01    0.3722578    0.2385036  33.68  0.001971046    1.478    0.324
        30 -10.5421     63.1849      6.3426   9.1628084574e+01   6.6447891176e+01    0.3863754    0.2167313 -16.27  0.001316244    1.774    0.436
        31 -10.0886     77.0074      6.8115   8.7050210017e+01   6.3894428164e+01    0.2683179    0.2195544  73.57  0.001395959    1.748    0.428
        32 -10.8344     77.1636      2.8548   8.5080907225e+01   6.4271734076e+01    0.3305701    0.2258326  23.78  0.001164019    1.357    0.263
        33 -12.8040    240.2689     16.2936   6.2382698786e+01   2.2953706012e+01    0.9868914    0.6520675  83.45  0.003670215    1.467    0.318
        34 -12.2756    244.8373      6.7932   5.9770817335e+01   2.2934388615e+01    0.9039573    0.4608856 -67.49  0.003882946    1.994    0.498
        35 -11.9731    239.3644      7.2601   6.0301606478e+01   2.4166244434e+01     0.613591    0.2634411 -71.65  0.002276971    2.876    0.652
        36 -10.8616    165.2780     17.3192   7.1350604971e+01   4.2017958176e+01    0.4243123    0.2481773  39.75  0.001198634    1.893    0.472
        37  -9.7558    149.4916     15.0076   7.3148167870e+01   4.6383873805e+01    0.3615181    0.2230408  24.57 0.0008554041    2.033    0.508
        38 -11.6716    134.1992     15.2275   7.6060004597e+01   5.0249871600e+01     1.001279    0.3106816  60.91  0.003520309    2.823    0.646
        39 -11.4732    125.4882     11.2650   7.6323980025e+01   5.2802775769e+01    0.7025436    0.3992133  77.63  0.003001095    2.210    0.548
        40 -10.4914    186.4423     15.1246   6.7706789712e+01   3.6670224365e+01    0.3305801    0.2320244  50.00 0.0005288459    1.451    0.311
        41 -11.3478    192.1178      7.9361   6.4928848884e+01   3.5925331611e+01    0.5121589    0.3424558  16.15  0.001840099    2.111    0.526
        42 -11.1644     38.6643     19.8529   1.0846494740e+02   6.8168571144e+01    0.5116961    0.1679684 -42.34  0.001650016    2.679    0.627
        43 -10.1798    218.9768     12.5469   6.3389129917e+01   2.8560930230e+01    0.3203425    0.1984584  62.46 0.0009413277    1.576    0.366
        44 -11.7882    211.5049      9.9627   6.3441410164e+01   3.0721279015e+01    0.4981293    0.3599591  18.09  0.001812255    1.951    0.487
        45  -7.8185      4.3654      9.6174   1.2128107443e+02   7.2981401445e+01    0.4620719    0.1294699 -41.80  0.002135202    2.547    0.607
        46  -9.9438    168.9522      9.7876   6.8387893331e+01   4.1825088493e+01    0.3452691    0.1717598  49.11   0.00148709    1.963    0.491
        47  -9.5520    157.6410      2.4642   6.7591845414e+01   4.5463022637e+01    0.3299575    0.2179883  46.47  0.001682411    1.470    0.320
        48  -9.5827    162.6340      5.8124   6.7989872079e+01   4.3860862739e+01    0.3055864    0.2351787  23.28 0.0007656742    1.502    0.334
        49  -9.5754    162.6656      1.2979   6.6516319915e+01   4.4255143781e+01     0.350871    0.1915521 -65.12  0.001261411    2.331    0.571
        50  -9.9906    151.2380      7.4946   7.0256088524e+01   4.6671809391e+01    0.4538529    0.2038604  59.33  0.001205991    1.899    0.473
        51 -10.1667      1.3075      7.2617   1.2198961026e+02   7.3565150305e+01    0.1759772   0.07341394 -48.90 0.0002482626    1.819    0.450
        52 -11.0689     41.2352     14.2906   1.0469385183e+02   6.8699138148e+01    0.5095235    0.1743318  40.16   0.00225507    3.325    0.699
        53  -9.1719    202.2844      5.9681   6.3288790452e+01   3.3487526304e+01    0.1651438    0.1196374 -32.01 0.0006320801    1.450    0.311
        54 -10.6710    174.4157      4.7043   6.6071256039e+01   4.0873964236e+01    0.6568049     0.268093  81.70  0.002389902    2.852    0.649
        55 -10.8593     42.4426      3.7599   9.8787655272e+01   6.9973548309e+01     0.419127    0.2333441  -4.27   0.00201141    2.162    0.538
        56 -10.8787    218.5928      3.3471   6.1059110496e+01   2.9618997023e+01    0.2950442    0.2775295  78.11 0.0008781038    1.164    0.141
        57 -11.4881    223.5799      1.8788   6.0265416317e+01   2.8532552452e+01    0.8471262    0.3520845 -86.13  0.003281455    2.922    0.658
        58 -10.2594    141.7467      3.6120   7.0429329955e+01   4.9456224025e+01    0.3624586    0.2446222  71.59  0.001865689    1.409    0.290
        59 -12.0013    133.7906      2.6658   7.1448057989e+01   5.1543565527e+01    0.3946765    0.2625879  59.62 0.0007268629    1.326    0.246
        60  -9.9939    122.5822      1.4085   7.3051855814e+01   5.4408298908e+01    0.8101646   0.09627677  62.13   0.00217275    5.246    0.809
        61 -10.9278    105.9902      1.6822   7.6698744274e+01   5.8287681451e+01     1.106326    0.3577863  68.87  0.003446844    4.644    0.785
        62 -10.1649    113.0304      1.7752   7.5162409125e+01   5.6653764372e+01    0.4066208    0.1437996  61.56  0.001145023    2.538    0.606
        63  -8.7869     55.6618      4.2500   9.3447784524e+01   6.7934961561e+01    0.1000008   0.09799223 -74.36 0.0004712859    1.566    0.361
        64 -10.0701     23.0033      2.6026   1.0767681017e+02   7.2499199301e+01    0.2867756    0.1588423 -21.91  0.001732368    1.631    0.387
        65 -10.4790    206.0556      2.3087   6.1926583186e+01   3.2881449226e+01    0.4841716    0.2135403  89.79  0.001918786    2.585    0.613
        66 -10.9470      2.7998      1.8521   1.1864922894e+02   7.4348788289e+01    0.3274037    0.1673052   3.30   0.00200978    2.245    0.555
        67  -9.4502    193.9918      1.4429   6.2879873437e+01   3.6064588205e+01    0.2084708    0.1220079  75.10 0.0004697441    1.542    0.352
        68 -10.8124     71.5023    134.1426   1.2880607549e+02   3.9950552592e+01    0.5353013    0.3837409   5.34  0.002653993    2.325    0.570
        69 -11.4574     92.2598    130.6988   1.2269756718e+02   3.7570998162e+01    0.6851543    0.4442045 -48.21  0.003345231    1.587    0.370
        70  -9.9153     62.3031    132.2646   1.3092021761e+02   4.1632507364e+01    0.3221143    0.1639227 -60.11   0.00154111    1.748    0.428
        71  -8.9360    106.9582    131.0421   1.1892472050e+02   3.4936738410e+01    0.1712429    0.1580673 -80.31 0.0003514759    1.027    0.026
        72 -10.7829     10.8590    126.9991   1.4364394306e+02   4.8022491690e+01    0.4402936    0.1434882 -60.31  0.001708538    2.452    0.592
        73  -9.9254     78.3640    128.5473   1.2598658769e+02   4.0258287168e+01    0.2327185    0.1510139 -44.97 0.0008055905    1.695    0.410
        74 -10.9913    242.0294    128.2709   8.9393018178e+01   6.4650274304e+00    0.2458071    0.2068588  77.98  0.001010316    1.563    0.360
        75 -10.5332    239.4900    125.5071   8.9169037114e+01   7.4166668873e+00    0.2112229    0.1274052  38.88 0.0009868253    1.775    0.437
        76  -9.2216     53.4767    124.9795   1.3211239798e+02   4.4429546340e+01    0.3729956    0.2163719  86.69  0.001614396    2.121    0.528
        77 -10.6813     56.4702    122.4148   1.3086673851e+02   4.4666849666e+01    0.4264709    0.2724931  46.07  0.002048176    1.664    0.399
        78 -10.0180     18.5993    124.8975   1.4143218436e+02   4.7902171503e+01    0.2487651    0.1254318 -60.58 0.0007109836    1.687    0.407
        79 -10.7287      2.9167    123.4499   1.4530907936e+02   4.9362807850e+01    0.4158474     0.255103 -62.61  0.002155734    1.425    0.298
        80 -11.8262    105.0490    120.8638   1.1721946544e+02   3.7601066940e+01    0.5396832    0.5145824 -85.44  0.002317852    1.020    0.020
        81  -9.7382     84.3602    123.0216   1.2328944009e+02   4.0624998372e+01    0.4095056    0.2423664 -17.91  0.001269781    5.269    0.810
        82 -10.8326     45.7239    120.5832   1.3354157703e+02   4.6338722771e+01    0.4614399    0.2593786  63.00  0.002271948    2.151    0.535
        83 -10.9222     34.3011    119.7817   1.3657435914e+02   4.7695077622e+01    0.2476702    0.2095108 -73.26  0.000478874    1.071    0.066
        84  -9.5634    221.2190    120.4519   9.1060768374e+01   1.2143868114e+01    0.1948282    0.1444054  65.71 0.0005365089    1.609    0.379
        85  -9.2416     72.4936    119.9983   1.2597225569e+02   4.3109402184e+01    0.1949518    0.1006139 -41.32 0.0008087808    2.413    0.586
        86  -9.4391    148.5000    119.5223   1.0585301611e+02   2.8989546809e+01    0.1527814    0.1503434  35.58 -8.042512e-06    1.049    0.047
        87 -11.2664     44.7052     84.9675   1.2714210965e+02   5.4652381043e+01     1.032458     0.603295  74.40   0.00451314    3.048    0.672
        88  -7.5899     25.1494     86.6934   1.3396738993e+02   5.6072399256e+01    0.7257959    0.4858463  85.62  0.004224103    1.718    0.418
        89 -11.7382     34.3907     91.6201   1.3189706186e+02   5.4165956450e+01     1.933309    0.7979799 -78.12  0.007263085    3.520    0.716
        90 -11.5757     37.5976     85.8758   1.2970175928e+02   5.5165663597e+01    0.7049006    0.4073846  86.61  0.001544662    2.667    0.625
        91 -11.9009     10.0037     97.9902   1.4049901491e+02   5.4607846801e+01    0.8167821    0.4494631  47.27   0.00477296    2.118    0.528
        92 -12.0784      7.2961     88.8339   1.4005019879e+02   5.6820656448e+01    0.5201656    0.3965734 -68.38 0.0009530484    1.020    0.019
        93 -11.4931     23.6919     98.6557   1.3646981129e+02   5.3478416136e+01    0.5770478    0.2304223 -62.60  0.001974094    1.914    0.477
        94 -11.2689     18.8403    106.1003   1.3901154675e+02   5.2158566117e+01    0.2224585    0.1871979 -67.82 0.0002855608    1.106    0.096
        95 -11.8603     20.5456     95.5075   1.3693596550e+02   5.4436739422e+01    0.5636478    0.3673275   0.32  0.003317391    2.223    0.550
        96 -11.8773     18.4720     90.5410   1.3678663387e+02   5.5710834886e+01    0.4091477    0.2629073 -68.77 0.0006107106    1.242    0.195
        97 -11.9541     28.2771    113.1040   1.3729923315e+02   4.9786702638e+01    0.7164169    0.3950186  12.61  0.003683213    2.782    0.641
        98 -12.5938     25.7209    107.2594   1.3718214166e+02   5.1347109012e+01     1.113886    0.5435042 -34.17  0.005054561    3.176    0.685
        99  -9.8449     87.7042    114.5845   1.2058399424e+02   4.2044898923e+01    0.3002727    0.2068559  61.94  0.001462337    1.675    0.403
       100 -11.0928     79.8771    108.7240   1.2152431994e+02   4.4637876867e+01    0.6528322    0.4094813  54.95   0.00312389    1.831    0.454
       101  -9.1659    126.8395    114.1570   1.0988600255e+02   3.4828746652e+01    0.2034699     0.184471  -0.64 0.0006914365    1.296    0.228
       102 -11.1804    104.9321    110.2602   1.1477321440e+02   4.0026917530e+01    0.8333548    0.5727403  63.80  0.003858947    1.743    0.426
       103 -11.6218      3.3272    104.9877   1.4330025804e+02   5.3450382577e+01    0.3328419    0.2939515 -40.62  0.001146231    1.382    0.277
       104 -10.1574     49.0986    112.4708   1.3123662393e+02   4.7853758528e+01    0.2624578    0.1907358 -62.19 0.0008769839    1.190    0.159
       105 -10.8539    170.7349    110.1340   9.8362323722e+01   2.5755070954e+01    0.4683015    0.4106646  49.39  0.001620722    1.130    0.115
       106 -11.3376     86.1502    105.4255   1.1894293238e+02   4.4404343114e+01    0.4005137    0.3358321  14.18  0.001667095    1.474    0.322
       107  -9.1054     60.6951    111.2568   1.2764379583e+02   4.6744676445e+01     0.129213   0.09603871  75.08 0.0006908962    1.514    0.339
       108 -11.9981      3.2258    111.2995   1.4402080661e+02   5.2048075859e+01    0.5103098    0.3620035 -65.70  0.002915838    1.196    0.164
       109  -9.8252    113.9916    115.9918   1.1370107856e+02   3.7014246351e+01    0.2192867    0.2133574 -74.28 0.0003552656    1.036    0.035
       110  -9.4397    175.4826    106.4709   9.6373896720e+01   2.5329605478e+01    0.2581236    0.1433553 -49.02 0.0006238017    1.939    0.484
       111 -10.2106    157.9674    105.4936   9.9999966310e+01   2.9696388097e+01    0.2938569    0.2374108 -39.96 0.0006319196    1.251    0.201
       112 -10.0818    143.4224    105.8408   1.0355550000e+02   3.2990920833e+01    0.3076766    0.2954795  74.56  0.001100119    1.043    0.041
       113 -10.7532    145.9736    100.4416   1.0146902960e+02   3.3520240975e+01    0.5221463    0.4231123  -3.77  0.002451566    1.573    0.364
       114 -10.5850     57.6426     97.2776   1.2569416765e+02   5.0365724966e+01    0.3929925    0.2555318 -64.56  0.001656033    1.400    0.286
       115 -10.3224     48.2483    103.0297   1.2975857375e+02   5.0141129421e+01    0.2640205    0.1976016  18.19 0.0003773368    1.702    0.413
       116 -10.1150     52.5666     96.5296   1.2711966979e+02   5.1148177063e+01    0.5473492    0.1344538 -50.60  0.001868681    3.452    0.710
       117 -11.3708     67.3656     97.5786   1.2274627406e+02   4.9025523265e+01    0.6574558    0.3665938 -49.11  0.002264605    1.643    0.391
       118 -10.6746     66.9965    112.4681   1.2605302631e+02   4.5632152061e+01    0.4860462    0.2874572 -67.86  0.002369176    1.633    0.388
       119 -10.0957    211.1792     97.7201   8.7151256234e+01   1.8305646529e+01    0.3406764    0.2531516  29.34  0.001211374    1.576    0.366
       120 -11.3841     89.6389     89.5726   1.1387933740e+02   4.7384147994e+01    0.6671418    0.3930453 -33.11  0.002315754    2.053    0.513
       121  -9.7996     78.1146     96.7872   1.1926036204e+02   4.7642792510e+01    0.2138211    0.1900859 -47.61 0.0004673182    1.081    0.075
       122 -11.5706     82.1934     93.4082   1.1716661484e+02   4.7766420418e+01    0.6910782     0.401766  48.93   0.00249231    1.943    0.485
       123 -11.6173     80.4879     82.8344   1.1486430238e+02   5.0375112176e+01    0.8608549    0.6050271 -75.55  0.004156632    1.874    0.466
       124 -11.4736     65.8474     81.8459   1.1934337427e+02   5.2773366530e+01     0.466453    0.4246909  32.98  0.002057612    1.228    0.185
       125 -11.6591     71.9431     79.3915   1.1666621295e+02   5.2438863667e+01    0.8952812    0.4325883 -36.37  0.003645857    2.455    0.593
       126  -9.0643    140.4500     96.4905   1.0173140939e+02   3.5598251345e+01    0.1529532    0.1521067 -33.14   0.00010722    1.024    0.024
       127 -10.8697    125.0661     93.5807   1.0487726666e+02   3.9623829475e+01     0.598205     0.393325  40.08    0.0021279    1.598    0.374
       128 -10.7458    119.1942     91.3730   1.0583500039e+02   4.1336994615e+01    0.8432357    0.4973383  15.32  0.002659476    4.036    0.752
       129 -10.7595    120.2351     85.4144   1.0381590141e+02   4.2355603919e+01    0.4999323    0.2631158  49.43  0.001496284    1.968    0.492
       130 -10.5223     99.9894     90.9218   1.1115764521e+02   4.5239292415e+01    0.7556434     0.398557  53.17  0.002724318    2.260    0.558
       131  -9.9499    104.4152     87.8018   1.0898412019e+02   4.5073813788e+01    0.3587205    0.2192658  45.47  0.001612112    1.708    0.415
       132  -9.0428    160.6817     93.3495   9.6035316963e+01   3.1439107469e+01    0.1650251    0.1238329 -76.02 0.0007048068    1.735    0.424
       133  -9.7682    152.9483     92.1615   9.7479145760e+01   3.3536106121e+01    0.2848826    0.2340074 -38.59  0.001246865    1.227    0.185
       134  -9.9906    138.9270     93.0365   1.0113470897e+02   3.6650997290e+01    0.2810695    0.2259009  29.77 0.0007230962    1.386    0.279
       135  -9.5644    183.8269     87.4977   8.9485310250e+01   2.6798541858e+01    0.4013706    0.1938971 -52.01  0.001397549    2.559    0.609
       136 -10.2274    104.5051     75.8260   1.0537812763e+02   4.7550713672e+01    0.4023789    0.3093625 -29.65  0.001226843    1.350    0.259
       137 -11.2262    113.3038     83.2698   1.0510533288e+02   4.4251931795e+01    0.8287154    0.3322471 -39.54  0.002910539    2.586    0.613
       138 -10.9666    108.9044     80.7710   1.0561044565e+02   4.5663305868e+01    0.3676181    0.3321916 -37.62  0.001315407    1.075    0.070
       139  -9.6578    212.2019     87.0980   8.4203643251e+01   1.9844005993e+01    0.2240082    0.1996547   7.43 0.0004945135    1.254    0.203
       140 -11.4286    143.3498     83.5631   9.7267486165e+01   3.7501037099e+01    0.4542772    0.3786597 -16.21  0.001449666    1.358    0.263
       141 -10.5388    164.3151     83.2264   9.2316827965e+01   3.2455825496e+01    0.4416275    0.3574093  82.81  0.001626436    1.437    0.304
       142 -10.2116    127.6414     83.6451   1.0129321319e+02   4.1099219895e+01    0.3087255    0.2427508  35.67   0.00131104    1.348    0.258
       143 -11.1781     57.8844     78.1819   1.2104345696e+02   5.4631481633e+01    0.4685282    0.3577267 -85.94  0.001388119    1.649    0.393
       144 -11.4877     52.9875     76.2422   1.2221361828e+02   5.5657943623e+01    0.5574484    0.3425384 -61.11   0.00243505    1.531    0.347
       145 -10.2775    121.8153     79.8069   1.0169258827e+02   4.3150151150e+01    0.3084674    0.1943072  58.29  0.001261485    1.814    0.449
       146 -11.8663     13.6494     74.7290   1.3563520583e+02   5.9553311094e+01    0.5346503    0.3774047 -63.80  0.003537055    1.110    0.099
       147 -12.0958      2.1697     70.8828   1.3896053853e+02   6.1037679370e+01    0.7936971    0.1377441 -64.74  0.003107355    3.319    0.699
       148 -11.6401     13.4439     66.1262   1.3402353873e+02   6.1435999334e+01    0.2578208    0.2304986  44.12 0.0005035462    1.404    0.288
       149 -12.2211      6.7952     61.8913   1.3563431664e+02   6.2729975301e+01     1.028238    0.2050244 -51.74  0.004272348    3.059    0.673
       150 -11.6661     12.5170     62.1631   1.3353429401e+02   6.2342384509e+01    0.3043862    0.2492171 -34.51 0.0002879429    1.243    0.196
       151 -12.3387     74.8034     50.3547   1.0638764150e+02   5.7859373069e+01     1.037427    0.7738363 -50.01  0.005731926    1.412    0.292
       152 -10.5230     93.4877     76.3167   1.0886693778e+02   4.9539661537e+01    0.5773375    0.3896041  21.89  0.002119441    1.903    0.474
       153 -11.8692     85.7887     73.5261   1.1043833301e+02   5.1476438328e+01     0.695311    0.6553533  43.85  0.003423435    1.152    0.132
       154 -11.7304     78.7572     67.0806   1.1072478068e+02   5.3972652762e+01    0.6754485    0.5113123 -78.29  0.002825805    1.877    0.467
       155  -9.4765      4.9382     77.6619   1.3911991254e+02   5.9419908620e+01    0.1529465    0.1288928 -65.92 0.0005305579    1.098    0.089
       156 -10.1415    241.9803     76.0000   7.6882091463e+01   1.4574208806e+01    0.2250944   0.08129649  60.62 0.0008090636    2.989    0.665
       157 -10.0462    184.0038     75.2287   8.5970356386e+01   2.8892449346e+01     0.365173    0.1836376  57.30  0.001188398    1.984    0.496
       158 -11.8205    187.0906     69.9075   8.3859636577e+01   2.8990916898e+01     0.737291    0.6053435 -51.69  0.003007114    1.234    0.190
       159 -11.1730     33.0013     71.8307   1.2816612275e+02   5.8710141939e+01     0.433797    0.2584876  25.90  0.002452852    2.001    0.500
       160  -9.3982     66.2730     73.6137   1.1692798492e+02   5.4501101194e+01    0.2487487    0.1513603 -60.62 0.0007929578    1.718    0.418
       161  -9.2375    230.7851     73.6037   7.7823731231e+01   1.7529980922e+01    0.1963041    0.1384704  80.43 0.0008625846    1.665    0.399
       162  -9.1847     61.1675     72.7393   1.1843102206e+02   5.5386060746e+01     0.191255    0.1593028  56.60 0.0005094054    1.450    0.310
       163  -9.6839     46.6261     72.7835   1.2353895919e+02   5.7141569865e+01    0.2725722    0.1424164 -63.30   0.00130768    1.890    0.471
       164  -9.7034     21.7637     72.0742   1.3224760420e+02   5.9576847161e+01    0.3659122    0.1205698  34.57  0.001641237    3.445    0.710
       165 -10.0069    161.8935     70.4525   8.9018813374e+01   3.5353651232e+01     0.402597    0.2700609  78.96  0.001665597    1.959    0.490
       166 -11.5854    122.3972     68.1289   9.7832443535e+01   4.5279323291e+01    0.6637413    0.4259072  39.63  0.002282317    1.630    0.386
       167  -9.9204    207.5398     68.3772   7.9935261258e+01   2.4022997750e+01    0.4278596    0.1963436  48.33  0.001620432    2.312    0.567
       168 -10.1830    172.4627     67.9058   8.6059967726e+01   3.3088751923e+01    0.3607477    0.2923545 -46.33  0.001201724    1.248    0.199
       169 -10.2816    129.5846     65.5834   9.5094587526e+01   4.4110037914e+01    0.6139921     0.350506 -64.68  0.002108762    3.219    0.689
       170 -11.0462     27.4218     47.2298   1.2373659575e+02   6.4352693332e+01    0.4012733    0.2229768 -13.69  0.002059866    2.478    0.596
       171 -10.0482     20.7282     47.6802   1.2666356818e+02   6.4799078345e+01    0.3227669    0.1994466 -45.09  0.001795181    1.286    0.222
       172 -11.5977     25.6358     56.2020   1.2701926641e+02   6.2670593925e+01    0.9588745    0.6607122   4.57  0.005988626    1.769    0.435
       173 -11.5286     32.7443     42.2921   1.1991518208e+02   6.4839088503e+01    0.5937628    0.4973531  44.80  0.002311623    1.575    0.365
       174 -10.4841     51.4451     46.4146   1.1368442383e+02   6.1975606297e+01    0.5095524      0.35657 -68.07   0.00133741    2.042    0.510
       175 -11.1065     58.0291     61.6364   1.1624814736e+02   5.8126809713e+01    0.7719404    0.4056346 -65.61  0.003225988    2.811    0.644
       176 -11.6401     51.8264     61.7283   1.1855381530e+02   5.8888750494e+01    0.4912137    0.3461859 -72.90  0.002128017    1.831    0.454
       177 -11.2671     46.1953     58.2487   1.1961269279e+02   6.0262466712e+01    0.5316413    0.3661334 -57.23  0.002126133    1.382    0.276
       178 -11.5091     40.4045     55.9167   1.2113651242e+02   6.1367194913e+01    0.6133158    0.4380307  82.34  0.003273867    2.371    0.578
       179 -10.4561    142.9329    249.0672   1.2930997956e+02   6.0976628769e+00    0.1774098    0.1307105  22.08  0.001144303    1.719    0.418
       180 -10.6801     60.8969     36.8176   1.0635686550e+02   6.2420238435e+01     0.291907    0.1762234 -43.25 0.0009471021    1.577    0.366
       181 -11.7838     46.3851     48.9110   1.1654893839e+02   6.2108491669e+01    0.4556574    0.3257754 -10.12  0.001034138    1.584    0.369
       182 -12.3354     41.7441     45.4601   1.1724401540e+02   6.3301973089e+01    0.3381201    0.3001683   1.69 0.0002823797    1.205    0.170
       183 -11.4293    219.5805     66.2250   7.7517277737e+01   2.1356338138e+01    0.6363926    0.3665293  63.75  0.002436195    1.805    0.446
       184 -10.5687     21.1051     65.2059   1.3098309261e+02   6.1113689815e+01    0.1881407    0.1643716 -51.58 0.0006185509    1.096    0.087
       185 -10.1194    204.8987     63.7139   7.9069721850e+01   2.5415892312e+01    0.3176604    0.2158277  36.00 0.0008666077    1.781    0.439
       186 -10.8763    105.6817     62.5385   1.0070144918e+02   4.9904134842e+01    0.4462755    0.3025025  89.57  0.001748124    2.968    0.663
       187 -10.2342     98.3649     62.3848   1.0286017862e+02   5.1392872590e+01    0.3246031    0.2603657  34.57  0.001720911    1.290    0.225
       188  -9.9580     84.6596     62.3595   1.0722157576e+02   5.3921404024e+01    0.4288417    0.2092632 -37.18     0.001637    2.047    0.512
       189 -11.3471     91.8982     62.1836   1.0481756280e+02   5.2657579761e+01    0.3998144    0.3845368  70.72  0.001399222    1.192    0.161
       190 -11.0687     91.1355     57.8485   1.0357083465e+02   5.3620022383e+01    0.3721433    0.3397736  53.46  0.001285324    1.237    0.192
       191  -9.5127    198.0928     62.8267   7.9920647313e+01   2.7292663713e+01    0.2429052    0.1960744 -66.69 0.0005652492    1.316    0.240
       192  -9.4715    167.9922     63.0262   8.5469601764e+01   3.5049222139e+01    0.2358104    0.2166227  64.28  0.001227437    1.073    0.068
       193  -9.8212    199.2471    244.4158   1.1884274684e+02  -2.3301925839e+00    0.1689789   0.09011672  46.31 0.0009540684    1.649    0.394
       194 -11.3422    128.1063    242.2364   1.3118562489e+02   9.4570696535e+00    0.3480113    0.2655888  48.02  0.002406874    1.072    0.067
       195 -10.3738    150.7402    237.4933   1.2654740188e+02   6.5152720055e+00     0.212963    0.1470366 -31.56  0.001283829    2.131    0.531
       196 -11.1793    113.0709     50.2304   9.4244631203e+01   5.0511818418e+01    0.7714961     0.609965 -12.06  0.003981169    1.365    0.267
       197 -12.6991    118.0745     43.1496   9.0290223874e+01   5.0524868290e+01    0.9047447    0.5821524  75.34   0.00367018    2.334    0.572
       198 -12.8993    120.5145     39.0303   8.8124119461e+01   5.0580725270e+01    0.8464926    0.5931355 -71.38  0.001194493    2.192    0.544
       199 -10.4520    159.5525     61.6147   8.6771372074e+01   3.7447781996e+01    0.4390488    0.2568014  44.29  0.001818253    1.768    0.434
       200 -11.7050     40.0934     72.1297   1.2569738981e+02   5.7970907355e+01    0.5626532    0.2824435 -47.52  0.002851748    1.694    0.410
       201  -9.7377    147.5681     60.5838   8.9075809454e+01   4.0644852523e+01     0.382558    0.1516248  57.69  0.001294238    2.619    0.618
       202 -11.0959    136.5316     55.9268   9.0126521453e+01   4.4134866761e+01    0.6321363    0.4600913 -23.79  0.002305375    1.476    0.322
       203  -9.1459     15.4100    233.7775   1.4993563577e+02   2.5893461400e+01    0.1304179   0.07680849 -75.76 0.0009465279    1.696    0.410
       204 -10.4720    157.4657     56.5397   8.5596413550e+01   3.8806201054e+01    0.3565833    0.2629629  35.25 0.0005485827    1.486    0.327
       205 -11.0092    156.6790     53.3204   8.4722279160e+01   3.9516434168e+01    0.6426443    0.4382018 -52.15  0.002817261    1.629    0.386
       206  -9.6962      2.1889     56.0701   1.3621725513e+02   6.4193074162e+01    0.1751206    0.1157328 -48.77 0.0006314343    1.222    0.182
       207 -10.9392     87.5007     56.9517   1.0443472728e+02   5.4452869545e+01    0.4762025    0.2186215 -41.12  0.001123172    2.060    0.515
       208 -10.0727     67.2092     54.7977   1.1066980403e+02   5.8205624047e+01    0.2414293    0.1946374 -34.16 0.0006389795    1.109    0.098
       209 -11.8470    242.0049     50.6697   7.0610620728e+01   1.8212277827e+01    0.8880346    0.4145714  78.50  0.003026311    2.800    0.643
       210 -10.7978    202.1567     47.1572   7.4848395087e+01   2.8562750259e+01    0.6482565    0.3979299 -31.13  0.002944979    1.647    0.393
       211 -10.9324    173.8671     48.2452   7.9770218149e+01   3.5812715581e+01    0.4940504    0.3342192  72.23  0.001514943    1.555    0.357
       212 -10.2015     90.4480     48.0800   1.0026416798e+02   5.5507665987e+01    0.2448661    0.2295997  45.28 0.0006380804    1.191    0.160
       213  -9.4888      3.8260     49.0027   1.3402979749e+02   6.5579630266e+01    0.1724823    0.1490989 -22.41  0.001176363    1.290    0.225
       214  -9.8405     14.1834     46.3923   1.2905509316e+02   6.5517412654e+01    0.3107595    0.1178728 -42.27  0.001535377    2.215    0.548
       215  -9.6046     18.0971     41.9158   1.2609906185e+02   6.6143397481e+01    0.2593003    0.1385809  -3.89  0.001304405    2.555    0.609
       216  -9.3129    193.0210     45.8256   7.5840580065e+01   3.1127815246e+01    0.2449211    0.1606868 -81.20 0.0008527786    1.894    0.472
       217  -9.3406    132.2420     45.2624   8.7471443720e+01   4.6869075517e+01    0.2322714    0.1712198  34.52 0.0004315324    1.415    0.293
       218  -9.8194      4.0031     44.3314   1.3284059088e+02   6.6522496938e+01    0.3768998    0.1903831 -21.34 0.0009128153    2.362    0.577
       219 -10.7078      5.3729     36.0994   1.3005397253e+02   6.8088459594e+01    0.3364795    0.3033696 -27.46  0.002680296    1.228    0.186
       220  99.0000      6.4976     30.7700   1.2794294733e+02   6.9054461230e+01    0.3906411    0.2173727  12.45  0.002457391    2.139    0.532
       221  -9.7899    176.9637     43.4958   7.7754828428e+01   3.5677713366e+01    0.2869848    0.1990537 -69.55  0.001289962    1.729    0.422
       222 -11.7801    156.2674     41.7835   8.1017442389e+01   4.1338871302e+01    0.6318297    0.4291664  75.72  0.001295972    1.652    0.395
       223 -10.9406    153.5743     36.3972   7.9743685788e+01   4.2777901700e+01    0.3383212    0.2980335 -57.32  0.001014067    1.212    0.175
       224  -9.7772    139.3073     43.6360   8.5246894541e+01   4.5380582592e+01    0.3184861    0.1628451  50.35  0.001300874    1.851    0.460
       225  -9.3550     94.4640     36.4684   9.4501432108e+01   5.6618229113e+01    0.1991482    0.1711296 -65.15  0.001110396    1.524    0.344
       226 -10.3376    100.4433     43.5781   9.5443294219e+01   5.4287531680e+01    0.3815561     0.292261 -76.82  0.001862582    2.026    0.506
       227 -11.3039     93.9038     41.4205   9.6625629346e+01   5.5953047981e+01    0.5729801    0.3218679  42.93  0.002002445    1.786    0.440
       228 -11.9467     70.2963     32.5172   1.0104997850e+02   6.1661471413e+01    0.4617545    0.2691943  35.15            0    1.771    0.435
       229 -11.2341     81.6549     39.4356   9.9853752377e+01   5.8585900210e+01    0.4974515    0.3388046  45.68  0.001803686    1.578    0.366
       230 -10.8467     77.7032     34.4207   9.9190285076e+01   6.0095594199e+01    0.3568347    0.2499736  43.70  0.001128411    1.518    0.341
       231 -11.1161     82.2101     31.8964   9.6599387550e+01   5.9672082002e+01    0.4410594    0.3732032  36.58  0.002346258    1.217    0.178
       232 -10.5816    230.9607     38.7360   6.8871640953e+01   2.2447795783e+01    0.4652934    0.2942649 -60.85  0.002263606    1.621    0.383
       233 -10.5988    176.9031     37.3037   7.5847979042e+01   3.6538764309e+01    0.3900153    0.2867495 -18.24  0.001895621    1.539    0.350
       234  -9.8095    133.7192     37.4600   8.4334750307e+01   4.7648086792e+01    0.4064472    0.2948149 -80.55  0.001871844    1.925    0.481
       235  -9.5851     17.9797     34.4647   1.2379480353e+02   6.7595557732e+01    0.1602461    0.1422917 -56.99 0.0004258566    1.284    0.221
       236  -9.9596    206.7314     37.1167   7.1395780588e+01   2.8743016574e+01    0.2745649    0.2240419 -76.38 0.0007322583    1.216    0.178
       237  -9.2822    189.4499     37.9848   7.4080151846e+01   3.3136576624e+01    0.2106192    0.1464444 -27.63 0.0003675024    1.520    0.342
       238  -8.5976     13.2907     37.6414   1.2693076095e+02   6.7313277527e+01    0.1050845    0.0847952 -88.00  0.000702761    1.689    0.408
       239 -10.8314     22.7020     36.4182   1.2231350817e+02   6.6855527315e+01    0.3474701    0.2734506  55.92  0.002202576    1.910    0.476
       240 -10.4402    242.6949    231.5930   1.0952181134e+02  -7.6058917698e+00    0.2306924    0.1697259  53.10  0.001480964    1.960    0.490
       241  -9.0822     23.4592    231.5383   1.4852604940e+02   2.5445309100e+01     0.106674   0.07206737  69.70 0.0002576268    1.015    0.015
       242 -11.5222    105.6405     33.0106   8.9813867233e+01   5.4791805703e+01    0.5714433    0.3375098   3.29  0.001353286    2.639    0.621
       243  -9.3029    190.1208    229.8614   1.1835908053e+02   1.0101412372e+00    0.1690531    0.1226979  24.92 0.0006347611    1.294    0.227
       244 -10.1399    189.4638     27.6624   7.1021409231e+01   3.4443631185e+01    0.3847168    0.2840647   7.64  0.001483357    1.793    0.442
       245 -10.0051    172.3654     33.5460   7.5421046998e+01   3.8229016444e+01    0.3822225    0.2311947  60.34  0.001468068    1.543    0.352
       246 -10.2058    175.8351     29.5797   7.3615671109e+01   3.7811165872e+01    0.3068409    0.2755527  40.78  0.001080178    1.172    0.147
       247 -11.5536    182.4006     25.2447   7.1294422306e+01   3.6597899325e+01    0.5567207    0.3097124  54.64  0.001342627    1.707    0.414
       248  -9.2422    181.3010    228.3318   1.1973428699e+02   2.7081452622e+00    0.1217339   0.08625235  15.96 0.0006138148    1.651    0.394
       249  -9.9968    160.7721     33.1518   7.7303598020e+01   4.1331259090e+01    0.3418428    0.2373944 -47.93 0.0009420165    1.543    0.352
       250  -9.2751    247.3918    227.1809   1.0802924866e+02  -7.8292999595e+00    0.1398471    0.1028158 -31.11  0.000567079    1.643    0.391
       251  -9.6924      9.0477    227.2989   1.5066908970e+02   2.7670612535e+01    0.1422023   0.09519397  63.43 0.0002986871    1.124    0.110
       252 -11.7784     47.6188     30.6058   1.0919190289e+02   6.5302424120e+01    0.6726138    0.3149381  26.52  0.002488662    2.513    0.602
       253 -10.7254     57.0567     30.8194   1.0540770922e+02   6.3983881370e+01    0.4060458    0.2697458  25.80  0.001806081    1.582    0.368
       254 -10.7552    197.9214     28.8258   7.0216929104e+01   3.2082058723e+01    0.4324405    0.3654255  46.97  0.001565376    1.273    0.214
       255 -10.3503    199.8286     24.8530   6.8840089852e+01   3.2063847475e+01    0.2865379    0.2540022  28.75 0.0007761535    1.323    0.244
       256  -8.8030    182.6566     32.2677   7.3391470207e+01   3.5670371917e+01    0.1520127    0.1071081 -72.13 0.0003342214    1.607    0.378
       257  -9.6267    247.4670    231.4765   1.0871829211e+02  -8.3012047013e+00    0.1160083    0.0872184  17.81   7.8007e-05    1.004    0.004
       258 -10.1452    190.0618     32.8608   7.2473818257e+01   3.3640737158e+01    0.3481992    0.2702233 -68.14 0.0009131452    1.341    0.254
       259  -9.9464    100.2475     29.9946   9.0149480214e+01   5.6370148233e+01    0.3129602    0.2407124  29.73  0.001711129    1.265    0.210
       260 -10.1220      9.8883    217.6437   1.5009439873e+02   2.9332811276e+01    0.1678923    0.1121891 -86.40 0.0005674378    1.310    0.237
       261  -9.2224    165.6972    212.3486   1.2028721735e+02   7.8112428768e+00    0.1270221   0.09493043  71.37 0.0007039938    1.694    0.410
       262  -9.2883    152.4977    207.5270   1.2213365063e+02   1.0961441911e+01    0.1320869    0.1110698  48.59 0.0001000651    1.013    0.013
       263 -10.3331    238.9357    204.6492   1.0557743364e+02  -3.8791784262e+00    0.2282163    0.1749936 -30.06  0.001463392    1.456    0.313
       264 -10.1541      4.4958    204.5384   1.5039361498e+02   3.2290411658e+01     0.209444   0.08013452 -80.32   0.00120257    2.146    0.534
       265 -10.7722    245.1853    200.8833   1.0383897415e+02  -4.4286372828e+00    0.1748726    0.1586471  10.00 0.0004820281    1.239    0.193
       266  -9.1892    230.9224     30.5259   6.6789000010e+01   2.3504368549e+01    0.1965716    0.1300329  73.34  0.000322198    1.496    0.332
       267  -9.7628    158.0600     20.4481   7.3546789632e+01   4.3569849816e+01    0.5591078    0.1465032  57.38  0.001828919    3.033    0.670
       268 -10.5528    234.2882    197.0154   1.0499227205e+02  -2.1239482284e+00    0.3596625    0.2471993   3.52  0.001655205    1.527    0.345
       269 -10.0811    156.8427     25.1565   7.5339739503e+01   4.3347013472e+01    0.3105037    0.1880587  59.52 0.0005718796    1.513    0.339
       270 -10.5793    250.2878     24.2808   6.3407845842e+01   1.9686398487e+01    0.3155879    0.1625657 -35.03 0.0009992982    1.754    0.430
       271 -11.0588    214.8150     23.5364   6.6711419215e+01   2.8363668480e+01    0.4339913    0.3622747 -15.41  0.001866057    1.403    0.287
       272 -10.5296     17.0208    192.6019   1.4747397486e+02   3.3442487297e+01    0.2062367    0.1512842  68.83 0.0004764733    1.105    0.095
       273 -12.3382      5.1648    184.6822   1.4924331120e+02   3.6119297782e+01    0.6140305     0.377003  67.76  0.004320654    1.274    0.215
       274 -10.2220     80.8321     19.3645   9.1634906476e+01   6.1685549964e+01     0.296707    0.2011155  38.80  0.001136039    1.411    0.291
       275  -9.6359    169.7816    191.3869   1.1609372373e+02   1.0527471746e+01    0.3302166    0.1887634  22.25  0.001287986    2.686    0.628
       276  -9.5971    223.0603     22.4878   6.5553218165e+01   2.6415477596e+01    0.2272943    0.1938275  72.39   0.00066263    1.171    0.146
       277 -10.3950    220.8738     19.0870   6.4896700885e+01   2.7355921830e+01    0.2400714    0.2121735 -81.58 0.0004345862    1.027    0.026
       278  -9.1097    240.3088    184.6924   1.0163049400e+02  -1.5109938870e+00    0.1118426     0.104798 -82.14 0.0004058622    1.615    0.381
       279 -10.9695    241.1903     30.8009   6.5811619156e+01   2.1006064136e+01    0.4870903    0.3362501  -5.57  0.002436684    2.046    0.511
       280 -10.0728    213.2276    181.5590   1.0585356450e+02   3.8413611598e+00    0.1992735    0.1137673  33.19 0.0009534816    1.696    0.410
       281  -9.8219    250.0000    180.0419   9.9091095364e+01  -2.5500501509e+00    0.2050445   0.06716488 -32.86  0.000810984    3.002    0.667
       282  -9.5265     28.3230    176.3139   1.4408970194e+02   3.5664582721e+01    0.1056883   0.08195318 -54.68 0.0005360341    1.659    0.397
       283  -8.9895     57.3791    175.2247   1.3781180158e+02   3.2570583360e+01    0.1653727    0.1016021 -85.62 0.0004684146    1.515    0.340
       284  -9.9252     51.8622    174.3559   1.3891840796e+02   3.3445386543e+01    0.2554978    0.1370499  80.80  0.001301753    1.971    0.493
       285  -9.9538    248.0230    173.5626   9.8135769143e+01  -1.3368102268e+00    0.2789478    0.1418835  28.64  0.001293676    2.163    0.538
       286  -9.9864     39.5078    173.4984   1.4149445399e+02   3.5070907921e+01    0.2046049    0.0874912 -62.48 0.0007962184    2.191    0.544
       287 -10.4621     35.0635    170.5248   1.4217309001e+02   3.6194711019e+01    0.2218093    0.1468973 -81.73  0.001016697    1.264    0.209
       288  -9.8270      8.8963    155.8844   1.4661604222e+02   4.1812928865e+01    0.2264335    0.1601945 -78.69  0.001162231    1.183    0.155
       289 -11.6645      9.1571    166.6896   1.4733594263e+02   3.9487458834e+01    0.4428329      0.31504  78.30  0.002225849    1.085    0.078
       290 -11.6724     13.6014    158.9764   1.4583076378e+02   4.0754340329e+01    0.5207157    0.2021464 -73.34  0.002645408    2.046    0.511
       291  -9.5990    198.1636    167.6908   1.0596949936e+02   9.0020752186e+00    0.2179103    0.1922968 -41.84 0.0006377464    1.249    0.199
       292  -9.3865      1.7128     20.4606   1.2690150416e+02   7.1238310253e+01    0.1407644    0.0871817 -16.59 0.0009420193    1.636    0.389
       293  -9.7331     39.9820    166.2613   1.4069672607e+02   3.6585240437e+01    0.1731365    0.1142745 -58.22  0.000840828    1.638    0.390
       294  -9.1678    145.4690     16.4306   7.4359814614e+01   4.7269926682e+01    0.2627022    0.2172704 -72.65 -0.0001017692    1.365    0.267
       295 -10.4220     28.7172    163.8239   1.4294361689e+02   3.8301279367e+01    0.4680068    0.1547456 -79.23  0.001995311    2.909    0.656
       296  -9.4905    224.9017     16.7631   6.3900424660e+01   2.6619309283e+01    0.2345726    0.1332472 -71.83  0.001080279    1.903    0.475
       297  -9.6470    191.5011     17.0560   6.7639342246e+01   3.5132099170e+01    0.2238142    0.1855171  73.37  0.001207552    1.118    0.105
       298 -10.1221     18.4519    165.1581   1.4527219447e+02   3.8995490523e+01      0.20346    0.1655017 -62.17  0.001469605    1.454    0.312
       299 -10.3880    205.4137    163.1047   1.0362062305e+02   8.3072803393e+00    0.3748286    0.2633974   7.43  0.001671457    1.800    0.444
       300  -9.3087    188.6366    164.1785   1.0714178796e+02   1.1546190879e+01    0.1984712    0.1334114 -27.38 0.0005588715    1.707    0.414
       301 -10.1130     81.0616    160.1315   1.3051701509e+02   3.2619234165e+01    0.3603094    0.2451256  36.15  0.001939482    1.624    0.384
       302 -10.6606    246.8376    158.5630   9.5254682816e+01   9.8283162359e-01      0.22553    0.1489535 -33.20  0.001210374    1.470    0.320
       303 -10.0377    225.0805    157.0011   9.8677186458e+01   5.3604690806e+00     0.381002    0.1414632  53.59  0.001315828    3.455    0.711
       304 -11.4216     30.5586    148.8639   1.4107792518e+02   4.1421707861e+01    0.8548544    0.2932244 -79.56  0.003066587    2.978    0.664
       305 -10.9828     33.2310    144.3675   1.3995422870e+02   4.2168785324e+01    0.3750122    0.2146376 -83.50   0.00191281    1.536    0.349
       306 -12.2030     23.2507    136.2837   1.4151024820e+02   4.4933274836e+01     0.831076    0.5656363  79.26  0.005255803    1.329    0.248
       307 -11.8012     29.8123    132.8673   1.3947352081e+02   4.5113118624e+01    0.5122304    0.2970968 -84.87  0.000460923    1.547    0.353
       308  -9.6460     22.7998    154.9619   1.4345968174e+02   4.0808467840e+01    0.2140522     0.155217  -7.35   0.00128934    2.494    0.599
       309 -11.5476     12.5947    138.4732   1.4432265543e+02   4.5329644598e+01    0.7703586    0.3225701  78.77  0.003531054    2.786    0.641
       310 -10.6911     14.1430    132.5967   1.4338257080e+02   4.6519384877e+01    0.2657385    0.1707214  80.94  0.001666909    1.389    0.280
       311 -11.8172     22.5331    149.5283   1.4301823880e+02   4.2032254228e+01    0.5478203    0.3154248 -38.12  0.002876191    2.849    0.649
       312 -10.6359     16.5709    148.1347   1.4426551778e+02   4.2865034002e+01    0.3491878     0.185448  49.49  0.001721318    1.847    0.459
       313 -10.2648     72.4945    152.0888   1.3139206530e+02   3.5678803684e+01    0.4318769    0.2315435  62.97  0.001978416    2.154    0.536
       314 -12.0473      5.3579    147.6704   1.4677453535e+02   4.3866061191e+01    0.5865058    0.3524718 -65.41  0.003808915    1.511    0.338
       315 -11.1277      3.6986    141.1658   1.4664420954e+02   4.5404926160e+01    0.3326411    0.2402887  32.50  0.001734136    1.717    0.418
       316 -11.8621      3.8859    136.4889   1.4622008377e+02   4.6416442043e+01    0.2300241    0.1757707 -82.92 0.0003924391    1.064    0.060
       317 -11.0925     62.5614    149.7529   1.3348111362e+02   3.7563046282e+01    0.4773242    0.3805374  64.85  0.002237917    1.184    0.156
       318 -11.2305     46.2206    146.9878   1.3710755035e+02   4.0189526647e+01    0.5151687    0.3885063 -64.51   0.00264321    1.275    0.216
       319 -10.6269    104.4209    153.5426   1.2387545788e+02   3.0317778887e+01    0.5463399    0.2612736 -65.03  0.002226109    2.363    0.577
       320 -10.2520     56.5307    149.1960   1.3487800486e+02   3.8459949390e+01    0.2207356    0.1634851 -84.92 0.0008127636    1.188    0.159
       321  -9.8592    239.8276    146.8195   9.3908578502e+01   4.0452666141e+00     0.179443    0.1643376 -53.08 0.0009823806    1.328    0.247
       322 -11.2867    249.6334    142.9677   9.1454505233e+01   2.7409471738e+00     0.658712    0.2169628 -33.62  0.002470944    2.827    0.646
       323 -10.1288    133.6259    139.9594   1.1416280877e+02   2.7800285853e+01    0.3577846     0.276223 -33.14  0.001757791    1.528    0.345
       324  -9.1372     69.5049    140.4748   1.3036365769e+02   3.8760742438e+01    0.1331974    0.1182798 -80.16 7.421481e-05    1.064    0.061
       325 -10.7162     81.1729    135.4580   1.2650248218e+02   3.8229749118e+01    0.4839369    0.3648461 -15.08  0.002300999    2.141    0.533
       326 -10.6440     47.7341    134.6018   1.3509008551e+02   4.2860581191e+01    0.3169552    0.1699123 -61.24  0.001115914    1.636    0.389
