#   1 NUMBER                 Running object number                                     
#   2 MAG_AUTO               Kron-like elliptical aperture magnitude                    [mag]
#   3 X_IMAGE                Object position along x                                    [pixel]
#   4 Y_IMAGE                Object position along y                                    [pixel]
#   5 X_WORLD                Barycenter position along world x axis                     [deg]
#   6 Y_WORLD                Barycenter position along world y axis                     [deg]
#   7 A_WORLD                Profile RMS along major axis (world units)                 [deg]
#   8 B_WORLD                Profile RMS along minor axis (world units)                 [deg]
#   9 THETA_WORLD            Position angle (CCW/world-x)                               [deg]
#  10 FWHM_WORLD             FWHM assuming a gaussian core                              [deg]
#  11 ELONGATION             A_IMAGE/B_IMAGE                                           
#  12 ELLIPTICITY            1 - B_IMAGE/A_IMAGE                                       
         1 -14.3340    201.0945     16.9443   6.5194191190e+01   3.2974037163e+01     2.459447     1.535754  33.18   0.01046433    2.383    0.580
         2 -13.7718    206.1679     10.2923   6.3006590899e+01   3.2477573222e+01     1.474347    0.6749704  51.04  0.001441631    2.371    0.578
         3 -12.0350      2.0000     26.0240   1.2267274181e+02   6.8480892024e+01    0.8630066   0.07229819 -52.42  0.002562736    7.573    0.868
         4 -12.9760      2.4667      5.5884   1.1478394723e+02   7.1498919575e+01    0.8533995     0.381345 -39.27  0.005488526    1.756    0.430
         5 -11.7484     42.6855    237.1991   1.4509929262e+02   2.0675896499e+01    0.3523346    0.2343796  68.72 0.0002769172    1.148    0.129
         6  -9.6423    204.9881    250.2548   1.1682703199e+02  -7.4459001490e+00    0.1632639   0.08857011  39.50 0.0007314332    1.528    0.346
         7  -9.5074    184.3639    250.2507   1.2063935053e+02  -4.0037852444e+00     0.147019    0.1200178 -55.29 0.0009429215    1.581    0.368
         8 -11.4589    132.5034    224.4941   1.2692233767e+02   9.4345565216e+00    0.3990901     0.249243 -46.48  0.002074616    1.936    0.484
         9 -10.8547    152.5320    243.9458   1.2573019262e+02   2.4630357997e+00    0.2752747    0.1836865  56.00   0.00145254    1.404    0.288
        10 -12.2100    136.1500    227.8185   1.2666556507e+02   8.1669983058e+00    0.6004477     0.388908 -39.25  0.003119769    2.091    0.522
        11 -11.7325    149.9375    248.7481   1.2686724093e+02   2.1245602032e+00    0.4610246    0.3711161  65.61  0.002969053    1.250    0.200
        12 -11.4677    135.6989    241.0453   1.2854426673e+02   5.8697635966e+00    0.3175534    0.2636704  31.72 0.0003896261    1.348    0.258
        13 -11.6999    134.9549    237.0639   1.2816276160e+02   6.6991735232e+00    0.4034478    0.3957838  -7.69  0.001218468    1.306    0.234
        14 -11.4463     98.9437    247.4617   1.3613670195e+02   1.0789541067e+01    0.5752141    0.3157535  53.41  0.003033012    1.486    0.327
        15 -11.5745    133.5156    249.3973   1.3001401244e+02   4.8112361180e+00    0.9588075    0.2259006  48.22  0.003307734    3.726    0.732
        16 -11.0209    104.6132    238.0240   1.3406081603e+02   1.1616892724e+01    0.4546466    0.2929858  23.73  0.002259993    2.626    0.619
        17 -10.2874    122.7266    249.9594   1.3207508884e+02   6.5164073586e+00      0.39643    0.1944217  40.27  0.001998494    1.851    0.460
        18 -10.7523    115.6000    250.2466   1.3341358013e+02   7.6357683552e+00    0.5594038     0.203365  41.80  0.002488638    2.388    0.581
        19 -12.1011    109.1723    246.9349   1.3421854979e+02   9.2587289987e+00    0.6863794    0.5315292  47.90  0.003776703    1.209    0.173
        20 -10.1386    103.4016    244.6103   1.3502053108e+02   1.0600749039e+01    0.4051139    0.1908164  70.61   0.00166223    3.322    0.699
        21 -11.6438     96.9583    239.8629   1.3569120871e+02   1.2493046875e+01    0.5074523    0.3085997 -83.79  0.002834683    1.842    0.457
        22 -10.6489    121.6871    244.8636   1.3166475542e+02   7.5739724582e+00    0.4637384    0.2173409  63.93  0.001960306    2.907    0.656
        23 -11.8744    126.4572    240.8647   1.3027761977e+02   7.4798498115e+00    0.4545019    0.3923657 -61.84  0.001778139    1.368    0.269
        24 -10.3257     88.1814    250.4068   1.3835365527e+02   1.1913121280e+01    0.4719821    0.2023142  36.65  0.001617236    2.707    0.631
        25 -10.4181     88.4713    247.1839   1.3798819961e+02   1.2452413333e+01     0.298116    0.2000584  23.49  0.001589552    2.656    0.623
        26  -8.3945     75.5121    250.5264   1.4057489078e+02   1.3758805910e+01    0.1208938   0.08810832  68.11 8.639271e-05    1.047    0.045
        27 -14.1986     22.7498    153.8978   1.4126431150e+02   4.0665599511e+01     1.254328     1.138765  40.77  0.009142784    1.405    0.288
        28 -12.2824    247.3487    241.1605   1.0771008922e+02  -1.2903358002e+01    0.4687857    0.3288277  40.26  0.002999163    1.496    0.332
        29 -10.3804    165.2838    241.8678   1.2300860982e+02   5.7577500569e-01    0.2651772    0.1809801  29.40 0.0006233344    1.512    0.339
        30  -9.0134    158.1390    241.8436   1.2436924221e+02   1.8313819770e+00    0.1683198    0.1420401  22.94 0.0005217405    1.316    0.240
        31 -10.4121     83.6111    242.2060   1.3836860306e+02   1.4102291777e+01    0.2004453    0.1917962 -44.88  0.001175415    1.606    0.377
        32 -11.5007     89.8421    236.7747   1.3667710209e+02   1.4181271581e+01    0.3728062    0.2813607 -86.03  0.002410296    1.277    0.217
        33 -10.5523     83.5148    238.4273   1.3800988845e+02   1.4828311708e+01    0.3667229    0.2090238  45.45  0.002089994    1.571    0.363
        34 -10.8940    145.5636    240.8317   1.2663273686e+02   4.1984562698e+00    0.3093072    0.1417346  55.80  0.001156129    2.364    0.577
        35 -10.6707    115.8925    239.9904   1.3216845391e+02   9.4088177802e+00    0.2203772    0.1918272  78.08 0.0006824271    1.130    0.115
        36 -11.2481    143.3860    249.1537   1.2814552158e+02   3.1786601807e+00     0.485558    0.3024209  79.87   0.00241472    2.505    0.601
        37 -10.8045    173.2110    239.6805   1.2117043543e+02  -4.6523895747e-01    0.2971832    0.2015525 -50.68 0.0008457819    1.784    0.439
        38 -13.5110     14.0899    238.9560   1.4989188851e+02   2.3643661601e+01    0.6504896    0.3747003  71.38  0.004553203    1.288    0.224
        39 -10.5521    165.7141    235.1950   1.2194080377e+02   1.5929430410e+00    0.2467976    0.2311593  39.71  0.001405677    1.107    0.097
        40 -10.4207    161.9732    232.9219   1.2232724471e+02   2.6439927376e+00    0.2541544    0.1649348  58.06 0.0009120115    1.610    0.379
        41 -10.0894     71.3356    234.2988   1.3982017102e+02   1.7405786925e+01    0.3701384    0.1182928 -61.16  0.001634796    3.140    0.682
        42 -11.4447    122.3729    232.8167   1.3003873635e+02   9.6366008208e+00    0.3945821    0.3415696  84.20  0.001905633    1.156    0.135
        43 -11.1748    128.4152    232.4051   1.2881101484e+02   8.6746310522e+00    0.3739453    0.2502916 -60.87  0.002108568    1.686    0.407
        44  -9.4994     93.9963    217.5063   1.3369102759e+02   1.7334093048e+01    0.3033071    0.1894383  88.51    0.0015801    1.784    0.440
        45 -11.1695     98.4922    231.4558   1.3446637106e+02   1.3844793032e+01    0.4163565    0.2943582 -74.92  0.001480475    1.454    0.312
        46 -11.7770    112.0348    230.0816   1.3169749697e+02   1.1896990371e+01    0.5678455    0.3483973  43.48  0.001616012    1.484    0.326
        47 -10.3312    104.2000    229.4286   1.3313392388e+02   1.3315352007e+01    0.2919223    0.1863398  55.29  0.001178236    1.337    0.252
        48 -10.8797     92.6506    226.0037   1.3495991020e+02   1.5836315731e+01    0.3193398    0.1872358  62.14 0.0003978781    1.582    0.368
        49 -11.8517     98.7131    223.6360   1.3350387087e+02   1.5341550969e+01    0.5182171    0.2862139  41.67  0.001365407    1.729    0.422
        50  -9.6437     77.6431    232.9276   1.3853318989e+02   1.6757882756e+01    0.3820716     0.188081  87.26  0.001752001    2.721    0.632
        51 -14.4882      4.3772    246.0607   1.5176638453e+02   2.3345354752e+01      1.81622    0.4750639 -77.56  0.008984661    3.199    0.687
        52 -11.1321    156.6925    231.7081   1.2317902269e+02   3.7996084357e+00    0.2331216    0.2285318  20.37 0.0004920202    1.179    0.152
        53 -12.4436     13.6979    248.9378   1.5051361922e+02   2.1844672228e+01    0.2784887    0.1994545  58.03 0.0008999686    1.331    0.249
        54 -11.0986    141.7845    230.2510   1.2589686977e+02   6.7225105266e+00     0.408061    0.2798371 -44.25  0.001530103    1.787    0.441
        55  -8.9464     92.4310    232.5146   1.3573392458e+02   1.4596785926e+01    0.1262971    0.1014664  69.37 8.867018e-05    1.010    0.009
        56 -10.4671     84.6435    229.7201   1.3689730997e+02   1.6339538797e+01    0.2717613    0.2345642  32.67  0.001026148    1.565    0.361
        57 -10.8030     77.6315    221.0565   1.3729954521e+02   1.9123583067e+01    0.2987211    0.1759038  63.95  0.001196075    1.558    0.358
        58 -10.7825     80.2501    227.8293   1.3752379666e+02   1.7373651915e+01    0.3257499    0.2913788 -13.38 0.0007451413    1.907    0.476
        59  -9.8617     78.6803    224.7058   1.3749024352e+02   1.8230457405e+01    0.2102315    0.1706485  42.60 0.0007916855    1.425    0.298
        60  -9.3984    179.9220    228.4269   1.1811732303e+02   1.6431693177e-01    0.2420534    0.1598657  85.46  0.001023095    3.285    0.696
        61 -10.8640    165.7157    227.2961   1.2072983766e+02   2.9321418859e+00    0.3554636    0.2594134 -75.59  0.001513527    1.906    0.475
        62 -11.3368    161.1735    223.1607   1.2098375554e+02   4.4881993108e+00    0.6102495    0.3113421  31.57  0.001963924    2.291    0.564
        63  -9.6192    190.7305    228.0235   1.1594837206e+02  -1.7122351671e+00    0.1723643    0.1581201  23.78 0.0002098778    1.073    0.068
        64  -9.0203    198.1619    227.4039   1.1441056903e+02  -2.9360249014e+00    0.1827982    0.1111697  49.03 0.0003354459    1.639    0.390
        65 -10.8348    149.3705    222.9942   1.2332336252e+02   6.6794620545e+00    0.3763115    0.2762658   7.96   0.00151644    2.140    0.533
        66 -11.8098    142.1139    221.6846   1.2458633780e+02   8.2414593350e+00     0.395018    0.3192225  46.08 0.0002538496    1.112    0.101
        67 -11.4754    137.8791    214.5499   1.2437362758e+02   1.0376474329e+01    0.5896433    0.3639808  34.88  0.001727762    1.714    0.417
        68  -8.7754    219.8434    223.5574   1.0962613587e+02  -6.1217865874e+00    0.1628626    0.1136072  45.90 0.0009108738    1.474    0.322
        69  -9.9113    110.5968    222.1168   1.3096918443e+02   1.3685049636e+01    0.3208289    0.1771795 -55.47  0.001420565    1.996    0.499
        70 -10.4329    105.4783    219.4730   1.3164860691e+02   1.5067160900e+01    0.4478731    0.2323561  71.61  0.000724335    2.771    0.639
        71 -11.2613     70.5843    219.1415   1.3844734299e+02   2.0540472110e+01    0.5145791    0.3039778 -78.36  0.002788361    1.625    0.385
        72 -10.2119    199.9157    245.6895   1.1705265848e+02  -5.9696395928e+00    0.1766961    0.1367114  36.21 0.0004402181    1.088    0.081
        73 -10.1100    222.9833    244.4808   1.1261765367e+02  -9.5802055280e+00    0.1926193    0.1021589  37.38 0.0005179923    1.601    0.375
        74  -9.7098    177.7983    220.5891   1.1724880488e+02   1.8732176495e+00    0.1989519    0.1144331  51.04 0.0007874696    1.711    0.416
        75  -9.8544    246.4796    218.4817   1.0383944907e+02  -9.7759060045e+00    0.1262226    0.1047555   7.05 0.0008100523    1.004    0.004
        76  -8.7458     89.5249    218.5194   1.3469769037e+02   1.7832395369e+01    0.1316613     0.105683  72.18 0.0008096053    1.034    0.033
        77 -10.9469    117.1486    224.3834   1.2996429956e+02   1.2130136740e+01    0.2994402    0.2176551  38.17 0.0004751977    1.434    0.303
        78  -9.3590    175.6969    216.3433   1.1695492860e+02   3.0036034438e+00    0.1348026    0.1049613  76.63 0.0003463213    1.682    0.405
        79  -8.6945    101.2648    216.3012   1.3208702991e+02   1.6404891512e+01    0.1121084    0.1050641 -25.75  0.000213837    1.520    0.342
        80 -10.1673     88.2166    213.0200   1.3429951356e+02   1.9171609694e+01    0.2728649    0.1714741 -75.01 0.0006996304    1.591    0.372
        81  -9.3627    182.9994    213.9898   1.1508522221e+02   2.0497674412e+00    0.1622312    0.1487184  33.33 0.0003727005    1.028    0.027
        82  -9.9093    102.3338    212.1787   1.3133511871e+02   1.7076058056e+01    0.3639484    0.1907587  60.92   0.00167595    2.017    0.504
        83  -9.1018    152.1359    211.8794   1.2101491050e+02   8.2501674684e+00    0.2121203    0.1749545  68.19  0.000654708    1.247    0.198
        84 -10.8243     72.6546    210.0757   1.3706197132e+02   2.2131436283e+01    0.4035369    0.2726485  52.44  0.002379196    1.347    0.258
        85  -9.5417     68.4618    211.4965   1.3804588981e+02   2.2431837620e+01    0.2015704    0.1799734  88.91 0.0007874951    1.222    0.182
        86  -9.8091     33.4969    211.4794   1.4468145317e+02   2.6919761001e+01    0.1761358    0.1434751  54.01 0.0005862305    1.367    0.268
        87  -9.4183    173.8973    211.2262   1.1644281406e+02   4.2574782425e+00    0.2564698    0.1774311  27.66  0.001025559    1.560    0.359
        88 -10.1841    135.4126    208.0677   1.2388372949e+02   1.2111209613e+01    0.3016456    0.2177604  28.22  0.001387919    1.660    0.397
        89  -9.6576    119.9443    208.7367   1.2721928316e+02   1.4769715950e+01      0.19566    0.1601084  56.34 0.0002969515    1.089    0.082
        90 -10.0622    108.9541    207.4171   1.2932141425e+02   1.6953609005e+01    0.2652849    0.1830195 -64.58 0.0009673098    1.493    0.330
        91 -11.5209     92.8738    204.2809   1.3224292872e+02   2.0281727512e+01    0.5862596    0.4578231  57.26  0.001921515    1.161    0.139
        92 -11.7691    247.2355    205.5591   1.0128036276e+02  -8.0410974052e+00    0.4549533      0.31572  11.86  0.002578294    1.479    0.324
        93 -10.2875    174.7843    206.0239   1.1534983461e+02   5.0395127935e+00    0.3164836    0.2387245 -22.02  0.001485598    1.659    0.397
        94  -8.9695    178.2917    204.7068   1.1439526198e+02   4.6070586233e+00    0.1910983    0.1585367  17.40 0.0002216503    1.311    0.237
        95  -9.9427    125.8192    205.8682   1.2555838990e+02   1.4309180662e+01    0.1964006    0.1830253  52.57 0.0004719135    1.142    0.124
        96  -8.6332    114.2632    206.6715   1.2810602364e+02   1.6193792192e+01    0.1378303   0.09616879  78.01 0.0001918347    1.569    0.362
        97  -9.2993    149.1446    204.7679   1.2046618730e+02   1.0197274031e+01    0.2673579    0.1901161 -18.83  0.001245094    2.251    0.556
        98 -10.7726     98.8324    196.9892   1.2998539078e+02   2.0886244575e+01    0.5500929    0.2563711  49.21  0.001993629    2.011    0.503
        99 -10.1879    166.9922    203.2300   1.1646481883e+02   7.0670571480e+00    0.2103959    0.1942991  39.77  0.001230936    1.038    0.036
       100 -10.4975    169.7123    200.0875   1.1533599167e+02   7.1380771768e+00    0.2501969    0.2238247  37.83 0.0003861364    1.057    0.054
       101  -9.7886    133.1502    202.7575   1.2352017807e+02   1.3607417855e+01    0.2202877     0.197502 -73.95 0.0003592813    1.163    0.140
       102  -9.2623     76.4633    203.0680   1.3547851778e+02   2.3072155284e+01    0.2779506    0.1703549  42.69  0.001499482    1.636    0.389
       103 -10.2107    138.0935    201.6712   1.2229243500e+02   1.2908393144e+01    0.2276923    0.2010351 -58.54 0.0003533658    1.226    0.184
       104 -10.0415     64.0736    201.9582   1.3786973966e+02   2.5081995400e+01    0.2528224    0.2069792  34.97 0.0007964161    1.559    0.359
       105 -10.2335    197.2485    200.7340   1.0982100449e+02   1.6785363752e+00    0.3096806    0.2166514  45.37  0.001602862    1.368    0.269
       106 -11.0529    115.2693    200.2190   1.2693926521e+02   1.7375805834e+01    0.2393927    0.2258946  78.80 0.0002347709    1.126    0.112
       107 -10.4747    119.9995    199.0928   1.2575291631e+02   1.6773251878e+01     0.361603    0.2222392  62.12 0.0003607571    1.727    0.421
       108 -10.1873     44.1457    199.3748   1.4156911941e+02   2.8223200199e+01     0.276536    0.2066976  50.29  0.001029584    1.381    0.276
       109  -8.8274    158.5544    199.4920   1.1757438520e+02   9.4293903589e+00    0.1418492    0.1310576  49.73 9.427731e-05    1.016    0.015
       110  -8.9571     86.2559    199.2854   1.3297011537e+02   2.2406983803e+01    0.1905119    0.1656105 -74.64 0.0001846634    1.192    0.161
       111  -9.4182     85.7116    195.7158   1.3261266426e+02   2.3273724865e+01    0.2240013    0.1584523  69.89 0.0001918485    1.343    0.255
       112 -11.2187     53.3905    198.0188   1.3959262125e+02   2.7361832513e+01     0.583425     0.195649  46.44  0.002557014    2.710    0.631
       113 -10.2092     56.5487    194.1358   1.3852685503e+02   2.7802744733e+01    0.3457278    0.1913728 -76.38  0.001676077    1.647    0.393
       114 -10.7453    102.3398    202.4731   1.3001448949e+02   1.9117722273e+01    0.4558579    0.2650108  60.43  0.001163295    1.737    0.424
       115 -10.3178    133.9550    197.4243   1.2247982780e+02   1.4562060015e+01     0.350527    0.2275647 -70.33   0.00122198    1.826    0.452
       116 -11.7055     67.9037    195.1657   1.3629614620e+02   2.6033499169e+01    0.4108698     0.266865 -48.45  0.001571795    1.946    0.486
       117 -10.4356    112.8026    193.7241   1.2647666374e+02   1.9207786304e+01    0.4754564    0.2881463 -65.03  0.001277403    1.723    0.419
       118  -8.7463    107.4052    196.2136   1.2802756385e+02   1.9607071470e+01    0.1852093    0.1248719 -77.03  0.000434494    1.586    0.370
       119  -9.9962     72.7030    193.2813   1.3505699156e+02   2.5765744836e+01    0.1998383    0.1718804  83.39  0.000157549    1.061    0.058
       120 -10.3265    120.7755    191.9322   1.2444688478e+02   1.8168051214e+01    0.4626969    0.3090538 -51.46  0.001730062    1.603    0.376
       121 -10.0699    118.2133    190.0128   1.2469877900e+02   1.9050419047e+01    0.2659961    0.2106297 -50.33   0.00143507    1.393    0.282
       122 -10.5175     38.7242    192.4868   1.4196466663e+02   3.0361701690e+01    0.2765714    0.1618934 -62.28 0.0001698563    1.643    0.392
       123  -9.4336     42.2735    189.0437   1.4089974735e+02   3.0703443660e+01    0.1744697    0.1486284 -77.60 0.0005962699    1.220    0.180
       124  -9.3771     30.9593    195.1552   1.4374524145e+02   3.0658037263e+01    0.2180584    0.1276161  60.21 0.0007819518    1.562    0.360
       125 -13.1337     43.3418    228.3220   1.4429315807e+02   2.2324768456e+01    0.4315058    0.3806291  68.36 0.0007745253    1.355    0.262
       126 -10.0157    159.9934    194.1310   1.1630770301e+02   1.0212419005e+01      0.21653    0.2004054  51.49 0.0004073144    1.001    0.001
       127  -9.0845     82.0260    194.4535   1.3322955450e+02   2.4120090740e+01    0.1778164    0.1227665  45.84 4.644543e-06    1.435    0.303
       128  -8.9531     84.7091    192.3379   1.3237171517e+02   2.4176681322e+01     0.189859     0.140646  28.58 0.0003448261    1.763    0.433
       129 -10.3109     26.0287    192.9761   1.4450562442e+02   3.1658453768e+01    0.2378751    0.1360761 -82.82 0.0009179632    1.427    0.299
       130  -9.5183     47.6548    192.8951   1.4020840369e+02   2.9205880013e+01    0.1773817    0.1264147 -77.18  0.001096675    1.208    0.172
       131 -10.3139    191.5161    191.4789   1.0920452115e+02   4.4682049619e+00    0.2752645    0.2584271  15.49 0.0006651198    1.042    0.040
       132  -9.4051    135.3005    190.1148   1.2094900010e+02   1.5849614605e+01     0.194304    0.1764204 -87.32 0.0004326341    1.097    0.089
       133 -11.0071     25.7658    184.4862   1.4378711859e+02   3.3530446754e+01    0.3302239    0.2023016  73.57  0.001999558    1.483    0.325
       134 -10.3531     31.8007    189.8866   1.4309180261e+02   3.1708410727e+01     0.333478    0.2240944  44.27   0.00212321    1.599    0.375
       135 -10.6415     29.5434    183.8739   1.4296800675e+02   3.3269951482e+01    0.4141164    0.2517516 -87.06  0.002388197    1.380    0.275
       136 -11.8963    249.8759    187.6199   9.7297662871e+01  -5.7502098216e+00    0.9187906    0.2308922 -35.31  0.002998758    4.039    0.752
       137 -12.8861    248.0451    172.0465   9.4436413343e+01  -2.9193947450e+00    0.9436612    0.5274835 -34.48   0.00457001    1.673    0.402
       138 -12.6463    248.3243    134.2314   8.6245726811e+01   3.5167155836e+00      1.05026    0.8930843 -34.36  0.006006937    1.069    0.065
       139  -9.5274    175.2560    186.5211   1.1162311508e+02   8.6731756392e+00    0.2671583    0.1908986 -88.23  0.001126351    2.198    0.545
       140  -9.6852     77.3110    188.7319   1.3348254610e+02   2.6105334558e+01    0.2048473    0.1610344  73.06 0.0002216999    1.142    0.124
       141 -13.1258    248.6159    114.2793   8.1743086635e+01   6.9589030630e+00     1.513285     0.658851 -33.93  0.005979508    2.294    0.564
       142  -8.9102    154.5076    185.4621   1.1589128091e+02   1.3071380132e+01    0.1464426    0.1373777  54.67  0.000117265    1.014    0.014
       143 -10.1948    143.3207    184.7144   1.1821615433e+02   1.5447948790e+01    0.2454348    0.2079494 -77.48 0.0005071634    1.255    0.203
       144 -10.4358    140.2443    183.0497   1.1859546032e+02   1.6407818042e+01    0.2431287    0.2022696  49.41 0.0003867514    1.141    0.123
       145  -9.3614     36.9689    184.0753   1.4147179533e+02   3.2414528682e+01    0.2257009    0.1546521  44.34 0.0007128289    1.571    0.364
       146 -10.4186     54.2835    182.0064   1.3759808863e+02   3.0803878171e+01    0.2219304     0.199816  35.96 0.0004821306    1.439    0.305
       147  -9.5101     65.8840    181.9201   1.3507189692e+02   2.9284015854e+01    0.1824643    0.1628595 -69.59 0.0002709713    1.232    0.188
       148  -9.7276    175.1269    179.7857   1.1032006434e+02   1.0040618900e+01    0.3463257     0.168077  46.86  0.001380258    1.991    0.498
       149  -9.4931    170.0194    180.0222   1.1146504244e+02   1.1042941265e+01    0.2138601    0.2059878  41.97            0    1.021    0.020
       150  -9.3917     48.0085    179.7108   1.3867341549e+02   3.2103044001e+01    0.1670085    0.1371035  63.06 0.0004815414    1.208    0.172
       151 -12.7123    248.1529    101.0104   7.8819375621e+01   9.3580232043e+00    0.8823422    0.5752429 -35.94  0.004391943    1.450    0.311
       152  -9.6887     86.0025    183.5588   1.3085491068e+02   2.5947640392e+01    0.3464445    0.2059414  30.91  0.001142761    2.138    0.532
       153 -11.4642     82.7425    175.7451   1.3043509630e+02   2.8241336925e+01    0.3788574    0.3454455  50.91 0.0009866317    1.229    0.187
       154 -10.1181     76.7368    175.3065   1.3173869892e+02   2.9248276215e+01     0.365807     0.203092  67.96  0.001290813    2.207    0.547
       155  -9.2949    109.2488    177.2766   1.2460181904e+02   2.3497220575e+01    0.2265055    0.1162713 -69.68  0.000891016    2.386    0.581
       156 -11.7614     68.7979    173.9871   1.3335253928e+02   3.0696795632e+01    0.5781802    0.3059237 -51.84  0.001794159    1.991    0.498
       157 -10.8722     68.9375    166.9118   1.3230377760e+02   3.2319848159e+01    0.2862448    0.2028455 -53.62 0.0003639542    1.453    0.312
       158  -9.3310    115.0991    176.1930   1.2307023649e+02   2.2692311641e+01    0.2025855    0.1603537  82.77 0.0004148722    1.317    0.240
       159  -9.0016    104.4045    180.5538   1.2625206382e+02   2.3600813172e+01    0.1410647    0.1258557  84.72 0.0001262861    1.013    0.013
       160 -10.1247     95.6528    172.7853   1.2699406810e+02   2.6861547668e+01    0.2495304     0.207188  81.37 0.0004332658    1.141    0.124
       161 -10.0396     80.8329    163.9030   1.2903550187e+02   3.1289775618e+01    0.2189067    0.1938742  65.89  0.001296062    1.128    0.113
       162 -11.5052     95.8781    157.1526   1.2423735465e+02   3.0475267247e+01    0.5353418    0.3180126 -59.18 0.0009378235    1.595    0.373
       163  -9.4874     90.9885    172.6969   1.2806305784e+02   2.7645945719e+01    0.2565233    0.1806113 -49.63 0.0005871195    1.538    0.350
       164 -10.9734    101.0386    150.8111   1.2176804849e+02   3.1089250655e+01    0.5113228    0.3679221  40.51  0.002556166    1.470    0.320
       165 -10.2021    104.0378    145.9941   1.2005944970e+02   3.1697598864e+01    0.7304534    0.2067151 -53.01    0.0022864    3.315    0.698
       166 -12.4532     88.1234    166.9953   1.2780888344e+02   2.9431702652e+01    0.7649482    0.6599167 -69.16  0.004444846    1.110    0.099
       167 -10.5511     89.9291    160.5138   1.2628353208e+02   3.0662325402e+01    0.3619864    0.2408667 -65.68 0.0003723314    1.423    0.297
       168 -11.2185     28.5937    171.3174   1.4189443615e+02   3.6163056995e+01    0.3919412    0.2402553 -66.25  0.001289121    1.399    0.285
       169  -8.5494    154.7238    172.3144   1.1329148008e+02   1.5806467935e+01    0.1492038    0.1167998  86.28 0.0002088966    1.564    0.361
       170  -8.8794    167.1938    170.0364   1.1005484681e+02   1.3693045971e+01    0.2035135    0.1184108 -45.92 0.0008561513    1.776    0.437
       171  -9.0722    100.5696    170.5013   1.2546412055e+02   2.6562012155e+01    0.1434371    0.1285774  89.46 1.546406e-05    1.010    0.010
       172 -10.4886     43.5925    168.9458   1.3835709624e+02   3.5075153629e+01    0.3179158     0.233897 -59.32  0.001727272    1.361    0.265
       173  -9.8744     48.8911    168.6565   1.3713636947e+02   3.4518543599e+01    0.2481778    0.2044578  46.93 0.0009970786    1.361    0.265
       174  -8.8744    126.6709    168.3182   1.1894282403e+02   2.2308724315e+01    0.1560013    0.1125046  79.22 0.0007046984    1.684    0.406
       175  -9.4883    107.3346    168.2023   1.2347118059e+02   2.5916961265e+01    0.2232007    0.1916011  41.09 0.0003715939    1.257    0.204
       176  -9.0968     58.5258    167.5006   1.3479529241e+02   3.3584089367e+01     0.133127    0.1108913 -86.24 0.0001266009    1.007    0.007
       177  -9.3824    136.2421    165.3308   1.1612277447e+02   2.1102287073e+01    0.2443546    0.2094482 -64.37 0.0002752743    1.173    0.148
       178  -8.9067     53.8545    164.8241   1.3550425341e+02   3.4797825795e+01    0.1755069    0.1278908  87.72 0.0003319372    1.273    0.214
       179 -10.2995     47.0047    163.1708   1.3685889542e+02   3.6008037922e+01    0.2228588    0.1562374 -80.52  0.001302471    1.226    0.184
       180 -12.4289    248.1767    142.1762   8.8020668167e+01   2.1544421147e+00    0.9453819    0.6632848 -31.16  0.004910601    1.339    0.253
       181 -14.9379     16.0913    168.9370   1.4429432029e+02   3.7896732126e+01     3.443161    0.9584314 -59.65   0.01499856    2.932    0.659
       182  -9.0909     73.6761    160.2681   1.3016479281e+02   3.3204068910e+01    0.2137092    0.1524911 -75.53 0.0004729812    1.301    0.231
       183 -10.8265     74.3158    156.6617   1.2942781531e+02   3.3961676036e+01    0.4819028    0.2483403  39.98  0.001597796    2.050    0.512
       184  -9.6652     79.0392    158.9439   1.2865587009e+02   3.2727097324e+01    0.2120131    0.1833438 -86.02 0.0004717064    1.036    0.035
       185  -9.0158     52.2308    158.4080   1.3499808783e+02   3.6490649610e+01    0.1707993     0.113316  52.38 0.0009426455    1.570    0.363
       186  -9.3873     47.8501    157.8627   1.3595411239e+02   3.7140245525e+01    0.1902966    0.1571777 -62.47 0.0003033022    1.202    0.168
       187 -14.7465     49.4979    218.7599   1.4237236682e+02   2.3474795927e+01     1.985865     1.471403  48.78   0.01329056    1.402    0.287
       188  -9.6116    134.3309    155.9488   1.1465865157e+02   2.3607391905e+01     0.215268    0.1955883 -62.01 0.0003873175    1.093    0.085
       189 -12.6002     61.8587    245.8766   1.4252164830e+02   1.6529509031e+01     1.148519    0.6064343  35.87  0.006335006    2.317    0.568
       190  -9.4513    228.4465    155.0986   9.4324521871e+01   3.7645343670e+00    0.2227701    0.1351708 -38.02    0.0006517    1.574    0.364
       191  -8.8070    124.6936    154.3081   1.1663809460e+02   2.5898356236e+01    0.1545738    0.1157239  82.58 0.0002443692    1.611    0.379
       192 -11.1624    113.9277    150.8342   1.1856654105e+02   2.8761176367e+01     0.372502    0.3224384 -41.51  0.001035904    1.258    0.205
       193  -9.6405    132.1290    152.3113   1.1442158421e+02   2.4881217303e+01    0.2108855    0.1868786  60.80  0.000368809    1.114    0.103
       194 -10.0756     53.0226    146.4619   1.3304499095e+02   3.9192690132e+01    0.2045351    0.1936261  81.30 0.0007143535    1.170    0.146
       195 -10.5866     60.1786    151.0665   1.3199253314e+02   3.7217339831e+01     0.407424    0.2592863  86.38 0.0009625066    1.803    0.445
       196 -10.9761     55.9517    150.3585   1.3292136295e+02   3.7918904965e+01    0.5174726    0.3356265 -50.30  0.002559925    1.563    0.360
       197  -9.9138     90.1414    149.8676   1.2431813855e+02   3.3142186877e+01    0.2151608    0.2126659  64.18 0.0004290431    1.163    0.140
       198 -11.2372     60.6411    137.7243   1.2967260473e+02   4.0304150997e+01    0.3128728     0.239277  50.88  0.001012417    1.422    0.297
       199 -13.1164     67.5022    144.2495   1.2903806469e+02   3.7856148781e+01    0.9339644    0.5870012  79.73  0.004193616    2.070    0.517
       200 -12.1235     74.0908    139.3776   1.2647019476e+02   3.8086506920e+01       0.6546    0.4886337 -83.54  0.003123904    1.395    0.283
       201  -8.8070    122.0039    148.0193   1.1598457497e+02   2.7876889871e+01    0.1772243    0.1679606 -86.49 0.0009558704    1.001    0.001
       202 -11.1638    133.6802    142.4529   1.1189401416e+02   2.6818590277e+01    0.9414225    0.3315708 -50.97  0.003052113    2.873    0.652
       203 -10.8696     80.8154    245.8293   1.3921724442e+02   1.3844932853e+01    0.5386293    0.2593496  87.09  0.002486492    2.936    0.659
       204 -12.3077      9.9932    141.7492   1.4282188216e+02   4.4476073939e+01    0.4229926    0.2633464 -36.13  0.002513016    2.169    0.539
       205 -12.0380      2.0002    144.4755   1.4494219311e+02   4.4455482326e+01     0.529785    0.1550499 -71.85  0.002383076    2.526    0.604
       206  -8.6971    158.9877    145.2539   1.0650396868e+02   2.0785982075e+01    0.1910963    0.1330127  47.21 0.0008447405    1.427    0.299
       207  -8.6066     93.3206    145.6517   1.2271151847e+02   3.3618936564e+01    0.1528676    0.1079344  82.01 0.0007048935    1.738    0.425
       208 -11.1749     37.1926    143.9671   1.3658747218e+02   4.1542195772e+01    0.1954164    0.1778169  70.20 0.0003276765    1.210    0.174
       209 -11.6071     42.0392    140.7532   1.3491942462e+02   4.1779089566e+01    0.2948172    0.1974303  49.30  0.001345969    1.648    0.393
       210 -11.6506     26.6229    139.2539   1.3853500826e+02   4.3653522529e+01    0.2838793    0.2048362 -27.22  0.001708429    1.936    0.484
       211 -14.7461     30.0499    246.2939   1.4781312576e+02   2.0489079816e+01     2.258646     1.317894  56.39   0.01555148    1.372    0.271
       212 -11.5630     18.0575    140.6223   1.4078582324e+02   4.4087459330e+01    0.2977642    0.1783791  51.42  0.001763923    1.868    0.465
       213 -10.5660    111.9410    136.1103   1.1594863210e+02   3.2572611133e+01    0.3813662    0.3020687   8.97   0.00138699    1.732    0.423
       214 -10.8005     21.0061    133.9599   1.3921685571e+02   4.5353139790e+01    0.1853085    0.1450336 -71.01 0.0004128594    1.028    0.027
       215 -11.5245      1.9930    124.8256   1.4278627670e+02   4.8799037586e+01     0.376192    0.1347376 -77.98  0.001696478    2.594    0.614
       216  -8.6694    161.9938    129.9842   1.0219482571e+02   2.3436416683e+01    0.1857229    0.1813525 -69.80 0.0003210032    1.012    0.012
       217 -11.9649     67.8519    128.3768   1.2603601833e+02   4.1553222473e+01    0.4765484    0.3608044  62.93            0    1.500    0.333
       218  -9.5688    105.9810    127.5482   1.1558238989e+02   3.5666927824e+01    0.3165842    0.1848131 -58.35 0.0009801841    1.729    0.421
       219 -12.4808     45.6837    131.6327   1.3254889831e+02   4.3508102597e+01    0.6245639    0.4118398  62.98    0.0033953    1.796    0.443
       220 -12.0935     31.2748    126.3789   1.3549852937e+02   4.6178500619e+01    0.3268842    0.2657801  85.27  0.001809515    1.249    0.200
       221 -10.5164    209.7868    125.8243   9.1109148367e+01   1.3295440756e+01    0.3146417    0.2568563 -36.39 0.0005141462    1.202    0.168
       222 -12.2452     38.4881    123.7884   1.3315894164e+02   4.6078649490e+01    0.5490482    0.2713025 -62.76   0.00275441    1.652    0.395
       223 -11.1909      8.7855    127.2618   1.4139539553e+02   4.7804222453e+01    0.1809459    0.1470793  42.28  0.001293448    1.513    0.339
       224  -8.6875     85.3517    126.7343   1.2094687293e+02   3.9370065569e+01    0.1430078    0.1074191  75.22 0.0006985561    1.621    0.383
       225 -11.5715     25.4435    126.0751   1.3698072900e+02   4.6769526200e+01    0.2387898    0.1825602  19.10  0.001026941    1.713    0.416
       226  -9.9467     60.0109    124.9826   1.2751642616e+02   4.3373398410e+01    0.3041294    0.1783314  25.85  0.001484787    2.151    0.535
       227 -12.7787     19.8598    121.4314   1.3776151591e+02   4.8284130225e+01    0.5021015    0.3354921 -30.23  0.003018551    1.901    0.474
       228 -10.1435    238.8860    121.7950   8.4998123722e+01   7.6596496124e+00     0.263465    0.1983354 -13.26  0.001300129    1.630    0.387
       229 -10.4444     55.0508    120.8018   1.2808338139e+02   4.4953243490e+01    0.2655875    0.1917183  15.05  0.001458867    1.825    0.452
       230 -11.6827     15.2808    114.5400   1.3796429515e+02   5.0176885111e+01    0.2901877    0.1977863 -63.48 0.0002495511    1.135    0.119
       231 -12.0213      9.7163    118.3858   1.3999476626e+02   4.9715204545e+01    0.4262408    0.1789232 -42.00  0.002034482    2.711    0.631
       232 -11.8945     31.0555    117.2648   1.3409147466e+02   4.8277393506e+01    0.4031591    0.2380017 -39.25  0.001541627    1.861    0.463
       233 -11.3075    168.0934    113.2720   9.6602546758e+01   2.5558950489e+01    0.3828748    0.3152714 -79.72 0.0006349162    1.410    0.291
       234 -10.9779     64.7312    112.5222   1.2365375183e+02   4.5645552172e+01    0.3592877    0.1804253 -44.20  0.001493706    1.936    0.484
       235 -11.9200     73.2718    187.5145   1.3419524823e+02   2.6972124085e+01    0.3524081    0.2417277 -56.03 0.0005973829    1.541    0.351
       236  -9.5694    203.7645    111.4306   8.8753621141e+01   1.7464879408e+01    0.2150168    0.1438317  41.61 0.0009441032    1.638    0.389
       237 -10.5180     69.8847    111.0617   1.2184567058e+02   4.5283530704e+01    0.1996354    0.1976501  72.80            0    1.125    0.111
       238 -11.4115     56.5953    110.4564   1.2556473801e+02   4.7142133271e+01    0.4892764    0.2564857  15.59  0.001910243    3.074    0.675
       239 -10.6254     12.5099    120.4653   1.3955125620e+02   4.9056306487e+01     0.183382    0.1153224 -48.24  0.001013223    1.515    0.340
       240  -9.8133    113.8111    106.3502   1.0826009869e+02   3.8972966965e+01    0.3996098    0.2570049 -74.38  0.001049011    2.467    0.595
       241  -9.7078    231.7914    116.5725   8.4975291276e+01   1.0127611519e+01    0.1910615    0.1429852  70.29 0.0006284181    1.563    0.360
       242 -11.3801     27.6499    106.3722   1.3316647538e+02   5.1024338677e+01    0.2614747    0.2167682 -37.50  0.001761762    1.261    0.207
       243  -9.5523      6.3133    103.6773   1.3879775874e+02   5.3168084323e+01    0.1126281   0.07847111  80.41 0.0004389021    1.657    0.397
       244  -8.9162     33.2110     99.9965   1.3032956789e+02   5.1950149384e+01    0.1677811   0.08400702 -60.36 0.0003659797    1.633    0.388
       245  -9.5387     63.0112     99.5015   1.2121132547e+02   4.8795696756e+01    0.1771451    0.1144037  -7.02 0.0005392564    2.415    0.586
       246  -9.3876     21.8347     98.1641   1.3338128689e+02   5.3301538992e+01    0.1622884    0.1128609 -46.42 0.0002419192    1.258    0.205
       247  -8.8880     44.6843     90.2737   1.2470494552e+02   5.2949819536e+01    0.1167844   0.09637487  81.58 0.0002507443    1.562    0.360
       248 -12.4279    245.2345    163.1552   9.3057218632e+01  -9.1222220424e-01    0.6327206     0.480127 -42.60  0.002972342    1.313    0.239
       249 -14.4000      8.8576    207.1897   1.4876690512e+02   3.0407100000e+01     1.702933    0.9902423 -75.03   0.01135767    1.432    0.302
       250 -12.9106    245.3301    156.3642   9.1588050620e+01   2.3506231452e-01     1.603389     1.088165 -66.74  0.007331038    2.361    0.576
       251  -9.0662    124.1063     51.1393   8.9035199624e+01   4.7194824771e+01    0.1793792     0.167041 -76.41  0.001028358    1.262    0.208
       252  -9.8202    193.0901    249.1828   1.1885835875e+02  -5.3217163911e+00    0.2173757    0.1812158  -6.03  0.000922502    1.353    0.261
       253  -9.4264    193.6996    245.3092   1.1815208875e+02  -4.8669080825e+00    0.1469873    0.1087704 -38.91 0.0002390583    1.599    0.375
       254 -10.2072    169.3752    248.9014   1.2324373421e+02  -1.2420538306e+00    0.2612914    0.1768392  16.04  0.000917256    2.018    0.504
