#   1 NUMBER                 Running object number                                     
#   2 MAG_AUTO               Kron-like elliptical aperture magnitude                    [mag]
#   3 X_IMAGE                Object position along x                                    [pixel]
#   4 Y_IMAGE                Object position along y                                    [pixel]
#   5 X_WORLD                Barycenter position along world x axis                     [deg]
#   6 Y_WORLD                Barycenter position along world y axis                     [deg]
#   7 A_WORLD                Profile RMS along major axis (world units)                 [deg]
#   8 B_WORLD                Profile RMS along minor axis (world units)                 [deg]
#   9 THETA_WORLD            Position angle (CCW/world-x)                               [deg]
#  10 FWHM_WORLD             FWHM assuming a gaussian core                              [deg]
#  11 ELONGATION             A_IMAGE/B_IMAGE                                           
#  12 ELLIPTICITY            1 - B_IMAGE/A_IMAGE                                       
         1 -11.8206    174.4604     30.2221   7.6355554672e+01   3.7369309444e+01     1.229609    0.9565983   4.06  0.005223667    1.547    0.353
         2 -10.5368    178.5448     23.5658   7.3625911350e+01   3.7032688441e+01    0.5594692    0.4950774 -21.35  0.001345929    1.198    0.165
         3  -7.2881    161.9633     26.7704   7.7044831531e+01   4.1218399628e+01    0.1962032    0.1208039  67.07 0.0003370734    1.552    0.356
         4 -13.1081     93.5144    247.8094   1.3847847509e+02   1.5960464441e+01      4.18379    0.6392057  37.98   0.01476337    3.744    0.733
         5 -11.3681     17.0596    250.3223   1.5244135824e+02   2.4109885324e+01    0.2158811   0.09992006  35.66 0.0007197565    1.659    0.397
         6 -13.1362      9.4652    237.1827   1.5347704012e+02   2.6846237606e+01    0.7826517    0.5862362 -68.10  0.001777424    1.888    0.470
         7 -15.2225     48.7693    245.8881   1.4663493996e+02   2.1556589830e+01     3.061323     2.873317 -37.42   0.01617064    1.738    0.425
         8  -9.3529    104.3135    239.3979   1.3578987355e+02   1.5750439837e+01    0.2848636    0.1837038  74.04 0.0006920176    2.008    0.502
         9  -9.6642    178.2690    237.7843   1.2193434835e+02   5.6571515697e+00    0.2400313    0.2126061 -19.59   0.00195425    1.487    0.327
        10  -9.5197    181.9047    235.1176   1.2096286055e+02   5.4451833708e+00    0.3033254    0.1451189  37.40  0.001413845    1.541    0.351
        11 -13.5923     31.5680    234.5795   1.4935113052e+02   2.5145409002e+01     1.063036    0.7752463  35.06  0.002427241    1.389    0.280
        12  -9.5930    158.8834    235.6391   1.2516424693e+02   8.6524237653e+00    0.2487075    0.1735676 -50.09  0.001739971    2.063    0.515
        13  -9.4317    170.6112    234.6521   1.2291715201e+02   7.0986746447e+00    0.2642326    0.1069218  41.35  0.001410048    1.916    0.478
        14  -8.3285    131.7088    233.0139   1.2995993571e+02   1.2870677518e+01    0.1483853    0.1233276  40.74   0.00057763    1.151    0.131
        15  -9.2477    136.9733    229.7635   1.2860775147e+02   1.2561841809e+01    0.3054692     0.281953  21.56  0.002077147    1.281    0.219
        16  -9.1006    126.6682    228.9410   1.3050698327e+02   1.4155866412e+01    0.3276122    0.2820366   9.95   0.00245574    1.405    0.288
        17  -8.0268    116.0312    226.4866   1.3233951867e+02   1.6023765927e+01    0.1787515   0.08723616  38.23 0.0005527858    1.510    0.338
        18  -7.9923    177.7679    220.3851   1.1979053588e+02   7.7672401653e+00    0.1702906   0.08456339  30.45 0.0005592227    1.651    0.394
        19  -8.8748     18.7030    215.2327   1.5114990267e+02   2.9660910772e+01    0.3897743   0.08285375  41.04  0.001164584    2.525    0.604
        20  -8.4926    167.6121    211.5016   1.2047846677e+02   1.0440652796e+01    0.3126579    0.2254466  84.00  0.001660771    3.141    0.682
        21  -8.9608     35.1478    210.7098   1.4765155736e+02   2.8828944647e+01    0.1827951    0.1416303  23.79  0.001167958    1.592    0.372
        22 -11.8364     12.4485    206.6291   1.5213372674e+02   3.1764606668e+01    0.7873866     0.336757  27.08  0.002807398    2.363    0.577
        23 -14.0199     23.8980    248.1270   1.5118803941e+02   2.3787736283e+01     1.879738     0.315419  44.41  0.009815969    2.570    0.611
        24  -8.9234     92.1391    206.3521   1.3528178232e+02   2.2619471595e+01    0.3172756    0.1864061  86.99  0.001731591    2.368    0.578
        25  -9.1397     32.5476    204.7512   1.4791177423e+02   3.0175915875e+01    0.2209617     0.161689  41.14 0.0005134229    1.242    0.195
        26 -11.1777     84.9641    196.1579   1.3586029065e+02   2.5428056791e+01    0.7087196    0.5832494  59.05  0.004843805    1.093    0.085
        27  -9.3303    198.8910    200.6296   1.1307207926e+02   6.9645978922e+00     0.287193    0.1872109  27.87  0.001796461    1.224    0.183
        28  -7.3496     24.5403    197.9531   1.4930515717e+02   3.2236672829e+01    0.1284199   0.08148986 -54.22 0.0006947319    2.251    0.556
        29  -8.6035    191.5843    193.2230   1.1322614029e+02   9.0501214432e+00    0.4982873     0.268913 -59.05  0.001760392    6.517    0.847
        30  -9.9450    185.9987    193.7726   1.1435631889e+02   9.8818407524e+00    0.2115214    0.1684466  28.42 0.0003117541    1.048    0.046
        31 -10.3738     34.0049    190.7197   1.4688686224e+02   3.2669324507e+01    0.4866365     0.241406  53.92     0.001967    1.557    0.358
        32  -7.1082      9.7019    192.2611   1.5227219657e+02   3.4668948826e+01    0.1141187   0.05494391  55.27            0    1.508    0.337
        33  -8.4037     92.9494    188.9369   1.3330674416e+02   2.5622717680e+01    0.3196974    0.1474392  38.35  0.001285968    1.758    0.431
        34  -8.0522    218.7882    186.3954   1.0725074741e+02   5.5669131910e+00    0.1760556   0.09110626  30.39 0.0009505094    1.671    0.402
        35  -8.2376    201.3271    183.3143   1.0978985189e+02   8.7436367006e+00    0.2063744    0.2017259 -52.13   0.00131686    1.507    0.337
        36  -8.3001      1.7678    182.3356   1.5371311521e+02   3.7233993929e+01    0.1660738    0.1365018 -85.06  0.001288547    1.364    0.267
        37  -8.0689     41.0941    188.1876   1.4514091318e+02   3.2410210427e+01    0.4034862    0.2648208 -16.68  0.001522785    3.397    0.706
        38  -9.0208     92.4191    180.7987   1.3250280238e+02   2.7239865009e+01    0.2622773    0.2339882 -49.36  0.001175136    1.413    0.292
        39  -9.3447     95.1845    175.6115   1.3121826173e+02   2.7829760120e+01    0.3154337     0.226072 -46.56  0.001801272    1.769    0.435
        40  -7.3447    186.2721    179.0260   1.1185876939e+02   1.1849761092e+01    0.1735421    0.1415787  24.68 0.0004127765    1.004    0.004
        41  -7.7869     62.0038    178.3602   1.3949911710e+02   3.1912991232e+01     0.178661    0.1352316  49.91 0.0005019321    1.083    0.077
        42  -9.3122     20.3702    173.3863   1.4913729764e+02   3.7459263369e+01     0.392354    0.1615358  30.21  0.002053204    2.233    0.552
        43  -9.3271     17.1246    169.2509   1.4971824531e+02   3.8602210901e+01    0.3006301     0.178781  51.83  0.001551746    1.322    0.243
        44  -7.6231    137.6604    172.3365   1.2085353267e+02   2.1431279027e+01    0.1375453   0.09745141  65.36 0.0007051053    1.757    0.431
        45  -7.9809    225.6298    169.7698   1.0313795003e+02   6.4545770486e+00    0.1620906    0.1064805 -35.21 0.0009511993    1.736    0.424
        46  -7.3608     97.6232    169.7203   1.2986880744e+02   2.8614599074e+01     0.127269    0.1016869   6.55 0.0007009114    1.707    0.414
        47 -10.5251     89.3308    161.3549   1.3081456980e+02   3.1600530858e+01    0.3553931    0.2815773 -38.49 0.0007700967    1.655    0.396
        48  -7.9015     25.9030    166.8557   1.4745743514e+02   3.8303246331e+01    0.1662322    0.1515269  60.74  0.001077529    1.225    0.184
        49  -8.5369    100.4404    165.7619   1.2863658810e+02   2.8959378026e+01    0.2218887    0.1963812  42.65 0.0004102494    1.103    0.093
        50  -8.3793    174.9153    243.0447   1.2315543406e+02   5.5371895571e+00    0.1717761    0.1041219  17.74 0.0006946523    1.648    0.393
        51  -8.8281     11.0822    160.6915   1.5081530787e+02   4.0905302322e+01    0.3097859     0.148439  56.18   0.00176116    1.658    0.397
        52  -8.6460    103.8575    159.7987   1.2692109865e+02   2.9607290178e+01    0.2686164    0.2334394 -48.73 0.0009919447    1.358    0.264
        53  -8.5022    105.5167    155.5207   1.2584520129e+02   3.0203567913e+01    0.2824686    0.2104531  64.45  0.001069975    1.384    0.277
        54  -7.8340     27.5340    158.0124   1.4650933721e+02   4.0038614924e+01    0.1764255    0.1050448 -84.21 0.0005351878    1.570    0.363
        55  -8.4005     21.9386    157.7852   1.4793389081e+02   4.0604650875e+01    0.1635559     0.152391  69.99 0.0009780022    1.238    0.192
        56  -8.9031      8.7543    154.6320   1.5114467924e+02   4.2382234986e+01    0.2527247     0.141436  48.01  0.000874082    1.462    0.316
        57  -8.5835     13.6055    153.2913   1.4984002081e+02   4.2289611993e+01    0.2562076    0.2257883  -6.46  0.001035155    1.594    0.373
        58  -7.7397     78.6441    150.6714   1.3216622347e+02   3.5487202493e+01    0.1303323    0.1060851 -16.96 0.0007045081    1.780    0.438
        59  -7.8792     48.7283    149.0318   1.4012813881e+02   3.9792370460e+01    0.1771321    0.1466201  80.85 0.0003876333    1.098    0.089
        60 -10.9239     69.8578    139.0445   1.3299959108e+02   3.9350933385e+01    0.5280913    0.3980772  88.38  0.002958807    1.337    0.252
        61 -10.0505     65.9918    142.4874   1.3456394506e+02   3.9101437423e+01    0.4118412     0.283114  74.40  0.001538331    1.481    0.325
        62  -8.2214     45.1126    148.1897   1.4103936391e+02   4.0393997750e+01    0.1791815    0.1722185 -89.68  0.001219228    1.234    0.189
        63  -8.5299      3.4169    147.6604   1.5224178074e+02   4.4282780098e+01    0.2104666    0.1633278  28.89  0.001110408    1.444    0.307
        64  -8.7048     79.9644    143.8232   1.3084005986e+02   3.6802595076e+01    0.2264858    0.1951586 -83.32 0.0005256316    1.177    0.150
        65  -7.1396    200.0000    142.8747   1.0234346210e+02   1.4566961948e+01    0.2023544   0.07486969 -34.73 0.0005649859    2.806    0.644
        66  -7.7146    112.5450    143.5078   1.2201840752e+02   3.1464728268e+01    0.1419924     0.128967  46.52 0.0002365996    1.042    0.040
        67  -9.0311    102.2116    142.8544   1.2462542342e+02   3.3422233970e+01     0.229453    0.2112641  39.83 0.0002666363    1.115    0.103
        68  -8.2657    130.9533    140.8833   1.1685248800e+02   2.8559565134e+01    0.2907267    0.1818437  42.44 0.0006356254    1.441    0.306
        69 -10.5287     70.3208    145.6835   1.3377207626e+02   3.7785139343e+01    0.4180656    0.3351957  52.87  0.001368862    1.100    0.091
        70  -8.1799     80.2562    136.0643   1.2957901898e+02   3.8502577822e+01    0.1942812    0.1707138  76.04 0.0004605363    1.073    0.068
        71  -9.5329     67.0613    134.3628   1.3314712540e+02   4.0816167621e+01    0.2495661    0.2088783  18.63  0.001039806    1.438    0.304
        72  -9.1919     59.4485    133.3427   1.3525064026e+02   4.2071795738e+01    0.3124473    0.2258172 -10.66  0.001566119    2.227    0.551
        73  -7.8243     53.9225    133.5249   1.3691316755e+02   4.2725243290e+01    0.1963626    0.1224197  35.32  0.001020381    1.557    0.358
        74  -7.8118    118.6998    132.4298   1.1829706242e+02   3.2639058593e+01    0.2066245    0.1337074  32.01 0.0009438482    1.625    0.385
        75  -9.3159     71.6578    129.2488   1.3102025521e+02   4.1351718254e+01    0.2890486        0.201 -15.85  0.001320057    2.480    0.597
        76  -9.0781    170.0840    241.1461   1.2378549288e+02   6.4209085067e+00    0.1736269    0.1426821  36.72   0.00063089    1.263    0.208
        77  -8.0596    160.3448    127.1460   1.0697698832e+02   2.5189969745e+01    0.1946911    0.1360228 -50.50 0.0003909591    1.642    0.391
        78  -8.3189    128.0278    125.3210   1.1436424478e+02   3.2279485472e+01    0.2247147    0.2024713 -25.96 0.0002549179    1.254    0.203
        79  -9.3853     64.4841    125.4793   1.3260928677e+02   4.3246608005e+01    0.2493122    0.2174993  74.81 0.0007333363    1.042    0.041
        80 -10.3615    241.3873    121.5506   9.0925332060e+01   9.6979495920e+00      0.25051     0.222869  21.82 0.0002651821    1.153    0.133
        81  -7.6015    112.5331    121.4527   1.1767542089e+02   3.6165752426e+01    0.1473103    0.1382197  46.79 1.487758e-05    1.047    0.045
        82  -8.0556    187.4733    107.7966   9.6699685732e+01   2.2581655110e+01     0.246167    0.1935384  45.47 0.0003326284    1.242    0.195
        83  -7.7618    196.6338    107.4737   9.4914783015e+01   2.0611959643e+01    0.2437562    0.1407502  55.48 0.0005850943    1.849    0.459
        84  -8.7791    244.4111    102.8332   8.6346601998e+01   1.1469415931e+01    0.3432609    0.1216743 -37.01  0.001209011    2.601    0.616
        85  -7.8748     68.4821    103.4882   1.2746223551e+02   4.7937712668e+01    0.1426331    0.1306866  79.11 0.0008101837    1.024    0.024
        86  -7.0567    211.5592     81.4333   8.5824443807e+01   2.1121032533e+01    0.1398455     0.130723  -3.28 0.0001126796    1.042    0.041
        87  -8.5654    194.3857     59.7847   8.2511039703e+01   2.8257730376e+01    0.2443314    0.2100741  39.53 0.0003507193    1.224    0.183
        88 -11.1849    162.1160     47.2937   8.4043308676e+01   3.8455872052e+01    0.8820643    0.5316143 -31.72  0.003082401    1.671    0.402
        89  -7.8128    135.3183     50.0130   9.0627569037e+01   4.5198391213e+01     0.380543    0.2310186 -79.61  0.001245978    2.964    0.663
        90  -9.7857    249.4375     45.5825   7.2221151648e+01   1.7295157642e+01    0.2268332    0.2079105 -10.69 0.0001809063    1.146    0.127
        91 -12.2968     28.0307    240.9905   1.5022752784e+02   2.4482481984e+01    0.7423815    0.2613728  29.95  0.003400533    2.642    0.621
        92 -12.7872     58.1423    222.2637   1.4359678319e+02   2.4267470162e+01    0.8358115    0.5033215  57.64  0.004458654    1.325    0.245
        93  -7.6523    243.3064     36.3169   7.0488137693e+01   1.9616165149e+01    0.1261924   0.09658965  21.60            0    1.629    0.386
        94  -7.6955    190.0925     33.2443   7.5206683732e+01   3.2817298365e+01    0.1959533    0.1806189 -80.15 0.0003405911    1.054    0.052
        95 -10.5640    144.0084     25.6593   7.9680730332e+01   4.6341502010e+01    0.2562813    0.2478814 -15.37 0.0002198331    1.100    0.091
