#   1 NUMBER                 Running object number                                     
#   2 MAG_AUTO               Kron-like elliptical aperture magnitude                    [mag]
#   3 X_IMAGE                Object position along x                                    [pixel]
#   4 Y_IMAGE                Object position along y                                    [pixel]
#   5 X_WORLD                Barycenter position along world x axis                     [deg]
#   6 Y_WORLD                Barycenter position along world y axis                     [deg]
#   7 A_WORLD                Profile RMS along major axis (world units)                 [deg]
#   8 B_WORLD                Profile RMS along minor axis (world units)                 [deg]
#   9 THETA_WORLD            Position angle (CCW/world-x)                               [deg]
#  10 FWHM_WORLD             FWHM assuming a gaussian core                              [deg]
#  11 ELONGATION             A_IMAGE/B_IMAGE                                           
#  12 ELLIPTICITY            1 - B_IMAGE/A_IMAGE                                       
         1 -13.4072    222.9121     60.2360   1.5668315624e+01   2.2134938651e+01     1.401993     1.234646  80.40  0.008508545    1.244    0.196
         2 -13.1612    242.3881     47.0649   1.0392799457e+01   1.9772288223e+01     1.072995    0.8566815  47.19  0.006493299    1.538    0.350
         3  -9.3455      2.3270      4.3261   6.4447412465e+01   7.6785540456e+01    0.1286047   0.06747106 -28.33 0.0007049922    1.698    0.411
         4  -8.3113    224.0458    207.0142   4.7530451544e+01   1.9329671111e-01    0.1410577    0.1090473   3.93 0.0009501466    1.011    0.010
         5 -13.0300     12.9654    241.8757   9.3001977279e+01   2.2615639736e+01     1.274992    0.8858241  50.80  0.009118906    1.109    0.099
         6 -11.5048     19.9521    227.4774   9.1149373938e+01   2.4547627333e+01    0.3108175    0.2827375 -87.18 0.0003250178    1.377    0.274
         7 -13.5669      9.9429    206.7012   9.2272355223e+01   2.9487710909e+01     2.713274    0.8807026  21.55   0.01133677    4.318    0.768
         8 -15.0835      6.6294    183.2804   9.1962119843e+01   3.4660972523e+01     7.973517    0.9135692 -81.60   0.01976615    9.331    0.893
         9 -14.4299     19.4686    176.3405   8.8600355848e+01   3.5101369170e+01     2.978668      1.17294  70.95   0.01305305    2.720    0.632
        10 -11.7199      2.1490    218.3121   9.4246065109e+01   2.7887066195e+01    0.5168916    0.2154141 -77.58  0.001975131    2.298    0.565
        11 -14.2274      7.6428    222.7374   9.3336298110e+01   2.6571763319e+01     5.057235     1.820571  17.21   0.01854844    6.481    0.846
        12  -8.2050     99.3314    181.2744   6.9490278564e+01   2.4186390006e+01    0.1297429    0.1058783  -4.27 0.0006990597    1.595    0.373
        13 -11.7042     35.1726    166.6238   8.3975468416e+01   3.5827535504e+01    0.3971736    0.3038636 -31.15  0.001263869    1.817    0.450
        14 -10.6088     88.2241    166.6116   7.0156698943e+01   2.9106288445e+01    0.5988676    0.1587267  50.63  0.001370601    7.321    0.863
        15 -11.5788     43.4801    161.5432   8.1323492392e+01   3.6145729489e+01    0.2806223    0.2686326 -19.31  0.000545233    1.316    0.240
        16 -12.5807    239.1011    157.7101   3.5786833242e+01   4.6747624724e+00    0.9596155    0.8023133  40.67  0.006217177    1.480    0.324
        17  -8.6724     54.3035    231.6653   8.4613522036e+01   2.0144570988e+01     0.122866   0.06516695  58.98 0.0003274023    1.663    0.399
        18 -11.9569     72.4153    134.5706   6.9410399369e+01   3.9100026752e+01    0.5444597    0.3981067 -64.65 0.0003438308    1.317    0.241
        19 -11.9897     66.2838    148.9661   7.3501007910e+01   3.6407966318e+01    0.6252341    0.4165634  74.92  0.001364556    1.693    0.409
        20 -12.8334     68.2377    143.5686   7.2127934747e+01   3.7463671843e+01     1.246927    0.6718619  63.07  0.003224999    2.391    0.582
        21 -10.6084     57.5233    153.4465   7.6572511804e+01   3.6449807248e+01    0.2467677     0.229772  88.14 0.0002310677    1.070    0.065
        22 -10.6834     55.2473    148.3916   7.6550708657e+01   3.7961374520e+01    0.3890938    0.2478048 -39.29  0.001878268    2.012    0.503
        23 -12.9118     41.7918    149.0619   8.0439729794e+01   3.9338986846e+01    0.5011277    0.3819376   3.15   0.00129506    1.768    0.434
        24 -10.4773     77.1688    158.7266   7.1920252711e+01   3.2557635413e+01    0.3080272    0.1849234  64.25  0.001396918    1.955    0.489
        25 -11.1045     18.9887    145.1866   8.6453349548e+01   4.2443640130e+01    0.2735248    0.1905212  63.84  0.001176373    1.320    0.242
        26 -11.1723     20.0552    142.0344   8.5882013320e+01   4.3124944833e+01    0.3228553    0.1908249  68.15  0.001049793    1.634    0.388
        27 -10.4716     85.4589    137.4506   6.6077222533e+01   3.6423215379e+01    0.3125412    0.2997204 -40.05 0.0009832657    1.126    0.112
        28  -8.9343     89.7680    134.8967   6.4337567290e+01   3.6351725560e+01    0.3005714    0.2319921  -8.10 0.0004843838    1.772    0.436
        29  -9.6348    105.7189    130.5817   5.8860267168e+01   3.4635347502e+01    0.3884246    0.3091492 -75.82  0.001740828    1.417    0.294
        30  -9.5107    101.3575    128.0722   5.9564155514e+01   3.6013344028e+01    0.4424255    0.2655924  20.67   0.00141091    2.305    0.566
        31  -9.2353     39.4351    126.2172   7.8286443332e+01   4.5290400856e+01    0.1999165    0.1193427 -87.29 0.0006115813    1.722    0.419
        32 -10.1242     87.5949    123.2894   6.2622235682e+01   3.9539375239e+01    0.2792448    0.2500423  35.29 0.0005844905    1.159    0.137
        33  -8.3694    110.3362    123.3157   5.5916993084e+01   3.5485220410e+01    0.1566081    0.1216656  -9.96 0.0007047587    1.695    0.410
        34 -11.1835     52.7604    117.7078   7.2640962392e+01   4.5964750101e+01    0.5563654    0.2337709 -74.55  0.002010284    2.818    0.645
        35  -9.4004    101.1083    117.0319   5.7128108962e+01   3.8689619130e+01    0.2188772     0.213489 -25.89 0.0003554917    1.060    0.056
        36  -9.2341    231.1740    114.0254   2.7580694867e+01   1.2505619606e+01    0.2122636    0.1956803  23.31 0.0006830364    1.192    0.161
        37  -9.1409    204.4864    110.8512   3.1140459937e+01   1.8249696186e+01    0.3017753    0.1785467  32.92  0.001336625    2.034    0.508
        38 -10.2371    241.9859    101.9883   2.3286513763e+01   1.2298619163e+01    0.1633712    0.1394852 -26.86 0.0007310874    1.015    0.015
        39 -10.1495     52.8640     90.7638   6.7119879425e+01   5.2779110817e+01       0.3461    0.1664402 -47.44  0.001281004    1.968    0.492
        40  -9.8645    168.5137     89.9127   3.2453424944e+01   2.9881675398e+01     0.240136    0.1471557 -35.87  0.001028787    1.580    0.367
        41 -10.0263    184.6068     77.1098   2.5774702872e+01   2.8315324929e+01    0.2856491    0.2183731  47.51 0.0007583841    1.383    0.277
        42  -9.8380    247.2219    249.6031   5.0404245461e+01  -7.4437861427e+00    0.1514803    0.0724017  21.45 0.0009546642    1.687    0.407
        43  -9.4099     40.2372    247.5690   8.8245338930e+01   1.8908602669e+01    0.2073007    0.1298029 -81.86  0.001454969    1.730    0.422
        44  -9.6657     23.3050     64.4814   7.3221011946e+01   6.2306931167e+01    0.4623429    0.1895708  48.07  0.001740137    3.707    0.730
        45 -11.1413     13.3976     60.1640   7.6914059472e+01   6.4041805289e+01    0.3775181    0.2485366  60.73 0.0004231957    1.982    0.495
        46  -8.6077     33.4738     51.4820   6.4595060804e+01   6.4419386542e+01    0.1337218    0.1187945 -43.23 0.0002380171    1.055    0.053
        47  -8.6797     73.3807     43.2486   4.3225949229e+01   6.0168566409e+01    0.1998446    0.1307641 -47.06 0.0009097934    1.622    0.383
