#   1 NUMBER                 Running object number                                     
#   2 MAG_AUTO               Kron-like elliptical aperture magnitude                    [mag]
#   3 X_IMAGE                Object position along x                                    [pixel]
#   4 Y_IMAGE                Object position along y                                    [pixel]
#   5 X_WORLD                Barycenter position along world x axis                     [deg]
#   6 Y_WORLD                Barycenter position along world y axis                     [deg]
#   7 A_WORLD                Profile RMS along major axis (world units)                 [deg]
#   8 B_WORLD                Profile RMS along minor axis (world units)                 [deg]
#   9 THETA_WORLD            Position angle (CCW/world-x)                               [deg]
#  10 FWHM_WORLD             FWHM assuming a gaussian core                              [deg]
#  11 ELONGATION             A_IMAGE/B_IMAGE                                           
#  12 ELLIPTICITY            1 - B_IMAGE/A_IMAGE                                       
         1 -14.2339    212.5145      4.5585   5.0190188089e+01   3.1047658870e+01       1.8572    0.8442317  64.45  0.008828565    2.335    0.572
         2 -15.1787    190.5268     32.9395   5.8897181433e+01   3.2954593556e+01       2.5762     1.580529  26.52   0.01151381    2.944    0.660
         3 -12.8986     42.3134      4.4921   8.0485952706e+01   7.2863341341e+01    0.5690739    0.3826512  42.24  0.001668094    1.301    0.232
         4 -11.3191     59.2198      2.8969   7.1859542010e+01   6.9368557348e+01    0.2889886    0.1326667  39.59   0.00126298    2.126    0.530
         5  -9.2925     43.1459    221.3441   1.3289913060e+02   2.3345715485e+01     0.212079    0.1433856  10.85   0.00120014    1.803    0.445
         6 -16.6127     72.9036    149.0576   1.1695032781e+02   3.6112320864e+01     10.03042     4.911874  68.57   0.02145922    4.130    0.758
         7 -12.4683     54.0458    210.2138   1.2943563664e+02   2.4402102822e+01    0.4720615    0.1856584  48.57  0.001654252    2.232    0.552
         8 -10.5564     48.3016    205.3347   1.3049108116e+02   2.6106668286e+01    0.4364952    0.2395806  22.16  0.002172087    1.850    0.459
         9 -11.9927     71.6824    210.5293   1.2506624315e+02   2.2162791159e+01    0.3923528     0.227753  21.74  0.001964291    1.750    0.429
        10 -10.0621     76.5061    206.0123   1.2339927292e+02   2.2468117865e+01    0.2945173    0.1377972 -75.77  0.001259255    2.899    0.655
        11  -9.7883     37.1878    206.7072   1.3339329870e+02   2.7037977010e+01    0.1732723    0.1205436  42.59 0.0004129127    1.172    0.146
        12  -8.9212     87.3117    204.6458   1.2052694532e+02   2.1284256677e+01    0.2054777    0.1166326 -81.29 0.0009313131    2.547    0.607
        13  -9.1060     88.3255    201.7010   1.1992471342e+02   2.1750638374e+01    0.1783608    0.1608223  13.81 0.0007790428    1.182    0.154
        14 -10.8549    157.5389    200.7513   1.0339729834e+02   1.1561331777e+01    0.3089362    0.2232699  86.02  0.001415032    3.245    0.692
        15 -10.1386     94.5554    250.2727   1.2349278599e+02   1.1914340272e+01    0.2120122    0.1258323  33.23  0.001268148    1.263    0.208
        16 -12.1870    135.8806    199.1491   1.0798106128e+02   1.5159160540e+01    0.3351638    0.3005758 -84.96  0.002045148    1.491    0.329
        17 -13.2069     46.6531    215.5599   1.3166384559e+02   2.4137983952e+01    0.4654624    0.2137398  53.57  0.001758065    1.985    0.496
        18 -11.8337    192.9703    194.5757   9.5191850773e+01   7.3005515273e+00    0.7847027    0.4423849 -60.22  0.002916996    5.249    0.809
        19 -11.7736    141.1211    198.3379   1.0665229240e+02   1.4498152405e+01    0.3084884    0.2454487 -45.59 0.0008802995    1.443    0.307
        20 -10.8220     44.2392    210.3921   1.3188925317e+02   2.5486499612e+01    0.2931257     0.124738  45.82 0.0005846574    1.898    0.473
        21  -9.6124     81.0011    220.5126   1.2377222051e+02   1.8961163196e+01    0.1973709    0.1075167  31.11  0.000423688    1.516    0.340
        22 -10.9680    208.7225    196.7526   9.2684457531e+01   4.7867118420e+00    0.2021766    0.1317559 -26.57 0.0004455243    1.418    0.295
        23 -10.2336     81.8065    195.7202   1.2088697217e+02   2.3926007403e+01    0.3053567    0.2318849 -35.59  0.001670546    1.642    0.391
        24  -9.8886     25.7619    195.4755   1.3559649611e+02   3.0668089189e+01    0.1701432     0.106834  35.82 0.0007829902    1.366    0.268
        25 -11.3425    152.9520    193.5072   1.0321597263e+02   1.3520873367e+01    0.3564845     0.223561  56.83   0.00137013    2.437    0.590
        26 -12.9166     69.5843    189.1573   1.2336769184e+02   2.7036994710e+01    0.8501806    0.6771847  34.15  0.004867704    1.133    0.117
        27 -10.9003     95.8959    188.2934   1.1624781775e+02   2.3482744721e+01    0.5398099    0.2749077  58.41  0.002118405    2.751    0.636
        28  -9.5319     61.7764    214.3251   1.2786501765e+02   2.2622636610e+01     0.423606   0.08003163  42.52   0.00141186    3.673    0.728
        29 -16.9316     61.7010    248.2798   1.3046570851e+02   1.6180438279e+01     10.71827     3.030357  21.21   0.02842819    7.785    0.872
        30 -10.7205     39.3229    212.7376   1.3326147739e+02   2.5530140418e+01    0.2193201    0.1141309  40.55   0.00068809    1.506    0.336
        31 -10.7274    150.6808    182.1545   1.0178704136e+02   1.5938152545e+01    0.2240833    0.1747733  41.21 0.0006323364    1.288    0.224
        32 -11.5865     99.3343    180.6916   1.1424699744e+02   2.4603172546e+01    0.2904827    0.2332886  37.68 0.0005792879    1.106    0.096
        33 -11.6106    143.9924    179.4836   1.0285302050e+02   1.7548846748e+01    0.2730748    0.1903868 -24.77  0.001371601    1.647    0.393
        34 -10.1249    218.9980    177.4885   8.7523302475e+01   6.1012198540e+00    0.1635399   0.09141495  12.01 -0.0001420715    2.284    0.562
        35  -9.9439     69.4628    178.1996   1.2210919382e+02   2.9559858143e+01    0.2460644    0.1723551  35.11 0.0003255745    1.277    0.217
        36 -10.1925    165.0380    171.6359   9.6694242685e+01   1.5459281165e+01    0.2199742     0.188995 -56.71 0.0005476694    1.456    0.313
        37 -10.4881    201.4563    168.5986   8.8914285054e+01   1.0025582500e+01     0.376902    0.2674252 -54.59  0.001761443    1.998    0.499
        38 -10.8288    204.2582    165.1344   8.7750515043e+01   1.0127892076e+01    0.4543099    0.2435948 -45.14  0.001628284    2.068    0.516
        39 -11.3831    193.9194    166.8112   8.9958181125e+01   1.1501988231e+01    0.2920172    0.2600022 -13.32 0.0007196861    1.091    0.083
        40 -10.4284    190.6443    161.4694   8.9535406636e+01   1.2910313678e+01    0.3007506    0.2474108  85.70  0.001645028    2.068    0.516
        41 -10.9909    229.9658    165.9871   8.3641109988e+01   6.1840059112e+00    0.1730647    0.1453559 -53.49  0.001089422    1.713    0.416
        42 -10.7811    159.6199    164.2473   9.6458953447e+01   1.7747362494e+01     0.259873    0.2251947  79.88 0.0007630337    1.605    0.377
        43  -9.1465    117.6946    162.2964   1.0628829814e+02   2.5588165915e+01    0.1465976    0.1121155  64.76 0.0002482258    1.585    0.369
        44 -12.7439     96.8908    154.1964   1.1058051294e+02   3.1020736165e+01    0.7197041    0.5148549 -23.56  0.003293957    1.860    0.462
        45 -11.1625    189.1345    154.9743   8.8525511237e+01   1.4248069678e+01    0.3924851     0.369793  56.34  0.002461576    1.331    0.249
        46 -11.5873    133.8381    145.1942   9.8690672674e+01   2.6305293798e+01     1.200303    0.3242731 -53.86  0.002982987    5.777    0.827
        47 -10.0902    113.1179    151.5621   1.0549058097e+02   2.8783264360e+01    0.2689066    0.2128438 -80.52 0.0006862403    1.580    0.367
        48 -11.2390    144.3132    147.5179   9.6592952459e+01   2.3818474542e+01    0.5167236    0.2885093 -63.00   0.00195091    2.863    0.651
        49 -10.5667    174.4673    148.9031   9.0172349743e+01   1.7899758329e+01    0.2528812    0.2389414  55.65  0.000747695    1.245    0.196
        50 -17.3284     30.3269    242.7634   1.3697354006e+02   2.0553897915e+01     3.841802     3.016627 -89.20   0.02779278    1.440    0.306
        51  -9.8851    115.7948    144.5803   1.0334838683e+02   2.9865196114e+01    0.2184336    0.1342107  48.34 0.0006235791    1.652    0.395
        52 -13.3617     61.1762    203.8771   1.2708479294e+02   2.4886218815e+01    0.6221636    0.4821693  74.15  0.002229348    1.338    0.252
        53 -12.1972    108.0744    140.0027   1.0457701164e+02   3.2351620441e+01    0.6178483    0.4281681 -29.05  0.002739552    1.814    0.449
        54 -12.5318     96.2795    139.6673   1.0799522403e+02   3.4576980656e+01    0.3176705    0.3027475 -53.80 0.0004644499    1.104    0.095
        55 -11.2369    135.8893    128.5895   9.4460123941e+01   2.9414259672e+01    0.6625228    0.1771709 -47.46  0.001892108    3.938    0.746
        56 -11.4383    105.8892    130.4655   1.0315776639e+02   3.4985254505e+01        0.464    0.3550016 -61.36   0.00193819    1.419    0.295
        57 -11.2965    102.8566    126.2549   1.0311880152e+02   3.6555261371e+01    0.3398983    0.2772638 -11.37  0.001620265    1.516    0.341
        58 -11.2295    115.1766    130.1473   1.0038915496e+02   3.3253681443e+01    0.3569569    0.3065879  -6.96 0.0009628295    1.349    0.259
        59 -10.2146    160.6113    127.7901   8.8441855637e+01   2.4505306609e+01    0.2853633    0.2304651 -76.43  0.001425437    1.640    0.390
        60 -11.3667    120.4141    123.9240   9.7464046484e+01   3.3601251723e+01    0.5127605    0.3173412 -23.46  0.001953161    2.471    0.595
        61 -10.0555    135.0000    119.9316   9.2605960979e+01   3.1424508312e+01    0.2512662   0.08752426 -45.05 0.0008008278    2.931    0.659
        62 -10.3604    110.3252    119.1023   9.9189219779e+01   3.6745703829e+01    0.2705787    0.2152558  46.83 0.0002812584    1.225    0.183
        63 -10.2157    167.8238    112.9674   8.3374957008e+01   2.5790603990e+01    0.3186277    0.2200091 -66.46   0.00143395    1.984    0.496
        64 -10.0404    135.0000    112.5285   9.0745592364e+01   3.2973621153e+01    0.3365172   0.08781007 -44.13  0.000930357    3.899    0.744
        65 -11.8316    119.6639    110.6707   9.4365872371e+01   3.6688917360e+01    0.6100531     0.353401  55.47  0.002424431    1.943    0.485
        66 -10.3193    205.6201    110.0831   7.5961926255e+01   1.8641674167e+01    0.2357996      0.19317  35.99 0.0006992451    1.350    0.259
        67  -9.7437    134.5190    105.0342   8.8906693213e+01   3.4627947137e+01    0.2423908    0.1523389 -43.53  0.001040909    1.616    0.381
        68 -10.5713     41.6701     91.7873   1.1764595202e+02   5.5194413192e+01    0.2527014    0.2325643  34.99 0.0004257041    1.110    0.099
        69 -11.2404     52.9192     90.6863   1.1249758206e+02   5.3980494617e+01    0.2974765    0.2456753 -37.87  0.001033561    1.254    0.202
        70 -12.3556    165.7950     66.0263   7.1309692872e+01   3.4331570307e+01    0.7504188    0.4149642 -46.23 0.0006787397    1.771    0.435
        71 -10.2748     72.0782    230.0163   1.2674631520e+02   1.8271558009e+01    0.1814341    0.1367294  42.07 0.0003532401    1.063    0.060
        72 -13.5386    175.4689     47.9112   6.4727345719e+01   3.4629990810e+01    0.7704496    0.6547588 -27.27 0.0008228511    1.290    0.225
        73  -8.3793     67.9067    225.7248   1.2735884454e+02   1.9603089200e+01    0.2213895   0.09589094  28.00 0.0004994861    1.994    0.498
        74 -19.1807     14.7578    103.4662   1.3134459012e+02   5.4671748129e+01     18.26918    0.9687585 -74.80   0.02737969   16.631    0.940
