#   1 NUMBER                 Running object number                                     
#   2 MAG_AUTO               Kron-like elliptical aperture magnitude                    [mag]
#   3 X_IMAGE                Object position along x                                    [pixel]
#   4 Y_IMAGE                Object position along y                                    [pixel]
#   5 X_WORLD                Barycenter position along world x axis                     [deg]
#   6 Y_WORLD                Barycenter position along world y axis                     [deg]
#   7 A_WORLD                Profile RMS along major axis (world units)                 [deg]
#   8 B_WORLD                Profile RMS along minor axis (world units)                 [deg]
#   9 THETA_WORLD            Position angle (CCW/world-x)                               [deg]
#  10 FWHM_WORLD             FWHM assuming a gaussian core                              [deg]
#  11 ELONGATION             A_IMAGE/B_IMAGE                                           
#  12 ELLIPTICITY            1 - B_IMAGE/A_IMAGE                                       
         1 -10.1434    194.7227     20.9843   5.3934680584e+01   3.3788220575e+01    0.5013134      0.22349 -35.59  0.001414018    2.127    0.530
         2 -11.7790    190.9320     28.1568   5.6486062295e+01   3.3924920556e+01    0.9207691    0.4876994 -21.19  0.003998004    2.114    0.527
         3 -12.4718    213.8459     28.0975   5.3641100768e+01   2.8235219413e+01     1.000085     0.384044 -34.73  0.001081198    2.338    0.572
         4 -12.3418    151.4247     10.0448   5.6539667700e+01   4.5940688864e+01     1.410828    0.6535514 -81.51  0.004148804    5.192    0.807
         5 -10.7150    164.9219     15.6251   5.6323877401e+01   4.1951992700e+01    0.4191619     0.327709  67.50  0.001221171    1.200    0.167
         6 -12.0248    161.6985     10.2016   5.5040780473e+01   4.3311888319e+01     0.596916    0.4819897 -64.88  0.002475033    1.339    0.253
         7 -10.3778    111.4016     20.2758   6.8377304605e+01   5.4623866936e+01    0.4030193    0.3117749 -87.07   0.00126013    1.827    0.453
         8 -11.4028    105.8042     13.5516   6.7005799735e+01   5.6633248942e+01    0.2973021    0.2835281 -15.88 0.0003112264    1.167    0.143
         9 -11.0587    183.6339     13.8382   5.3228504625e+01   3.7354699680e+01    0.4536751    0.2532395 -58.76   0.00138669    2.075    0.518
        10 -11.6559    174.9669      4.1668   5.1389831157e+01   4.0485383238e+01    0.7897812    0.4852977 -75.03  0.003786915    1.883    0.469
        11 -11.3762    186.3163      9.4321   5.1611730822e+01   3.7113254465e+01    0.5358048    0.2523852 -43.03  0.001736495    2.131    0.531
        12 -11.0247    183.3649      2.7373   4.9994915222e+01   3.8484767958e+01    0.5031846    0.2893372 -84.18  0.002197005    1.947    0.486
        13 -11.7495    126.6814     10.7341   6.1191335497e+01   5.2028391361e+01    0.4638323    0.3637154  48.78 0.0009145261    1.152    0.132
        14 -11.5802    127.8487      2.3334   5.7759395247e+01   5.2494917417e+01    0.4855624    0.3244341  80.26  0.002113817    1.684    0.406
        15 -10.6397    200.9504      9.8836   5.0128997821e+01   3.3399536403e+01    0.3381045    0.2279926 -48.00 0.0006066812    1.449    0.310
        16 -10.7282    119.1388     10.0705   6.2493030460e+01   5.3900628166e+01    0.2971026    0.2390702   9.79 0.0007052867    1.265    0.210
        17 -10.3436     56.3821     10.4146   8.1329694336e+01   6.6648558460e+01     0.429603    0.2016119  41.60   0.00144225    2.130    0.530
        18 -10.2531     15.6894      6.8722   9.8890606068e+01   7.2329661653e+01    0.4464377    0.2213665 -53.80  0.002259908    2.822    0.646
        19 -11.2910    112.4887      5.5248   6.2098620238e+01   5.5884732312e+01    0.5242132     0.323164  13.09  0.002243272    1.850    0.459
        20 -11.4614    109.4872      5.4876   6.2751985195e+01   5.6582759251e+01     0.416999    0.3800372  12.20  0.001815739    1.087    0.080
        21 -10.3965     74.2818      7.3406   7.3276419305e+01   6.3854933253e+01     0.424657    0.2150198  54.27  0.002052403    2.158    0.537
        22 -10.1600    203.0027      3.4119   4.8170852921e+01   3.3520239069e+01    0.3071653    0.2142599 -51.54  0.001072365    1.390    0.281
        23  -9.8380    195.4017     11.2959   5.1115139240e+01   3.4641041403e+01     0.237798    0.1529673 -77.28 0.0009388283    1.689    0.408
        24 -10.6352    157.6439     19.6525   5.8775851663e+01   4.3388396853e+01    0.3727514    0.2670446 -24.90  0.001196698    1.472    0.321
        25  -9.9409      7.3327      1.7102   1.0104231993e+02   7.3848031887e+01    0.2631254    0.1431949  19.96  0.001670394    1.970    0.492
        26 -10.7483    237.0695    188.2603   8.8308430454e+01  -5.2600484960e-01     0.733721    0.3598554 -27.93  0.003629867    2.030    0.507
        27 -12.8572    247.1034    230.1739   9.4034702406e+01  -7.1436900707e+00     2.255956    0.7015164 -29.84   0.01029906    3.442    0.709
        28 -12.1226    248.4553    190.7343   8.6849120404e+01  -2.6728160116e+00     2.263236    0.4505839 -36.79  0.007450556    5.036    0.801
        29 -13.2735    247.3304    152.2066   7.9267071725e+01   2.8026905609e+00      3.33809     1.309133 -37.68   0.01407041    2.426    0.588
        30 -13.5141    227.9533     40.1105   5.5167701699e+01   2.3390299616e+01     3.200746     1.486719 -43.84   0.01405377    1.982    0.495
        31 -13.1870    225.0146     13.6284   4.8772843873e+01   2.7183332516e+01      2.38237    0.9497957 -63.27  0.006616054    3.504    0.715
        32 -14.0882    248.5782    102.6253   6.7899999683e+01   9.9660572790e+00     10.48866    0.1291544 -34.18   0.01844777   11.797    0.915
        33 -11.5458    249.5811     75.5606   6.1336909981e+01   1.3734081862e+01    0.6141631    0.3068643 -38.57   0.00115435    1.735    0.424
        34 -12.4124    232.8325      4.9575   4.5999273906e+01   2.6262753461e+01     1.269357    0.5660429 -64.45   0.00554211    2.533    0.605
        35 -12.9903    245.3701     20.1816   4.8580153017e+01   2.1808498824e+01     1.426005    0.6371608 -26.43  0.006530581    2.266    0.559
        36 -13.1175    245.4480      6.0718   4.5315831323e+01   2.3311873996e+01     1.273788    0.9595895 -44.66  0.007678588    1.190    0.160
        37 -10.7247    209.6013    222.4744   9.9215718245e+01  -6.4463635677e-01    0.6075969     0.298758 -42.44  0.003149899    2.537    0.606
        38 -10.3285    218.1303    246.4981   1.0142304694e+02  -4.8155125425e+00    0.3042448    0.2235535   0.03  0.001456333    1.327    0.246
        39 -12.2281    213.9769    236.2078   1.0059800909e+02  -3.0219189547e+00     0.953055    0.7406933 -31.98   0.00659226    1.567    0.362
        40  -9.5717    115.4573    249.6101   1.1990264016e+02   1.0091121983e+01    0.2152135     0.166813  56.13  0.000688987    1.096    0.087
        41 -10.0194    101.2401    246.9357   1.2216022311e+02   1.2519496164e+01    0.2752223    0.2487764 -65.32  0.001648683    1.420    0.296
        42  -9.8589    125.9129    249.6061   1.1804970041e+02   8.5742680081e+00    0.3092052    0.1814829  59.71  0.001217027    1.781    0.438
        43 -10.9662    219.6891    207.6441   9.4918627145e+01  -3.0410048966e-01    0.5244254    0.2940727 -11.48  0.002584602    2.343    0.573
        44  -8.8579    185.3636    209.8014   1.0162636641e+02   5.0886856232e+00    0.1740881     0.164545 -64.81 0.0009589182    1.392    0.282
        45  -9.8171    150.1268    205.9225   1.0791105959e+02   1.1717622079e+01    0.4556464    0.2044597 -52.21  0.002066562    2.666    0.625
        46  -9.5259    145.2851    201.5091   1.0821887717e+02   1.3307393358e+01    0.3354954    0.2281011  70.33 0.0004802117    2.022    0.505
        47  -9.9784     26.1380    207.7928   1.3269191792e+02   2.8760832913e+01    0.2275505    0.1725901 -53.99 0.0009949872    1.811    0.448
        48  -8.3999    174.4701    207.0571   1.0327550555e+02   7.3661540134e+00    0.1780472    0.1276657 -38.37 0.0009622029    1.585    0.369
        49  -8.3839     98.6317    205.7550   1.1834270862e+02   2.0044264718e+01    0.1597985    0.1114701 -80.89 0.0005036496    1.577    0.366
        50  -9.8879    123.8528    203.6689   1.1291917459e+02   1.6497737141e+01    0.3380652    0.1826109 -57.95  0.001159198    2.110    0.526
        51 -11.8532     45.1254    190.3278   1.2769722553e+02   3.0205775111e+01    0.4223373    0.3430514 -35.04  0.002804954    1.878    0.467
        52 -12.5613     54.5069    193.3241   1.2604783549e+02   2.8494386958e+01     0.655174    0.4437321  48.27  0.004168876    1.352    0.260
        53  -9.9951    129.7241    189.4602   1.0960968761e+02   1.8185408471e+01    0.2716406    0.2256462  75.31  0.000661239    1.304    0.233
        54  -8.9489    206.9028    189.7628   9.4027236839e+01   4.3867326678e+00    0.2160012     0.197659 -37.66 0.0009286847    1.332    0.249
        55  -8.9305    192.0906    185.9426   9.6147888482e+01   7.6257958527e+00    0.2639622    0.1734856 -54.42  0.000860906    2.086    0.521
        56 -10.6833     61.1700    185.8541   1.2391341389e+02   2.9219391370e+01    0.2298812    0.2009252 -81.84 0.0004463415    1.171    0.146
        57  -8.9517    124.9932    183.5318   1.0970188215e+02   2.0147113353e+01    0.2518261    0.1890436 -82.99   0.00105553    1.614    0.381
        58  -8.5301    186.1837    183.1646   9.6790837792e+01   9.1587697126e+00    0.1780978    0.1598406  61.70 0.0006929861    1.344    0.256
        59  -8.9039     11.8688    182.7401   1.3382752312e+02   3.5105858569e+01    0.2347138    0.1023653  73.31  0.001241099    2.202    0.546
        60  -9.5715    205.1894    181.0049   9.2684102045e+01   6.0360991340e+00    0.2910198    0.1912144  29.39 0.0009089397    1.445    0.308
        61  -9.2196    230.0502    176.8417   8.7306740463e+01   2.2520068734e+00    0.2159058    0.1753888 -19.21 0.0007160836    1.176    0.150
        62 -10.0489     69.9458    170.6112   1.2021180331e+02   3.1346899503e+01    0.4849229    0.2459914 -77.87   0.00226528    2.193    0.544
        63 -10.2923     43.2507    173.0778   1.2648805131e+02   3.4059668560e+01    0.2932945    0.2190537  42.99  0.001199548    1.399    0.285
        64 -11.3710    229.5332    167.9800   8.5605274618e+01   3.6424870218e+00    0.4428458    0.3399487  -5.47  0.000635759    1.234    0.190
        65 -11.9193    221.1707    165.7782   8.6648753032e+01   5.4889523876e+00     0.666115    0.5614462 -52.29  0.001494256    1.547    0.353
        66 -10.0918    163.5366    167.0107   9.8360112048e+01   1.6300215287e+01    0.4627855    0.3027275  68.09  0.001371179    2.345    0.574
        67  -8.2654    106.6103    168.8660   1.1149007708e+02   2.6252783477e+01    0.1791735    0.1252863 -75.77 0.0003956037    1.602    0.376
        68  -8.7043     50.9391    168.5170   1.2429581679e+02   3.4182566215e+01    0.1735308    0.1158709  39.65  0.001020357    1.554    0.357
        69  -8.6782    110.6961    167.0144   1.1023988411e+02   2.5968359898e+01    0.1876665    0.1692705 -76.35 0.0003586092    1.112    0.100
        70  -9.2464    150.3641    165.7970   1.0099323999e+02   1.9059724770e+01    0.1952903     0.131996 -36.18 0.0005551482    1.653    0.395
        71 -10.4467    190.5065    163.9709   9.2137640282e+01   1.1605360656e+01    0.2512233    0.2385205 -20.54 0.0003783488    1.121    0.108
        72  -8.7889     87.9756    169.8712   1.1595888752e+02   2.8959813594e+01    0.1845067    0.1800197 -42.92 0.0005097892    1.239    0.193
        73  -8.7636    101.0172    156.4475   1.1075049173e+02   2.9867954628e+01     0.212489     0.178787 -65.64 0.0005643794    1.173    0.147
        74 -13.2360    236.7415    103.0457   6.9749863824e+01   1.2320570174e+01     4.186763    0.6402622 -34.61   0.01067785    5.354    0.813
        75  -9.5629     49.6904    149.2344   1.2229769032e+02   3.8654925469e+01    0.2967872    0.1892789 -88.46 0.0008649278    1.547    0.354
        76  -8.5198    137.4967    144.4983   9.9633140192e+01   2.5892159239e+01    0.1449916    0.1420333  54.46 0.0008106861    1.003    0.003
        77  -8.2405     24.5659    139.5160   1.2738656158e+02   4.3407377813e+01    0.1218355   0.09792947 -80.86 0.0001304001    1.034    0.033
        78 -11.1077    207.7705    131.2435   8.1482046618e+01   1.3791083705e+01    0.7037062    0.3927725 -40.89  0.003099057    1.779    0.438
        79  -8.7315    140.1649    133.5497   9.6578506963e+01   2.7676406048e+01    0.2473731     0.178874 -40.66 0.0008543204    1.413    0.293
        80  -9.5081    192.6204    131.7557   8.4543442471e+01   1.6914469224e+01    0.2467123    0.2199443  20.76 0.0002663285    1.109    0.098
        81  -8.7102     25.0318    130.6874   1.2626767899e+02   4.5392047180e+01    0.1639567    0.1429691  81.57 0.0006234159    1.127    0.113
        82 -10.2056    154.3801    128.4068   9.2006976181e+01   2.5790631108e+01    0.5696225    0.2273167 -37.03  0.001916292    2.838    0.648
        83  -8.9447    228.8266    127.6409   7.6872268496e+01   1.0054456695e+01    0.2360439    0.1789626 -18.62 0.0006191342    1.268    0.211
        84  -9.7626     74.6330    125.5300   1.1199286339e+02   4.1001765067e+01    0.3818787    0.2190617 -58.17  0.001003226    1.590    0.371
        85  -9.0141    171.7253    126.0819   8.7540311620e+01   2.2507866402e+01    0.2252467    0.2041411 -55.85 0.0006155979    1.192    0.161
        86 -11.0107    227.5479    119.0996   7.5077506492e+01   1.1688319815e+01    0.5481088    0.2923493 -47.15  0.002336358    2.105    0.525
        87  -9.1205    132.1672    122.8306   9.6030341870e+01   3.1589446079e+01    0.2285053     0.205295  87.56 0.0006485354    1.239    0.193
        88  -9.0323     98.2754    122.6871   1.0489844282e+02   3.7973349220e+01    0.3118363    0.2271667  77.04  0.001482741    1.778    0.437
        89  -9.5025    119.6792    121.5874   9.8930781461e+01   3.4331860252e+01    0.4382413    0.1892068 -48.33   0.00138606    2.268    0.559
        90  -8.9355      4.3522    134.6749   1.3190780924e+02   4.6066063431e+01     0.184291    0.1050267  68.98  0.001086233    1.720    0.419
        91  -8.6875     82.2072    121.1801   1.0902002984e+02   4.0907867463e+01    0.1929919    0.1578204  87.88 0.0004771559    1.333    0.250
        92  -9.4377    215.3270    101.4945   7.2824356435e+01   1.7193553825e+01    0.3263209    0.1952623 -54.35   0.00118037    2.084    0.520
        93  -9.3444    218.3824    112.7013   7.5092600775e+01   1.4668475472e+01    0.3819694    0.1863604 -31.05  0.001167762    1.995    0.499
        94  -9.6420    217.5264    107.0511   7.3843255195e+01   1.5789633176e+01    0.4641922    0.1829292 -41.29  0.001661932    2.448    0.592
        95  -9.8706    192.8764    111.6324   7.9526727840e+01   2.0495861967e+01    0.3190265    0.2686936  87.08 0.0007716086    1.511    0.338
        96  -9.5569    136.0922    108.5743   9.1443966007e+01   3.3812440944e+01     0.378994    0.2688274  75.56  0.001107458    2.050    0.512
        97 -12.2391    183.9847    104.6036   7.9472687764e+01   2.3801598448e+01     0.554906    0.4494524 -67.38 0.0005270525    1.505    0.336
        98 -10.3158    174.8614    107.1670   8.2045932787e+01   2.5429253592e+01     0.271093    0.2415835 -27.76 0.0002789279    1.106    0.096
        99 -10.5547     46.9801    103.1415   1.1577493129e+02   4.9724594470e+01    0.3724283    0.2384906 -59.38  0.000638211    1.325    0.245
       100  -8.0660    202.2609    107.3268   7.6635375167e+01   1.9137019663e+01    0.1492783    0.1142783   2.72 0.0003584448    1.561    0.360
       101  -8.5202     73.4222    102.4537   1.0749082587e+02   4.6559675000e+01    0.2584212     0.117547  46.96  0.001034738    2.606    0.616
       102 -10.0215    227.2942     98.7594   7.0170867080e+01   1.5004135984e+01    0.4178681    0.2195198 -43.28  0.001162427    1.863    0.463
       103 -10.1213    132.0977     99.0704   8.9891947309e+01   3.6651239532e+01    0.3703676    0.2874055 -76.91  0.001040951    1.703    0.413
       104  -8.6881    210.1291     93.8440   7.1751478527e+01   1.9632204718e+01    0.3086717    0.2285515  36.04 0.0003860408    1.475    0.322
       105 -10.2359    214.1852     92.8852   7.0816951321e+01   1.8863857946e+01    0.4986696     0.262355 -44.92  0.001523087    1.925    0.480
       106 -10.2623    213.4932     87.9795   6.9659669229e+01   1.9817488853e+01     0.505138    0.2933697 -42.40   0.00202944    1.662    0.398
       107 -10.2533    149.3369     93.5908   8.4062374648e+01   3.3924725698e+01    0.4328341    0.2684215 -35.52 0.0006687257    1.622    0.384
       108  -8.8746    115.3611     94.1454   9.2996380215e+01   4.1162069704e+01    0.2570409    0.2130017  25.02  0.001298738    1.317    0.241
       109  -8.2256    180.6664     93.3005   7.7093682250e+01   2.6625589603e+01    0.1555764    0.1216878 -74.67 0.0005079581    1.654    0.395
       110  -9.1845     15.8781     92.8118   1.2373296894e+02   5.4850682042e+01    0.1924676    0.1360117 -49.92  0.001009422    1.291    0.225
       111  -8.5233    157.6223     92.2439   8.1746260821e+01   3.2265785957e+01    0.2185345    0.1467016 -27.88 0.0007367044    1.596    0.374
       112  -8.8104    191.7000     90.1123   7.4068852408e+01   2.4565782662e+01    0.2639461    0.2163149  69.75  0.001313506    1.374    0.272
       113  -9.0840    200.5920     86.1234   7.1366961958e+01   2.3132330241e+01    0.2708323    0.1980165 -51.25  0.001117487    1.448    0.310
       114 -11.1121    196.4697     82.1631   7.1021325951e+01   2.4770014959e+01    0.5562872     0.290087 -42.26 0.0008539403    1.879    0.468
       115 -10.2763    147.2276     80.4103   8.0689611938e+01   3.6929981595e+01    0.4324949    0.3244208 -24.91  0.001385441    1.409    0.290
       116  -8.5255    119.3158     82.3351   8.8437025099e+01   4.2793151338e+01    0.2322508    0.2031864 -10.24 0.0005810622    1.209    0.173
       117  -9.1308    122.2319     80.4007   8.7047045698e+01   4.2560191672e+01    0.2567741     0.220784 -37.82 0.0004628575    1.132    0.116
       118 -10.3014    215.7913     75.7025   6.6074832307e+01   2.1222229688e+01    0.7513496    0.5230575 -39.22  0.003712818    1.346    0.257
       119 -11.9363    206.6933     68.7416   6.5629626156e+01   2.4448442909e+01    0.5650813    0.4517558 -59.32  0.001360745    1.329    0.247
       120  -9.1700    164.1395     78.4210   7.6275623439e+01   3.3250393641e+01    0.3991791    0.2632707 -88.40  0.001510856    2.630    0.620
       121  -8.8299     16.9089     79.1043   1.2102829078e+02   5.7901032152e+01     0.180293    0.1447309 -80.24 0.0005277547    1.231    0.187
       122  -8.6037    179.0714     77.7142   7.3014983355e+01   2.9732857366e+01    0.2077046    0.1904986  54.16 0.0003953583    1.111    0.100
       123  -9.3715    225.1721     74.2198   6.4289610003e+01   1.9281303012e+01    0.3140167     0.181719 -37.91 0.0009226725    1.578    0.366
       124  -9.8644    174.1480     72.6063   7.2491710951e+01   3.1801572017e+01    0.4920605    0.3035376 -17.54  0.002011831    2.020    0.505
       125 -10.8340    183.3639     71.3515   7.0359447174e+01   2.9735771911e+01    0.4529688    0.3700292 -37.69 0.0009149597    1.198    0.166
       126 -10.2313    185.4592     62.4355   6.7387991302e+01   3.0628743073e+01    0.3849646    0.2706183 -22.95 0.0005923478    1.510    0.338
       127 -10.2517    165.6835     69.6835   7.3327534539e+01   3.4377579333e+01    0.7333523    0.2493093 -33.70  0.002171342    2.932    0.659
       128  -9.3807    151.0617     71.7667   7.7143829759e+01   3.7583524669e+01    0.2770562    0.2460999 -53.80  0.000599053    1.194    0.162
       129 -11.7547    227.6614     65.3397   6.1663128800e+01   2.0019992361e+01    0.8406576    0.4706106 -40.66  0.003390072    1.635    0.388
       130  -9.6492    142.3352     68.3960   7.8117754933e+01   4.0258705633e+01    0.3213837    0.2686928 -72.43  0.001104946    1.456    0.313
       131 -11.5258    227.6089     56.7517   5.9468069348e+01   2.1250280522e+01    0.6696945    0.4123413 -62.90  0.001739698    1.939    0.484
       132 -10.7490     47.4872     62.9924   1.0593153099e+02   5.8704233697e+01    0.3167185    0.2495417 -61.62 0.0005995863    1.323    0.244
       133 -10.5645     49.9423     56.4618   1.0297191442e+02   5.9770505448e+01    0.4650944    0.3304157 -12.45  0.001912948    1.591    0.371
       134  -8.9091      8.9284     62.6829   1.2068446417e+02   6.2037794181e+01    0.1534286    0.1362941 -49.02 0.0004772936    1.150    0.131
       135  -9.0006    161.8645     61.3804   7.1557123304e+01   3.6686004849e+01    0.3060279    0.2030335  -9.21  0.001131876    1.970    0.492
       136  -8.9235    122.0596     62.0720   8.1166573298e+01   4.6039865207e+01    0.2318586    0.1846893 -71.53 0.0007232337    1.671    0.402
       137 -10.1462    171.1890     59.1632   6.9024026222e+01   3.4706631839e+01     0.524426    0.3067798 -61.32 0.0008424683    2.454    0.593
       138 -10.8854    167.3777     49.9357   6.6882533227e+01   3.7055087960e+01    0.5732277    0.2684264 -27.37 0.0006705024    2.261    0.558
       139  -9.9789     18.0123     59.1288   1.1633142007e+02   6.2235384978e+01    0.4472589    0.2542115  86.27  0.002002611    3.366    0.703
       140  -9.7679    197.8150     58.3559   6.4153032230e+01   2.8173610507e+01    0.4213374    0.2375744 -32.51  0.001260446    1.718    0.418
       141  -8.6130    135.1337     59.5406   7.6962399267e+01   4.3481992086e+01    0.4178651    0.1398508 -44.58  0.001281296    3.430    0.708
       142  -8.6735     24.4064     60.2694   1.1409243449e+02   6.1515402851e+01    0.1667106    0.1043861 -67.14 0.0004721617    1.563    0.360
       143 -12.3451    107.7906     57.0872   8.3429025535e+01   4.9998722809e+01    0.3140295    0.2899737 -11.50 0.0003660604    1.021    0.020
       144  -9.0959     78.5917     57.8147   9.2956362776e+01   5.5370129381e+01    0.2870857    0.2349797  70.14  0.001537388    1.746    0.427
       145 -12.2473    177.6621     52.8472   6.5910878422e+01   3.4029024091e+01    0.4346678    0.3342232 -55.93 0.0005246698    1.404    0.288
       146 -11.4258    249.4191     66.4967   5.9187576866e+01   1.5046361587e+01    0.5626076    0.4944328 -50.57   0.00074564    1.071    0.067
       147 -10.4987    121.1551     49.3808   7.6983286759e+01   4.8380372120e+01    0.4952253    0.3275931  70.28  0.002172321    2.070    0.517
       148  -9.2053     73.2503     50.4033   9.2171822420e+01   5.7645948239e+01    0.2413902    0.1712495 -37.92 0.0004258052    1.292    0.226
       149  -9.5997    202.2527     45.5744   5.9891650406e+01   2.8876721463e+01    0.5808063    0.2996066 -71.85  0.001992853    3.481    0.713
       150  -9.8592    200.3581     35.3413   5.7280320756e+01   3.0679408929e+01    0.2454803    0.2363669  35.61 0.0004775303    1.129    0.114
       151 -10.5042    188.7723     44.8345   6.1677681271e+01   3.2351714390e+01    0.3541874    0.2515973 -47.67 0.0003535397    1.426    0.299
       152  -9.9947    188.8053     38.6501   5.9856133754e+01   3.3164355017e+01    0.3361897    0.2730422  -5.86 0.0006871176    1.416    0.294
       153 -11.0687    194.2931     37.4539   5.8712956682e+01   3.1932566715e+01    0.6838502    0.3627425 -49.14  0.001814079    2.001    0.500
       154 -10.1719    234.4353    245.9561   9.8609889496e+01  -7.0618927728e+00    0.3211371    0.2494345 -29.22  0.002045238    1.639    0.390
       155  -9.8559    161.0140    246.0078   1.1136185860e+02   3.8131477248e+00    0.1815764    0.1272885  15.27 0.0009826362    1.699    0.412
       156 -10.3520    194.4140     30.2187   5.6615731639e+01   3.2799617012e+01    0.3968247    0.2279163 -49.72  0.001166144    1.812    0.448
       157 -10.4177    195.6673     26.3475   5.5344787006e+01   3.2941982999e+01    0.3844157     0.271307 -54.84  0.001190385    1.448    0.309
       158 -12.1930    146.5946     39.9084   6.7688844800e+01   4.3701646787e+01    0.6674606    0.4320275 -69.22   0.00119311    2.321    0.569
       159 -11.4887     73.2367     42.5988   8.9216691135e+01   5.9044508229e+01    0.2894057    0.2623345 -18.16 0.0004968045    1.087    0.080
       160  -8.9829    163.5196     42.5783   6.5261630350e+01   3.9074764731e+01    0.2712523    0.1983577  -1.13  0.000719015    1.668    0.401
       161 -11.0898    214.3519     41.7309   5.7220427703e+01   2.6419544280e+01    0.4856718    0.4186885 -36.01  0.002276954    1.134    0.118
       162 -10.2724    215.4506     33.9726   5.5016963580e+01   2.7136271990e+01    0.3606613    0.2979706  35.82 0.0009818692    1.413    0.292
       163  -9.6617    108.9518    244.4213   1.2054890281e+02   1.1824189026e+01    0.3244388    0.1635629 -68.26  0.001819198    2.579    0.612
       164 -10.5976    208.4832     27.0055   5.3964132564e+01   2.9675154842e+01    0.2996299    0.2511563 -20.10 0.0005835147    1.298    0.230
       165 -11.0598     96.3101     39.2676   8.0218270190e+01   5.5318679058e+01    0.2912461    0.2641132   6.75 0.0003353556    1.017    0.017
       166  -9.4897     89.6428     38.2449   8.1901993939e+01   5.6799595571e+01    0.2536962    0.2205456 -72.15 0.0007566607    1.613    0.380
       167 -11.6831    180.6705     35.2281   6.0065250434e+01   3.5670343110e+01    0.5923194    0.4603772  13.83  0.002804149    1.561    0.359
       168 -10.4886    173.0759     36.0514   6.1526770328e+01   3.7505169591e+01     0.410904    0.3883949  47.61  0.001348701    1.059    0.056
       169 -10.3143    163.4804     36.8565   6.3424348448e+01   3.9850663138e+01    0.4941932    0.3171977  89.56  0.001858629    2.095    0.523
       170  -9.6124    118.1628     29.6232   7.0390125129e+01   5.1926245981e+01    0.2548056    0.2436726  12.44 0.0004884478    1.059    0.056
       171 -10.1093    116.5351     24.7795   6.8906135820e+01   5.2910702756e+01     0.262527     0.237243  -4.88 0.0003244584    1.098    0.089
       172  -9.0390    109.8083     30.0814   7.2713594443e+01   5.3764288683e+01    0.2100448    0.1895925 -54.18 0.0007448731    1.324    0.245
       173  -9.0914    103.7616     28.2992   7.3644408405e+01   5.5330559663e+01    0.2199989    0.2120099  84.82 0.0007672068    1.268    0.211
       174  -9.1884    171.0654     27.8912   5.9292002856e+01   3.9024382926e+01    0.2298944    0.1867227 -65.92  0.001216308    1.330    0.248
       175  -8.8107    163.9038     27.6862   6.0382226598e+01   4.0881716100e+01    0.2025296    0.1772758  69.46 0.0004789966    1.110    0.099
       176  -9.8661    176.7661     25.2144   5.7594563021e+01   3.7876357174e+01    0.2695739    0.2199832 -34.74 0.0006973202    1.256    0.204
       177  -9.7547    127.5844     23.7013   6.5931242035e+01   5.0428806759e+01    0.2771297    0.2464928  40.63 0.0008092696    1.045    0.043
       178 -10.4580    183.8953     21.3647   5.5430808574e+01   3.6489008147e+01    0.2717856    0.2440195  -4.10 0.0003262902    1.245    0.197
       179 -10.3696     73.5312     21.3980   8.0146650467e+01   6.2279232884e+01    0.3304557    0.2924499  89.26  0.001061049    1.770    0.435
       180 -10.8417    176.2752    240.3831   1.0788539494e+02   2.2228736169e+00    0.3576668    0.3149239 -59.56  0.000973975    1.565    0.361
       181 -10.9883    122.5486    241.0105   1.1773996682e+02   1.0373058824e+01    0.3236257    0.2504669  29.96  0.001842905    1.368    0.269
       182  -8.9247    187.6556    247.3027   1.0680229681e+02  -4.0778680125e-01    0.1098128   0.08100893  55.37 0.0003726484    1.684    0.406
       183  -8.6263     51.4814    235.4850   1.2997748299e+02   2.0879643156e+01    0.1093481   0.08119219  65.04 6.651026e-05    1.000    0.000
       184  -9.7709     79.8593    242.8843   1.2557528479e+02   1.6076930413e+01    0.2657663     0.144588 -81.05   0.00134469    2.152    0.535
       185 -10.2007    151.7933     19.9459   5.9857620256e+01   4.4844512378e+01      0.25642    0.1980555  63.12 0.0007787375    1.224    0.183
       186 -10.4178    123.4464     19.2271   6.5138064490e+01   5.1929739349e+01    0.2994278    0.2417802 -35.59 0.0006616256    1.339    0.253
       187  -9.6403     23.5876     18.3610   1.0015374091e+02   6.9725649681e+01    0.2332998     0.166752 -19.35   0.00101161    1.180    0.152
       188  -9.3549     59.4448     17.0706   8.3376845039e+01   6.5276290280e+01    0.2326728    0.1736579  26.50 0.0005780791    1.287    0.223
       189 -10.5416    100.3282    230.9347   1.2077764810e+02   1.5265997468e+01    0.4798645     0.220995 -73.43  0.002338026    3.060    0.673
       190  -9.6033     22.9966    231.0029   1.3456540493e+02   2.4796774227e+01    0.1834075   0.08515867  64.42  0.001149711    1.739    0.425
       191  -8.6006     17.6483    227.7149   1.3529431250e+02   2.5916135423e+01   0.08459832   0.07752512 -63.08 0.0007020381    1.661    0.398
       192 -10.4222    149.9347    220.1011   1.1000657167e+02   9.4048546914e+00    0.4326917    0.3225429 -87.43  0.002370303    1.974    0.493
       193  -9.1584    181.1546    222.4033   1.0440661972e+02   3.9387207401e+00    0.2093269    0.1866146 -47.12  0.001107505    1.422    0.297
       194  -8.6099    219.1390    221.8652   9.7425926350e+01  -2.0559515785e+00    0.1693035    0.1480409  24.84 0.0006141479    1.238    0.192
       195  -9.3702    177.0300    218.8810   1.0464471661e+02   5.1294233531e+00     0.206446     0.174525 -34.18 0.0006143498    1.379    0.275
       196  -9.9550    119.8398    217.9853   1.1559139001e+02   1.4576089475e+01    0.2568733    0.1955011  79.43 0.0005789247    1.484    0.326
       197 -12.1611     36.1090    214.7023   1.3131320089e+02   2.6395619229e+01     0.652895    0.4465195  69.55  0.002406254    1.144    0.126
       198 -10.3850     61.5273    215.7991   1.2666530998e+02   2.3222178166e+01    0.3512467    0.1774106  88.79   0.00186886    2.282    0.562
       199  -9.6564     11.3266    216.5822   1.3581943660e+02   2.8545298799e+01    0.2487173    0.1660593  43.99  0.001410846    1.486    0.327
       200  -9.9170    221.8334    214.2124   9.5671652765e+01  -1.5056465238e+00    0.3792077    0.2518797   9.25  0.002243144    1.512    0.338
       201  -9.1120    234.2721    211.7717   9.3084493059e+01  -3.1312044615e+00    0.3376427    0.3001849 -85.70  0.001737909    2.178    0.541
       202 -10.9167    228.8929    211.1695   9.3910325528e+01  -2.2235527168e+00    0.4253162    0.2599674 -24.38  0.002486431    1.672    0.402
       203 -10.8914    229.0857    204.3338   9.2671380361e+01  -1.3742853846e+00    0.3874229    0.2330844 -21.72  0.001450602    1.704    0.413
       204 -11.3179    232.5301    195.9443   9.0541935333e+01  -8.1964882294e-01    0.8021392    0.3288199 -32.93  0.003707951    2.473    0.596
