#   1 NUMBER                 Running object number                                     
#   2 MAG_AUTO               Kron-like elliptical aperture magnitude                    [mag]
#   3 X_IMAGE                Object position along x                                    [pixel]
#   4 Y_IMAGE                Object position along y                                    [pixel]
#   5 X_WORLD                Barycenter position along world x axis                     [deg]
#   6 Y_WORLD                Barycenter position along world y axis                     [deg]
#   7 A_WORLD                Profile RMS along major axis (world units)                 [deg]
#   8 B_WORLD                Profile RMS along minor axis (world units)                 [deg]
#   9 THETA_WORLD            Position angle (CCW/world-x)                               [deg]
#  10 FWHM_WORLD             FWHM assuming a gaussian core                              [deg]
#  11 ELONGATION             A_IMAGE/B_IMAGE                                           
#  12 ELLIPTICITY            1 - B_IMAGE/A_IMAGE                                       
         1 -10.4364     84.4396     47.2097   7.1564034606e+01   5.6546196510e+01      1.10756    0.5920271 -47.10   0.00488927    2.239    0.553
         2 -10.3524     39.0429      7.1147   7.2307515901e+01   6.9742945856e+01     1.031078    0.4175587 -18.09  0.004194374    3.664    0.727
         3 -10.5106     39.6748     29.5071   8.2458888178e+01   6.6510941626e+01    0.5954292    0.3542296 -43.92  0.002680661    1.752    0.429
         4 -11.9099     45.2419     22.6809   7.6908054456e+01   6.6808750361e+01     1.049957    0.8507442 -51.51  0.006099254    1.827    0.453
         5 -11.8710    128.9674     15.3633   4.7856376572e+01   5.0779412764e+01      1.87913    0.9397129  61.57  0.008751282    1.735    0.424
         6 -12.2103    131.2811      3.7920   4.3517974729e+01   5.1271306758e+01     2.902763    0.4265621  66.13  0.007726303    5.617    0.822
         7 -10.7033    120.7847      4.3036   4.5579534686e+01   5.3745477289e+01    0.7227172    0.4372038  68.47  0.003172162    1.516    0.341
         8 -11.0353    108.6962      4.9939   4.8290800488e+01   5.6515933887e+01    0.8928061     0.432431  65.50  0.004183752    1.951    0.487
         9 -12.8002    171.3203      6.5795   3.8645439843e+01   4.1200109198e+01     1.997733    0.7601617  71.18  0.008415625    2.296    0.564
        10 -10.9763     78.0839     15.7786   6.0966170893e+01   6.2078873462e+01     1.314311     0.495347 -20.11  0.005142222    3.412    0.707
        11 -11.1420     84.0228      3.6214   5.3859471568e+01   6.2062732226e+01     0.994593     0.368059  57.81   0.00427489    2.487    0.598
        12  -9.7349     71.3726      5.6357   5.8638967435e+01   6.4426610168e+01    0.4847193    0.3023353  49.51  0.001933958    1.472    0.321
        13  -9.8668    116.8543     18.7359   5.1579893782e+01   5.3324852628e+01    0.5722358      0.29257 -30.82  0.002694488    2.127    0.530
        14  -8.3851     10.9913     23.0049   9.4400448419e+01   7.0456859292e+01    0.2134118    0.1675474  65.98   0.00130986    2.616    0.618
        15  -9.2923     94.0840     17.2053   5.6715327054e+01   5.8622642536e+01    0.4532029    0.2730277  75.36  0.002035994    2.618    0.618
        16  -9.5948    247.5036     16.1502   3.3738876223e+01   2.2680850263e+01    0.2789693     0.162157 -54.41  0.001647699    1.427    0.299
        17  -8.9161     20.5758     13.7646   8.5104139717e+01   7.1102923540e+01    0.5062512    0.2064185 -26.35  0.002356021    2.722    0.633
        18  -9.6735    104.6213     11.2737   5.1627906779e+01   5.6887769208e+01    0.3141018    0.2346832  69.21  0.001794337    1.409    0.290
        19  -9.8101    250.1601      8.4528   3.2017430074e+01   2.3008977250e+01    0.5703167    0.1028558 -41.37  0.002278797    3.455    0.711
        20  -8.0220     52.4788      1.9675   6.3777023028e+01   6.8207834625e+01    0.2757054    0.1520212  43.26    0.0015645    1.638    0.390
        21  -9.4452     60.8223      9.4761   6.4195815248e+01   6.5990603745e+01    0.3390308    0.2636462 -88.72  0.001822248    2.787    0.641
        22  -9.6241     60.5329      2.3729   6.0876021117e+01   6.6760810178e+01    0.5296068    0.2871611  40.88   0.00295887    1.555    0.357
        23 -10.0568    203.9752      3.9281   3.4597147383e+01   3.3617637139e+01    0.3397419    0.1894896  82.34  0.001812008    1.603    0.376
        24  -9.5213    229.2417      7.9005   3.3400824003e+01   2.7490452070e+01    0.3238266    0.1324008 -83.24  0.001351732    3.019    0.669
        25  -8.8458     17.1837      1.8673   8.1036868114e+01   7.3121020685e+01    0.1881215     0.141473 -22.24 0.0008431255    1.242    0.195
        26  -9.3237     95.5165      2.9552   5.0542668226e+01   5.9652910075e+01    0.3657922    0.2917319 -34.43  0.002282666    1.494    0.331
        27 -12.3933    155.6006     20.9525   4.4969647510e+01   4.3642365548e+01     1.421713    0.8130669  51.94  0.005356694    1.628    0.386
        28 -13.3624    168.8805     16.7691   4.1792765026e+01   4.0786579178e+01     2.836404     1.378507  82.51   0.01059319    2.314    0.568
        29  -7.8916      1.5521      1.7228   9.0546184633e+01   7.4538234621e+01    0.1372161   0.09216363 -44.60 0.0007496643    1.609    0.378
        30  -9.3048    199.6395     56.3005   4.8057316818e+01   2.8163068366e+01     0.299991    0.2017373 -50.16 0.0007575151    1.436    0.304
        31  -8.8981     66.4072     54.3651   8.0776399542e+01   5.8455292341e+01    0.3772247     0.124956 -43.95  0.001387891    2.927    0.658
        32  -8.0098     23.5242     52.5165   9.8330538822e+01   6.3971085457e+01    0.1245649    0.1023395 -34.03 4.663208e-05    1.027    0.026
        33 -10.6453    173.5871    242.6421   9.3566312463e+01  -4.6226245738e-01    0.4543643    0.1752424  30.38  0.001894877    2.571    0.611
        34  -8.1684     35.1235     52.8872   9.3259808957e+01   6.2826061002e+01     0.180951    0.1718351 -36.61  0.001222755    1.249    0.200
        35  -9.7160     91.7636     43.7245   6.7823498671e+01   5.5658500204e+01    0.3606931     0.252311 -39.38   0.00187207    1.534    0.348
        36 -10.2979      2.8805     40.6144   1.0459314589e+02   6.7701831388e+01    0.4845737    0.3833276 -66.26  0.002326028    1.418    0.295
        37  -8.8443      5.1956     35.0028   1.0174552747e+02   6.8662913039e+01    0.2465949    0.2103337 -74.17  0.001760351    1.566    0.361
        38  -8.5537    111.4721     42.4935   6.1526280012e+01   5.1615959523e+01    0.1429883    0.1299707  30.62 3.948392e-05    1.018    0.017
        39  -9.9639     52.1747     39.0723   8.0786933613e+01   6.3273706151e+01    0.5341761    0.4407176 -35.53   0.00334453    1.271    0.213
        40  -9.6152     47.4679     33.8354   8.0717201624e+01   6.4792171042e+01    0.3216303    0.2413648  27.74  0.001742504    1.345    0.256
        41  -8.8847    159.5040    239.4867   9.5952566189e+01   2.2484781347e+00    0.1295775    0.1073353  29.81 0.0008105117    1.010    0.010
        42  -9.9919    202.4533    224.5023   8.4973194102e+01  -2.1714887123e+00    0.3767617    0.1680368 -48.06  0.001651766    2.991    0.666
        43  -8.8750     40.4718     38.5413   8.5743885692e+01   6.4901618951e+01    0.4745515    0.1529107  33.08  0.001946945    3.162    0.684
        44  -8.4324     96.4881     36.3094   6.3537855901e+01   5.5764931677e+01    0.2334454     0.175053  72.37  0.001189499    1.816    0.449
        45  -9.2480     11.9451     34.0092   9.7955110257e+01   6.8426124206e+01    0.4239791    0.1777031 -43.63  0.001859596    1.837    0.456
        46  -9.8710    210.8558    224.4449   8.3335303888e+01  -3.4537822696e+00    0.2564978    0.1520939 -18.87  0.001336261    1.901    0.474
        47  -8.4602     28.9154     35.0000   8.9819840571e+01   6.6803486276e+01    0.1843953   0.06526849  26.31 0.0008021333    2.940    0.660
        48 -10.0631     86.0960     31.9071   6.5075979679e+01   5.8506579440e+01    0.4542281    0.2927787  22.01  0.001748118    1.692    0.409
        49 -10.0594    225.1573     28.9825   3.8384843679e+01   2.5951047465e+01    0.4662553     0.381213  58.03  0.001938978    1.410    0.291
        50 -10.9906      9.5629    143.1492   1.1926516655e+02   4.3979518935e+01    0.6483271    0.2906287  39.77  0.003273095    2.326    0.570
        51  -9.0306     40.6276    141.5469   1.1049059197e+02   4.1648336101e+01    0.3180211    0.2401284  87.42   0.00179156    1.296    0.228
        52 -12.6987    241.5935    132.2432   5.9523914964e+01   6.5328054118e+00     1.419228     1.296636  51.09  0.005752284    1.275    0.216
        53  -8.2082     60.3342    134.3257   1.0358031133e+02   4.1151579817e+01    0.1470931    0.1031016 -33.12 0.0007051336    1.715    0.417
        54 -10.5398     14.3291    125.6704   1.1603280384e+02   4.7861088193e+01    0.3717659    0.1838575 -69.58  0.001881902    1.633    0.388
        55  -8.9126     22.9435    126.0355   1.1352070977e+02   4.7119705247e+01    0.2167772    0.1319608 -42.64  0.001141153    1.741    0.426
        56  -8.3942     53.7725    142.5997   1.0688133099e+02   3.9903190772e+01    0.1970232    0.1204167  44.64 0.0009552511    1.708    0.415
        57  -8.9853     21.9028    109.9508   1.1151523618e+02   5.1118708066e+01    0.2809166    0.2256943 -89.37   0.00138269    1.255    0.203
        58  -8.2060     97.5866     27.6703   5.9878276344e+01   5.6663905411e+01    0.2529959    0.1325936 -20.56  0.001135817    2.218    0.549
        59  -8.8419    132.6129     26.6234   5.0946290048e+01   4.8686920965e+01    0.2625555    0.1986446  52.71  0.001055561    1.182    0.154
        60  -8.4856    103.3293     25.6259   5.7489695086e+01   5.5653658103e+01    0.3400388    0.1963205  39.99  0.001654121    1.614    0.380
        61  -8.8468     20.8231     23.2666   8.9207402320e+01   6.9588628574e+01    0.2583709    0.1976177  23.63    0.0017638    1.477    0.323
        62  -9.0327     17.2338    104.7936   1.1224837538e+02   5.2698578203e+01    0.3606843    0.2318368 -52.73  0.002062636    1.327    0.247
        63  -9.8776    111.2210     16.6035   5.2088117215e+01   5.4856376181e+01    0.3383625     0.190369  53.98  0.001680389    1.525    0.344
        64  -9.6627     46.7091    101.3782   1.0155125511e+02   5.0890804354e+01    0.4492626    0.2098638 -64.52  0.001907144    2.090    0.521
        65  -9.4565     30.1437    101.9228   1.0738897736e+02   5.2386654401e+01    0.3495088    0.1972174 -42.52  0.001759406    1.702    0.412
        66  -8.4754     64.6071     98.7808   9.4758520021e+01   4.9282132312e+01    0.2052434    0.1320763 -65.31 0.0009524256    1.673    0.402
        67  -9.3987      2.4374     87.1737   1.1460996536e+02   5.7695492322e+01    0.8493385    0.2033592 -72.08  0.002989718    3.804    0.737
        68  -9.4947     64.6468     16.0945   6.5829333124e+01   6.4565215108e+01    0.3067736    0.1745249  50.83  0.001594338    1.915    0.478
        69 -10.1177     25.2011     65.8498   1.0133753329e+02   6.1052849727e+01    0.6881189    0.2248249 -49.73     0.002947    2.325    0.570
        70  -9.3157     66.4259     29.8880   7.1211178443e+01   6.2455957142e+01    0.3767841    0.2007082 -18.71  0.001738444    2.249    0.555
        71 -10.8444      4.9797     76.6177   1.1188894080e+02   5.9974474854e+01     0.637185    0.4592665  46.34   0.00394182    1.774    0.436
        72 -11.4083     14.1872     73.0982   1.0757491943e+02   6.0250218507e+01    0.7742944    0.6498145  49.25  0.005051452    1.512    0.339
        73  -7.9335    101.3120     84.3142   7.8522591858e+01   4.6327987865e+01    0.1540999    0.1173426  -3.57 0.0005004585    1.636    0.389
        74  -8.7956    227.8982     79.0764   4.9600139570e+01   1.8177988728e+01    0.3533593    0.2691531  13.22   0.00179965    1.989    0.497
        75  -8.3960    135.4166     77.1088   6.6623634259e+01   4.0332193844e+01    0.2617443     0.189641  57.21  0.001211701    1.419    0.295
        76 -11.8830     42.5549     81.2767   9.8369008354e+01   5.6026590821e+01     1.046844    0.7027509  -7.67   0.00537199    1.797    0.444
        77 -10.0643     75.1343     69.0612   8.2533266609e+01   5.4219581385e+01    0.4373322    0.3546912   0.63  0.002383478    1.286    0.223
        78  -8.7631     15.0844     58.9561   1.0388384488e+02   6.3261902902e+01    0.2702628    0.1612108 -30.14   0.00154654    1.561    0.359
        79  -9.2497     45.6935     62.9248   9.1953866398e+01   5.9640936600e+01    0.5292398    0.2759587 -28.58  0.002387173    2.190    0.543
        80 -10.1068    196.1352     56.4271   4.8608105129e+01   2.8984384264e+01    0.3357577     0.264678 -71.88 0.0006573101    1.280    0.219
        81  -8.8988     69.7809     12.6118   6.2375827254e+01   6.4021134338e+01    0.2178962    0.1479702  44.65  0.001267714    1.366    0.268
