#   1 NUMBER                 Running object number                                     
#   2 MAG_AUTO               Kron-like elliptical aperture magnitude                    [mag]
#   3 X_IMAGE                Object position along x                                    [pixel]
#   4 Y_IMAGE                Object position along y                                    [pixel]
#   5 X_WORLD                Barycenter position along world x axis                     [deg]
#   6 Y_WORLD                Barycenter position along world y axis                     [deg]
#   7 A_WORLD                Profile RMS along major axis (world units)                 [deg]
#   8 B_WORLD                Profile RMS along minor axis (world units)                 [deg]
#   9 THETA_WORLD            Position angle (CCW/world-x)                               [deg]
#  10 FWHM_WORLD             FWHM assuming a gaussian core                              [deg]
#  11 ELONGATION             A_IMAGE/B_IMAGE                                           
#  12 ELLIPTICITY            1 - B_IMAGE/A_IMAGE                                       
         1 -13.8005    202.7035      4.5839   5.8082002685e+01   3.4299309431e+01     1.443233    0.6258283  62.50  0.007153603    2.021    0.505
         2 -15.2674    185.2125     29.3954   6.5999443904e+01   3.5660712988e+01     3.000977     1.931943  16.51   0.01348981    2.968    0.663
         3 -12.0688     57.8477      6.4229   8.5976123009e+01   6.5276654217e+01    0.2737405    0.2128193  40.89 0.0007847131    1.343    0.255
         4 -11.9210    126.2100    209.9658   1.2133493366e+02   1.2793564032e+01    0.2665037    0.1946024  44.38 0.0008061096    1.287    0.223
         5 -16.4684    106.6270    246.0670   1.3036383093e+02   8.7698439323e+00     6.820773     2.914133  31.80   0.02715955    3.184    0.686
         6 -13.4911     11.9671    206.2859   1.4496190436e+02   2.9906789940e+01    0.4499668     0.310787  29.19  0.002913439    1.964    0.491
         7 -10.1916    164.8955    205.3422   1.1211352956e+02   6.5707863251e+00    0.4623221    0.1847206 -57.83  0.001518825    3.718    0.731
         8 -10.5799     92.6563    206.2010   1.2816873352e+02   1.9390596136e+01    0.2906114    0.2810592  84.84   0.00064438    1.208    0.172
         9 -10.0649     94.7840    200.0026   1.2681223226e+02   2.0457647427e+01    0.4766284    0.2478576  85.29  0.001632348    3.678    0.728
        10 -12.3658    112.6463    196.3241   1.2218883115e+02   1.8249066554e+01    0.6331621    0.4302056 -10.39  0.002470453    3.266    0.694
        11 -10.2603     86.4068    203.7973   1.2921678415e+02   2.0936251372e+01    0.4758238    0.2809961  24.83  0.002103226    2.514    0.602
        12  -8.9528    211.6332    203.2991   1.0210464464e+02  -1.6721956210e+00    0.1320277    0.1109363  79.49 0.0007032558    1.730    0.422
        13 -12.7917    194.0034    194.0192   1.0382935627e+02   3.2791701170e+00     1.082536    0.7205493 -65.83    0.0046754    2.214    0.548
        14  -9.8373    234.4688    198.5045   9.6846317978e+01  -4.7543513800e+00    0.2405594    0.1174733 -49.02  0.001030705    2.454    0.592
        15 -10.9306    140.9548    199.6935   1.1635196835e+02   1.2293247427e+01    0.2128663    0.1839676  51.01 0.0005835659    1.094    0.086
        16 -11.3190    103.3131    195.0009   1.2411556728e+02   2.0180671227e+01    0.4281341    0.3461819  67.82  0.001479388    1.179    0.152
        17 -13.1741    118.6674    201.2079   1.2161272490e+02   1.6070927725e+01    0.6782902    0.4091187  45.09  0.003183718    1.567    0.362
        18  -9.8871    180.0413    192.9717   1.0654153903e+02   6.1636527624e+00    0.2346468    0.1835116  83.91  0.001133949    1.780    0.438
        19 -12.1413    110.8564    188.2138   1.2126099097e+02   2.0442172192e+01     0.507376    0.3450304  11.95  0.002128472    2.571    0.611
        20 -11.6641    210.9839    180.3268   9.7641890127e+01   2.6924165585e+00    0.5525063    0.3093543 -32.79  0.002160484    1.873    0.466
        21 -11.1257     90.6567    183.9967   1.2533238735e+02   2.4893430404e+01    0.3096031    0.2127958  73.65 0.0007090766    1.603    0.376
        22 -12.6242    116.2942    211.9752   1.2381596457e+02   1.4118245539e+01    0.6248538    0.3806946 -84.08  0.001025026    2.263    0.558
        23 -11.6972    207.6106    183.8103   9.9024482739e+01   2.6652910416e+00    0.3944461    0.3248085 -47.43 0.0009259366    1.258    0.205
        24 -10.9800     99.4634    180.6984   1.2269289877e+02   2.4211920687e+01    0.2655247    0.2447317  80.57 0.0005714946    1.036    0.035
        25 -19.4041     27.0459    140.7638   1.3469562688e+02   4.3696701330e+01     19.98204     3.414015 -68.34   0.05350513    5.771    0.827
        26 -10.1442    136.5423    179.4867   1.1364365073e+02   1.7658090197e+01    0.1492568    0.1452348  79.69 4.669196e-06    1.038    0.036
        27 -12.1065    197.6712    174.7433   9.9142418123e+01   6.3723063866e+00    0.6533252    0.3506591 -49.09  0.002658261    1.933    0.483
        28 -10.1738     78.6706    232.2004   1.3430457743e+02   1.5907921413e+01    0.2065332    0.1613703  45.74 0.0005891605    1.305    0.234
        29 -10.3107     72.9162    232.0925   1.3543064967e+02   1.6780712828e+01    0.1903296    0.1312539  71.68            0    1.289    0.224
        30 -10.3568    177.6100    169.7639   1.0231784217e+02   1.1481018169e+01    0.2178872     0.142394 -55.36 0.0009492908    1.655    0.396
        31 -11.0077    145.8978    168.3685   1.0921533039e+02   1.8343498477e+01    0.2952295    0.2265051 -43.91  0.000610015    1.341    0.254
        32 -11.3723    230.0800    166.7205   9.1182984317e+01   1.6737038272e+00    0.3351722    0.1888895 -52.62   0.00134242    2.028    0.507
        33 -10.5492    203.0861    167.1421   9.6425419187e+01   6.8163729732e+00    0.3557671    0.2799811 -78.82  0.001308429    1.720    0.419
        34 -10.4434    225.1983    166.0210   9.1927687043e+01   2.7184964568e+00    0.2321575    0.1599426 -63.77  0.001029732    1.972    0.493
        35 -10.5170     69.7109    228.1812   1.3565349795e+02   1.8069552323e+01    0.2393447    0.1707973 -88.50 0.0009588319    1.281    0.219
        36 -12.5699     99.5800    156.1959   1.1819990763e+02   3.0147455479e+01    0.7208318    0.4383002 -37.90  0.003037976    2.045    0.511
        37  -9.4561    176.8259    154.8036   9.9206569106e+01   1.4871393317e+01     0.210403    0.1809845 -85.72   0.00045586    1.335    0.251
        38 -11.6816    133.8087    144.7346   1.0699880788e+02   2.6346674291e+01     1.157534     0.297161 -53.78  0.002837321    4.843    0.794
        39 -11.0790    174.4983    148.2985   9.8236380746e+01   1.6791158537e+01    0.4222762    0.2853499 -55.02  0.001119799    1.542    0.352
        40 -12.1402    144.7430    145.7478   1.0453841327e+02   2.3813962458e+01    0.5060221    0.4086748 -77.04  0.001146464    1.400    0.286
        41 -12.4672     98.4356    141.1679   1.1541153673e+02   3.4023267423e+01    0.2861852    0.2770976 -39.81 0.0003954277    1.115    0.103
        42 -12.0743    109.7338    140.7395   1.1229934254e+02   3.2070013938e+01    0.6029589    0.3647356 -35.78  0.002461689    2.020    0.505
        43 -11.9131    116.6783    130.5737   1.0810695061e+02   3.3157769231e+01    0.5306092    0.4357619   4.13   0.00183122    1.579    0.367
        44 -10.8071    120.6877    124.9571   1.0567618369e+02   3.3668401986e+01    0.2914046    0.2122922 -38.20 0.0008257533    1.433    0.302
        45 -12.0139    105.1328    128.9635   1.1084159848e+02   3.5750098832e+01    0.6361124    0.3649522 -65.04  0.002117874    2.083    0.520
        46 -11.0352    160.4105    127.9788   9.6564902916e+01   2.4389620559e+01    0.4368569    0.2975445 -39.34  0.001909534    1.498    0.332
        47 -11.7474    135.3637    123.1090   1.0140730303e+02   3.1022111102e+01    0.6548547    0.2084724 -49.03  0.001955656    3.173    0.685
        48 -10.9577    125.7561    127.4508   1.0495886287e+02   3.2054823851e+01    0.3672251      0.26317  82.73  0.001221767    1.972    0.493
        49  -9.1796    127.2776    122.6841   1.0337718377e+02   3.2834599768e+01    0.1560221    0.1228037 -85.40  0.000362681    1.570    0.363
        50 -10.5268    111.4084    119.6587   1.0685699149e+02   3.6735520455e+01    0.2550431     0.242287 -51.97 0.0001539837    1.015    0.014
        51 -10.6697    168.2672    113.1223   9.1050634752e+01   2.5770362635e+01    0.3944429    0.2845398 -73.30  0.001232894    1.745    0.427
        52 -11.0112      7.8442    214.7532   1.4634025386e+02   2.8482780882e+01    0.4012896    0.1925644  12.74  0.001197379   11.039    0.909
        53  -9.6467     83.0017    229.2993   1.3311519826e+02   1.5861100425e+01    0.1777009    0.1382161  55.02 0.0003687144    1.156    0.135
        54 -12.4222    108.1004    209.5901   1.2525576811e+02   1.6057864086e+01    0.6223426    0.4418009  52.63  0.002158149    1.301    0.231
        55 -10.5275    205.2063    110.4555   8.3005036263e+01   1.7749631858e+01    0.3531952    0.2572942  33.38  0.001101127    1.741    0.426
        56 -12.6377     61.3134    108.9439   1.1890165262e+02   4.7452486685e+01    0.3592064    0.3386764  17.79  0.002211742    1.185    0.156
        57 -11.6569     67.3212    104.5433   1.1599058499e+02   4.7637785442e+01    0.4748085    0.2732044  17.95  0.002085774    2.403    0.584
        58 -10.2826    134.6414    103.8140   9.6530884686e+01   3.5405795588e+01    0.4802423    0.1389498 -47.47  0.001370527    3.598    0.722
        59  -9.4085    153.9832    103.9751   9.1880003014e+01   3.0988311513e+01    0.1835762    0.1745872  64.30            0    1.053    0.050
        60 -10.1653    149.9279    100.9435   9.2012333136e+01   3.2547326458e+01    0.2338734     0.215813 -85.35 0.0004673662    1.120    0.107
        61  -9.7561    151.5962     79.2223   8.5604747177e+01   3.6337951154e+01      0.20129    0.1462064 -27.04 0.0005330384    1.567    0.362
        62  -9.3545    183.3085     78.3610   7.8959217427e+01   2.8866450041e+01    0.1485574    0.1192306  15.62 0.0007040424    1.739    0.425
        63 -10.7829    176.4583     74.6682   7.9256307709e+01   3.1162765263e+01    0.3147199    0.2320787 -85.42 0.0002731032    1.587    0.370
        64  -8.9439    168.2801    248.2931   1.1848330710e+02  -1.9365721906e+00    0.1220681   0.09435312   9.15            0    1.531    0.347
        65 -13.3502    170.9421     44.9353   7.2229974988e+01   3.7103242598e+01    0.7036634    0.6157255  56.26 0.0008352847    1.143    0.125
        66 -12.1978    107.1893    202.9990   1.2447259927e+02   1.7685778076e+01    0.5973469    0.4458926  32.50  0.002863495    1.516    0.341
