#   1 NUMBER                 Running object number                                     
#   2 MAG_AUTO               Kron-like elliptical aperture magnitude                    [mag]
#   3 X_IMAGE                Object position along x                                    [pixel]
#   4 Y_IMAGE                Object position along y                                    [pixel]
#   5 X_WORLD                Barycenter position along world x axis                     [deg]
#   6 Y_WORLD                Barycenter position along world y axis                     [deg]
#   7 A_WORLD                Profile RMS along major axis (world units)                 [deg]
#   8 B_WORLD                Profile RMS along minor axis (world units)                 [deg]
#   9 THETA_WORLD            Position angle (CCW/world-x)                               [deg]
#  10 FWHM_WORLD             FWHM assuming a gaussian core                              [deg]
#  11 ELONGATION             A_IMAGE/B_IMAGE                                           
#  12 ELLIPTICITY            1 - B_IMAGE/A_IMAGE                                       
         1 -16.2518    231.6089     94.1732   3.0115831616e+01   1.9194131735e+01      4.24811     2.312493 -45.89   0.02659524    1.461    0.315
         2 -12.5960    204.0243     64.8611   2.7737149677e+01   2.7956010276e+01    0.4602671    0.2070695 -31.15  0.002004071    3.751    0.733
         3 -10.4320     73.0516     58.8435   5.1153107004e+01   5.5424883603e+01    0.4236969    0.1748153 -48.11  0.001700689    2.877    0.652
         4 -10.4373     91.9305     48.1123   4.2201201861e+01   5.3168142105e+01    0.4980033    0.1468395 -41.15  0.001834809    3.684    0.729
         5 -11.0050     40.8992     13.8553   4.6118676100e+01   6.7709179208e+01    0.1890369    0.1605236  36.45  0.000254834    1.069    0.064
         6 -10.9757     98.2713    225.2416   7.9258766476e+01   1.2792116643e+01    0.3752193    0.2432927  19.44  0.001276487    1.479    0.324
         7 -10.7424     52.2332    250.0344   9.3835835001e+01   1.2521479976e+01    0.3259103    0.2157842  14.30 0.0009650647    1.495    0.331
         8 -10.4908     57.0747    247.1304   9.2355969305e+01   1.2650276027e+01    0.2643044    0.2170811  -8.00 0.0007724127    1.319    0.242
         9 -10.5245    114.8571    221.8822   7.4594568760e+01   1.1445113549e+01    0.3676387     0.131957 -47.57  0.001381329    2.677    0.626
        10  -9.1989    109.2971    222.3142   7.6046352225e+01   1.2058382787e+01    0.1463785    0.1006318 -20.25  0.000406841    1.604    0.377
        11 -11.0054    126.2304    220.5811   7.1621852338e+01   1.0276743506e+01    0.2707288    0.2409045  36.93 0.0007455078    1.254    0.203
        12  -9.9442     74.1630    218.8873   8.4788714497e+01   1.7276755870e+01    0.2280386    0.1881094  50.55  0.001090017    1.271    0.213
        13 -10.0366     95.6725    217.5144   7.8862641197e+01   1.4902441917e+01    0.2291497    0.1757685  83.46 0.0007789768    1.761    0.432
        14  -9.8172    143.5076    216.9738   6.7018666097e+01   8.8426747963e+00    0.2043122    0.1270453 -48.43 0.0006756085    1.568    0.362
        15 -10.2651    170.2845    215.2006   6.0953869047e+01   5.9041463128e+00    0.2553346    0.1968062 -25.74 0.0009632974    1.123    0.110
        16  -9.6550    111.6761    216.3242   7.4568063408e+01   1.3099133580e+01    0.1422435    0.1090002  59.08 0.0007047905    1.686    0.407
        17 -10.4546     76.7331    212.0498   8.3203958811e+01   1.8626317687e+01    0.2878048    0.1820761 -57.51  0.001344439    1.615    0.381
        18 -10.1626    116.3968    210.2179   7.2446292333e+01   1.3858983340e+01    0.1955087    0.1397143 -68.58 0.0006518853    1.721    0.419
        19 -10.4260    186.0270    204.3089   5.6076482529e+01   6.1048794142e+00    0.1758644    0.1536294 -11.88 0.0009751556    1.106    0.096
        20 -11.1344    164.9288    202.1175   5.9907140544e+01   9.1437350877e+00    0.4412214    0.3080392 -71.55  0.002189523    2.229    0.551
        21 -11.5010    163.6056    194.5347   5.8892877814e+01   1.0854785020e+01    0.5649166    0.4043422  86.52  0.002581857    2.838    0.648
        22 -11.6939    172.6243    195.7145   5.7245370227e+01   9.4274382158e+00    0.3030709     0.213513 -49.87  0.001127172    1.384    0.277
        23 -11.7467    177.3275    197.0232   5.6534392041e+01   8.5666231647e+00    0.3028335    0.2517975 -23.39  0.001412775    1.055    0.052
        24 -10.2405    112.7419    197.9716   7.1421290649e+01   1.7195956015e+01    0.2838786    0.2097692  85.37  0.001309792    2.016    0.504
        25 -10.7125    125.0637    196.7594   6.8096985945e+01   1.5731001301e+01    0.3595608    0.2318581  29.91  0.001724231    1.548    0.354
        26  -9.2489    105.4491    197.5149   7.3258289103e+01   1.8332789041e+01    0.1479105    0.1373773 -12.73 0.0002315091    1.027    0.026
        27 -10.0026     66.4936    193.7114   8.3610340769e+01   2.4566024673e+01    0.4000027    0.2196304  70.71  0.001400533    3.090    0.676
        28 -10.7259    174.6998    199.6615   5.7500308042e+01   8.3838334765e+00    0.1977929    0.1514498 -38.02 0.0003382818    1.144    0.126
        29  -9.9041    138.7677    188.5631   6.3368930463e+01   1.5606890456e+01    0.2997308    0.1758092 -64.40  0.001282353    2.200    0.545
        30  -9.5482    129.0226    188.0140   6.5614462412e+01   1.7156750165e+01    0.2243067    0.1807817  73.88 0.0008891037    1.707    0.414
        31 -10.8079     98.1909    188.1611   7.3688254725e+01   2.1647577250e+01    0.3043495    0.2111303  35.63 0.0008340741    1.432    0.302
        32 -11.3781     95.0773    183.2681   7.3733872967e+01   2.3318410832e+01    0.5810633    0.3950704 -71.14  0.002281136    1.736    0.424
        33 -11.0205     11.7494    187.2425   9.9380317753e+01   3.2090161736e+01    0.2368003    0.2275647  -5.25 0.0004066938    1.122    0.109
        34  -9.9884    165.8001    186.7397   5.7076803164e+01   1.2150358988e+01     0.243693    0.1790426 -75.59  0.001195301    2.048    0.512
        35 -10.2840    109.5570    185.2974   7.0120246225e+01   2.0681299266e+01    0.3199742    0.2433379  64.94  0.001521697    1.715    0.417
        36 -10.0166    120.0000    183.9745   6.7162259436e+01   1.9435718767e+01    0.2462362   0.08173405 -54.23 0.0007648218    2.958    0.662
        37 -10.3227    174.4030    183.2206   5.4719681843e+01   1.1678733456e+01    0.1915389    0.1177148 -55.59 0.0009541327    1.713    0.416
        38  -9.5288     74.3282    183.6495   7.9803109282e+01   2.6157877564e+01    0.1627814    0.1138267  62.63 0.0007048322    1.764    0.433
        39 -10.4846     20.3464    181.4903   9.6192822917e+01   3.2916677726e+01    0.4298861    0.2186737  87.14  0.001161725    2.372    0.578
        40 -10.7903    147.7842    179.3928   5.9644925614e+01   1.6294802122e+01    0.3285791    0.1934403 -65.01  0.001403707    2.276    0.561
        41 -10.0884    138.2850    178.8302   6.1733225016e+01   1.7850259943e+01    0.2737368    0.2243923 -80.09  0.001108597    1.568    0.362
        42 -10.7215     14.1267    178.3196   9.7826763753e+01   3.4313899475e+01       0.2673    0.1804911 -60.67  0.001307344    1.412    0.292
        43 -11.7882      3.2388    178.0150   1.0120122630e+02   3.5230684870e+01    0.4190832    0.3039824 -22.05  0.002148778    1.586    0.369
        44 -10.0866    183.6646    175.1590   5.1516921345e+01   1.1999124250e+01      0.20782    0.1522077 -56.67  0.001177929    1.431    0.301
        45  -9.9043    105.5099    174.9932   6.9386777818e+01   2.3805672477e+01    0.2093544     0.136881 -87.34 0.0008099304    2.515    0.602
        46 -10.7057     77.3000    175.1745   7.7546791507e+01   2.7958367925e+01    0.3064851    0.1822911  53.27   0.00108258    2.045    0.511
        47  -9.4781     24.4956    174.5243   9.4127211905e+01   3.4442652532e+01    0.1462756    0.1390989  73.56 0.0001008984    1.044    0.042
        48 -10.7319    177.4688    169.9147   5.1737065791e+01   1.3902751842e+01    0.3931294    0.2209509 -48.86  0.001955873    1.592    0.372
        49  -9.7997    134.8294    171.1148   6.1122037378e+01   2.0125345198e+01    0.2218839    0.2008316 -83.23 0.0008191849    1.296    0.228
        50 -10.5044    206.7191    169.4071   4.6515644543e+01   1.0010616662e+01    0.2371254    0.1297426 -52.31  0.001252082    1.712    0.416
        51 -11.2094    121.6389    167.9064   6.3786674742e+01   2.2969389853e+01    0.6453528    0.3173034 -60.27  0.002470971    2.333    0.571
        52 -10.2207    149.7489    168.5846   5.7197443534e+01   1.8344650986e+01    0.3012242    0.1693308 -61.25  0.001283446    2.142    0.533
        53  -9.4649    168.2961    168.6676   5.3300110313e+01   1.5496839138e+01      0.13049    0.1061178 -81.31 0.0002887587    1.641    0.391
        54 -11.1736    139.1333    163.5582   5.8656042523e+01   2.1140185601e+01    0.6429678    0.2749366 -59.51  0.002245737    2.989    0.665
        55 -10.4889     80.0995    163.9579   7.4751229468e+01   3.0478875286e+01    0.3721477    0.2141878 -89.15  0.001240906    3.262    0.693
        56 -10.6822    146.2353    162.7712   5.6871954679e+01   2.0167760094e+01    0.2616168    0.2274775 -84.30 0.0005664672    1.389    0.280
        57 -11.1927    205.8851    161.6403   4.5297940524e+01   1.1529643586e+01    0.2561707    0.1454982 -57.71  0.001325444    1.924    0.480
        58 -10.7098    177.6243    158.9436   4.9684030687e+01   1.6058639375e+01    0.5430265    0.2133636 -48.89  0.002250019    2.266    0.559
        59 -10.5431     92.6897    159.3761   7.0115129352e+01   2.9715227675e+01    0.3998267    0.2753484  78.55   0.00164459    2.188    0.543
        60 -12.5523    188.8364    122.2930   4.0753540794e+01   2.1263695068e+01    0.7588462    0.3026812 -35.45  0.002869641    3.380    0.704
        61 -14.0033    188.3230     92.2777   3.4939365066e+01   2.6545335314e+01    0.8609103    0.3818328 -35.96  0.003813013    2.715    0.632
        62 -12.5369    197.8348    136.7881   4.2087491344e+01   1.7206499566e+01     0.427488    0.2477799 -48.37  0.002069757    1.448    0.309
        63 -11.7859    192.5293    129.2458   4.1504150887e+01   1.9403590501e+01    0.3195851    0.2513183 -35.58  0.001465217    1.284    0.221
        64 -13.2301    189.6205    136.2319   4.3295769894e+01   1.8578421153e+01    0.8093519    0.4181994 -52.11  0.004000069    1.751    0.429
        65 -11.3136    188.6211    156.5741   4.7260994059e+01   1.4887669342e+01    0.4307282    0.2647432 -55.84  0.002089835    1.618    0.382
        66 -12.5005    188.8816    148.1903   4.5665885383e+01   1.6445510387e+01    0.6903177    0.3148902 -54.73  0.003050148    2.259    0.557
        67 -12.0469    192.9034    113.3419   3.8405118987e+01   2.2181296187e+01    0.4604365    0.2003563 -51.65  0.002142006    2.067    0.516
        68 -14.4375    189.2080    106.3355   3.7587917461e+01   2.4023267163e+01     1.052188    0.5896712 -63.48  0.005279696    2.008    0.502
        69 -10.5676    167.9599    156.1720   5.1014681064e+01   1.8102129581e+01    0.4275453    0.1814475 -54.57  0.001691379    2.494    0.599
        70  -9.9366    142.5507    158.5319   5.6883009561e+01   2.1698949357e+01    0.2514728    0.1299031  48.64  0.001029685    2.312    0.568
        71  -9.7415    128.3784    158.2211   6.0201415283e+01   2.4121200045e+01    0.2156404     0.137639 -61.92 0.0009513401    1.746    0.427
        72 -10.3039    105.3165    157.2222   6.6075559402e+01   2.8203367140e+01     0.338737    0.2660005 -87.95  0.001102809    1.627    0.385
        73 -12.2646    200.3356    147.9553   4.3740316821e+01   1.4797946555e+01    0.3654104     0.224606 -54.91  0.001774729    1.532    0.347
        74 -11.8529    204.9461    154.1447   4.4123911765e+01   1.3018298174e+01    0.3634833    0.1791581 -52.29  0.001472623    1.863    0.463
        75  -9.8657    157.8392    155.5400   5.2947123927e+01   1.9846223778e+01    0.2858445    0.1756195 -62.61  0.001308333    1.931    0.482
        76 -10.6371     49.7420    154.5796   8.2946419046e+01   3.7175651675e+01    0.5176536    0.2802309  70.00  0.001744517    3.175    0.685
        77  -9.4712    144.6731    154.3368   5.5570792363e+01   2.2268401545e+01    0.1442363    0.1133757  87.81 0.0005989554    1.724    0.420
        78 -10.7041    133.3045    152.0197   5.7754443015e+01   2.4701836678e+01    0.5698081    0.3281883 -64.11   0.00235227    2.170    0.539
        79  -9.8590    119.1673    154.2041   6.1736873375e+01   2.6606592686e+01    0.2099499    0.1811807  87.71 0.0008116727    1.376    0.273
        80 -10.3176     81.8454    154.1225   7.2381242967e+01   3.2762468841e+01    0.2458109    0.2100699  67.99 0.0007016513    1.331    0.249
        81 -10.9134     67.8598    153.0405   7.6628252076e+01   3.5144318824e+01    0.4537417    0.3093758  77.45  0.001630091    2.058    0.514
        82 -10.0126    182.3231    149.8738   4.7124061895e+01   1.7121564920e+01    0.2713616     0.106621 -52.92   0.00107813    2.557    0.609
        83  -9.7356    162.4514    149.7503   5.0868087056e+01   2.0300577351e+01    0.2744601     0.125008 -52.90  0.001132001    2.150    0.535
        84  -9.8729     98.3361    149.8535   6.6582302282e+01   3.1176201710e+01    0.3114553    0.1471789 -63.38  0.001086753    2.602    0.616
        85  -9.4466    142.4327    148.2346   5.4851164245e+01   2.3979808354e+01    0.2065846    0.1328017 -60.48 0.0009465219    1.689    0.408
        86 -10.8006     56.1109    145.2521   7.9135352421e+01   3.8859881709e+01    0.5578347    0.2856849  61.09  0.001812044    3.350    0.701
        87 -10.0942     39.2528    147.1424   8.5374765899e+01   4.0453318333e+01    0.3140828    0.1728522  50.17  0.001243706    2.127    0.530
        88  -9.9714    175.7101    145.3576   4.7459639671e+01   1.9039626134e+01    0.2574386    0.1472704 -55.25  0.001245211    1.720    0.419
        89 -11.5051    148.9913    142.5278   5.2231318513e+01   2.4077543190e+01    0.8349515    0.3400463 -52.71  0.003175934    2.450    0.592
        90 -11.1750    106.7425    143.5375   6.2880494765e+01   3.1277154543e+01    0.7074543        0.387 -69.71  0.002557302    2.732    0.634
        91 -10.4398    165.7999    143.1891   4.8911041256e+01   2.1086815322e+01    0.3570023    0.1702102 -56.07  0.001488965    2.249    0.555
        92  -9.5019    138.1620    144.1573   5.4995375438e+01   2.5611732571e+01    0.2023509    0.1708449 -77.65 0.0008633094    1.346    0.257
        93 -11.0219    124.5896    141.5143   5.7721098032e+01   2.8599376650e+01    0.6266515    0.3228354 -66.44  0.002212536    2.975    0.664
        94 -10.5714     87.8460    141.4176   6.7972449207e+01   3.5023546898e+01    0.6932884    0.1996586 -54.15  0.002074684    3.336    0.700
        95 -10.5357    182.2473    140.8978   4.5431658523e+01   1.8863271183e+01    0.3357426    0.1876518 -55.21  0.001498598    1.745    0.427
        96 -10.6945     68.6197    138.5072   7.3561530851e+01   3.8834367168e+01     0.443509    0.2131787 -76.07   0.00132122    3.884    0.743
        97 -10.5064    172.3500    137.0600   4.6457582931e+01   2.1216860601e+01    0.4472446    0.2216634 -55.65  0.001974804    2.083    0.520
        98 -10.3209     23.2654    137.8918   8.9756892116e+01   4.4632929334e+01    0.3516358    0.1833687  62.12  0.001294315    2.760    0.638
        99  -9.7981    138.5082    137.0300   5.3423431959e+01   2.7103335209e+01    0.2284474    0.1358944 -50.51   0.00103391    1.599    0.375
       100 -10.7429    161.3947    249.2048   6.7955447720e+01   5.6207297965e-01    0.1631465    0.1167462 -54.87 0.0009565527    1.733    0.423
       101 -10.6772    130.4298    116.9220   5.0879820473e+01   3.2880631354e+01    0.5325248    0.2506665 -53.41  0.002131199    2.194    0.544
       102 -10.1898    112.8343    132.7396   5.8876890605e+01   3.2723856319e+01    0.4053972    0.2628023  87.25  0.001519022    2.874    0.652
       103 -10.3855      2.9976    116.9949   9.4645326181e+01   5.1813036156e+01    0.3726695    0.1629772  77.93  0.001155044    4.383    0.772
       104 -10.5566    111.6679    127.5039   5.8020651833e+01   3.4132915796e+01    0.4283656    0.2431952 -55.33  0.001812985    1.812    0.448
       105 -11.2175    185.9824    114.5662   3.9693706002e+01   2.3130902141e+01    0.3942649    0.1725682 -45.36  0.001366294    1.993    0.498
       106 -11.5767    108.7775    111.5104   5.5066215028e+01   3.8218089925e+01    0.8068013    0.3125482 -51.30  0.002877095    2.664    0.625
       107 -11.1993     78.6461    110.8581   6.3976601421e+01   4.3984406024e+01    0.7773463    0.3679482 -65.88  0.002569062    3.351    0.702
       108 -10.5127    167.6258    111.9235   4.2199323062e+01   2.6849315865e+01      0.30824    0.1160409 -45.10  0.001240299    2.426    0.588
       109 -10.9064     92.0894    111.0901   5.9759472308e+01   4.1489532837e+01    0.5641819    0.2914799 -61.30  0.002152703    2.428    0.588
       110 -10.3754     92.4017    104.7959   5.8095315459e+01   4.2817569851e+01    0.3619057    0.2440304 -24.61  0.001582732    2.021    0.505
       111 -11.0670    174.8133    109.7371   4.0519243367e+01   2.5950896541e+01    0.4248946    0.2062756 -45.92  0.001937669    1.845    0.458
       112 -11.0627    159.2554    110.4109   4.3394727055e+01   2.8677222706e+01    0.4311471    0.1998561 -46.36  0.001897636    1.996    0.499
       113 -11.3236    122.1713    110.1472   5.1284940632e+01   3.5890605726e+01    0.5332661    0.2548046 -41.93  0.002144495    2.205    0.546
       114 -12.0406     13.9790    108.2491   8.8598300009e+01   5.3293944525e+01    0.7125562    0.3012132 -61.16  0.002883371    2.127    0.530
       115 -10.9230     65.8400    108.5265   6.7824363552e+01   4.6710035297e+01    0.5360282    0.2129572 -60.03  0.001793925    3.063    0.674
       116 -10.8197    182.9685    108.0169   3.8863630908e+01   2.4812897275e+01    0.3326384    0.1727505 -46.15  0.001298236    1.693    0.409
       117 -10.4535    133.1592    108.0557   4.8213249882e+01   3.4154851750e+01    0.3414493    0.2017254 -48.62  0.001589448    1.646    0.393
       118 -11.1015    139.6738    102.3952   4.5485150875e+01   3.3973834059e+01    0.5396146    0.2584531 -46.13  0.002327479    2.024    0.506
       119 -11.3004     23.0536    101.8891   8.3418659653e+01   5.4070256576e+01    0.7796346    0.3798138  64.02  0.002297123    5.176    0.807
       120 -11.4302    149.9814    100.0450   4.2874424222e+01   3.2386206913e+01    0.6595758    0.2183132 -45.94  0.002441235    2.863    0.651
       121 -11.3520     45.3563    101.8126   7.3992646232e+01   5.1415427677e+01    0.6187469    0.3655206  71.44   0.00216451    3.565    0.719
       122 -11.8531    175.5950    100.3473   3.8461682659e+01   2.7476495989e+01    0.3668106    0.2263332 -44.19   0.00133983    1.506    0.336
       123 -11.2585    128.5982    100.0791   4.7364680527e+01   3.6629692063e+01    0.4935447    0.2708649 -44.50   0.00222787    1.827    0.453
       124 -10.7427    159.9261     99.1766   4.0842663130e+01   3.0618356927e+01    0.3897436    0.1826447 -45.28  0.001757769    1.997    0.499
       125 -11.8187    108.3482     96.2760   5.1399882585e+01   4.1461682542e+01     0.811605    0.4087858 -55.77  0.003296599    2.280    0.561
       126 -10.7509     81.6139     98.0898   5.9750255725e+01   4.6295106405e+01    0.4649605    0.1855436 -52.30  0.001674783    2.693    0.629
       127 -10.7466     95.1063     93.9132   5.4475090993e+01   4.4578983030e+01    0.6522895    0.2489616 -41.59  0.002301204    2.954    0.661
       128 -11.2269     63.4856     94.9928   6.5221108272e+01   5.0190310959e+01    0.5806926    0.3432539 -76.18  0.002141871    3.160    0.684
       129 -12.0704    196.8593    156.3879   4.5828347168e+01   1.3737272933e+01    0.4193059    0.2566548 -55.15  0.002273381    1.589    0.371
       130 -12.2097    176.9187     91.9591   3.6523601227e+01   2.8667682511e+01    0.5238203     0.175927 -49.32  0.002110585    2.741    0.635
       131 -10.7831    143.0509    129.6098   5.0820895693e+01   2.7860090625e+01    0.5712888    0.2050738 -48.14  0.002071795    2.625    0.619
       132 -10.6486    164.9865     91.9989   3.8417681401e+01   3.0909943371e+01    0.3073183    0.1835338 -38.09   0.00137285    1.795    0.443
       133 -11.0511    166.9792    101.8647   4.0194110820e+01   2.8801394258e+01     0.432959    0.1816714 -42.82  0.001860471    2.270    0.560
       134 -10.8491    138.6489     89.7856   4.2744263245e+01   3.6517475685e+01    0.4848367    0.2409933 -45.00   0.00217845    1.983    0.496
       135 -11.1682    131.7829    129.3137   5.3330860020e+01   2.9996829374e+01    0.7083662    0.2926979 -53.38  0.002616836    2.502    0.600
       136 -11.4089     83.2013    129.3712   6.6824953252e+01   3.8784713828e+01    0.9384997    0.3105984 -57.48  0.002878731    3.328    0.700
       137 -10.3538    157.8736     90.0168   3.9189428529e+01   3.2631246814e+01     0.297778    0.1427401 -38.68  0.001321683    2.254    0.556
       138 -10.8864    124.2500     90.2617   4.5962316912e+01   3.9377554792e+01    0.3579359     0.245187 -64.21  0.001775649    1.638    0.390
       139 -10.8752    124.4924     86.0139   4.4847439379e+01   4.0106006602e+01    0.5282989    0.3606741   3.30  0.002131084    3.308    0.698
       140 -10.7501     34.5122     88.7043   7.5300645505e+01   5.5916626623e+01    0.4509231     0.233933 -69.86  0.001773086    2.754    0.637
       141 -10.2582    151.0897     87.3620   3.9795085033e+01   3.4433596826e+01    0.2329091    0.1774861 -39.17  0.001316586    1.417    0.294
       142 -10.7651     86.0266     86.0135   5.5078700463e+01   4.7944129665e+01    0.3699429    0.2491405 -80.70  0.001401044    2.441    0.590
       143  -9.9904    164.1100     85.5397   3.7160462419e+01   3.2173939839e+01    0.2019539    0.1762187 -33.40 0.0009731849    1.377    0.274
       144 -11.2314    179.3577     84.4179   3.4609454443e+01   2.9456182398e+01    0.2527602    0.1370803 -48.48  0.001333694    1.636    0.389
       145 -10.6335     48.3065     83.9354   6.8120760450e+01   5.5042256873e+01    0.3325343    0.2322184  70.74  0.001492986    2.299    0.565
       146  -9.5781    116.4636     83.7113   4.6122857803e+01   4.2189970544e+01    0.1850433    0.1352048 -32.57  0.000941715    1.618    0.382
       147 -10.0637     22.3304    131.9852   8.9199184014e+01   4.6319304650e+01    0.2652378   0.05421457 -48.51 0.0007045926    4.279    0.766
       148 -11.2405    140.8037     81.2003   4.0275348454e+01   3.7577902977e+01    0.3979146    0.1801936 -42.14  0.001735955    2.241    0.554
       149 -11.2548    104.3745     80.6328   4.8338910892e+01   4.5260310336e+01    0.6563349    0.2491511 -44.90  0.002488559    2.758    0.637
       150 -10.5041    158.6125     81.3495   3.7135487214e+01   3.3949438300e+01    0.2706763    0.1532327 -38.83  0.001350385    1.882    0.469
       151 -10.4830     24.4321     80.2225   7.7710527846e+01   5.9034606295e+01    0.3199849     0.203517 -87.94  0.001368347    2.778    0.640
       152 -10.4240    150.1372     78.7164   3.7980226927e+01   3.6085706729e+01    0.3299314     0.174015 -49.27  0.001603073    1.823    0.451
       153 -10.2702    119.3154     78.4806   4.4101724656e+01   4.2523261645e+01    0.3517106    0.1924998 -44.26  0.001636193    1.889    0.471
       154  -9.9245     74.3262     79.1496   5.6933540869e+01   5.1537814137e+01    0.3567876    0.1286316 -55.89  0.001089801    4.351    0.770
       155 -10.1074     39.3225    135.6639   8.3400084764e+01   4.3549889501e+01    0.1594366    0.1127369  61.31  0.000490158    1.711    0.416
       156 -10.9393    174.8564     76.8514   3.3674354913e+01   3.1507937457e+01    0.2531059    0.1523805 -42.62  0.001367256    1.617    0.382
       157 -10.3292    162.6653    135.3597   4.7953644198e+01   2.3194026410e+01    0.3246869    0.1521796 -47.67  0.001324761    1.932    0.482
       158 -11.1351    168.6971    128.2738   4.5371727965e+01   2.3551666703e+01    0.4291643    0.2310697 -50.52  0.002043796    1.692    0.409
       159 -10.4234    167.4417     76.2428   3.4623232020e+01   3.3035137130e+01    0.2319205    0.1175364 -38.91  0.001126057    2.077    0.519
       160 -10.9620    152.9428    127.7430   4.8323162006e+01   2.6446824982e+01    0.6119415    0.2314566 -53.22  0.002232958    2.778    0.640
       161 -11.9407     98.6122    124.1445   6.0922167464e+01   3.7308325687e+01     1.031674    0.4284721 -53.09  0.003721981    2.449    0.592
       162 -10.2953     72.8982    128.2558   6.9952876390e+01   4.0768636828e+01    0.3911283    0.2160432 -76.85  0.001339242    3.055    0.673
       163  -9.9547    157.6969     74.6564   3.5784934689e+01   3.5216514237e+01    0.2278161    0.1540014 -35.01   0.00124505    1.725    0.420
       164 -10.8406    128.1117     72.0342   4.0539326436e+01   4.1758114283e+01    0.5802824    0.2749295 -35.63  0.002483646    2.549    0.608
       165 -10.4712    140.6643     73.1252   3.8364087802e+01   3.8947012427e+01     0.309315    0.1612916 -36.53  0.001431219    2.203    0.546
       166 -10.3675      9.9419     74.2219   8.3329591085e+01   6.1800957432e+01    0.1900991    0.1711981  17.80 0.0003390625    1.179    0.152
       167 -11.2767     81.9879     71.8332   5.2275606401e+01   5.1416110067e+01    0.4440351    0.2290769 -57.40  0.001813435    2.646    0.622
       168 -11.3026    116.9746    122.9525   5.5580529413e+01   3.4157456175e+01    0.6993416    0.3652327 -56.82  0.002833651    2.076    0.518
       169  -9.5251    151.4796     71.4898   3.6080173669e+01   3.6977077494e+01    0.1283614    0.1140633 -82.83 0.0001004136    1.027    0.026
       170  -9.9562    115.5966     70.7078   4.2908202424e+01   4.4629767076e+01     0.256803    0.1331056 -37.49  0.001147855    2.198    0.545
       171 -10.1322    170.8029     82.0134   3.5357565182e+01   3.1461141037e+01    0.1907174    0.1495041 -16.74  0.001081391    1.973    0.493
       172 -10.5553     94.7879     68.9735   4.7664164850e+01   4.9307426310e+01    0.6229584    0.1764006 -46.60  0.002045943    3.953    0.747
       173 -10.7522     62.6312     69.7916   5.8280114312e+01   5.5482246949e+01    0.3948214    0.1200076 -40.24  0.001264943    4.057    0.754
       174 -10.4715    170.5639     69.6973   3.2761396845e+01   3.3439278310e+01    0.2264007    0.1155629 -38.07  0.001125452    2.104    0.525
       175  -9.9576    162.9601     69.9992   3.3929323304e+01   3.4891806364e+01    0.1793222     0.159602  12.08   0.00105727    1.694    0.410
       176 -10.6202     51.0268     68.5331   6.2423890203e+01   5.7736286623e+01    0.3818819    0.2039967 -66.39  0.001402198    3.704    0.730
       177  -9.5488    157.3098     68.3509   3.4423319983e+01   3.6278885415e+01    0.1169463    0.1021583  17.63 0.0007044424    1.717    0.417
       178 -10.3794      3.6770    249.1496   1.0566279905e+02   1.7347155480e+01    0.2256652    0.1431945  40.16 0.0006834657    1.341    0.254
       179 -10.3838    147.2291     65.3994   3.5365295410e+01   3.8795506861e+01    0.3588569    0.2315676 -22.33   0.00175581    2.522    0.603
       180 -10.7197    138.7022     64.3043   3.6575795215e+01   4.0745055126e+01    0.3751539    0.1562066 -37.06  0.001586861    2.735    0.634
       181 -11.5984    180.4811    121.6745   4.1983924074e+01   2.2776904595e+01    0.6917338    0.2313965 -44.43  0.002718954    2.664    0.625
       182  -9.7886     37.3193     63.6663   6.6829615447e+01   6.0814287130e+01    0.1319153    0.1053643  62.10 0.0007048963    1.698    0.411
       183 -10.3109     18.0065     62.2577   7.5880420745e+01   6.3570220868e+01     0.285015    0.1266285 -33.36  0.001170441    2.606    0.616
       184 -10.8091     59.0525    123.2328   7.3680330453e+01   4.4177706057e+01    0.5610349    0.3355208  84.03  0.001925922    3.325    0.699
       185 -11.2847     43.3934    121.2657   7.9108621188e+01   4.6842519928e+01     0.863771    0.4540426  88.02  0.002554335    4.558    0.781
       186 -10.7780      5.2785    244.0204   1.0501532882e+02   1.8374773212e+01    0.2630615    0.2085341 -46.94  0.001152754    1.488    0.328
       187 -11.0365    110.1351     60.7641   4.1453581452e+01   4.7389711406e+01    0.4483143    0.2275536 -26.12  0.001780306    3.340    0.701
       188 -10.8606     29.4305    123.2141   8.4939576633e+01   4.7958576767e+01    0.3671524    0.2087859  85.67  0.001292634    2.759    0.638
       189 -10.1674    118.7351     54.7599   3.7939798200e+01   4.6436192178e+01    0.2720837    0.1393273 -59.84  0.001182951    2.583    0.613
       190 -11.8198     45.3635     49.3035   5.8365799915e+01   6.2103302520e+01    0.3450287    0.2308254 -29.29 0.0005399363    1.697    0.411
       191 -10.3102    121.7073     63.6188   3.9689430254e+01   4.4464788423e+01    0.3808596    0.1905563 -32.38  0.001661293    2.614    0.617
       192 -10.2344    100.0826     57.1066   4.2821597418e+01   5.0104638618e+01    0.4732418     0.174544 -39.08  0.001872115    3.020    0.669
       193 -10.1891     53.8569     53.0115   5.6164903295e+01   6.0012191580e+01    0.3080612     0.155882 -57.13   0.00125702    3.180    0.686
       194 -10.9183    162.1370    225.1165   6.4215456509e+01   4.9518436434e+00      0.36947    0.2368018 -12.34  0.001955871    1.659    0.397
       195 -10.6405    158.6467    119.8793   4.5527656559e+01   2.6974388082e+01    0.4500844    0.2412847 -49.07  0.001768261    1.720    0.418
       196 -10.1792    113.2753     42.4501   3.5655066452e+01   4.9318722054e+01    0.3801573    0.2234683 -11.30   0.00158565    3.814    0.738
       197  -9.7681    180.3019     78.3515   3.3229388421e+01   3.0244037464e+01    0.1110295   0.09920392  -3.67  0.000638133    1.699    0.411
       198 -10.7480    179.5363    132.6322   4.4302876658e+01   2.0880298067e+01    0.3913161    0.2042195 -55.15  0.001841493    1.889    0.471
       199 -10.0802     83.2624     41.0737   4.2289043774e+01   5.5977922063e+01    0.2899697    0.1817111  19.06  0.001321246    2.751    0.636
       200 -10.6578      5.0151     40.7492   7.6268962672e+01   6.9023425830e+01    0.3485009    0.1860646 -77.00   0.00119459    6.179    0.838
       201  -9.8259    123.4158     40.7501   3.3278908924e+01   4.7330838003e+01    0.1573659     0.124814 -21.31 0.0009499674    1.706    0.414
       202 -10.7832    172.3855    120.1430   4.3057688354e+01   2.4462303943e+01     0.339858    0.2013057 -53.60  0.001321161    1.565    0.361
       203  -9.8713    106.2996     37.3563   3.5618032736e+01   5.1490207094e+01    0.1248611   0.09282129  32.94 0.0003508141    1.705    0.414
       204 -11.4700    141.6544    116.6226   4.8288138898e+01   3.0792737065e+01    0.8313919    0.2884185 -49.92  0.002960859    2.838    0.648
       205  -9.4700     26.3189     36.6533   6.2593127244e+01   6.7137620143e+01    0.1181744   0.09751561  59.92 0.0007048907    1.729    0.422
       206  -9.0745     44.3525     25.2835   4.9563654893e+01   6.5750892460e+01    0.1289934   0.08288679  24.74 0.0005309646    1.659    0.397
       207  -9.0888    110.4904     24.5034   3.1086090240e+01   5.2068516121e+01    0.1231465    0.1022382  70.78 0.0008101819    1.046    0.044
       208 -10.2117     13.0209     21.0084   6.3416641415e+01   7.1319777461e+01    0.1900588    0.1464956  17.49 0.0006804011    1.045    0.043
