#   1 NUMBER                 Running object number                                     
#   2 MAG_AUTO               Kron-like elliptical aperture magnitude                    [mag]
#   3 X_IMAGE                Object position along x                                    [pixel]
#   4 Y_IMAGE                Object position along y                                    [pixel]
#   5 X_WORLD                Barycenter position along world x axis                     [deg]
#   6 Y_WORLD                Barycenter position along world y axis                     [deg]
#   7 A_WORLD                Profile RMS along major axis (world units)                 [deg]
#   8 B_WORLD                Profile RMS along minor axis (world units)                 [deg]
#   9 THETA_WORLD            Position angle (CCW/world-x)                               [deg]
#  10 FWHM_WORLD             FWHM assuming a gaussian core                              [deg]
#  11 ELONGATION             A_IMAGE/B_IMAGE                                           
#  12 ELLIPTICITY            1 - B_IMAGE/A_IMAGE                                       
         1 -11.3011     38.6166     22.7709   4.7156672044e+01   7.2049917208e+01    0.8296645    0.6146191 -12.03   0.00293512    1.711    0.416
         2 -11.6517     32.1507     19.4641   4.9261551578e+01   7.3837518567e+01    0.5791191    0.4148343 -22.94  0.001870022    1.621    0.383
         3 -10.6858     13.5559     14.8725   6.1755689060e+01   7.7612699637e+01    0.4557744    0.2716269  59.20  0.002007995    2.911    0.656
         4  -9.9775    163.5982     20.2702   1.4670984642e+01   4.1726613460e+01    0.3068943    0.1993152  27.10  0.001448693    2.749    0.636
         5 -10.0008    153.8668     13.5814   1.3522542162e+01   4.4789564027e+01    0.3107263    0.1177656 -47.24 0.0009556005    2.198    0.545
         6  -9.5442    148.2048     11.9190   1.3508991020e+01   4.6345227682e+01     0.164792    0.1489296  60.40 0.0003534368    1.332    0.249
         7 -11.7047     91.1205     10.0867   2.0478886779e+01   6.1193499305e+01    0.2617197    0.2153824 -85.27            0    1.128    0.114
         8 -10.4050     96.0169      9.4986   1.9281337685e+01   5.9974415696e+01    0.2707334    0.1991865 -85.66  0.000614567    1.285    0.222
         9 -10.8750     43.6438     11.1663   3.6521543911e+01   7.2766757935e+01    0.3413699     0.249262  29.61  0.001843423    1.483    0.326
        10 -10.7962    126.0102     10.7928   1.5435238384e+01   5.2043563231e+01    0.2099515    0.1946456 -48.54 0.0002305134    1.190    0.159
        11  -9.8406    101.0863     10.9138   1.9029082908e+01   5.8507472534e+01    0.2057724    0.1631357 -68.83 0.0003760381    1.199    0.166
        12 -10.7882     79.9208      9.8259   2.2783043637e+01   6.4121178508e+01    0.5609265    0.2078308  41.68  0.001857833    3.834    0.739
        13 -10.6901     52.3674     11.3133   3.2516920746e+01   7.0768395804e+01    0.2884216    0.1573221  37.45 0.0006355346    2.090    0.521
        14 -10.4938     55.3545      9.1022   2.9853965802e+01   7.0324205885e+01    0.2766555    0.2166718 -81.87 0.0009304609    1.478    0.323
        15  -9.8769    192.7207      9.9998   9.7897141687e+00   3.6319357861e+01    0.1721405     0.128082 -52.36  0.000375643    1.068    0.063
        16 -10.4638    116.3434      9.2792   1.6063296082e+01   5.4690467063e+01    0.2597554    0.2075911 -49.14 0.0008193813    1.219    0.179
        17 -11.1013     35.1742      8.1312   3.9051768936e+01   7.4983695026e+01     0.242031    0.1694279  56.15 0.0006903941    1.393    0.282
        18  -9.9593     16.0000      7.9458   5.4054867876e+01   7.8529503075e+01    0.1810142    0.1775978  19.03 0.0008866599    1.173    0.147
        19 -10.4566     18.2286      4.5605   4.8953016992e+01   7.8717323380e+01    0.2312395    0.1764362  -2.19 0.0003680366    1.468    0.319
        20 -10.3748     19.6761      1.3281   4.4599661429e+01   7.8936685427e+01    0.1774596    0.1744436  16.97 0.0007771561    1.168    0.144
        21 -10.7602     62.5334      6.1152   2.5440913770e+01   6.8894939107e+01    0.4521033    0.1966404  44.67  0.001742411    2.414    0.586
        22 -10.5826     70.4866      5.2753   2.2649982552e+01   6.6980983431e+01    0.2145255    0.1399726 -13.95 0.0005860867    1.848    0.459
        23 -10.8954     39.1049      4.0052   3.3551404959e+01   7.4650644415e+01    0.2509391    0.2000857  78.42 0.0003993746    1.424    0.298
        24  -9.5742     41.6394      1.2577   3.0103439648e+01   7.4378597075e+01    0.1354043    0.1177835  48.36 0.0008251533    1.034    0.032
        25 -12.3359     29.6316      4.7573   3.9913286328e+01   7.6565369822e+01    0.3145141    0.2657518 -44.07 0.0004398325    1.348    0.258
        26 -11.0832    194.0103      4.7824   8.4077654570e+00   3.6577554772e+01    0.1928831    0.1644205 -59.45 0.0002930866    1.163    0.140
        27  -9.4065    111.4896      5.4981   1.5177883106e+01   5.6311378233e+01    0.1388292    0.1181519 -81.35 -7.014218e-05    1.015    0.014
        28 -12.0991    204.9453      2.6348   7.3953033510e+00   3.4531650270e+01    0.2163746    0.1576208 -58.34 0.0002172145    1.022    0.022
        29 -10.3645     57.7909      2.8279   2.4864672986e+01   7.0384908034e+01    0.2036639    0.1680938  46.09 0.0005858103    1.173    0.148
        30 -10.1176    149.0632      2.1316   1.0307914318e+01   4.7093003017e+01    0.2261078    0.1618887  86.85 0.0009270437    1.268    0.211
        31  -9.8286     12.5013      1.9950   5.2368329867e+01   8.0045422061e+01    0.3302523    0.1445648  52.40  0.001262205    3.675    0.728
        32  -9.6314      1.3958      1.6882   6.6232022466e+01   8.1534310895e+01    0.1634861    0.1034243 -40.08 0.0007775708    1.526    0.345
        33  -9.6683    245.2797      1.3354   5.7269270394e+00   2.7173547588e+01    0.1253316   0.07642699 -68.48 0.0003474571    1.392    0.282
        34  -9.6835    120.0605      3.2385   1.3265118758e+01   5.4292305356e+01    0.1905854    0.1570964 -83.33 0.0004336748    1.037    0.035
        35  -9.7815    100.9259      1.4555   1.4867391144e+01   5.9422250382e+01    0.2021058    0.1197922  81.29 0.0008150247    1.506    0.336
        36  -9.3490     80.2453      1.6615   1.8406595357e+01   6.4798259520e+01    0.1364279    0.0917604 -58.72 0.0005694923    1.559    0.358
        37 -10.6865     45.6202      5.1284   3.1199607967e+01   7.3052899011e+01    0.3531727     0.245936  66.96  0.001320224    1.412    0.292
        38 -11.3245     27.1143    117.0038   8.3205355505e+01   4.9930681664e+01    0.2757539    0.2327801 -89.20 0.0002766688    1.120    0.107
        39 -10.6557     30.8392    249.4695   9.1803627992e+01   1.7188694263e+01    0.2266729    0.1743124 -42.79 0.0008920361    1.780    0.438
        40 -11.1579     23.9721    249.6174   9.3351168360e+01   1.7778929562e+01    0.2942961    0.1889785  21.33  0.001857425    1.407    0.289
        41 -11.9894      3.4855    248.2052   9.7871052148e+01   1.9769839179e+01    0.3682745    0.3141134  -4.57  0.002562246    1.538    0.350
        42 -11.8683      2.9577    238.9756   9.7807256339e+01   2.1585827190e+01    0.4629937   0.09730516  51.50  0.001926768    3.038    0.671
        43 -11.7002      6.4818    243.0219   9.7094225440e+01   2.0515451650e+01    0.1984645    0.1728191 -40.51  0.001278785    1.596    0.373
        44 -10.9366     69.1813    115.9965   6.6379031972e+01   4.4580026064e+01    0.3770928    0.2729492 -85.78 0.0009119889    1.565    0.361
        45 -12.3389      2.9205    111.7979   9.2999482059e+01   5.3277291296e+01    0.3481641    0.2589578  39.59 0.0004042943    1.328    0.247
        46 -11.0816     17.3626    116.1760   8.7205873989e+01   5.1044823291e+01    0.2650816     0.192375  -3.65  0.000830707    1.643    0.391
        47 -12.4205      1.8809    104.4681   9.2925102430e+01   5.5414883227e+01    0.3707049    0.2643265 -39.86  0.001871303    1.527    0.345
        48 -10.2358     38.5456    104.9157   7.6401379384e+01   5.2108700402e+01     0.224931    0.1469654 -71.11 0.0003244319    1.487    0.327
        49 -10.2502    108.8994    103.4264   5.0257062083e+01   4.0186067319e+01    0.2370441     0.202134 -53.94 0.0003707008    1.147    0.128
        50 -10.1503    247.4719    102.9880   2.5987680788e+01   1.4588451507e+01    0.1741752   0.08405686 -37.15 0.0003269282    1.513    0.339
        51 -10.9459     21.2562     98.0609   8.3143612371e+01   5.5893527104e+01    0.3077827    0.2691467 -19.12 0.0007215478    1.280    0.219
        52 -11.7032     17.4281     96.2806   8.4721345127e+01   5.6727183242e+01    0.8196824    0.3493029 -42.96  0.002461401    2.688    0.628
        53  -9.4534    217.9738     98.4639   2.8299079883e+01   1.9704770252e+01    0.1503127    0.1241028  63.10  0.000506608    1.518    0.341
        54 -10.1120     37.2084     97.4941   7.5569401278e+01   5.4358782422e+01    0.3165304    0.1976716  84.40  0.001311009    1.895    0.472
        55 -10.0754      4.4644     97.4613   9.1129361473e+01   5.7269334074e+01     0.145387    0.1308824  77.98 3.208387e-05    1.044    0.042
        56 -11.6744     66.6945     92.1367   6.1516032231e+01   5.1315466320e+01    0.4350841     0.261427 -60.52 0.0005153822    1.675    0.403
        57 -11.0571     93.4481     92.9857   5.2073602844e+01   4.5862759951e+01    0.4453988    0.3240476  11.39  0.001655776    2.157    0.536
        58  -9.7086     74.7265     92.9537   5.8623625702e+01   4.9621553185e+01    0.2119398    0.1974025  87.27 0.0004158269    1.047    0.045
        59 -11.9313     57.2901     91.7975   6.5312780290e+01   5.3023463631e+01    0.4040089    0.2756561  31.66  0.000228675    1.518    0.341
        60 -11.1039    145.8698     91.0439   3.7846617669e+01   3.4844364685e+01    0.2214348    0.2032453 -66.85  0.001162636    1.026    0.026
        61 -10.2284    105.5999     90.7799   4.7686057118e+01   4.3771858058e+01      0.22803    0.1439542 -58.94 0.0009510252    1.673    0.402
        62  -9.4580      7.5688     91.2099   8.8951482548e+01   5.8864438133e+01    0.1982135    0.1193506 -61.86 0.0004445055    1.540    0.351
        63 -10.8375     31.0765     87.2383   7.6389267162e+01   5.7944837047e+01    0.2278466    0.2035381 -74.91 0.0003739532    1.076    0.071
        64  -9.7254    160.5388     87.4966   3.4096498963e+01   3.2352353559e+01    0.1426846    0.1288288 -51.42 1.421335e-05    1.042    0.040
        65 -13.1813     65.4270     82.0260   5.9114293848e+01   5.4120028548e+01    0.4516078    0.3679927 -46.13  0.001546146    1.274    0.215
        66 -11.6907     92.0051     85.2018   5.0233754847e+01   4.7989167408e+01    0.2719012    0.2202448 -56.03 0.0002882582    1.219    0.179
        67  -9.7652     81.6177     84.9744   5.3743346986e+01   5.0224675331e+01       0.2459    0.1494829 -52.52  0.001018054    1.636    0.389
        68  -9.1863     34.4926     84.4282   7.4055300227e+01   5.8315073017e+01    0.1512227    0.1421215 -43.32 0.0001903312    1.102    0.093
        69 -10.7294    144.5170     81.1951   3.5409565601e+01   3.7008744151e+01    0.2755693    0.1988665  16.78 0.0007604391    2.346    0.574
        70 -10.4806     18.8083     81.0807   8.1548912319e+01   6.0890236324e+01    0.2160873    0.2040069  32.53  0.000295757    1.104    0.094
        71 -11.0234    180.7886     78.5876   2.8574754926e+01   2.9652633527e+01    0.3443988    0.2378258 -66.98  0.001012033    1.554    0.356
        72  -9.6948    176.1914     76.6343   2.8745007200e+01   3.0918125256e+01    0.2357154    0.2109848  88.03  0.001318788    1.183    0.155
        73 -10.1548    138.5642     78.8108   3.5944772222e+01   3.8802974963e+01    0.2103192    0.1289186 -53.03 0.0003392898    1.593    0.372
        74 -10.5553     48.1639     78.7865   6.5859755679e+01   5.7913741632e+01    0.2812695    0.2237086 -35.83 0.0002381509    1.396    0.284
        75  -9.7955     54.5128     78.0556   6.2668852728e+01   5.7065954583e+01    0.2325599    0.1512078 -60.58  0.001013302    1.540    0.351
        76 -11.8641     11.9115     74.9062   8.4297091875e+01   6.3143465009e+01    0.4594626     0.402928  53.75  0.001488057    1.175    0.149
        77  -9.1396    195.3373     76.3026   2.6077016440e+01   2.7120654856e+01    0.1210228    0.1012781   4.46 0.0007037698    1.667    0.400
        78  -9.9790    173.0671     85.5335   3.1484964093e+01   3.0078111591e+01    0.2082437     0.165619 -45.50 0.0002915997    1.105    0.095
        79  -9.9416     25.3487     73.8413   7.6415222188e+01   6.2246508472e+01    0.2250441    0.1188194 -56.31 0.0006098776    1.764    0.433
        80 -11.3857      4.9612     73.0927   8.8065456996e+01   6.4073366473e+01    0.2722641     0.211227  52.70 0.0003072179    1.342    0.255
        81 -10.6524      1.8545     70.4142   8.9551969234e+01   6.4960437204e+01    0.3477109    0.2004426 -49.97  0.001445458    1.643    0.391
        82 -10.8082     37.2796     69.3229   6.8608530680e+01   6.1981825969e+01    0.3385307    0.2388398  82.92            0    1.776    0.437
        83 -11.4092     11.2975     59.4357   8.1620563969e+01   6.7366073773e+01    0.4880009     0.231542  28.51  0.002090489    2.080    0.519
        84 -10.4747     12.1978     69.3651   8.3119427624e+01   6.4639346771e+01     0.243014    0.1921379  80.69 0.0002621058    1.316    0.240
        85 -11.6016     17.0571     63.2421   7.8790399122e+01   6.5892484237e+01    0.5667536    0.3348434 -23.03  0.001735736    2.066    0.516
        86 -11.1087      9.9659     66.0284   8.3852656327e+01   6.5699351499e+01    0.3266157    0.2260537   2.28 0.0003270637    1.578    0.366
        87 -11.6177      7.7728     62.9807   8.4666565542e+01   6.6660911269e+01    0.3875093    0.2269056 -62.09 0.0009528077    1.547    0.354
        88 -10.6175     81.0704     66.9245   4.7951715770e+01   5.4475451161e+01    0.2417846    0.2254785 -42.39  0.001269267    1.147    0.128
        89  -8.8267     50.6332     67.2780   6.1042852212e+01   6.0422998960e+01    0.1590683     0.114264  66.18 0.0007010099    1.680    0.405
        90  -9.2249     68.9527     65.8033   5.2235735824e+01   5.7305848913e+01    0.1926836    0.1192338  43.20            0    1.605    0.377
        91  -9.9489    167.0167     64.0123   2.6750324681e+01   3.4925373024e+01    0.2020773    0.1718693  12.56 0.0006805782    1.663    0.399
        92  -9.3510     59.4721     64.5744   5.5898664457e+01   5.9468512005e+01    0.1511302    0.1455073  70.23 1.672361e-05    1.015    0.014
        93  -9.5793    153.9992     60.9863   2.7895805906e+01   3.8359546353e+01     0.166591    0.1443336 -60.70 0.0003184613    1.018    0.018
        94 -10.0024     97.8560     60.7083   4.0175569883e+01   5.1892233702e+01    0.2129814    0.1863415  74.11 0.0004267861    1.108    0.098
        95 -11.0207     42.1970     59.2820   6.2602275240e+01   6.3763013891e+01    0.3595755    0.2434603 -38.60   0.00165992    1.623    0.384
        96 -10.7968     37.9197     59.3253   6.5004043918e+01   6.4411402947e+01    0.3221056    0.2358428 -47.03 0.0003350424    1.369    0.270
        97 -10.1943     58.0160     59.0044   5.4476544224e+01   6.1026475806e+01     0.219716    0.2080662  64.97 0.0003563215    1.041    0.040
        98 -11.3421    120.9212     57.7860   3.3190019497e+01   4.6826599133e+01    0.2934849    0.2092374 -51.83  0.001417144    1.349    0.259
        99  -9.3670     77.9918     57.9756   4.5732596008e+01   5.7052631808e+01    0.1710866    0.1626493 -75.61  0.000912776    1.042    0.040
       100 -10.0000      1.4622     57.4500   8.7882906395e+01   6.8471681023e+01    0.1354742    0.1276608 -66.48 3.881421e-06    1.023    0.022
       101 -10.3291    126.4419     53.9225   3.0704961385e+01   4.6129105530e+01    0.3039316    0.2655064   1.71  0.001148448    1.537    0.349
       102 -11.4400     84.7315     53.6995   4.1662196794e+01   5.6356675785e+01    0.5752929    0.4113797 -79.45  0.002580311    1.780    0.438
       103  -9.8747     78.4296     50.0061   4.2360190632e+01   5.8533726667e+01    0.2361428    0.1903646  56.47 0.0005411803    1.197    0.165
       104 -12.3592     62.0480     50.2447   4.9051746086e+01   6.2108240376e+01     0.493469    0.2585937 -47.39 0.0005136504    1.958    0.489
       105  -9.6379     35.0925     54.6903   6.4979431608e+01   6.5955474216e+01    0.2037359    0.1328723  16.43 0.0004315961    1.799    0.444
       106  -9.5639     15.4429     54.5475   7.7595881487e+01   6.8305404618e+01    0.1378611    0.1330298 -53.24 0.0001660798    1.017    0.017
       107  -9.3015    214.3051     52.9887   1.8613813388e+01   2.6829942405e+01    0.1496801   0.09007528 -39.70 0.0005519117    1.318    0.242
       108 -10.1060      3.0560     51.9166   8.5737417030e+01   6.9849576631e+01    0.3368979    0.1191415 -50.19  0.000930416    2.482    0.597
       109  -9.9540    143.0163     51.0403   2.6700022491e+01   4.2540028394e+01    0.2343028    0.1515824 -65.33 0.0005090559    1.596    0.373
       110 -10.6853    138.1070     50.2484   2.7287349976e+01   4.3857060687e+01    0.2345187    0.2172683 -52.93  0.000327573    1.136    0.120
       111 -11.2712     93.0076     50.0187   3.7570719494e+01   5.5062626361e+01    0.2422404    0.2051066  64.05   0.00125458    1.135    0.119
       112  -9.3626    102.2448     47.9917   3.4189841688e+01   5.3143125370e+01    0.1825867    0.1254738 -41.15 0.0002062323    1.476    0.323
       113 -10.1206     50.5046     48.0862   5.3660826245e+01   6.4867272809e+01    0.2851007      0.18837  53.36 0.0006588245    1.611    0.379
       114  -9.2568    124.6072     47.2253   2.8794424366e+01   4.7672051945e+01    0.1518506    0.1032398 -81.56  0.000559855    1.635    0.388
       115 -11.0466     16.9338     46.3007   7.4009653585e+01   7.0241989740e+01    0.2500257    0.1971826 -43.64  0.000374996    1.224    0.183
       116  -9.5741     26.0415     46.0401   6.7459371321e+01   6.9266565560e+01    0.1591367    0.1465522  17.35            0    1.085    0.078
       117 -11.1098     70.2182     41.0902   4.1539129327e+01   6.2082195433e+01    0.3998456    0.2972408 -56.53  0.001917478    1.452    0.311
       118 -11.2269     67.2292     35.8447   4.0231652773e+01   6.3691363452e+01    0.3087226    0.2753372 -66.50 0.0003039618    1.178    0.151
       119 -12.5158     85.6306     42.7264   3.6844398742e+01   5.8140395329e+01    0.2960801    0.2783664  53.56 0.0003390119    1.112    0.101
       120 -11.6467     90.9999     40.6695   3.4344845750e+01   5.7164530303e+01    0.5826377    0.3333576 -63.36 0.0009513499    2.311    0.567
       121 -11.0838    110.7561     41.8681   2.9780346987e+01   5.2002237511e+01    0.4070698    0.2926786  88.94   0.00114188    1.466    0.318
       122  -9.8193     28.0895     42.5180   6.4611583420e+01   6.9814097668e+01    0.2082212    0.1374179  25.31  0.001008257    1.546    0.353
       123 -10.3471    184.4105     41.2448   1.8512790280e+01   3.4415176027e+01    0.3350011    0.1643294  83.59  0.001435459    2.365    0.577
       124 -10.3616    117.0070     41.0088   2.8114973870e+01   5.0549110576e+01    0.2229673    0.1912609 -77.09 0.0003475443    1.079    0.074
       125 -10.5471     62.0340     41.0201   4.4899029617e+01   6.3928794361e+01    0.2132622    0.2015018  61.14  0.001195506    1.016    0.015
       126  -9.7297     52.9276     39.6386   4.8508387563e+01   6.6115437244e+01     0.201488    0.1778504  51.75 0.0004085778    1.102    0.093
       127  -9.6863     43.9749     39.9663   5.3450337218e+01   6.7789702302e+01    0.2242651     0.173985  77.59 0.0007454944    1.695    0.410
       128  -9.1759    147.3381     39.3234   2.2352273102e+01   4.3218637165e+01    0.1357685    0.1084417  33.53 0.0005077833    1.719    0.418
       129  -9.6021     80.9993     38.7425   3.6596939838e+01   5.9939404657e+01    0.2041866    0.1788366  66.64 0.0002812824    1.078    0.073
       130 -10.6464    121.7386     36.9960   2.5722274438e+01   4.9938764326e+01    0.2772106    0.2413931 -49.99  0.001058778    1.148    0.129
       131 -10.2341     75.6545     37.7944   3.7991817060e+01   6.1383973642e+01    0.2258431    0.2157947  85.22 0.0002605402    1.029    0.028
       132 -11.3996     38.8173     41.8245   5.7366614939e+01   6.8312102100e+01    0.2705881    0.2273666  67.69            0    1.378    0.274
       133 -10.1434     22.8281     34.5734   6.4830745841e+01   7.2312611429e+01     0.218569    0.1794766 -50.40 0.0001559406    1.217    0.178
       134  -9.9645      6.1007     34.6858   7.8742219661e+01   7.3991197407e+01     0.186728    0.1646618  -4.26  0.000706638    1.118    0.106
       135  -9.5115    112.5641     34.5381   2.6593620748e+01   5.2633825369e+01    0.1463528    0.1307001 -81.59 6.865426e-05    1.010    0.010
       136  -9.5632     45.4713     32.5454   4.8805471738e+01   6.8959302535e+01     0.139824    0.1337723  41.14 0.0001190847    1.013    0.012
       137 -10.9659     98.5772     30.3829   2.7989154384e+01   5.6810922393e+01    0.5103297    0.2744578  72.18   0.00204174    1.888    0.470
       138 -11.6378     39.3635     29.7629   5.0843388349e+01   7.0650584365e+01    0.2708553    0.2157894  31.58   0.00017982    1.244    0.196
       139 -11.2635     10.1628     29.5355   7.3104994230e+01   7.4869389732e+01    0.3757629    0.1914737  34.50  0.001753669    1.982    0.495
       140  -9.5274    201.5005     28.4910   1.3834850756e+01   3.2426169881e+01    0.1268615   0.09653176 -55.53 1.916316e-05    1.008    0.008
       141 -10.0501    117.4206     28.2629   2.3265459634e+01   5.2240926059e+01    0.1946584    0.1229558 -46.45 0.0003271726    1.520    0.342
       142 -10.5615     80.4248     27.3988   3.1499325404e+01   6.1836141233e+01     0.331249    0.2506543 -26.96  0.001705048    1.498    0.332
       143 -11.9537     91.2786     26.5885   2.8114754339e+01   5.9203235780e+01    0.2748556    0.2426562 -54.78 0.0002356646    1.151    0.131
       144 -11.2999     18.7189    248.1531   9.4479493539e+01   1.8512163806e+01    0.2610371    0.1677904  -3.80  0.001520583    2.138    0.532
       145 -11.1260     33.8289     24.8298   5.1521794412e+01   7.2578473040e+01    0.4052683    0.2944714 -75.42  0.001779568    2.087    0.521
       146  -9.1514    229.6767    247.7000   5.2214350656e+01  -2.2535100808e+00    0.1019269   0.05434344  -7.42 0.0003253404    1.629    0.386
       147 -11.6503    216.9620     25.7440   1.2176978609e+01   2.9697416854e+01    0.2068533    0.1469899 -48.96 0.0002803755    1.060    0.056
       148 -11.6295    213.0187     23.9230   1.1993588239e+01   3.0664810457e+01    0.2479032    0.1563319 -61.25 0.0002930425    1.296    0.228
       149 -10.8226    183.0008     25.6014   1.4503217310e+01   3.6687003290e+01    0.2230787    0.1743557 -46.35 0.0002855955    1.142    0.124
       150 -10.8257    129.0017     23.2254   1.9562369558e+01   4.9899731568e+01    0.5739835    0.3284552  61.14  0.002023611    1.724    0.420
       151  -9.8345      3.8835     23.2062   7.6428552835e+01   7.6829576260e+01    0.4169223     0.091408 -68.61  0.001194374    5.495    0.818
       152  -9.8147     52.9807     23.6765   3.9923422055e+01   6.8905138933e+01    0.2014608    0.1717892  52.81 0.0005070968    1.101    0.092
       153 -11.3907     15.8901     22.1046   6.4077164123e+01   7.5868345709e+01    0.3179142    0.2237536 -60.38  0.001725646    1.570    0.363
       154  -9.7178    130.0699    247.0261   6.9773645344e+01   7.3525939543e+00    0.2112903   0.08971079  41.60 0.0008144896    2.580    0.612
       155 -10.1330    112.8166     21.3033   2.1363462992e+01   5.4300803746e+01    0.2523479    0.1712315 -50.20    0.0012791    1.424    0.298
       156 -10.1981    101.0390     21.0455   2.3451957128e+01   5.7393303871e+01    0.3099798    0.2263785 -46.20  0.001622278    1.369    0.269
       157 -10.3425     63.8315     21.6217   3.4132820319e+01   6.6708651996e+01    0.2771225    0.2104845  43.88  0.001465045    1.312    0.238
       158 -11.0074     45.4118    245.5974   8.8309424612e+01   1.6532580200e+01    0.2280055    0.1491117 -20.23  0.001284693    2.257    0.557
       159  -9.3832     25.0844     16.8416   5.2748395383e+01   7.5532290412e+01    0.1972659     0.148571 -33.65 0.0003602325    1.380    0.275
       160  -9.1548     25.2792     13.6754   5.0314037918e+01   7.6045193726e+01    0.1229297    0.1054569  86.58 0.0002789367    1.590    0.371
       161  -9.4557    233.3839     15.1735   9.0089236951e+00   2.7834079334e+01    0.1587209   0.06984355 -42.98 0.0002528943    1.544    0.352
       162 -10.9962      3.4956    242.5521   9.7757424939e+01   2.0846433664e+01    0.1911196    0.1591895  48.23 0.0005844547    1.134    0.118
       163  -9.8631    147.2114    243.7706   6.5954632017e+01   6.0136862975e+00    0.1637525    0.1132666  -5.31  0.001082121    1.376    0.273
       164 -10.3954     14.8360    244.1721   9.5233866403e+01   1.9599762600e+01    0.1483123    0.1296276  12.87  0.001069099    1.340    0.254
       165 -10.1687     36.9371    240.7847   9.0017386383e+01   1.8258619062e+01    0.2588569    0.1087965  56.49  0.001258994    2.302    0.566
       166  -9.3516    117.6697    238.7184   7.1469904315e+01   1.0031815389e+01    0.1196728   0.08078353  -3.35 0.0003265059    1.607    0.378
       167 -10.7703     17.9952    235.4528   9.4228839582e+01   2.1032134925e+01    0.1864258   0.09709933  26.44 0.0006577446    1.572    0.364
       168 -10.5386     56.2824    230.7648   8.4837417842e+01   1.8279292768e+01    0.3273456    0.1867026 -15.14  0.001486583    3.010    0.668
       169  -9.4095    161.4822    229.5176   6.1375204733e+01   6.5869441064e+00    0.1159986   0.09254938   4.45  0.000810155    1.006    0.006
       170 -11.2792      6.5920    227.8978   9.6707308266e+01   2.3526993380e+01    0.4079096    0.1263004  58.35  0.001776961    2.710    0.631
       171  -9.4418    223.6445    225.6705   5.0112407886e+01   8.1122746958e-01    0.1116177   0.06059547  -8.52 7.706468e-05    1.782    0.439
       172 -11.0740      2.0556    220.5422   9.7628847205e+01   2.5433122744e+01    0.3726726    0.1530522  69.56  0.001796656    2.272    0.560
       173  -9.3622     86.4911     10.4598   2.1614181836e+01   6.2359150308e+01    0.1410198    0.1229488 -87.86 0.0001805664    1.060    0.057
       174 -10.1272     31.5075     10.5113   4.3285886276e+01   7.5391166330e+01    0.1321081    0.1199916  29.34 0.0003551902    1.014    0.014
       175  -9.0913    210.2855    215.6786   5.0754412681e+01   3.3616172560e+00   0.08927593   0.08328104 -22.65  0.000574226    1.596    0.373
       176 -11.4040    212.2228     16.7006   1.0360863891e+01   3.1624412143e+01    0.2708558     0.174597 -86.55 0.0004011058    1.538    0.350
       177  -9.5938    237.5080    186.9812   4.2206508163e+01   4.3590017818e+00     0.163879   0.08203322 -32.96 0.0008621141    1.566    0.362
       178  -9.3150      1.2791    164.3165   9.6258454514e+01   3.8898171654e+01    0.1313573   0.09886838 -49.66 0.0002199653    1.574    0.365
       179  -9.3461    240.3189    163.3088   3.7883670197e+01   7.2087688693e+00    0.1112318   0.06968149 -12.30     0.000476    1.639    0.390
       180 -10.3749      7.1821    154.0062   9.3896012423e+01   4.1227360428e+01    0.2332257    0.1604847  59.50 0.0009263263    1.285    0.222
       181 -10.1449     23.1894    148.4667   8.8034650842e+01   4.1433438628e+01    0.2846526    0.1983609 -81.84  0.001387923    1.387    0.279
       182 -11.4031      3.6032    147.0187   9.4776341611e+01   4.3371771912e+01    0.3619836    0.2322941  88.12 0.0007913256    1.440    0.306
       183  -9.9396     15.9374    138.9918   8.9862128149e+01   4.4690298594e+01    0.2818182    0.1895683 -80.91   0.00137117    1.411    0.291
       184 -12.3056     69.2522    135.8784   7.0260870518e+01   3.9236988774e+01    0.2938375    0.2735238 -69.67 0.0004050338    1.090    0.082
       185  -9.3446     37.2340    132.0490   8.1173673559e+01   4.4585485448e+01     0.185196    0.1220494 -72.99 0.0008335226    1.475    0.322
       186  -9.8892     59.0138    131.3036   7.3027135485e+01   4.1993648920e+01    0.2078529    0.1921496  50.39 0.0002991244    1.054    0.052
       187 -11.1834    246.5060    127.5153   3.0725281555e+01   1.1364068287e+01    0.1968898    0.1464643 -30.31 0.0005873913    1.044    0.042
       188 -10.1318     39.9614    128.0401   7.9586652493e+01   4.5399988677e+01    0.2453876    0.2221908  57.63 0.0006859624    1.049    0.047
       189 -11.0383     75.0038    126.5056   6.6521991155e+01   4.0816751114e+01    0.2724152    0.2211866 -63.89 -9.094663e-05    1.228    0.186
       190  -9.1257      7.8324    126.6408   9.2024852178e+01   4.8766527920e+01    0.1874616    0.1234057  34.57 0.0002536679    1.468    0.319
       191  -9.2991     54.9879    124.0256   7.3228900600e+01   4.4571412463e+01    0.1846505    0.1732126  64.62            0    1.021    0.020
       192  -9.7495     83.3356    122.2781   6.2825929595e+01   4.0501016605e+01     0.237273      0.22354 -41.52 0.0003213121    1.139    0.122
       193 -10.6262     81.4600    119.1654   6.2766000392e+01   4.1638330214e+01    0.3960727    0.2975518  18.85  0.001794891    1.596    0.374
       194  -9.3992     74.7554    121.9774   6.5673386636e+01   4.2056976072e+01    0.1980553    0.1315325 -60.93 0.0003765038    1.498    0.333
       195 -10.2907      9.9771    121.4723   9.0773065004e+01   5.0087254526e+01     0.214225    0.1426261  20.02 0.0004390751    1.575    0.365
       196 -10.4797     24.0426    120.3244   8.4892961528e+01   4.9276094337e+01    0.2360278    0.2102459  83.72 0.0004070637    1.043    0.041
