#   1 NUMBER                 Running object number                                     
#   2 MAG_AUTO               Kron-like elliptical aperture magnitude                    [mag]
#   3 X_IMAGE                Object position along x                                    [pixel]
#   4 Y_IMAGE                Object position along y                                    [pixel]
#   5 X_WORLD                Barycenter position along world x axis                     [deg]
#   6 Y_WORLD                Barycenter position along world y axis                     [deg]
#   7 A_WORLD                Profile RMS along major axis (world units)                 [deg]
#   8 B_WORLD                Profile RMS along minor axis (world units)                 [deg]
#   9 THETA_WORLD            Position angle (CCW/world-x)                               [deg]
#  10 FWHM_WORLD             FWHM assuming a gaussian core                              [deg]
#  11 ELONGATION             A_IMAGE/B_IMAGE                                           
#  12 ELLIPTICITY            1 - B_IMAGE/A_IMAGE                                       
         1 -14.6643     34.2122     86.0635   6.9042040495e+01   5.6175599333e+01     1.679793     1.232059  54.15  0.009158106    1.858    0.462
         2 -14.9790    233.9290     54.7609   1.0366768552e+01   2.0985074060e+01     2.008507    0.8286612 -54.05   0.00853015    2.403    0.584
         3 -14.7108    144.1091     39.9594   1.9531400289e+01   4.3884353982e+01      3.00663     1.395381 -54.41   0.01130815    3.164    0.684
         4 -12.8718     31.4075     25.5327   5.0000470920e+01   6.7966971393e+01    0.6791183    0.4007079 -26.58  0.003146903    1.527    0.345
         5 -13.3636     24.2579     22.3809   5.2188425453e+01   6.9255444215e+01    0.9631368    0.4784929  19.03  0.005233573    1.979    0.495
         6 -14.0342    102.5013     21.3094   2.2419734295e+01   5.5763970917e+01     1.041455     0.760437 -54.27  0.005786366    1.833    0.454
         7 -13.5188    144.6508     16.1289   1.2292258985e+01   4.6402987919e+01    0.8762807    0.5171552  84.81  0.004328328    1.867    0.464
         8 -13.4623    136.7352      4.8218   1.0136541148e+01   4.9294283170e+01    0.9650401    0.5366636  82.71  0.004609739    1.887    0.470
         9 -12.6948     89.7731     15.5433   2.3544679113e+01   5.9099072423e+01      0.51856    0.4252416  48.66  0.002682629    1.120    0.107
        10 -13.4570      6.7051     15.7892   5.8833841702e+01   7.1911550999e+01    0.6455628    0.3174532  11.18  0.003750502    1.983    0.496
        11 -13.4220      3.6971      7.9177   5.6950815536e+01   7.3304172034e+01    0.5415785    0.3733658 -26.61  0.002495201    1.216    0.178
        12 -12.7821     18.8618     11.1191   4.9768599275e+01   7.1414142155e+01    0.3569746    0.2147715  12.14  0.001591227    1.464    0.317
        13 -12.2073    249.6852      9.5586   6.8740054835e-02   2.3470375428e+01    0.3501229    0.1287026 -54.29   0.00179183    2.241    0.554
        14 -12.5525    247.5485      3.0632   3.5901399170e+02   2.4588872507e+01     0.324969    0.2333682 -89.92  0.002338536    1.208    0.172
        15 -13.1280     34.0699      8.4879   4.0675400525e+01   6.9827703241e+01     0.767084    0.4542584  30.10  0.004560012    1.458    0.314
        16 -12.6271     62.4089      7.8299   2.8724443518e+01   6.5258926011e+01    0.6277778    0.3113993  45.06  0.003361743    1.677    0.404
        17 -12.8506     55.7409      2.9981   2.8862397710e+01   6.6898975635e+01    0.7100824    0.3048212  52.64  0.003482964    2.319    0.569
        18 -12.5353     15.8299      3.8338   4.7738939551e+01   7.2669881077e+01    0.3881837    0.2437181  11.12  0.002610053    1.318    0.241
        19 -15.0039     34.9984    134.7600   7.8403093924e+01   4.4306395155e+01     1.868936     1.528145 -60.63   0.01093581    1.076    0.071
        20 -13.3264    150.7078    247.0621   6.6012180672e+01   1.5637648933e+00    0.6905082    0.5362606  32.18  0.003653847    1.087    0.080
        21  99.0000     87.6193    230.5104   7.7592754822e+01   1.4495067548e+01     1.250806    0.8554121 -31.61  0.006385724    2.220    0.550
        22 -14.1721    102.4327    246.1529   7.6182556012e+01   9.1681998729e+00     1.125075    0.7461528  60.54  0.006008748    1.564    0.361
        23 -13.2454     98.2990    230.0855   7.5166716179e+01   1.2985905895e+01    0.9838357    0.4180646 -48.93  0.004152001    2.801    0.643
        24 -14.4619    128.7370    247.8170   7.0781791572e+01   4.8479766800e+00     1.676551    0.4578061  38.84  0.006175577    2.956    0.662
        25 -13.9160    116.5022    240.8444   7.2512352174e+01   8.0412652853e+00    0.7813404    0.6207489  45.06  0.002949343    1.096    0.087
        26 -14.3941    111.0538    230.5186   7.2370054187e+01   1.0923509683e+01     1.120339     0.751835  50.75  0.004282899    1.404    0.288
        27 -12.8601     68.5669    248.3391   8.3474009069e+01   1.3555397719e+01    0.5568861    0.4170848  35.86  0.003003434    1.326    0.246
        28 -11.9811     27.3194    249.7561   9.1658258315e+01   1.8331472079e+01    0.4946348    0.2552744  39.83   0.00265266    1.703    0.413
        29 -11.9708     26.7361    244.7854   9.1461407462e+01   1.9379646992e+01    0.3113579    0.2204202  81.45  0.001234138    1.204    0.170
        30 -13.0437     12.6254    248.4642   9.4290004770e+01   2.0146360883e+01    0.5435862    0.2452457  53.00  0.003177712    1.729    0.422
        31 -13.7926     11.8866    239.7449   9.3963533363e+01   2.1952507454e+01    0.7749752    0.3500434  74.96  0.003090829    2.076    0.518
        32 -11.3755     42.1056    218.2166   8.6360773732e+01   2.3232895033e+01     2.037379    0.5042821  51.57  0.006762311    4.349    0.770
        33 -14.0094      4.4968    137.0278   8.7773945247e+01   4.6167774908e+01     1.787382    0.5941311 -80.52  0.006805278    3.064    0.674
        34 -13.1301      1.6363    243.0156   9.6001668837e+01   2.2296864522e+01     1.063425    0.1234022 -78.03  0.003136899    7.808    0.872
        35 -12.5331     55.9994    243.3620   8.5597489034e+01   1.6190475835e+01    0.9350958    0.4147168  47.53  0.004731019    1.861    0.463
        36 -11.7625     60.6162    235.6191   8.3963080706e+01   1.7180303070e+01    0.7481887    0.2718902  40.89  0.003360568    2.258    0.557
        37 -12.9488     18.2293    199.6721   9.0070344058e+01   2.9994576493e+01     1.043782    0.4631406  79.79  0.004694934    2.497    0.600
        38 -14.3573      3.5747    189.7255   9.2590664608e+01   3.3588502916e+01      1.08271    0.4172505  89.43  0.004221555    2.588    0.614
        39 -13.4275     20.8078    171.7512   8.7014985933e+01   3.6387376772e+01     1.082549    0.5543313  72.25  0.005035393    2.212    0.548
        40 -13.4925     32.1531    230.4041   8.9425977704e+01   2.1736220848e+01     1.274342    0.9448717  70.97   0.00841005    1.105    0.095
        41 -13.0612      3.2786    229.2667   9.5023723541e+01   2.4926575098e+01    0.5024294    0.2397332  85.14  0.002043505    1.844    0.458
        42 -14.6017     16.4028    156.5703   8.6597461828e+01   4.0497444674e+01     1.138778     1.017633  29.64  0.006477122    1.334    0.250
        43 -14.9038      5.5839    210.6876   9.3523907732e+01   2.8687017866e+01     1.111108    0.7349337 -78.85  0.006459374    1.323    0.244
        44 -13.4071     22.2814    186.9285   8.8082781831e+01   3.2588346118e+01     1.097748    0.4534926  61.00  0.004626387    2.786    0.641
        45 -15.2136      7.0921    172.5356   9.0471584158e+01   3.7353205919e+01     1.812056    0.7156416  87.23  0.007475779    2.837    0.647
        46 -14.1718     20.8196    224.7857   9.1328062580e+01   2.4153279769e+01    0.8177389    0.5011972 -69.57  0.003762839    1.594    0.373
        47 -14.3478     13.7747    218.5857   9.2348256534e+01   2.6196605532e+01     0.857967    0.4196709 -63.31  0.004115058    2.043    0.510
        48 -14.9510     82.6668    174.0637   7.1032156859e+01   2.8266038742e+01     2.094258     1.536373 -75.34   0.01040546    1.418    0.295
        49 -14.7474     39.8381    114.9662   7.3357849846e+01   4.8767534604e+01     2.389967    0.6254056  32.92  0.008277252    3.743    0.733
        50 -15.1951     34.5197    104.1525   7.3025464219e+01   5.1923038544e+01     1.935275    0.9219396  32.92  0.006960893    2.305    0.566
        51 -15.1761     55.3419    142.6517   7.3509002510e+01   4.0044979757e+01     2.629286     1.082771 -65.46   0.01003204    2.352    0.575
        52 -10.9979     75.9903    204.9967   7.7187575463e+01   2.1811706779e+01     0.293144    0.2354905  24.45  0.001279302    1.414    0.293
        53 -11.8411     79.4459    200.4754   7.5763694765e+01   2.2361775485e+01    0.4478317    0.3746459  46.00  0.002393413    1.142    0.124
        54 -11.7202     35.3237    203.4632   8.6552251292e+01   2.7352200681e+01    0.3433695    0.2038529  46.43    0.0012437    1.562    0.360
        55 -11.6113     73.5905    193.2527   7.6240987389e+01   2.4920948311e+01    0.3644496    0.2817942 -60.84  0.001331757    1.305    0.234
        56 -14.2671    129.7812    180.4236   5.9846875797e+01   1.8666548952e+01     1.438489     1.067992  75.55   0.00556021    1.822    0.451
        57 -14.8609    129.7955    165.8678   5.6952666887e+01   2.2055713767e+01     2.220136     1.375828 -76.97  0.008130421    2.744    0.636
        58 -13.4514    150.6331    177.0385   5.4031531271e+01   1.5500078334e+01    0.8181159    0.6415883 -74.91   0.00388708    1.664    0.399
        59 -13.1348    161.1857    163.5757   4.8674206340e+01   1.6396453221e+01    0.5296822    0.4668866 -28.47  0.002268417    1.132    0.117
        60 -13.0766    159.8856    171.6786   5.0713854853e+01   1.4885758157e+01    0.6856579    0.2473895 -47.30  0.002288162    2.816    0.645
        61 -10.4302     50.3948    173.0767   7.9514672299e+01   3.2941376600e+01    0.4198622    0.3092921  86.08  0.002029891    1.353    0.261
        62 -11.7914     48.7574    166.0796   7.9016409912e+01   3.4890797783e+01    0.4439827    0.3273965  68.74  0.001675121    1.410    0.291
        63 -14.5876     70.9180    156.3356   7.1306375822e+01   3.4472085132e+01     2.216685     1.455153 -56.54  0.008530116    1.435    0.303
        64 -13.6353    143.7285    161.2895   5.2430503046e+01   2.0395918041e+01     0.621484    0.5232384 -78.41  0.003026511    1.434    0.302
        65 -13.3894    144.0863    154.1738   5.0773455934e+01   2.1954952699e+01    0.6822406    0.5190694 -88.01  0.002979833    1.876    0.467
        66 -10.9062     93.0691    150.3728   6.3807955887e+01   3.2525445913e+01    0.3342487    0.1976213  22.11   0.00133655    2.138    0.532
        67 -14.6507    127.1179    124.6387   4.8189316844e+01   3.2290446314e+01     1.491018    0.6531633 -49.44  0.005208293    2.327    0.570
        68 -14.0755    130.5354    141.4467   5.1371227783e+01   2.7673176754e+01     1.096487    0.6681149 -30.54  0.004285325    2.049    0.512
        69 -14.6588    137.8855    131.6697   4.7070992299e+01   2.8408215395e+01     1.241693    0.8291078 -59.37  0.005228236    1.720    0.419
        70 -14.5967     92.6507    106.9044   5.3733553789e+01   4.3181686560e+01     1.872417     1.328149 -80.77  0.007914554    2.184    0.542
        71 -13.3321     74.4607     91.3519   5.5487616329e+01   4.9804409036e+01       1.2685    0.7611833  37.61  0.005737788    1.730    0.422
        72 -14.0863    107.1022    137.3039   5.6920626788e+01   3.3264995088e+01     1.443917     1.013157  65.72  0.005637528    1.876    0.467
        73 -14.2406     96.3109    127.6169   5.7841783755e+01   3.7605377654e+01     1.555361     1.153904  58.64  0.007163533    1.591    0.372
        74 -12.9124    146.4185    141.7164   4.7313616940e+01   2.4317255912e+01    0.6204104     0.515111  44.80  0.003014793    1.219    0.180
        75 -11.7405     74.5261    134.1878   6.6008855267e+01   3.9563061591e+01    0.2588059    0.2473838 -41.37 0.0004018879    1.044    0.042
        76 -11.0661     15.7151    128.9642   8.3475334610e+01   4.7394787435e+01    0.2765583    0.2196084 -54.87  0.001231645    1.140    0.123
        77 -11.6686     14.4555    122.1369   8.2919044963e+01   4.9167445132e+01    0.5534021    0.2684359 -60.48  0.002569369    1.634    0.388
        78 -13.3371     73.3058    112.8465   6.1577906152e+01   4.5017365783e+01     1.220562    0.6808618 -62.68  0.005054213    2.000    0.500
        79 -14.5006    112.6837    113.5123   4.9381656571e+01   3.7814309728e+01     1.202183    0.8710716 -34.82  0.004588912    1.437    0.304
        80 -15.2128    111.8004    100.0173   4.5926453291e+01   4.0990133076e+01     2.214823     1.470788  65.65    0.0090373    2.165    0.538
        81 -13.3499      3.9358     98.9774   8.2950911426e+01   5.5378865980e+01     0.838757     0.432006 -88.42  0.003930913    2.433    0.589
        82 -14.2898    239.4584     86.6549   1.6519996974e+01   1.5032566574e+01     1.947521     0.778394 -61.18  0.005623914    5.729    0.825
        83 -13.2749     45.0296    148.2570   7.7489528849e+01   3.9834867742e+01    0.5346656    0.3372275 -14.99  0.001543812    2.438    0.590
        84 -12.8262     44.3989    157.6153   7.9044506205e+01   3.7530478895e+01    0.9725938    0.4822189 -70.96  0.004284936    1.898    0.473
        85 -13.4650     98.2238     79.3103   4.3872456512e+01   4.8013013633e+01    0.4069762    0.3847959 -42.15   0.00222355    1.142    0.124
        86 -11.4974      7.9170    108.1515   8.3000039142e+01   5.2981693560e+01    0.3121798    0.2192924  83.05   0.00142042    1.616    0.381
        87 -12.8059    240.6596     46.7090   8.0059122993e+00   2.0717523894e+01    0.3583876     0.229589  47.10  0.001452454    2.163    0.538
        88 -14.7019    246.3380     70.2588   1.2258852061e+01   1.6223328374e+01     1.166589    0.5668892 -39.07  0.005792065    1.826    0.452
        89 -13.1263    163.8183    244.8018   6.2918284274e+01  -9.1035158221e-02    0.5567933    0.4544433  -0.95  0.002608754    1.253    0.202
        90 -14.1622    200.7025     71.7542   1.8495020830e+01   2.5705641335e+01     1.100871    0.9636629  66.28  0.006410256    1.168    0.144
        91 -13.6702    196.5322     62.1760   1.6774949355e+01   2.8151295939e+01     1.106693    0.6355418  78.80  0.004982839    2.051    0.512
        92 -12.2793     14.8768     62.8023   7.1060372671e+01   6.2816525631e+01    0.6502183    0.3404739 -64.79  0.003288467    2.076    0.518
        93 -13.1519      3.8702     68.5789   7.7257175317e+01   6.2250072789e+01    0.8098859    0.3656674 -63.32  0.003891809    1.916    0.478
        94 -13.1791      3.5798     51.9004   7.3263600578e+01   6.5725908043e+01    0.8616945    0.4100442 -58.28  0.004636524    1.832    0.454
        95 -12.0074     11.4483     52.0803   6.9601235732e+01   6.5217788312e+01    0.5143413    0.2445415 -46.70  0.002197544    1.640    0.390
        96 -11.8350     38.0898     71.3226   6.3515800391e+01   5.8997156609e+01    0.3483543    0.3015125 -38.18  0.001949182    1.112    0.101
        97 -13.7152    164.4073    234.8693   6.1262558930e+01   1.5188231623e+00    0.6706723    0.6230099 -82.58  0.004227328    1.440    0.305
        98 -14.5044     94.4490    193.9455   7.1112421850e+01   2.1600205552e+01     1.617383     1.009731  86.00  0.006864161    2.300    0.565
        99 -12.6025     79.5912     55.1618   4.1928639826e+01   5.5964960017e+01    0.4256476    0.3256606  89.42  0.002002642    2.537    0.606
       100 -13.3793    249.1301     47.7600   7.4212103497e+00   1.8885241789e+01    0.6303415    0.2797306 -37.85   0.00315325    2.064    0.516
       101 -10.9766     28.8007     47.9655   6.0105560583e+01   6.4549610641e+01    0.2220781    0.1684669   5.53  0.001401629    1.248    0.199
       102 -12.0422     64.3884     38.8316   4.1298849840e+01   6.1210465541e+01    0.4513679    0.3280903  42.56   0.00236693    1.457    0.314
       103 -12.2048     44.4157     45.1677   5.2012789983e+01   6.3228109438e+01    0.8069803    0.4166157  17.61  0.003817913    2.206    0.547
       104 -12.5086      3.5772     34.4343   6.7908405387e+01   6.9041124020e+01    0.6204877    0.3185287 -51.01  0.003616433    1.701    0.412
       105 -11.5961     52.3814     33.0738   4.3751298903e+01   6.3987825362e+01    0.3322415    0.2553093  27.44  0.001807191    1.231    0.187
       106 -11.8623    194.3830    246.7663   5.6952442807e+01  -5.0108019767e+00    0.2578425    0.1987122 -71.12  0.001411819    2.564    0.610
       107 -15.1609    134.9834    229.9839   6.6945290229e+01   7.1891739238e+00     1.431531     1.275165 -21.41  0.006390525    1.260    0.206
       108 -13.1453    129.5635    217.3919   6.6269710620e+01   1.0599832540e+01     1.016819    0.4779356 -58.83  0.004187761    2.573    0.611
       109 -12.2657    247.2930     19.0003   1.9912950549e+00   2.2870538505e+01    0.2826707    0.1963977 -49.78  0.001903659    1.275    0.216
       110 -13.5728    120.8411    212.5686   6.7556636844e+01   1.3072427531e+01    0.7909962    0.6395848  83.47  0.003052571    1.483    0.326
       111 -11.7742     46.5711    233.0648   8.6674529721e+01   1.9488767341e+01    0.3016261    0.2139069 -77.45  0.001209973    1.387    0.279
       112 -10.9355     73.1887    231.4820   8.0867550199e+01   1.6352611748e+01     0.287605    0.1605277  64.52  0.001404343    1.958    0.489
       113 -13.6076    153.7030    220.6692   6.1310121133e+01   5.8821530761e+00     0.581364    0.5497884  22.20  0.003557958    1.082    0.075
       114 -12.7640     63.9038    217.8805   8.1496205503e+01   2.0563332310e+01    0.7963904    0.4612361  48.05  0.003452057    1.547    0.354
       115 -11.5825    208.7480    219.7406   4.9487308803e+01  -2.8783943347e+00    0.2367637    0.1553744 -30.91  0.001295191    1.476    0.322
       116 -13.6551    108.2270    203.0593   6.9107462949e+01   1.7259390143e+01     1.454126    0.6290234 -59.11  0.005710635    2.509    0.601
       117 -12.0875    185.3170    215.7104   5.3565395914e+01   1.5234614134e+00    0.3211139    0.1830979  38.41  0.001546376    1.677    0.404
       118 -12.4726    168.0616    207.2184   5.5777814688e+01   6.0265765304e+00    0.4600729     0.338893 -34.94  0.002408267    1.410    0.291
       119 -13.4987    144.0577    202.8824   6.0490621504e+01   1.1125249332e+01    0.8618113    0.5834145 -66.36  0.004010367    1.937    0.484
       120 -12.0704     40.8679    246.2520   8.8836677464e+01   1.7472106568e+01    0.5637134    0.2492172  59.17  0.002857373    2.089    0.521
       121 -11.5876     68.1929     17.7938   3.1124382324e+01   6.3195494702e+01    0.3197397    0.1922056  45.08   0.00177877    1.480    0.324
