#   1 NUMBER                 Running object number                                     
#   2 MAG_AUTO               Kron-like elliptical aperture magnitude                    [mag]
#   3 X_IMAGE                Object position along x                                    [pixel]
#   4 Y_IMAGE                Object position along y                                    [pixel]
#   5 X_WORLD                Barycenter position along world x axis                     [deg]
#   6 Y_WORLD                Barycenter position along world y axis                     [deg]
#   7 A_WORLD                Profile RMS along major axis (world units)                 [deg]
#   8 B_WORLD                Profile RMS along minor axis (world units)                 [deg]
#   9 THETA_WORLD            Position angle (CCW/world-x)                               [deg]
#  10 FWHM_WORLD             FWHM assuming a gaussian core                              [deg]
#  11 ELONGATION             A_IMAGE/B_IMAGE                                           
#  12 ELLIPTICITY            1 - B_IMAGE/A_IMAGE                                       
         1 -12.9259    185.4865     35.5042   5.9243211356e+01   3.4397390291e+01     1.459873     1.023591  21.57   0.00504305    1.758    0.431
         2 -11.7502    189.7688     29.3939   5.6656045622e+01   3.4023747435e+01    0.6599236    0.5374932  57.59  0.001518545    1.205    0.170
         3  -9.6396    189.5173     14.5704   5.1995601036e+01   3.5779623012e+01     0.303407    0.1429667 -23.25  0.001213858    2.178    0.541
         4 -11.7347    211.1099      4.0737   4.6409570833e+01   3.1114761713e+01    0.8004085    0.5034211  38.52  0.003160438    1.876    0.467
         5 -11.5953    205.4960      4.5004   4.7086293303e+01   3.2540577761e+01    0.5389372    0.4600324 -29.83  0.003056582    1.197    0.165
         6  -9.0103     67.2379    225.6194   1.2310974280e+02   2.2594469956e+01    0.2001221    0.1304178  36.75  0.001398216    1.651    0.394
         7 -19.4630     26.4179    143.3775   1.2486328972e+02   4.2654122698e+01     17.31475     2.701406 -74.96   0.05280776    6.148    0.837
         8 -11.8033    129.1226    211.1846   1.1067038350e+02   1.6175272165e+01    0.4798457    0.3120309  76.83  0.002311872    2.014    0.504
         9 -10.9373    106.2283    210.5974   1.1484856072e+02   1.9756187615e+01    0.5065394     0.176135  46.07   0.00243238    2.239    0.553
        10 -11.0032    114.4710    207.2815   1.1295566305e+02   1.9063596105e+01    0.3302363    0.1896926 -44.24  0.001850109    2.527    0.604
        11 -11.4483    113.6063    195.5291   1.1176717565e+02   2.1166927511e+01    0.3925483    0.3047076  11.71  0.002370427    2.013    0.503
        12  -8.6740    185.3161    212.6597   1.0068210143e+02   6.7957288169e+00    0.1130739   0.08665018  64.95 0.0007048326    1.706    0.414
        13 -11.2588    108.3461    203.8829   1.1373745575e+02   2.0552618644e+01    0.3234979     0.222215  48.87  0.001250369    1.179    0.152
        14  -9.9131     95.0726    201.3381   1.1599691649e+02   2.2938995061e+01    0.4460112    0.2229215 -59.36  0.001605698    2.281    0.562
        15  -9.1366     85.6010    201.0248   1.1777345053e+02   2.4328505904e+01    0.4733441     0.129426  54.98  0.001654286    4.630    0.784
        16  -9.1789    140.9560    198.1669   1.0680702562e+02   1.6309154571e+01    0.1930408    0.1434964  57.97 0.0006363522    1.251    0.201
        17 -10.6629    101.8894    196.7044   1.1418863159e+02   2.2748014425e+01    0.4035546    0.2945839  -0.36   0.00214489    2.984    0.665
        18  -9.2168     81.6961    195.4236   1.1798470855e+02   2.5860890742e+01    0.2092367    0.1944608 -56.59  0.001562598    1.484    0.326
        19  -9.4936    192.0593    192.5212   9.6387042176e+01   8.3045986538e+00    0.3742481    0.2219108 -62.96  0.001646886    3.758    0.734
        20  -8.7834    152.5944    193.5632   1.0393141789e+02   1.5065328769e+01    0.3417711    0.1591525  62.50  0.001205775    4.382    0.772
        21 -10.7131     74.4419    183.5479   1.1825359925e+02   2.9037007566e+01    0.4171156    0.3230438  57.91  0.001957204    1.098    0.089
        22  -9.0065     98.0598    190.7186   1.1427359446e+02   2.4379022547e+01    0.1749496    0.1304806  51.25  0.001135599    1.135    0.119
        23  -8.8560     59.5568    188.6655   1.2169313239e+02   2.9972074246e+01    0.2311268    0.1788086 -53.41   0.00160193    1.757    0.431
        24 -11.5599     73.3439    189.1861   1.1902350290e+02   2.8124188344e+01    0.6962309    0.4735766  34.98  0.003930837    1.638    0.390
        25 -10.5893    172.5776    220.8539   1.0404698909e+02   7.8261960810e+00    0.3539395    0.1324079  39.41  0.001697272    2.157    0.536
        26  -9.8686     99.3199    180.8325   1.1285745925e+02   2.6004342259e+01    0.2207255     0.180947  50.22 0.0006945936    1.141    0.124
        27 -10.6096     93.6159    161.2758   1.1154720687e+02   3.0668839414e+01    0.5457621     0.259531 -51.37   0.00258655    2.389    0.581
        28 -11.1990     84.4828    173.5290   1.1508610905e+02   2.9582190625e+01     0.391334    0.2841945 -57.60  0.001469462    1.570    0.363
        29 -10.9949     87.5529    169.2290   1.1391242583e+02   2.9984496466e+01    0.3741091    0.3539031 -67.26  0.001055021    1.304    0.233
        30  -7.8504    165.6206    172.8598   9.8103064352e+01   1.6048970626e+01    0.1644853    0.1255575 -61.65 0.0005045304    1.658    0.397
        31 -10.4738    119.9548    173.2898   1.0754410480e+02   2.4119353183e+01    0.4593104    0.1171965  39.40  0.001530841    3.865    0.741
        32  -9.2907    124.4749    171.4607   1.0632204786e+02   2.3693854504e+01    0.2209008    0.1146525  42.60 0.0006120456    1.719    0.418
        33 -10.2269    103.2073    172.7239   1.1100849590e+02   2.6939518545e+01    0.2641583    0.2282369  27.65  0.001695666    1.422    0.297
        34  -8.7622    114.5456    169.4715   1.0813737875e+02   2.5735566433e+01    0.1295119     0.111472  62.25 -3.748361e-05    1.010    0.010
        35 -10.9653     73.3464    212.6341   1.2106745152e+02   2.3963534511e+01    0.3160397    0.2044383 -76.81 0.0006241255    1.627    0.386
        36  -9.5938    194.1913    166.8433   9.1481110046e+01   1.1582616696e+01    0.2695585    0.2476419  32.80 0.0008041804    1.097    0.089
        37  -9.4430     72.2999    167.1120   1.1696065445e+02   3.2533479559e+01    0.1972874    0.1560905  40.34 0.0008707592    1.371    0.271
        38  -8.9101    204.0326    164.4592   8.9195848269e+01   1.0053951287e+01    0.2357348    0.1840592 -52.30 0.0009181613    1.685    0.407
        39  -8.9217    189.9609    160.9667   9.1163151795e+01   1.3292072795e+01    0.2066922    0.1869739  32.23 0.0008295695    1.045    0.043
        40 -11.2591     99.0659    153.7057   1.0922871400e+02   3.1359120178e+01    0.5678535    0.3991684 -34.70  0.002433007    2.087    0.521
        41  -9.4656    188.8462    155.1750   9.0241368812e+01   1.4418145149e+01     0.319315    0.2965629 -89.87  0.001930182    1.341    0.254
        42  -9.9770    133.7358    144.5806   9.9753947192e+01   2.7160672700e+01    0.8601269    0.1971221 -54.26  0.002189913    6.515    0.847
        43 -10.6884    109.2765    139.5038   1.0450948321e+02   3.2610296010e+01    0.4464045    0.2950967 -32.64  0.002126635    2.212    0.548
        44 -10.8193     98.0346    139.1550   1.0715203552e+02   3.4557458280e+01     0.255567    0.2449892  65.38 0.0003529395    1.137    0.121
        45  -9.8825    105.9067    130.6809   1.0371370215e+02   3.5049664369e+01    0.3659378    0.2912999 -75.29  0.001229639    1.283    0.221
        46  -9.8292    103.8753    126.0653   1.0334026499e+02   3.6386447877e+01    0.2854099    0.2496993 -16.28 0.0007396957    1.492    0.330
        47 -10.2262    115.8637    130.0477   1.0114444238e+02   3.3425599724e+01    0.3425317    0.2679666 -19.92  0.001016984    1.809    0.447
        48  -9.2201     77.1955    207.3146   1.1992275888e+02   2.4369523668e+01    0.3278255    0.1982184  67.88  0.001510218    1.491    0.329
        49  -9.0892    111.3240    119.0318   1.0002530244e+02   3.6583985331e+01     0.303354    0.1880311  43.40 0.0005961048    1.605    0.377
        50  -9.9905     69.8215    115.8860   1.1040643310e+02   4.3869022673e+01    0.1942837    0.1739087 -45.70 0.0007073399    1.281    0.220
        51  -8.7215    168.0423    112.8738   8.5125790096e+01   2.6120385752e+01    0.2621129    0.2179379 -42.77 0.0009987988    1.247    0.198
        52 -11.4467     69.4553    218.5744   1.2221957033e+02   2.3465972513e+01    0.3170997    0.1891551  62.28  0.001004148    1.341    0.254
        53  -8.6890    205.5444    110.0885   7.6948910304e+01   1.8097355230e+01    0.2268685    0.1898586  43.34 0.0006970499    1.175    0.149
        54  -9.7438    120.0924    109.7877   9.5720526175e+01   3.6903793388e+01    0.2853275    0.1966055 -22.62  0.001262915    2.130    0.530
        55  -9.9206    164.9986    217.5150   1.0494416458e+02   9.4949690739e+00    0.1992903    0.1630589  -5.21   0.00132462    1.591    0.371
        56  -9.3689    135.0000    105.4573   9.0917590859e+01   3.4784085088e+01    0.3296508   0.08427149 -44.86 0.0009379741    3.961    0.748
        57 -10.7988     67.2745    104.3408   1.0901914947e+02   4.6819059371e+01    0.3078893    0.2997485  -2.44  0.002013579    1.243    0.196
        58  -8.3614    152.4773     80.4641   7.9874846626e+01   3.5733862309e+01    0.1523018    0.1492328  19.02 0.0002245409    1.018    0.017
        59  -9.4559    156.7936    218.5764   1.0654174967e+02   1.0677628281e+01    0.1753988   0.08820672  49.55 0.0009445833    1.693    0.409
        60 -10.3223    168.5491     68.5663   7.2764529894e+01   3.3888882231e+01    0.4233821    0.3024278 -87.33 0.0009579571    1.988    0.497
        61 -11.7100    171.2633     50.0621   6.6401597792e+01   3.6126691691e+01    0.5563809    0.4964037 -27.71  0.001070558    1.128    0.114
        62  -8.6831    158.6772    238.3352   1.0857684977e+02   7.7898204498e+00    0.1101649     0.072753  61.38 0.0007050629    1.710    0.415
        63  -9.0072    168.9933    236.0385   1.0656944085e+02   6.4901488226e+00    0.1660958      0.12533  40.18  0.000358859    1.018    0.017
        64  -7.9636     78.7700    217.3645   1.2047375712e+02   2.2468390384e+01    0.1458456   0.08859876  38.46 0.0009372866    1.608    0.378
        65  -9.9227     71.8937    229.9770   1.2262005859e+02   2.1321772637e+01     0.182017    0.1102436  53.72 0.0003600402    1.206    0.171
