#   1 NUMBER                 Running object number                                     
#   2 MAG_AUTO               Kron-like elliptical aperture magnitude                    [mag]
#   3 X_IMAGE                Object position along x                                    [pixel]
#   4 Y_IMAGE                Object position along y                                    [pixel]
#   5 X_WORLD                Barycenter position along world x axis                     [deg]
#   6 Y_WORLD                Barycenter position along world y axis                     [deg]
#   7 A_WORLD                Profile RMS along major axis (world units)                 [deg]
#   8 B_WORLD                Profile RMS along minor axis (world units)                 [deg]
#   9 THETA_WORLD            Position angle (CCW/world-x)                               [deg]
#  10 FWHM_WORLD             FWHM assuming a gaussian core                              [deg]
#  11 ELONGATION             A_IMAGE/B_IMAGE                                           
#  12 ELLIPTICITY            1 - B_IMAGE/A_IMAGE                                       
         1 -14.0945    172.8234     55.2612   5.7413206796e+01   3.4809293788e+01     1.902312     1.257324  27.64  0.005557492    2.003    0.501
         2 -14.3279    188.0191     41.2830   5.0742175631e+01   3.2965485443e+01     1.078417     1.024189 -23.25  0.003640817    1.140    0.123
         3 -14.9953    209.1103     12.5105   4.0289439375e+01   3.1187281112e+01     1.970847     1.413757  45.98  0.008763345    1.627    0.385
         4 -12.6325    241.4081      2.6800   3.5240331677e+01   2.4733482980e+01     1.430817    0.3139075  76.25   0.00474636    4.787    0.791
         5 -10.9441     70.9895      2.0000   6.1867251726e+01   6.4873449932e+01    0.2033592   0.06420545  52.57 0.0008102593    2.997    0.666
         6 -10.0411     72.0860    202.9586   1.1472628595e+02   2.3424500447e+01     0.271947    0.1818562  74.44 0.0009272916    1.440    0.306
         7 -14.3114    246.2167    238.3360   8.5756679096e+01  -9.9496052551e+00     1.826488    0.6759174 -29.00  0.008986978    2.840    0.648
         8  99.0000     50.2079    237.6918   1.2196848695e+02   1.9445324194e+01     9.698188     6.956299  29.57   0.06545896    1.848    0.459
         9 -10.5890     37.4451    206.7347   1.2205707380e+02   2.6961387366e+01    0.1159158   0.08066507  62.42 0.0002996881    1.188    0.158
        10 -11.2871     58.8101    202.3115   1.1740584668e+02   2.5319631525e+01    0.2606439    0.1884069 -44.39  0.001491179    1.960    0.490
        11 -11.9379    204.3109    200.0923   8.6665812243e+01   1.7124563212e+00    0.6521131    0.1874323  34.75  0.002088243    4.022    0.751
        12  -9.9731    186.9313    186.4374   8.7544562112e+01   7.1266578523e+00    0.2123965    0.1693482  70.45 0.0008250162    1.758    0.431
        13 -11.8564    192.7829    194.5043   8.7891934204e+01   4.6649850734e+00     1.256745     0.655524 -62.55  0.003730542    6.279    0.841
        14 -10.9489     44.0885    211.4794   1.2114218590e+02   2.5230994293e+01    0.2657931     0.154876 -82.63  0.001290322    1.564    0.361
        15 -12.2211     62.6648    194.0734   1.1576385493e+02   2.6574222904e+01    0.3523447    0.2283504 -43.85  0.001326903    2.180    0.541
        16 -10.6391     82.1720    194.9778   1.1166727541e+02   2.3683829499e+01    0.2150258    0.1840045  74.22 0.0006634819    1.011    0.011
        17 -10.9255     29.4599    192.8645   1.2256205538e+02   3.0734051285e+01    0.1634298    0.1149364  54.78 0.0004902456    1.298    0.230
        18 -11.2620     39.3683    212.6562   1.2213742472e+02   2.5539505189e+01    0.1688287    0.1360135  55.40 0.0006537559    1.232    0.189
        19 -11.6163    238.7223    186.0001   7.7567598455e+01  -1.9944230283e+00    0.1909069    0.1554357 -12.45 0.0007843857    1.090    0.082
        20 -10.9381     61.5026    219.8247   1.1848253762e+02   2.1417209759e+01    0.1712565    0.1309536 -65.80 0.0007017668    1.474    0.322
        21 -11.9310    149.8473    177.7763   9.3835203580e+01   1.5807869286e+01    0.3619077    0.2684872 -69.21 0.0009113124    1.680    0.405
        22 -12.9736     75.3260    248.6706   1.1835725786e+02   1.4280082326e+01    0.3205549    0.1542263 -59.74   0.00183918    2.443    0.591
        23 -11.2011    187.9882    176.3313   8.5333908891e+01   8.7355176425e+00    0.3571329    0.3447036 -46.24  0.001672644    1.189    0.159
        24  -9.6736     66.2290    176.0020   1.1288729332e+02   3.0110863373e+01    0.1756403    0.1492962  87.69 0.0004905271    1.026    0.026
        25 -13.0854    235.1894    173.7263   7.5711369767e+01   4.6142428559e-01    0.6329876    0.2936363  26.89  0.002535993    2.827    0.646
        26 -12.8802    241.0652    178.7482   7.5702197053e+01  -1.3063882223e+00    0.3900884     0.271548  42.46  0.002186649    1.582    0.368
        27 -10.1361    194.1451    171.5005   8.3082443294e+01   8.4211526593e+00    0.2390632    0.2367766 -72.31 0.0008053964    1.203    0.169
        28 -10.3498    185.6000    169.8359   8.4499271792e+01   1.0395401749e+01    0.2488567    0.1823491 -46.74 0.0008257214    1.476    0.322
        29 -11.6474    230.8684    167.6477   7.5217523525e+01   2.1844537298e+00    0.4408785    0.1513545 -45.84  0.001459743    3.920    0.745
        30 -10.2575    187.7904    163.0379   8.2607217619e+01   1.1234083347e+01    0.3015344    0.1955909 -52.00 0.0009606871    1.804    0.446
        31  99.0000     47.9890    208.0090   1.2009775956e+02   2.5476012264e+01    0.2547293    0.1596249 -62.41   0.00107657    1.707    0.414
        32 -11.8196     92.2882    157.0222   1.0377696987e+02   3.0696362069e+01    0.2654772    0.2503142 -70.72 0.0004046643    1.091    0.084
        33 -11.1518    187.5094    151.8469   8.0208139652e+01   1.3422475496e+01    0.3212098    0.2884091 -87.64  0.001199421    1.393    0.282
        34 -11.7829    133.8815    145.7242   9.1114334616e+01   2.5802727841e+01     1.286006    0.3248574 -54.58  0.002992132    5.969    0.832
        35 -12.5680     97.9229    150.6733   1.0121198722e+02   3.1270181492e+01    0.6018241    0.4801689 -26.60  0.003087533    1.607    0.378
        36 -10.3833    113.4239    151.4032   9.7407408302e+01   2.8400008083e+01    0.3455606    0.2214316  80.30   0.00138131    2.460    0.593
        37 -10.7628    174.3566    148.8249   8.2349196422e+01   1.6768426357e+01    0.3141709    0.2726534  88.42  0.001042398    1.440    0.306
        38 -10.6445    143.8410    145.9721   8.8739763901e+01   2.3738209406e+01    0.3672913    0.2057758 -68.69  0.001247208    3.134    0.681
        39 -10.8412    107.3658    145.7048   9.7821231695e+01   3.0813957495e+01    0.3020076    0.2249831  82.39    0.0005943    1.643    0.391
        40 -11.7064    108.7684    137.0859   9.5669042543e+01   3.2589044489e+01    0.6528669     0.342127 -39.12  0.002540661    2.281    0.562
        41 -11.8504    105.9134    130.8976   9.5085624877e+01   3.4566003648e+01    0.4728392    0.3313895 -52.69   0.00176605    1.370    0.270
        42 -18.7690     20.3796     98.8501   1.1414127849e+02   5.3300379594e+01     15.06744     2.056261 -67.92    0.0381542    6.711    0.851
        43 -12.6008     97.1972    136.6297   9.8662903205e+01   3.4728963105e+01    0.3129763     0.280027 -67.30 0.0005490265    1.060    0.056
        44 -10.8857    135.6992    128.0747   8.6598020162e+01   2.9397366255e+01    0.5107006    0.1763265 -51.96  0.001540779    3.256    0.693
        45  -9.4628     83.3621    130.2798   1.0116196137e+02   3.8500308201e+01    0.1431976    0.1117722 -21.15 0.0007013245    1.673    0.402
        46 -10.3472    160.6594    127.9781   8.0502105549e+01   2.4037778305e+01    0.3459902    0.2448144 -62.82  0.001497883    1.739    0.425
        47 -10.8171    115.5018    128.5419   9.1971991286e+01   3.3336272231e+01    0.2996902    0.2598216 -14.00 0.0006146809    1.357    0.263
        48 -11.4473    103.4292    124.1004   9.4230077377e+01   3.6620633406e+01     0.305981     0.248058 -28.70 0.0009394769    1.402    0.287
        49 -10.5163    120.4610    122.8710   8.9298009736e+01   3.3683226190e+01    0.3208599    0.2368618  -8.85  0.001186027    1.960    0.490
        50 -10.7067    134.9949    120.3344   8.4857892281e+01   3.1275219058e+01    0.4329343    0.1368168 -45.93  0.001283689    3.108    0.678
        51 -10.2334    110.8581    118.0039   9.0717827787e+01   3.6674657887e+01    0.2204804    0.2143403 -66.79 0.0004959211    1.022    0.021
        52 -10.7901    231.1960    113.7194   6.2949539802e+01   1.1166750207e+01    0.2641962    0.2590762 -25.44 0.0007908099    1.098    0.089
        53 -10.4535    167.3773    112.3387   7.4945732158e+01   2.5763199959e+01    0.3301629    0.2594992 -79.33  0.001186412    1.674    0.403
        54 -10.9144    134.7253    105.8448   8.1105407789e+01   3.4520057495e+01    0.6197737    0.1414637 -45.40  0.001575707    4.343    0.770
        55 -11.7864    119.1357    110.6750   8.6571101113e+01   3.6731485355e+01    0.5851977    0.4307739  61.51  0.002278629    1.604    0.377
        56 -10.6175    205.4358    110.2036   6.6576743909e+01   1.7402368000e+01    0.3152936    0.2499497  44.94 0.0009189313    1.324    0.245
        57 -11.1873     71.7705    243.7117   1.1858852181e+02   1.5617147344e+01    0.2335351    0.1305009 -87.71  0.000752735    1.975    0.494
        58  -9.9193    182.3213     82.5591   6.3584424828e+01   2.7892042530e+01    0.2589201    0.1926366  -8.96   0.00115459    1.693    0.409
        59  -9.3388    153.5164     82.4678   6.9701856800e+01   3.4948479709e+01    0.1551463    0.1526982  -6.82 5.872784e-05    1.010    0.010
        60  -9.0674    184.3554     77.3027   6.1706536502e+01   2.8312703364e+01    0.1592888    0.1191392  21.44 0.0007039096    1.710    0.415
        61 -12.3409     54.8466    211.2645   1.1902770864e+02   2.3972188961e+01    0.3693863    0.1625158  55.79   0.00185783    2.068    0.516
        62  -9.7973    167.7994    229.2414   9.8660644677e+01   3.3524343481e+00     0.174548    0.1497629  44.30 0.0004378162    1.139    0.122
        63 -13.6603    192.5394     35.3427   4.8397056796e+01   3.2608672518e+01    0.6120496    0.5510031 -63.35  0.001307779    1.073    0.068
        64  -9.1443     93.6743     62.3496   7.9534976577e+01   5.1937634029e+01    0.1432499    0.1174781 -78.27 0.0007048906    1.755    0.430
        65 -11.6711     67.1098    205.8381   1.1605367504e+02   2.3500408123e+01    0.2392429    0.2061726   7.73  0.001131679    1.753    0.430
        66 -10.6831     55.7667    223.4216   1.1987703820e+02   2.1445419624e+01     0.138855    0.1025214  60.40 0.0002867857    1.099    0.090
