#   1 NUMBER                 Running object number                                     
#   2 MAG_AUTO               Kron-like elliptical aperture magnitude                    [mag]
#   3 X_IMAGE                Object position along x                                    [pixel]
#   4 Y_IMAGE                Object position along y                                    [pixel]
#   5 X_WORLD                Barycenter position along world x axis                     [deg]
#   6 Y_WORLD                Barycenter position along world y axis                     [deg]
#   7 A_WORLD                Profile RMS along major axis (world units)                 [deg]
#   8 B_WORLD                Profile RMS along minor axis (world units)                 [deg]
#   9 THETA_WORLD            Position angle (CCW/world-x)                               [deg]
#  10 FWHM_WORLD             FWHM assuming a gaussian core                              [deg]
#  11 ELONGATION             A_IMAGE/B_IMAGE                                           
#  12 ELLIPTICITY            1 - B_IMAGE/A_IMAGE                                       
         1 -15.8901    169.0139    106.8760   7.4395981033e+01   2.6412234524e+01     3.678198     2.448287 -78.42   0.01126149    2.580    0.612
         2 -19.1341    171.9105    148.3917   8.4038918141e+01   1.7262573962e+01       8.7488     6.774854  43.72     0.043227    1.278    0.217
         3 -11.4846    238.0133      2.9994   3.6506316159e+01   2.5387759706e+01    0.2685642    0.2517556 -48.43  0.001852647    1.243    0.195
         4 -12.1080    238.5373     13.1727   3.8786966889e+01   2.4155080621e+01    0.4135344    0.3869958  55.13  0.002108645    1.326    0.246
         5 -12.5270    243.5484      7.0223   3.7000753385e+01   2.3713426312e+01    0.4318295    0.3508886 -65.89  0.002504725    1.016    0.015
         6 -12.0913    248.1939     12.0203   3.7763612395e+01   2.2127873381e+01     0.475552    0.3390344 -26.07  0.002642952    1.582    0.368
         7 -11.0997    170.7167      7.3458   4.4254441391e+01   4.1383735472e+01    0.2373216    0.2119385  57.75 0.0004744121    1.105    0.095
         8 -10.3454     26.7007      7.0358   8.4405292417e+01   7.1178614168e+01    0.1625839     0.118966 -17.52 0.0003267204    1.062    0.059
         9 -12.2018    221.6482      4.0921   3.8045642276e+01   2.9062187637e+01    0.4433876    0.3063575 -73.19  0.002541251    1.326    0.246
        10  -9.8672    179.2269      6.4043   4.2913107515e+01   3.9307332161e+01    0.1910488    0.1193607  86.31 0.0005470842    1.601    0.375
        11 -11.0734    203.0223      3.7645   3.9632797197e+01   3.3598631283e+01    0.1958045    0.1578707  84.60 0.0007896789    1.109    0.099
        12  -9.5756      8.0219      5.0000   9.3518312820e+01   7.3248991681e+01    0.1571705   0.05752592  22.77 0.0008042579    2.955    0.662
        13 -10.7340    159.0933      1.9116   4.4111060271e+01   4.4831937559e+01    0.2686066    0.1600985  63.13  0.001348151    1.461    0.316
        14  -9.4644     47.8170    123.1799   1.1100428584e+02   4.4903457522e+01    0.1792951    0.1356399 -50.69  0.000232808    1.295    0.228
        15  -9.3276    234.5380    250.4995   9.0868439180e+01  -9.7941665633e+00    0.1160952   0.08403184  15.90 0.0001354247    1.053    0.051
        16  -9.8055    220.1752    250.5044   9.3338289774e+01  -7.7583963066e+00    0.1648031   0.09092125  35.26 0.0005748749    1.459    0.315
        17 -13.5488    192.1270    248.7086   9.8042624055e+01  -3.3451644466e+00    0.3000636    0.2287634  23.23 0.0008915314    1.114    0.102
        18 -11.3977    135.5387    250.5872   1.0860287729e+02   5.2207078591e+00    0.2470853   0.09615757  44.88 1.921873e-05    2.021    0.505
        19 -12.0903    164.6731    231.0984   1.0063446681e+02   3.5425024686e+00    0.3385029    0.2581045  59.31 0.0007999957    1.473    0.321
        20 -11.3217    143.3008    231.4198   1.0479606026e+02   7.0169506524e+00    0.4264729    0.2886162  72.12  0.002343584    1.993    0.498
        21 -10.4114    227.2752    231.3868   8.9085397289e+01  -6.5184702760e+00    0.2903719    0.1474414 -27.25  0.001511276    2.138    0.532
        22 -11.2125    190.8121    231.2545   9.5702924985e+01  -7.7916230956e-01    0.2470262    0.2101626  36.68  0.000518306    1.156    0.135
        23 -11.7291    173.6574    228.6612   9.8556510358e+01   2.4250600746e+00    0.3448713    0.2542606  66.01  0.001982683    1.847    0.459
        24 -10.6659    174.5062    224.5166   9.7767243349e+01   2.9193233225e+00    0.2208758    0.1827296  34.62 0.0005568203    1.022    0.022
        25  -9.8244     96.4837    231.0549   1.1376856158e+02   1.4439680255e+01    0.1571718    0.1139134 -75.34 0.0003240902    1.494    0.331
        26  -9.9305     69.3183    230.0134   1.1877578156e+02   1.8467678998e+01    0.1624109    0.1279779  74.63 0.0005450666    1.081    0.075
        27 -11.5757    233.0793    227.3243   8.7386731203e+01  -6.8832100990e+00    0.3318313    0.1961884  14.31  0.001246008    1.717    0.418
        28  -9.9896    146.8352    227.9578   1.0364576758e+02   7.0054133504e+00    0.2567347    0.1447327  59.72  0.001245387    2.190    0.543
        29 -10.2450    196.1493    226.8276   9.4009804795e+01  -1.0203265614e+00    0.1837038    0.1557873  43.01 0.0006142454    1.269    0.212
        30 -14.0242    242.9242    222.4400   8.4839630747e+01  -7.7373615362e+00    0.4122357    0.2869717  27.21 0.0009700028    1.242    0.195
        31 -11.1432    201.6878    225.1294   9.2701874828e+01  -1.6832168564e+00    0.5541748    0.2433533  25.24  0.002257033    3.017    0.669
        32 -11.9828    211.0345    223.7096   9.0738710758e+01  -2.9959643671e+00    0.3112858     0.235977  35.47 0.0003794447    1.219    0.180
        33 -13.1730    216.3214    215.5920   8.8385106398e+01  -2.7261172081e+00    0.7747911    0.5018628  26.12  0.003658945    1.373    0.272
        34 -12.3242    212.1732    212.7979   8.8664880142e+01  -1.6504789437e+00    0.5307159    0.2776096 -29.24  0.002657325    2.112    0.527
        35 -11.9584    143.4204    219.9294   1.0320609605e+02   8.9381183885e+00    0.4846584    0.3179655  58.50  0.001633232    1.613    0.380
        36 -12.7091    146.5326    208.2538   1.0085860692e+02   1.0476912564e+01     1.016621    0.5969581 -28.72   0.00456423    2.739    0.635
        37 -11.4191    129.0026    222.5340   1.0643329956e+02   1.0882193269e+01     0.407579    0.2249443  29.79  0.001291891    2.099    0.524
        38 -12.4135    135.6745    219.2460   1.0466148613e+02   1.0360455812e+01    0.4933889    0.3693933 -46.30  0.001293187    1.590    0.371
        39 -11.2370    138.4911    214.0943   1.0337046895e+02   1.0807359126e+01    0.2719772    0.2412386  87.70 0.0004887567    1.249    0.199
        40 -11.6284    183.1161    221.1236   9.5576151957e+01   1.9889578683e+00    0.3550939    0.2603183  40.40  0.001312738    1.206    0.171
        41 -14.4888    199.1481     87.0249   6.2904059030e+01   2.2928917070e+01     1.205678     1.034755 -74.54  0.001757902    1.283    0.221
        42 -14.6265    238.6245    143.7212   6.9911000574e+01   4.4412668278e+00      1.33829    0.9356161  -1.55   0.00516407    1.678    0.404
        43 -15.9638    217.8011    125.9927   6.9462135380e+01   1.1677089971e+01     2.714097      2.08038  78.14   0.01126724    1.832    0.454
        44 -15.5147    182.5030     99.1127   6.9401206801e+01   2.4725020292e+01     2.685926     1.459772  48.11    0.0107425    1.881    0.469
        45 -15.4369    157.4437    110.3126   7.7972221846e+01   2.8403911041e+01     1.862224     1.386293   9.53   0.00684535    1.850    0.460
        46 -11.2225    176.4477    244.8071   1.0035068875e+02  -3.7492411960e-01    0.3456067    0.1639487  36.53  0.001239734    1.730    0.422
        47 -16.4744    186.4514    178.0937   8.7227188462e+01   8.5942248186e+00     3.479264     1.912715 -56.27   0.01429093    2.624    0.619
        48 -16.0291    169.9142    172.5227   8.9601200215e+01   1.2867988439e+01     2.409056      1.32271 -59.53  0.009562669    2.629    0.620
        49 -15.7978    154.4325    158.7254   9.0220530605e+01   1.8755621557e+01     1.289047    0.8950351 -82.82  0.005432437    2.297    0.565
        50 -10.8142    121.5888    243.9851   1.1043074466e+02   8.4125974077e+00    0.2786544    0.2231314  65.04   0.00152833    1.189    0.159
        51 -10.4441      6.0295    131.7607   1.2340201243e+02   4.6547149582e+01    0.1595419    0.1330892 -86.97 0.0006034381    1.107    0.096
        52 -10.9070     68.8004    175.0045   1.1315539258e+02   2.9963744126e+01    0.2060683    0.1801563  53.11  0.001291484    1.201    0.167
        53 -11.4342     97.4897    207.0144   1.1087445503e+02   1.8871419583e+01    0.4475437    0.1231925 -60.76  0.001629952    3.878    0.742
        54 -11.5571     56.7168    189.2031   1.1745411651e+02   2.8389550582e+01    0.2319822    0.1859912  63.09 0.0002933116    1.122    0.109
        55 -10.5301     74.1885    218.9890   1.1685566558e+02   1.9907174077e+01    0.2007617     0.145811  54.06 0.0003803401    1.165    0.141
        56 -11.4160     96.8619    109.7069   9.3866931720e+01   4.1137898787e+01    0.3645678    0.2211545 -33.15   0.00091615    2.019    0.505
        57 -11.4321     87.8721    108.6984   9.6260985039e+01   4.2908754305e+01    0.3224724    0.2572758 -33.43 0.0008111997    1.342    0.255
        58 -10.3043      3.0505    168.9410   1.2707878474e+02   3.8362702235e+01    0.1800599    0.1337622  89.43 0.0007477253    1.038    0.037
        59 -10.7486      3.5278    109.4811   1.2169688941e+02   5.1879075366e+01    0.2455673   0.06235653 -62.43  0.001041028    2.579    0.612
        60 -10.1004    241.7951    104.4052   6.0283603341e+01   1.0316204254e+01     0.250512    0.1670179 -42.01  0.000901449    1.364    0.267
        61 -10.1274     73.3156    110.8973   1.0112561237e+02   4.4634708321e+01    0.2567382    0.2182146 -45.98   0.00104054    1.141    0.124
        62 -10.7044     66.8595    103.5292   1.0144112959e+02   4.7303634329e+01    0.2894798    0.1871514 -64.77 0.0009753172    1.494    0.331
        63 -10.6690    247.8875    166.2638   7.3213180862e+01  -7.8671983578e-01     0.213653       0.1829 -25.68 0.0003321222    1.177    0.150
        64 -10.5179     78.8540    100.4050   9.6959042094e+01   4.6301083153e+01    0.2520592    0.2068712 -39.16 0.0002478712    1.192    0.161
        65 -10.4149     65.4854    165.3932   1.1268331411e+02   3.2622004966e+01     0.258388    0.1189317 -66.35 0.0007155999    2.000    0.500
        66 -10.0586    244.7817    198.9290   8.0255198713e+01  -4.9777000734e+00    0.1953171    0.1431279   1.62 0.0006554517    1.222    0.182
        67 -12.3360     57.7638    205.1003   1.1878745770e+02   2.4881929669e+01     0.335923    0.2003007  52.51 0.0009292066    1.448    0.310
        68 -10.7206     84.5794     96.2310   9.4106367146e+01   4.6363382988e+01    0.2811346    0.1632333 -43.13  0.001032773    1.644    0.392
        69 -12.1550    246.0953     96.4157   5.7752092152e+01   1.0722031225e+01    0.2702382    0.2505794 -54.52 0.0004236912    1.110    0.099
        70 -12.0115    245.5401    191.6558   7.8731823511e+01  -4.0957574175e+00    0.4204709    0.2748488  46.44  0.001539121    1.833    0.455
        71 -10.4171     74.0009     93.8998   9.6837131876e+01   4.8551000006e+01    0.2140722    0.1926834 -42.28 0.0003522857    1.044    0.042
        72 -10.0722     66.6354     90.9836   9.8475489317e+01   5.0280177367e+01    0.3181376    0.1184439 -53.43   0.00120688    2.339    0.573
        73 -10.4665    227.9837     90.6069   5.9023222358e+01   1.5583060265e+01    0.3573712     0.247613  84.33  0.001299638    1.971    0.493
        74 -12.9302    248.4601     88.3759   5.5515990293e+01   1.1509918694e+01    0.2854094    0.2521321 -40.13 0.0004951873    1.008    0.008
        75  -9.2406     77.2933     90.3226   9.4833313016e+01   4.8875131984e+01    0.1468814    0.1055421 -25.22 0.0002983203    1.614    0.380
        76 -12.7601     82.1839    188.2730   1.1182302680e+02   2.5107952842e+01    0.3278342    0.2579021 -79.11 0.0004699792    1.211    0.174
        77 -10.3613     17.7961    158.2168   1.2304094310e+02   3.9536598559e+01    0.1566475    0.1171492 -65.86 0.0003688455    1.310    0.237
        78 -11.6324    154.4484     70.3679   6.7068405277e+01   3.6946500409e+01    0.5396189    0.3910744 -80.60  0.002316652    1.937    0.484
        79 -11.8554    155.6994     83.6654   7.0833743892e+01   3.4181865166e+01    0.5327038    0.2979699 -29.55  0.002062009    1.993    0.498
        80 -12.3486    159.0191     79.2788   6.8766733351e+01   3.4199724466e+01    0.4415601    0.3703242 -52.95 0.0003850004    1.235    0.190
        81 -10.7906    239.9918     86.0003   5.6116285206e+01   1.3688555462e+01    0.2251514    0.2014919 -44.71 0.0003534805    1.020    0.019
        82 -10.9059    239.5689     81.6622   5.5120111337e+01   1.4471184341e+01    0.2544419    0.2221325 -51.08 0.0004929357    1.068    0.063
        83 -10.9609     14.4870     86.0639   1.1493358960e+02   5.6641584834e+01    0.1821644    0.1764318 -48.35 0.0003165134    1.236    0.191
        84 -10.3503     66.9138    185.1026   1.1479946678e+02   2.7957368626e+01    0.1907228    0.1582114  77.21 0.0003100359    1.015    0.015
        85 -12.1374    178.2634     77.3888   6.4153328813e+01   2.9770581053e+01    0.8484994    0.3802271 -41.35  0.002041504    2.165    0.538
        86 -10.1548     71.3109     82.1616   9.4543738854e+01   5.1617643423e+01    0.2280597    0.1907495   3.71 0.0006127961    1.352    0.260
        87 -10.4213     90.1230     86.6848   8.9725131440e+01   4.7585705832e+01    0.3031039     0.201663 -39.14  0.001079948    1.447    0.309
        88 -10.8004    249.8886    151.7757   6.9798238644e+01   1.0875598533e+00    0.3562487    0.2307072  11.99  0.001361629    1.908    0.476
        89 -12.1670    111.2899     75.3240   7.9794517268e+01   4.5939870947e+01    0.3497534    0.2997025 -43.81 0.0003155999    1.153    0.133
        90 -10.7359    222.5432     77.1321   5.6437045513e+01   1.9039544851e+01    0.2890326    0.2409043 -57.70  0.000898766    1.180    0.153
        91 -10.7646    153.0912     77.6246   6.9614505090e+01   3.5956942323e+01    0.2829825     0.249467 -37.16 0.0003076529    1.124    0.110
        92 -11.8082    137.4370     76.0178   7.2901684722e+01   4.0004790471e+01    0.4452132     0.324901  74.98  0.001289377    1.808    0.447
        93 -11.3446    204.9551     73.6901   5.8290961932e+01   2.3795835515e+01    0.5525386    0.3564906  86.27  0.001035369    2.139    0.532
        94 -10.2291    125.4868     76.4821   7.6175236241e+01   4.2649583000e+01    0.2509245    0.1512417  59.50 0.0006359341    2.007    0.502
        95  -8.9325    248.2983     78.3008   5.3146439230e+01   1.3115358788e+01    0.1312103    0.1067321   7.05 0.0004233461    1.579    0.367
        96 -11.6630    106.8633     78.3895   8.2073720831e+01   4.6219604945e+01     0.278861    0.2559415 -21.47 0.0002791451    1.058    0.055
        97 -10.9902    162.7623     71.5438   6.5607291706e+01   3.4674700859e+01    0.4478796    0.2912065  -9.13  0.001281252    2.261    0.558
        98 -10.4189     70.2168     72.7131   9.2132960376e+01   5.3843612412e+01    0.2499377    0.1742408 -41.96  0.000409992    1.282    0.220
        99  -9.1512    186.2912     72.2880   6.1151422566e+01   2.8648015383e+01    0.1501291    0.1199412  19.28 0.0002068511    1.542    0.351
       100  -9.8206    150.0518     72.5551   6.8754965114e+01   3.7631702783e+01    0.2366752    0.1525035  52.80  0.001016253    1.559    0.359
       101 -11.6053    140.6243     70.6143   7.0394243108e+01   4.0261764521e+01    0.3032992    0.2759389 -82.70  0.001027456    1.237    0.191
       102 -12.0356    132.9146     70.4107   7.2265665061e+01   4.2116399432e+01    0.6111568    0.3316841  44.30  0.002469842    1.870    0.465
       103 -10.4882    207.7342     68.6504   5.6481860366e+01   2.3938433833e+01    0.2828883    0.2481082 -72.09 0.0009008474    1.159    0.137
       104 -12.0577    214.9354     66.7391   5.4869505663e+01   2.2498374532e+01    0.2579973    0.2478852 -52.89 0.0003301552    1.048    0.046
       105 -11.3631     82.2208    151.7219   1.0651428680e+02   3.3465712333e+01    0.3927773    0.2296124 -89.02  0.001573427    2.334    0.572
       106 -10.3273     94.2034     65.9913   8.1926549408e+01   5.1177833253e+01    0.2318553    0.2057852  32.21 0.0003567875    1.171    0.146
       107 -10.1960     53.0116    191.9134   1.1850893926e+02   2.8264885788e+01    0.2165823    0.1441113 -87.81 0.0007893926    1.342    0.255
       108 -10.7353    168.1499     63.4162   6.2013564624e+01   3.4711371103e+01    0.4676856    0.2548745 -34.07  0.001903035    1.835    0.455
       109 -10.6870    162.9478     63.7215   6.3167324188e+01   3.5973795085e+01     0.428554    0.2649558 -64.70 0.0009734748    2.317    0.568
       110 -10.2551    164.0203     59.4994   6.1637990658e+01   3.6399042600e+01    0.2489107    0.1832746  42.02 0.0007049249    1.415    0.293
       111 -12.3653    147.1135     61.6481   6.5965454692e+01   4.0270353600e+01    0.3583733    0.2782715 -44.65  0.001736338    1.321    0.243
       112 -11.4556    154.1420     61.9800   6.4497580060e+01   3.8473482856e+01    0.4831507    0.3515668  15.84  0.002144498    1.800    0.444
       113 -10.6745    193.8594     62.2643   5.6969530657e+01   2.8393296393e+01    0.3255062    0.2238021 -46.91  0.001141483    1.431    0.301
       114  -9.8774    181.7293     61.3029   5.8798475106e+01   3.1610599546e+01    0.2300404    0.1865461  87.80 0.0006234108    1.360    0.265
       115 -11.9664    229.8133    210.6954   8.5067833554e+01  -4.2178388359e+00    0.4652732    0.2757964  56.19  0.001460075    2.965    0.663
       116 -10.9957    143.7995     67.6623   6.8680563467e+01   4.0032395447e+01    0.3628196    0.2442844  77.68  0.001486303    2.111    0.526
       117  -9.8547    132.7359     59.6928   6.8770312962e+01   4.4075019528e+01    0.2329785    0.1776272  32.26  0.000647525    1.388    0.280
       118 -10.8692    177.8056     58.2845   5.8616805250e+01   3.3087933615e+01    0.3566495    0.2221681 -39.23 0.0005424771    1.577    0.366
       119  -9.6472     11.5032    204.4698   1.2761806674e+02   3.0139664881e+01    0.1122245   0.08109672  77.62  0.000809903    1.006    0.006
       120 -11.0674     79.2975    144.7793   1.0609000573e+02   3.5564175247e+01    0.2922807    0.2254719 -75.43  0.001157422    1.224    0.183
       121  -9.4155    210.5179     54.5021   5.2258005776e+01   2.5441782322e+01    0.1468771    0.1331522 -63.96 -4.62334e-05    1.036    0.035
       122 -10.6441    250.1328     50.1620   4.6291331978e+01   1.6861481949e+01     0.255738    0.1668357 -35.55 0.0003550909    1.395    0.283
       123 -11.2588    200.5445     51.6463   5.2934840243e+01   2.8336619682e+01    0.4132459    0.2617826  78.22  0.001863068    1.778    0.438
       124 -10.8553    138.6113     57.1223   6.6465925926e+01   4.3104070950e+01     0.562781     0.332834  -6.56  0.002032668    2.868    0.651
       125  -9.7269     74.0115    144.4936   1.0742355182e+02   3.6402694343e+01    0.1922251     0.135754  40.82 0.0003933024    1.499    0.333
       126 -10.3318    160.1515     48.7603   5.9025091863e+01   3.9055832425e+01    0.2420783       0.1959 -46.35 0.0003137684    1.273    0.214
       127 -10.0238     18.6988     49.3993   1.0502754917e+02   6.4407496453e+01    0.1516628    0.1053849  -9.90 0.0008494125    1.576    0.366
       128 -10.6750     18.9191     43.7691   1.0324251307e+02   6.5531208187e+01    0.2258609     0.162131 -75.37   0.00136038    1.852    0.460
       129  -9.7927    174.8639     39.8622   5.3566495469e+01   3.6553612849e+01    0.2164029     0.193937  39.02 0.0003857788    1.183    0.154
       130  -9.4316    177.4866     37.4832   5.2414549981e+01   3.6199379467e+01    0.1456614    0.1371527 -87.43 0.0001214331    1.025    0.024
       131  -9.3160    166.9661     39.9472   5.4952809337e+01   3.8573274961e+01    0.1733606    0.1631426  67.72 0.0003189909    1.023    0.022
       132  -9.7550    108.1163     36.4747   6.6906733966e+01   5.3368560037e+01    0.2010943    0.1349513  49.18 0.0003261728    1.459    0.315
       133 -10.2391    200.3097     32.6764   4.7715401283e+01   3.1004933009e+01    0.2773317    0.1739283  59.86 0.0008828682    1.556    0.357
       134 -10.3098     59.5683    142.7383   1.1092343429e+02   3.8769368456e+01    0.2081854    0.1782017  46.51 0.0003952236    1.275    0.216
       135 -10.1463     13.8506    175.5520   1.2529607981e+02   3.6009703978e+01    0.1904761      0.12635 -74.83 0.0004495824    1.302    0.232
       136  -9.5850     44.8223     27.7827   8.5679127217e+01   6.5864898231e+01    0.1523958    0.1361864 -28.28 0.0003527897    1.279    0.218
       137 -12.0372    244.0863    128.0909   6.5466327540e+01   5.9576481559e+00    0.4475794    0.3954917 -38.05  0.002327996    1.135    0.119
       138  -9.9309    250.3547    131.0721   6.5148320983e+01   4.2776623860e+00     0.198186     0.162648 -28.62 0.0009260562    1.070    0.066
       139 -10.3167    209.4803     25.0854   4.4550007922e+01   2.9662399946e+01    0.2114414    0.1709777  79.97 0.0005021642    1.174    0.148
       140 -10.1493    177.8064     25.0950   4.8634300319e+01   3.7673642958e+01    0.2134914    0.1807711 -73.95 0.0004898737    1.190    0.160
       141 -10.2187    207.9189    241.1238   9.4083346472e+01  -4.8019796515e+00    0.1823003    0.1402859  24.64 0.0005962829    1.022    0.022
       142 -11.7312    193.1660    238.0517   9.6299726401e+01  -2.0993843469e+00    0.2785116    0.2071304   6.62 0.0008300527    1.422    0.297
       143 -11.2354    183.0432    237.2843   9.8059355377e+01  -3.7537612445e-01    0.4683801    0.2568455  22.85  0.001692084    2.120    0.528
       144 -10.7873    127.5290    238.0121   1.0863737811e+02   8.4663181131e+00    0.2439381    0.1601581  58.80 0.0004970659    1.467    0.319
       145 -12.2277     77.4819    126.9757   1.0328671340e+02   4.0139183183e+01     0.570801    0.3372884 -66.99  0.002085383    1.676    0.403
       146 -11.4575    125.0365    234.3373   1.0867700503e+02   9.4747756157e+00    0.2974587    0.2002153  63.90 0.0004174556    1.540    0.351
       147 -10.1979     64.1443    239.1390   1.2045515586e+02   1.7479694368e+01    0.1575679    0.1330616  66.04 0.0003456219    1.190    0.160
       148  -9.9503    245.0904    237.8153   8.7062999912e+01  -9.8546740628e+00    0.1637768    0.1340523  18.76  0.000605728    1.231    0.188
       149 -10.7129    231.4929    236.9314   8.9252104145e+01  -7.8154500623e+00    0.2530493    0.1722204   8.37  0.001015762    1.335    0.251
       150 -11.8797     80.3457    123.5135   1.0177595784e+02   4.0548105315e+01    0.3311831    0.2964757   6.83 0.0002042584    1.354    0.261
       151 -10.5386     68.7382    236.5069   1.1942350795e+02   1.7351238217e+01    0.1812082    0.1455773  78.97 0.0003052583    1.140    0.123
       152  -9.9197    101.4897    235.5140   1.1328147468e+02   1.2899811231e+01    0.1907239    0.1096006 -81.47 0.0009440223    2.226    0.551
       153 -10.5729     64.2656    129.8845   1.0753051934e+02   4.1279447047e+01    0.3302369    0.1982221  65.61  0.001502371    2.127    0.530
       154 -10.4817    118.2346    234.7169   1.1002079164e+02   1.0479504118e+01    0.1962982    0.1957737   0.57 0.0006706619    1.300    0.231
