#   1 NUMBER                 Running object number                                     
#   2 MAG_AUTO               Kron-like elliptical aperture magnitude                    [mag]
#   3 X_IMAGE                Object position along x                                    [pixel]
#   4 Y_IMAGE                Object position along y                                    [pixel]
#   5 X_WORLD                Barycenter position along world x axis                     [deg]
#   6 Y_WORLD                Barycenter position along world y axis                     [deg]
#   7 A_WORLD                Profile RMS along major axis (world units)                 [deg]
#   8 B_WORLD                Profile RMS along minor axis (world units)                 [deg]
#   9 THETA_WORLD            Position angle (CCW/world-x)                               [deg]
#  10 FWHM_WORLD             FWHM assuming a gaussian core                              [deg]
#  11 ELONGATION             A_IMAGE/B_IMAGE                                           
#  12 ELLIPTICITY            1 - B_IMAGE/A_IMAGE                                       
         1 -13.5482     14.0547    159.2965   1.1988451743e+02   4.0001872454e+01     1.715306     1.032502  -7.74  0.008644016    2.868    0.651
         2 -15.0328      6.0463     69.0868   1.1450841162e+02   6.2636723214e+01     1.392761    0.7338397 -73.51   0.00526518    1.609    0.379
         3 -14.1152    189.8789     24.7480   4.2508112880e+01   3.3819600110e+01      1.85084    0.7706351 -46.17  0.007568679    2.244    0.554
         4 -13.5819      2.6629     10.7531   1.0168308745e+02   7.6380848146e+01    0.8129652    0.4746019 -68.06  0.004546219    1.786    0.440
         5 -13.3176      8.2052      2.6836   9.2458959188e+01   7.7563978239e+01    0.6168311     0.444191  59.51  0.002698323    2.347    0.574
         6 -15.9695     12.3918     21.6045   9.8791064873e+01   7.3414821003e+01     1.998075     1.172824 -32.69   0.01002482    1.644    0.392
         7 -14.4423     24.6851     13.8656   8.6131284437e+01   7.3716242441e+01     0.972163     0.383687  34.69  0.004321541    2.642    0.621
         8 -14.2732    166.7054     29.8383   4.6884915506e+01   3.9114952980e+01     1.081802    0.7587591  65.76  0.003599805    1.396    0.283
         9 -14.5326    147.3170     29.5939   4.9769167191e+01   4.4241772520e+01      1.29033    0.7612327  70.07  0.004578066    1.681    0.405
        10 -14.8914    216.7355     15.5021   3.7578012742e+01   2.8427001457e+01     1.832532     1.020786 -18.84  0.009091818    1.966    0.491
        11 -15.3520     97.5545     12.5070   5.2991311706e+01   5.9324379581e+01      1.82171    0.8299892  57.94  0.007561448    1.974    0.494
        12 -12.0325     59.9821     17.0951   6.8116681027e+01   6.7359113317e+01     0.343224    0.1893693 -41.59  0.001596272    1.912    0.477
        13 -14.1610     41.4645      5.7244   7.0364251649e+01   7.2522049229e+01     1.052374    0.6409689 -15.42  0.004486203    1.882    0.469
        14 -13.0013    224.4152     20.9335   3.8383044866e+01   2.6132883075e+01    0.4896218    0.3264209 -65.69  0.002210338    1.442    0.307
        15 -11.3095    152.9809      8.8329   4.1655101154e+01   4.5049382592e+01    0.2203059    0.1841957  49.40 0.0009774782    1.263    0.208
        16 -12.2717     71.3638     17.7329   6.3804192960e+01   6.4878585881e+01     0.382344    0.2643517 -30.01  0.001152786    1.463    0.317
        17 -10.9918     58.8608      7.2859   6.2861574137e+01   6.8947179846e+01    0.2047668    0.1749242  75.06  0.001187703    1.470    0.320
        18 -10.5202    161.3288      6.3163   3.9839435641e+01   4.3075730599e+01    0.1446351   0.09923843  41.23 0.0007045708    1.679    0.404
        19 -11.9038    232.5627      2.1768   3.3270025533e+01   2.6245469901e+01    0.3013811    0.2270852  55.08  0.001532926    1.630    0.386
        20 -12.2598    119.0585      3.1002   4.4291733833e+01   5.4661333129e+01    0.5403461    0.2874349 -82.93  0.002043722    2.429    0.588
        21 -12.4729     79.3328      2.1764   5.2608190651e+01   6.4900100112e+01    0.6443105    0.2170579  55.11  0.002476056    2.482    0.597
        22 -13.3068    187.4790     11.3779   3.8842023383e+01   3.5849839519e+01    0.5641493    0.3884291 -33.73    0.0027798    1.387    0.279
        23 -12.1677     61.9251      1.9124   5.8286366994e+01   6.8927806623e+01    0.3589101    0.2148469  62.75  0.001147766    1.816    0.449
        24 -11.7081     46.7261     13.4040   7.2373841889e+01   7.0438453216e+01    0.2645438    0.2498641  23.64  0.001432875    1.146    0.127
        25 -12.4593    200.9551    191.9565   8.0437962702e+01   6.8238029289e+00    0.3007825    0.2191647   0.32  0.001297277    1.302    0.232
        26 -12.4469     57.4731    246.5564   1.1525114344e+02   1.8406009540e+01    0.4589507   0.09658174  34.57  0.001981919    3.125    0.680
        27 -12.0081      2.6749    249.8442   1.2556088560e+02   2.3372622858e+01    0.3053452    0.1368386  38.96  0.001687241    1.559    0.359
        28 -13.7193      9.1320    245.7025   1.2430223893e+02   2.3471875380e+01     0.701897    0.2939177  49.62  0.003498643    1.562    0.360
        29 -11.2211     79.5206    193.0079   1.0631873417e+02   2.5275832469e+01    0.3052406    0.1076557  46.68  0.001272041    2.469    0.595
        30 -12.8659     98.4979    187.0798   1.0116544423e+02   2.3739135634e+01    0.4294539    0.2983095  -1.38  0.002139332    2.328    0.570
        31 -11.4439    109.7138    183.5805   9.8065288622e+01   2.2711338937e+01    0.2666861    0.1188429  32.04  0.001141651    2.161    0.537
        32 -12.1123     48.9990    181.6449   1.1257201794e+02   3.1504317016e+01    0.3425854    0.2531983 -53.65  0.002075892    1.654    0.395
        33 -13.3382    197.3589    180.0274   7.9023692007e+01   9.0301249607e+00    0.5368783    0.3908614 -69.00  0.002709814    2.995    0.666
        34 -13.4741     85.4867    180.5822   1.0347618153e+02   2.6956636352e+01    0.4986016    0.2738072  50.88  0.002470297    1.695    0.410
        35 -12.3615     95.7625    171.4057   9.9730143555e+01   2.7332834996e+01     0.299126     0.234116  37.24   0.00170893    1.176    0.150
        36 -13.5492    124.2350    166.6933   9.2040241690e+01   2.3646119200e+01    0.6144208    0.4181225 -76.79    0.0029749    2.117    0.528
        37 -12.1752     77.3824    156.9297   1.0246771864e+02   3.3256609594e+01    0.4625635    0.2751999  30.82  0.001740881    1.696    0.410
        38 -13.4204     74.0366    153.2076   1.0285872069e+02   3.4589920613e+01    0.7396159    0.6707156  37.46  0.003693964    1.151    0.131
        39 -12.4821    111.9558    156.5859   9.3335437664e+01   2.7812983709e+01    0.4161552    0.2444162  68.72  0.001660144    2.756    0.637
        40 -12.8597    209.0503    154.5346   7.2128490514e+01   1.0801157447e+01    0.5868909    0.3708122  34.80  0.003233419    1.540    0.351
        41 -12.6712     16.9752    195.2149   1.2099564334e+02   3.2002647524e+01     0.759195    0.3017456 -78.75  0.003916734    2.464    0.594
        42 -11.9960     85.8716    153.0222   9.9594741482e+01   3.2863881518e+01     0.405448    0.2425791 -47.92  0.001918702    1.904    0.475
        43 -11.9222    103.3645    149.9742   9.4409362008e+01   3.0700371079e+01    0.3697256    0.2821652 -19.78  0.001848546    1.800    0.444
        44 -13.0540     61.0331    147.9645   1.0579384724e+02   3.7608645422e+01    0.3904596    0.3046438  -8.91  0.001400438    1.826    0.453
        45 -13.7412     29.9470    169.0343   1.1637486497e+02   3.6336187545e+01    0.7167708    0.4694672 -43.00   0.00271391    2.121    0.529
        46 -13.1744    246.6411    133.5328   6.2005208208e+01   7.5114226821e+00    0.4566105    0.3195166 -30.75  0.002856694    1.275    0.216
        47 -13.5330     22.1609    181.2904   1.1909179447e+02   3.4416140339e+01    0.6707839    0.4207166 -57.87  0.003346953    1.914    0.478
        48 -14.3747    225.5098    129.7660   6.4303838481e+01   1.1531862904e+01     1.060891    0.7241102 -87.31  0.004486852    3.961    0.748
        49 -14.6058    233.3142    127.7328   6.2698901774e+01   1.0469029792e+01    0.8509384    0.6696699 -53.12  0.005161148    1.635    0.388
        50 -14.9508      8.5583    183.5356   1.2242431083e+02   3.5156168366e+01     1.071958    0.8219588  47.81  0.007547549    1.163    0.140
        51 -13.3472    120.4928    102.2596   7.9331148645e+01   3.7956132137e+01    0.6506222     0.332746  40.24  0.002540876    2.012    0.503
        52 -14.6339    105.3869    122.0029   8.8361207395e+01   3.6605697060e+01     1.645522     1.108938  37.30   0.00770005    1.480    0.324
        53 -14.8958    106.6806    105.7083   8.4140621503e+01   4.0049265799e+01     1.571821     1.190753  -6.85  0.006225871    1.911    0.477
        54 -11.7405     60.2458    125.2136   1.0269819532e+02   4.3214224314e+01    0.3672395    0.1772072  19.27  0.001379153    3.009    0.668
        55 -10.8359     25.6318    126.7037   1.1398732054e+02   4.6761188054e+01    0.1311875   0.09370647 -39.67 0.0007029859    1.727    0.421
        56 -12.0936    182.2654    122.1923   7.0077244504e+01   2.0915877451e+01    0.4703637    0.3230217 -87.42  0.001921121    2.990    0.666
        57 -11.9418     88.2272    109.5630   9.0692163828e+01   4.2642158984e+01    0.3832497    0.2218959 -62.29  0.001625381    1.848    0.459
        58 -12.7534     77.1354    117.3609   9.5886974714e+01   4.2640324306e+01    0.5478645    0.4396862 -87.48  0.002849686    1.320    0.243
        59 -13.1698     84.6971    115.3538   9.3085963938e+01   4.1875028463e+01    0.7546082    0.3789949  38.72  0.002619831    1.952    0.488
        60 -11.9028      3.6910    119.7792   1.2044265727e+02   5.0143035748e+01    0.5067836    0.1638356  14.68  0.002006648    3.842    0.740
        61 -14.0613     17.7371    111.2011   1.1500521838e+02   5.1293624250e+01    0.7820251    0.6583216 -33.05  0.003696705    1.423    0.297
        62 -13.0685      2.2328     97.3364   1.1924856642e+02   5.5778646030e+01    0.6876826    0.2480885 -81.88  0.002908993    2.412    0.585
        63 -12.3761     36.9323     93.1912   1.0536289526e+02   5.4106775055e+01    0.4617785    0.2457698  19.99  0.001596155    2.223    0.550
        64 -13.9836     22.0700     95.5568   1.1151576140e+02   5.4900724067e+01    0.9962288     0.887791  24.90  0.005524403    1.271    0.213
        65 -11.8225    121.3523    112.2281   8.1644048897e+01   3.5626966801e+01    0.2878045    0.1764992  54.02 0.0009923786    1.744    0.427
        66 -14.6958     16.3174    175.9181   1.2021963981e+02   3.6109753356e+01     1.745685    0.3195574  40.75  0.007026657    3.184    0.686
        67 -13.9778     11.0585    102.7253   1.1650484146e+02   5.3903905115e+01    0.7559257    0.7341418  68.65  0.004507603    1.161    0.139
        68 -11.7217    222.9820    109.4929   6.0214687819e+01   1.4885073774e+01    0.2200966    0.1643613 -28.54  0.001262274    1.192    0.161
        69 -12.9908     29.6798     89.8779   1.0764078477e+02   5.5673050281e+01    0.9492134    0.3822673  55.95  0.003383781    3.520    0.716
        70 -12.4540    136.3705    103.1787   7.5424549247e+01   3.4318829689e+01    0.7548959    0.2747852  49.04  0.002506302    2.779    0.640
        71 -12.2294     93.0449    103.7431   8.7788538626e+01   4.3136770272e+01    0.3762876    0.2520119  50.16  0.001718933    1.521    0.343
        72 -12.2411     62.5122     99.4187   9.7044650406e+01   4.9299701846e+01    0.6430475    0.3587343  77.16   0.00229396    3.215    0.689
        73 -11.5507     46.0019     99.2496   1.0303690015e+02   5.1546252420e+01    0.2515472     0.189241 -83.05  0.001049383    1.318    0.241
        74 -12.0722     52.2960     98.0289   1.0046535762e+02   5.1063776446e+01    0.3871684    0.2458532 -20.30  0.001651424    2.483    0.597
        75 -12.3262     49.3124     94.6255   1.0088285061e+02   5.2302701255e+01    0.4298593    0.2737826  63.80  0.001400299    1.872    0.466
        76 -13.0540    249.3417     98.2831   5.4193517120e+01   1.1636292559e+01     0.492887    0.1849188 -32.52  0.002217161    2.175    0.540
        77 -12.4886    136.9790     95.4841   7.3190457665e+01   3.5733434375e+01    0.4586422    0.3171371  58.21  0.001341982    1.545    0.353
        78 -11.6442     65.7242    126.6040   1.0120076838e+02   4.2110182979e+01    0.3413932     0.237954  47.24  0.001332951    1.384    0.277
        79 -11.4042     42.5261     90.7215   1.0270210404e+02   5.4109505033e+01    0.2680356    0.2125655  88.51 0.0006922811    1.289    0.224
        80 -11.9080     90.2293     88.6112   8.4709233151e+01   4.7181836580e+01    0.4491803    0.2848769  52.56  0.001966864    1.689    0.408
        81 -11.1991     34.4518     86.9316   1.0518150237e+02   5.5949366536e+01    0.2381569    0.1889453 -13.66 0.0009677798    1.540    0.350
        82 -13.1741    188.2945     84.3374   5.9513203035e+01   2.5916663318e+01    0.7202471     0.306211  42.99  0.002604777    2.766    0.638
        83 -12.2923    149.3867     85.0691   6.7308694249e+01   3.4865034035e+01    0.5583336    0.2949174  37.07  0.002110211    2.330    0.571
        84 -13.6528    242.7344     84.0247   5.1792439516e+01   1.4679195291e+01    0.8028086     0.308968  62.88  0.003370795    3.436    0.709
        85 -13.7457    237.3588     80.2949   5.1562700828e+01   1.6184514622e+01    0.8528022    0.3225524  64.33  0.003436232    3.555    0.719
        86 -14.0017    160.8957     80.9751   6.3667967216e+01   3.2866436877e+01     2.194759     1.317224   2.71  0.007110143    3.872    0.742
        87 -14.5342    169.4530     77.1240   6.0888302244e+01   3.1480002084e+01     1.865192     1.251762 -87.06  0.007881852    2.220    0.550
        88 -13.1784     57.6631     66.8550   9.0429800959e+01   5.7921998907e+01     1.243058    0.8505051  16.65  0.005905249    1.819    0.450
        89 -13.4728     65.9513     49.2506   8.0701617081e+01   6.0422160236e+01    0.8579745    0.5550211 -46.75  0.001429499    1.511    0.338
        90 -13.8856     60.9341     75.7856   9.1737964716e+01   5.5310878506e+01    0.6192443    0.4829201 -45.16  0.001459779    1.263    0.208
        91 -13.6282    213.3290     78.7475   5.4247254796e+01   2.1258496101e+01     0.905621    0.5761016  84.85   0.00421678    2.332    0.571
        92 -12.7787    218.4704     74.7893   5.2573106058e+01   2.0730530215e+01    0.3340904    0.2745522  82.26  0.001944961    1.426    0.299
        93 -12.0720    214.6484     71.8986   5.2347448447e+01   2.1945341909e+01    0.3044824    0.2675363 -49.58  0.001282688    1.098    0.089
        94 -12.8764    135.2222     80.0496   6.9149806756e+01   3.9166003468e+01    0.7173565    0.3837552  48.37  0.002562565    1.858    0.462
        95 -11.9527    114.2279     80.3415   7.4824215225e+01   4.3965762551e+01    0.3721955    0.3345468 -66.31 0.0009079925    1.163    0.140
        96 -12.8322     91.8948     58.4224   7.4400805584e+01   5.3374464926e+01    0.6096161    0.4932693 -56.51  0.002597201    1.315    0.239
        97 -13.0314     87.6218     65.3292   7.8331481844e+01   5.2856098487e+01    0.5137682    0.3988805  -6.79  0.001035214    1.698    0.411
        98 -12.1238     80.9518     69.9893   8.2280075454e+01   5.3172861192e+01    0.5170069    0.3103313  48.30  0.002256016    1.743    0.426
        99 -12.8117     70.1956     75.9321   8.8157999073e+01   5.3771009464e+01    0.5422861    0.4351677 -37.38  0.002060286    1.300    0.231
       100 -12.3452     77.0068     73.7181   8.4921098911e+01   5.3076579933e+01    0.4322521    0.3621469  26.54  0.001491177    1.292    0.226
       101 -12.5189     16.9584     79.2468   1.1116873271e+02   5.9418657967e+01     0.306196    0.1645887 -66.80  0.001113694    1.585    0.369
       102 -11.3925     21.3553     71.7514   1.0789418193e+02   6.0963752370e+01    0.6436927    0.1744836  21.25  0.001941421    4.002    0.750
       103 -14.0394    170.8916    242.9816   9.3308469831e+01   4.4780005650e+00       0.7426    0.4387482  24.56  0.004836459    1.368    0.269
       104 -12.9600      7.3602     51.1249   1.1075115689e+02   6.6972925424e+01     0.895129    0.3713598 -26.41  0.003676686    3.192    0.687
       105 -13.1137      6.4968     43.7072   1.0962527745e+02   6.8793317867e+01    0.8407485    0.3560076  14.55   0.00391072    2.674    0.626
       106 -11.5313     41.8749     76.1399   9.9749101194e+01   5.7830132913e+01    0.2476529    0.1907018 -67.43  0.001209035    1.223    0.183
       107 -10.9009     27.2804     76.9976   1.0627245215e+02   5.9144507247e+01    0.1955788    0.1615379 -71.04 0.0004746475    1.092    0.084
       108 -10.5537     22.9560     75.5001   1.0788972025e+02   5.9895723718e+01    0.1742499    0.1343811  18.65 -0.001554911    1.470    0.320
       109 -13.7236    199.1239     69.7833   5.3938215802e+01   2.5679320385e+01     0.773645    0.4613761  47.18  0.002538149    1.840    0.456
       110 -11.5895    199.7603     62.4126   5.1873027973e+01   2.6593206550e+01    0.3250902    0.1908695 -27.04  0.001468388    1.682    0.405
       111 -12.2286    241.7952     71.4116   4.8999357797e+01   1.6487869638e+01    0.3481763      0.21607 -72.17  0.001748287    2.340    0.573
       112 -12.3680     38.7647     68.1889   9.9120957762e+01   6.0145517528e+01    0.5162985    0.2040631  33.87  0.002082468    2.574    0.612
       113 -13.1220    134.0116     65.7952   6.4951770115e+01   4.2105584613e+01    0.6609217    0.6106588  57.43  0.002353313    1.075    0.069
       114 -11.5309    100.6052     64.5453   7.3746601343e+01   5.0239284448e+01    0.3935082    0.2666483 -12.44  0.001595156    2.271    0.560
       115 -11.3367     43.3415     64.9104   9.6140197630e+01   6.0385044859e+01     0.200255    0.1603317 -56.45   0.00064706    1.155    0.134
       116 -13.8352    178.0724     58.0701   5.3863479551e+01   3.2388188236e+01    0.8082319    0.6204521 -41.43  0.002434147    1.239    0.193
       117 -12.3882     79.5395     60.8837   7.9684085737e+01   5.5418561336e+01     0.526855     0.477663 -51.12  0.002479669    1.100    0.091
       118 -12.7725     82.3895     54.6002   7.6314351671e+01   5.6144129315e+01    0.5028749    0.3988371   9.97  0.001879852    1.551    0.355
       119 -11.4117     77.9562     54.2210   7.7822792589e+01   5.7116741746e+01    0.2965237     0.259359  22.40 0.0008614282    1.210    0.174
       120 -12.1173     24.6203     60.3858   1.0385677567e+02   6.3492372060e+01    0.2651812     0.223221 -67.04 0.0005637407    1.091    0.083
       121 -12.9038     60.3685     60.8063   8.7317285244e+01   5.8882727226e+01    0.6955115     0.395951 -23.09  0.002334084    3.060    0.673
       122 -14.4702    119.7435     54.8187   6.4763526443e+01   4.7568735008e+01    0.9962942    0.6536103  37.89  0.003572791    1.699    0.411
       123 -11.7311    231.0978     55.5095   4.6351804967e+01   2.0645393612e+01    0.3136749    0.1298998  65.90  0.001368518    2.750    0.636
       124 -12.9703    248.0521     52.4690   4.4002799945e+01   1.7624958275e+01     0.644656    0.3145563 -26.55  0.003217408    1.840    0.456
       125 -13.3392    103.0347     50.4951   6.7852779937e+01   5.2362305089e+01    0.6615026    0.4381171 -55.79  0.000642736    1.766    0.434
       126 -12.1286     97.7301     50.3781   6.9448390023e+01   5.3614837564e+01    0.4184009    0.3106386 -56.22   0.00147454    1.509    0.337
       127 -12.5704    135.6833     50.3103   5.9327784658e+01   4.4314738667e+01    0.5507314    0.3147108  40.02  0.001652245    2.028    0.507
       128 -10.9483     23.1957     50.2946   1.0193383067e+02   6.6041415415e+01    0.2023491    0.1527847 -20.21 0.0006077379    1.445    0.308
       129 -12.9800    158.0520     44.2041   5.2890825781e+01   3.9461102556e+01    0.7274925    0.4776192  38.46  0.003277176    1.796    0.443
       130 -13.7177     96.9591    238.8633   1.0696300512e+02   1.4847780060e+01    0.6965235    0.3438306  36.28  0.004057514    1.524    0.344
       131 -14.3372    217.8373     42.2133   4.4380840675e+01   2.5150901761e+01     1.282476    0.5851484  65.53  0.004727413    2.324    0.570
       132 -13.3280    205.3404     40.3535   4.5210115890e+01   2.8231061749e+01    0.7243567    0.3869506 -85.50  0.003065599    2.551    0.608
       133 -13.1419    131.8386     32.7975   5.3801961992e+01   4.7910526634e+01    0.5162461    0.4531986  17.39  0.002429082    1.284    0.221
       134 -12.7448    109.4491     42.1578   6.2751483489e+01   5.2244434701e+01    0.5400879    0.2675072  51.94  0.001451679    1.938    0.484
       135 -14.0915    121.9649     37.4290   5.7724118570e+01   4.9821824293e+01    0.9580829    0.5297339  40.93  0.002454791    2.031    0.508
       136 -12.5752    113.7255     38.2729   6.0074958966e+01   5.1792398153e+01    0.4142946    0.3650976 -63.53   0.00151676    1.213    0.176
       137 -13.1894     55.2370     81.9163   9.5662799561e+01   5.4669347914e+01    0.6014451    0.4934981 -10.94  0.002376956    1.482    0.325
       138 -10.5356     55.4677     41.3853   8.2145778614e+01   6.3864471172e+01    0.1378544    0.1288572  -9.50 0.0001866035    1.040    0.038
       139 -13.3340    242.7109     35.7581   4.0566756116e+01   2.0625561180e+01    0.6317046    0.4013993  74.77  0.002682498    1.778    0.438
       140 -12.6774     75.8045     37.3469   7.1682358790e+01   6.0788659524e+01    0.3866144    0.2810281  48.68 0.0008968596    1.392    0.282
       141 -12.1938     69.6545     36.6748   7.3825563700e+01   6.2164533830e+01    0.4683009    0.2412416  39.41  0.001049495    2.013    0.503
       142 -12.4111     46.3498     33.8194   8.3315743620e+01   6.6856121914e+01    0.4924926    0.3280275 -24.47    0.0024554    1.701    0.412
       143 -14.0619     91.5827    231.8003   1.0742362513e+02   1.6665266309e+01    0.5184686    0.4738472  12.24  0.003941458    1.345    0.257
       144 -12.1300    147.3327    239.0373   9.7185174882e+01   8.1212073677e+00    0.1545762    0.1296484  27.40 0.0008927882    1.119    0.106
       145 -11.9062     24.6066    217.4036   1.2032961641e+02   2.6962415329e+01    0.5154335    0.4594696  37.84  0.004051766    1.336    0.252
       146 -13.7450     25.7840    227.3005   1.2051117009e+02   2.5045256416e+01     0.561096     0.347862 -59.76  0.003731662    2.151    0.535
       147 -13.3646     20.7433    225.3538   1.2144184268e+02   2.5886048447e+01    0.7293891    0.2898597  35.28  0.004159292    1.914    0.477
       148 -13.0771    237.3846    230.3132   8.0389755022e+01  -2.4641288189e+00    0.2692407    0.1633894  39.50  0.001831496    1.957    0.489
       149 -13.1460    139.1233     22.0614   4.8431501986e+01   4.7340350168e+01    0.8249946    0.3118708  66.96  0.001774557    2.518    0.603
       150 -14.1448     63.3251    214.6904   1.1193711628e+02   2.3203536765e+01    0.8324991    0.4515699  46.80  0.004859983    1.442    0.307
       151 -11.0774     31.4063     31.1256   9.0423120490e+01   6.9479541330e+01    0.2200596    0.1638874  12.88 0.0007246301    1.449    0.310
       152 -13.0630     56.2222     27.4865   7.5362175062e+01   6.6378734450e+01    0.7208475    0.3448095  45.70  0.002220598    2.171    0.539
       153 -12.6640     68.0994     24.4090   6.8569942980e+01   6.4574375844e+01     0.649407    0.3697112  47.56  0.003017991    1.731    0.422
       154 -12.3281    120.6109     26.5129   5.3722091541e+01   5.1690416336e+01    0.4561286    0.3320725  68.23  0.002065387    1.351    0.260
       155 -11.5384     36.7404     25.3675   8.4578426237e+01   6.9937692601e+01    0.2900188    0.2202148 -89.48  0.001109098    2.256    0.557
       156 -12.0924     46.5078     20.9928   7.6831177554e+01   6.9224773887e+01    0.3492002    0.2720147  10.16 0.0008550425    1.361    0.265
       157 -11.7156     53.4921     20.0111   7.2744747544e+01   6.8153325606e+01    0.4446665    0.1714172  35.73  0.001630152    3.099    0.677
       158 -12.9534     63.7397    224.4682   1.1257574334e+02   2.1389926090e+01    0.6646934    0.2830569  45.21  0.003595301    1.761    0.432
       159 -10.6717    248.3502     18.3094   3.6134424559e+01   2.1379580894e+01    0.1121731   0.09024943  27.27  0.000704435    1.714    0.417
       160 -12.4753     68.2185    221.3873   1.1140668485e+02   2.1392964148e+01    0.3967074    0.2302567 -73.86  0.002402594    2.023    0.506
       161 -12.9417     94.7217    218.5814   1.0554108841e+02   1.8465862415e+01    0.2973913    0.2146955  41.42  0.001551578    1.094    0.086
       162 -10.6678    142.6620     12.2715   4.4257818548e+01   4.7466895715e+01    0.1502055    0.1011129 -66.99 0.0003336548    1.603    0.376
       163 -11.8730     40.2788    243.5012   1.1839146500e+02   2.0779870945e+01     0.239044    0.1275272  79.57  0.001538229    1.991    0.498
       164 -13.5965      8.6767    211.2175   1.2340028937e+02   2.9612872519e+01     0.896128    0.5987262  59.60   0.00641246    1.111    0.100
       165 -13.3398     28.3389    245.8084   1.2075212967e+02   2.1626340591e+01    0.4211456    0.2209334  49.35  0.002847993    1.321    0.243
       166 -11.3721    136.7293    211.3832   9.5884425263e+01   1.3677948602e+01    0.1874492    0.1568446 -75.80 0.0009135336    1.632    0.387
       167 -12.7458     41.7833    206.8398   1.1609491741e+02   2.7184294411e+01    0.3500203    0.1542225  63.63  0.001764345    2.245    0.555
       168 -10.9800     80.6637    208.3423   1.0759551831e+02   2.2179068686e+01    0.1334411   0.07529093  58.24 0.0007050241    1.764    0.433
       169 -10.7164    150.0046    207.0000   9.2572444207e+01   1.2378847925e+01    0.2132976   0.05951791  37.00 0.0008059419    2.967    0.663
       170 -12.6637     57.2590    203.2866   1.1239123684e+02   2.6100154683e+01    0.4484661    0.2203515  84.96  0.002200253    2.582    0.613
       171 -13.4689     40.5672    195.2645   1.1561620733e+02   2.9615881119e+01    0.4442319    0.2179141  76.05  0.002267403    2.193    0.544
       172 -12.9868    164.2502    194.8416   8.7881314343e+01   1.2066182857e+01    0.5031976    0.2981566 -62.04  0.002371963    3.093    0.677
