#   1 NUMBER                 Running object number                                     
#   2 MAG_AUTO               Kron-like elliptical aperture magnitude                    [mag]
#   3 X_IMAGE                Object position along x                                    [pixel]
#   4 Y_IMAGE                Object position along y                                    [pixel]
#   5 X_WORLD                Barycenter position along world x axis                     [deg]
#   6 Y_WORLD                Barycenter position along world y axis                     [deg]
#   7 A_WORLD                Profile RMS along major axis (world units)                 [deg]
#   8 B_WORLD                Profile RMS along minor axis (world units)                 [deg]
#   9 THETA_WORLD            Position angle (CCW/world-x)                               [deg]
#  10 FWHM_WORLD             FWHM assuming a gaussian core                              [deg]
#  11 ELONGATION             A_IMAGE/B_IMAGE                                           
#  12 ELLIPTICITY            1 - B_IMAGE/A_IMAGE                                       
         1 -14.5272    165.7802     53.2215   7.2160265715e+01   3.6921195825e+01     2.253659     1.418516  15.56   0.00688471    2.202    0.546
         2 -14.0760    179.5265     36.9033   6.4419363197e+01   3.5574107644e+01    0.9674009    0.8539562 -36.18  0.002781498    1.157    0.135
         3 -13.5709    183.8396     30.2606   6.1659063836e+01   3.5248210828e+01    0.6048846    0.5593282  18.91  0.001256266    1.119    0.106
         4 -13.4439    187.8696     13.7437   5.6004922962e+01   3.5958198478e+01    0.8962426    0.4703405 -84.14  0.003554199    2.585    0.613
         5 -14.3473    199.4361      5.5507   5.2292133930e+01   3.3749676480e+01     1.070345    0.7855559  65.00  0.004320422    1.299    0.230
         6 -10.7952     63.6857    180.8091   1.2699736241e+02   3.0338690910e+01    0.2725385    0.1825129  72.94  0.001292726    1.488    0.328
         7 -18.2313     57.5505    239.9382   1.3280121422e+02   2.0446778602e+01     6.986624     6.055688  78.61    0.0542741    1.272    0.214
         8 -12.1030    192.9668    194.5616   1.0108435712e+02   7.8411647279e+00     0.782332    0.4481336 -60.20  0.002928688    5.161    0.806
         9 -10.3271     64.4583    195.6599   1.2822149153e+02   2.7342488940e+01    0.1280855    0.1064169 -70.09 0.0002714551    1.337    0.252
        10 -19.1014     36.2035    101.3772   1.2453626865e+02   5.0975531864e+01     15.82722    0.9063269 -67.41    0.0269554   14.699    0.932
        11 -10.4590    202.3704    170.2023   9.4756021803e+01   9.7232650064e+00    0.2306927    0.1845558  38.07 0.0008135237    1.272    0.214
        12 -10.6483    204.3911    166.7404   9.3675927841e+01   9.8697718304e+00    0.4668413    0.2287483 -47.52  0.001931969    3.030    0.670
        13 -12.5070    194.2396    167.1875   9.5767620064e+01   1.1653279283e+01    0.6312344    0.4165423 -54.03  0.003046923    2.343    0.573
        14 -10.5188    163.0196    168.8137   1.0262065831e+02   1.7131557074e+01    0.2794521    0.2034365  73.58  0.001328007    2.305    0.566
        15 -10.9119    113.1422    160.5915   1.1268265793e+02   2.7457538876e+01    0.2113209    0.1849355 -81.61 0.0003566406    1.264    0.209
        16 -10.6601     13.8863    160.1413   1.3656986940e+02   3.9540325776e+01    0.1918039    0.1560799  50.45  0.000699511    1.233    0.189
        17 -10.8736    120.4478    157.2134   1.1033018190e+02   2.6920073668e+01    0.3231876    0.1379536 -53.00  0.001309021    2.552    0.608
        18 -11.3019    189.9554    155.5875   9.4274291601e+01   1.4285562209e+01    0.3505388    0.3313733  12.96  0.001616434    1.174    0.148
        19 -10.1670    129.9597    157.4716   1.0807994814e+02   2.5215940377e+01    0.2150642    0.1271948  41.08 0.0009232684    1.549    0.354
        20  -9.6546      4.3634    155.2557   1.3843809902e+02   4.1254722550e+01    0.0991437   0.07673949 -48.07 0.0006966644    1.626    0.385
        21 -11.3188    165.3724    153.5111   9.9100653540e+01   1.9376771163e+01    0.3147697    0.2322453  70.43  0.001486281    2.086    0.521
        22 -11.5370    152.3015    151.8794   1.0173296320e+02   2.2182176287e+01     0.392211    0.2751628 -83.59  0.001662936    2.746    0.636
        23 -12.6883    133.9807    145.8488   1.0488149033e+02   2.6802112611e+01     1.200639    0.3276017 -54.18  0.003144687    5.836    0.829
        24 -10.8146    174.3252    148.7876   9.6139828084e+01   1.8465139250e+01    0.2833286    0.2591124  69.63 0.0008052443    1.395    0.283
        25 -11.9951    144.1705    146.2225   1.0249029254e+02   2.4812032338e+01    0.3624293    0.2691317 -74.37  0.001726914    1.976    0.494
        26 -12.7059    100.5855    138.4951   1.1201046409e+02   3.4179684151e+01    0.3049849    0.2731068  26.74 0.0004858726    1.158    0.136
        27 -12.2484    106.0611    130.8873   1.0906898058e+02   3.4939530608e+01    0.4067616    0.3488031 -59.61  0.001283066    1.202    0.168
        28 -11.4389    105.7413    125.4343   1.0803241968e+02   3.6193323363e+01    0.3271674    0.2435667 -34.25  0.000644289    1.499    0.333
        29 -11.6935    117.3581    129.5611   1.0575738714e+02   3.3241470317e+01     0.306286    0.2606144 -29.58 0.0007002513    1.268    0.211
        30 -11.3083    135.0000    120.3731   9.9035851580e+01   3.1797500747e+01    0.4451009    0.1359549 -48.48  0.001267606    3.633    0.725
        31 -11.1067    136.0000    129.0017   1.0078702407e+02   2.9830999974e+01    0.2826244    0.1901655 -44.31  0.001325659    1.547    0.353
        32 -11.0986    135.3947    125.2138   1.0007400718e+02   3.0725222926e+01    0.3584917    0.1526146 -43.72  0.001327286    2.435    0.589
        33 -11.0778    160.8941    128.1274   9.4523425198e+01   2.4942408867e+01    0.4064619    0.3000411 -83.17   0.00174196    2.391    0.582
        34 -11.1322    121.1482    124.0600   1.0353951079e+02   3.3718538101e+01    0.2325377    0.2009328  -7.85 0.0008645192    1.292    0.226
        35 -10.6960    112.2585    118.7598   1.0476264014e+02   3.6505572912e+01     0.260509    0.2289621  29.59 0.0004131549    1.140    0.123
        36 -11.1895    167.9466    112.9143   8.9144992311e+01   2.6258615959e+01    0.3932343    0.3153059 -84.54  0.001624881    1.871    0.466
        37 -10.8232    205.3522    110.2520   8.0708969525e+01   1.8463685336e+01    0.3556203    0.2102575  34.41     0.001112    1.764    0.433
        38 -12.1264    153.0582    194.3639   1.0911915299e+02   1.4580213921e+01    0.3292564    0.1842347  45.34    0.0011595    1.635    0.388
        39 -11.5693     80.5140    105.3584   1.1109874132e+02   4.4803112585e+01    0.3470601    0.2158594 -50.67  0.001268923    1.527    0.345
        40 -10.1316     66.5054     98.9048   1.1416482005e+02   4.8259697422e+01    0.2181838    0.1272389 -58.74  0.001034689    1.595    0.373
        41 -11.4995     12.4883    205.9852   1.3919116988e+02   3.0711734169e+01    0.4161886    0.1778529  34.25  0.002572349    2.121    0.528
        42 -12.9860    157.4021    200.8307   1.0921372572e+02   1.2832615442e+01    0.6303193    0.4080239  76.73  0.002640627    3.926    0.745
        43 -10.0937    150.4558     80.4734   8.4206337199e+01   3.6227017400e+01     0.157523    0.1472806  10.98 0.0002274787    1.024    0.024
        44 -10.4965     82.9670     76.2984   1.0283790671e+02   5.0991242050e+01    0.1951892    0.1848988   2.08 0.0003640005    1.067    0.063
        45 -11.1973    176.4635     74.6915   7.6653680177e+01   3.0921389510e+01      0.31333    0.2576632 -85.37  0.000253371    1.586    0.370
        46 -11.7252    249.0908    248.1459   9.9695744739e+01  -6.4045871288e+00    0.2400137    0.1391773 -13.68  0.001682995    1.700    0.412
        47 -11.8450    158.6891    235.4663   1.1371401134e+02   7.6438799005e+00    0.3137842    0.1874446  26.32  0.001223368    1.514    0.340
        48  -9.6120    168.5960    234.5162   1.1175210429e+02   6.3004446648e+00    0.1168194   0.08944602  31.48 5.864697e-05    1.035    0.033
        49 -10.2935     13.4499     59.8926   1.2565599200e+02   6.2271339325e+01    0.1693235    0.1611054  84.57 0.0003933942    1.233    0.189
        50 -10.1023    110.6968     21.0776   7.3055202855e+01   5.5131096582e+01    0.2435984    0.1945261  64.09 0.0006770392    1.401    0.286
        51 -12.0445     59.6813    202.1633   1.2976203970e+02   2.6683469946e+01    0.2035943    0.1580798  50.03 0.0005039229    1.105    0.095
        52 -11.3026    175.6750    213.0742   1.0742345143e+02   8.0765013205e+00    0.2216345    0.1432484  40.63 0.0007588756    1.342    0.255
