#   1 NUMBER                 Running object number                                     
#   2 MAG_AUTO               Kron-like elliptical aperture magnitude                    [mag]
#   3 X_IMAGE                Object position along x                                    [pixel]
#   4 Y_IMAGE                Object position along y                                    [pixel]
#   5 X_WORLD                Barycenter position along world x axis                     [deg]
#   6 Y_WORLD                Barycenter position along world y axis                     [deg]
#   7 A_WORLD                Profile RMS along major axis (world units)                 [deg]
#   8 B_WORLD                Profile RMS along minor axis (world units)                 [deg]
#   9 THETA_WORLD            Position angle (CCW/world-x)                               [deg]
#  10 FWHM_WORLD             FWHM assuming a gaussian core                              [deg]
#  11 ELONGATION             A_IMAGE/B_IMAGE                                           
#  12 ELLIPTICITY            1 - B_IMAGE/A_IMAGE                                       
         1 -13.0333    175.7338     36.2299   7.5706563495e+01   3.6989736387e+01     1.272732    0.9722903  17.56  0.002923515    1.633    0.388
         2 -13.5401    184.9608     28.0105   7.1762469071e+01   3.5589454418e+01     2.086229      1.37276 -11.01  0.008708611    1.912    0.477
         3 -13.8245    193.2642     15.1603   6.6874503217e+01   3.4876282948e+01     1.988034     1.267984  44.69  0.002300141    1.737    0.424
         4  -9.8514    164.8000     12.4383   6.9835655853e+01   4.2652879923e+01    0.2803445    0.2076565 -62.62 0.0006471147    1.479    0.324
         5  -9.4933    235.7076      2.4998   5.9453832109e+01   2.5533826636e+01    0.2895229     0.210601 -42.00  0.001339592    1.303    0.233
         6  -9.9819     48.0465      2.9775   9.5912952925e+01   6.9262881436e+01    0.1989882    0.1228889   6.04  0.001128708    1.703    0.413
         7  -9.8944     76.9460    236.6916   1.3976000040e+02   1.7987759759e+01    0.2848222    0.1447591  51.34  0.001712163    1.502    0.334
         8 -12.8627    173.0291    248.4358   1.2394850153e+02   1.3654430204e+00     2.109697    0.3508142  39.50  0.006154933    5.879    0.830
         9 -12.7888    153.6345    246.4745   1.2712151742e+02   4.7531198389e+00     1.550046    0.4619196  37.79  0.006202842    3.197    0.687
        10 -10.4764    121.5559    248.8950   1.3304258832e+02   9.4656220052e+00    0.2436999    0.2095367  82.83  0.001026991    1.287    0.223
        11  -9.6156    100.5101    246.1057   1.3644969463e+02   1.3067459238e+01    0.1931071    0.1508003  76.50  0.001154659    1.225    0.184
        12 -11.0491     94.4534    241.3594   1.3708172987e+02   1.4721538944e+01    0.5273061    0.2880194 -89.53  0.002300456    2.357    0.576
        13 -10.1191     96.2344    248.4406   1.3739692511e+02   1.3320148296e+01     0.420284    0.1596849  57.68  0.001895677    2.579    0.612
        14  -9.4999     86.9361    250.5285   1.3915878706e+02   1.4312633613e+01    0.2912675    0.1236941  39.94 0.0007060777    2.096    0.523
        15 -10.8293     90.5178    246.6671   1.3822899542e+02   1.4424719569e+01     0.330498    0.2094444  71.36 0.0007882317    1.462    0.316
        16 -14.8783     11.6104    209.0826   1.4938085203e+02   3.0761614462e+01     4.687176     2.587249 -70.77   0.01297776    1.788    0.441
        17 -10.0009    180.7078    197.8922   1.1504828201e+02   7.3914709145e+00    0.2269567    0.1914224  40.98 0.0003265529    1.048    0.046
        18 -14.0439     22.2067    228.4251   1.4857360798e+02   2.6131046179e+01     1.747644    0.9795298  19.59  0.008838129    4.610    0.783
        19 -13.7233     82.3558    165.7139   1.3101563502e+02   3.1187097461e+01     4.794511      0.97765  46.85  0.004405797    4.690    0.787
        20 -13.7628     68.2351    144.9348   1.3137641536e+02   3.7907180262e+01     4.820475     2.142333  55.33  0.006862901    2.604    0.616
        21  -8.1266     88.5430    183.5004   1.3202471981e+02   2.6427241716e+01    0.2155608    0.1152047  43.54 5.548706e-05    1.728    0.421
        22 -11.2248     81.2565    185.7944   1.3387351258e+02   2.7044447084e+01    0.3727215    0.2909243 -53.72  0.001290003    1.553    0.356
        23 -11.4041     84.9637    179.7733   1.3232375508e+02   2.7755679873e+01    0.4455697    0.2827041 -50.19  0.000744332    1.899    0.473
        24 -10.2618    192.6485    195.0331   1.1224330143e+02   5.6213396172e+00    0.8065107    0.4127168 -61.92  0.002627077    5.576    0.821
        25  -9.3117      8.0356    183.9867   1.4865753907e+02   3.6008321761e+01    0.2769296    0.1611207  39.48  0.001845429    1.813    0.448
        26 -10.0173     53.7207    183.2067   1.3941799374e+02   3.1330358205e+01    0.2966776    0.1830297  57.08  0.001765904    1.421    0.296
        27  -8.4601     96.1131    181.5362   1.3012150278e+02   2.5651711914e+01    0.2059247    0.1160235  45.69 0.0006214273    1.615    0.381
        28  -8.4821    156.6728    233.3103   1.2493252736e+02   6.1493914637e+00      0.12209   0.08320231  63.67 0.0004957357    1.661    0.398
        29 -13.2423     70.0825    203.0764   1.3804065294e+02   2.5128629402e+01    0.9302403    0.7277311 -75.66  0.003511869    1.320    0.242
        30  -9.8972    137.9211    172.6407   1.1952259016e+02   2.0120494947e+01    0.3271906    0.2353409 -86.05  0.001610722    1.801    0.445
        31 -10.0853    227.5434    172.1448   1.0138327791e+02   2.5702344775e+00    0.2850948     0.165448 -37.05  0.001415677    1.788    0.441
        32 -10.4648    230.4612    168.4208   1.0010768748e+02   2.5777862627e+00    0.2998722    0.2221104 -41.37   0.00138845    1.512    0.339
        33  -8.7224    144.6436    169.4267   1.1746893820e+02   1.9464141553e+01    0.2935584    0.1128724  54.68 0.0009569339    3.322    0.699
        34  -8.2008    141.5766    198.8393   1.2301797310e+02   1.4443910398e+01    0.1741898    0.1245335 -75.17 0.0009337985    1.764    0.433
        35  -9.6973      3.3045    161.7372   1.4821869463e+02   4.1009972551e+01    0.1979596    0.1493912  84.56 0.0005204705    1.043    0.041
        36 -10.5096     63.0345    156.3283   1.3425977165e+02   3.6009590847e+01    0.3161223    0.1927933  65.99  0.001131948    1.682    0.405
        37 -14.1292     53.6676    235.5931   1.4371001451e+02   2.1234415697e+01        1.762     1.128729 -88.97   0.01246153    1.437    0.304
        38 -10.0052    108.0223    144.5864   1.2136027021e+02   3.1683648673e+01    0.5189346    0.2988195 -40.52  0.002242839    2.173    0.540
        39 -11.5707     96.5333    145.4727   1.2437777766e+02   3.3474897102e+01    0.2619584    0.2514458  51.25 0.0006410385    1.175    0.149
        40  -9.2472    133.3152    142.7990   1.1483968941e+02   2.7250717693e+01    0.6390629    0.1969224 -57.37  0.001648268    5.295    0.811
        41  -8.9292    126.0353    143.9334   1.1682359050e+02   2.8449966223e+01     0.207282    0.1958369  74.76  0.001161841    1.012    0.012
        42 -15.0981     62.6044    213.6698   1.4044477924e+02   2.4082782465e+01     7.696669     1.431096  46.03   0.01202357    3.691    0.729
        43  -8.6503    167.4568    212.4880   1.1997011643e+02   7.4755690016e+00    0.1692631    0.1269914 -66.52 0.0009007085    1.792    0.442
        44 -10.7266     37.9465    129.7409   1.3697284260e+02   4.5035906863e+01    0.3883473    0.2001743  38.93  0.001383319    2.074    0.518
        45  -9.7995     39.9663    126.0098   1.3592253809e+02   4.5690738976e+01    0.1975639    0.1625518 -80.03 0.0005452228    1.005    0.005
        46  -9.5920    115.2123    133.7207   1.1737644218e+02   3.2797801880e+01    0.3007617    0.2690978 -22.20 0.0007800651    1.356    0.263
        47  -8.8374    111.8572    209.8998   1.3051381329e+02   1.7524585510e+01    0.1802732    0.1592568  47.63 0.0004738565    1.209    0.173
        48  -8.7160    190.9574    134.3325   1.0010374247e+02   1.6458041841e+01    0.2078164    0.1859148  38.35 0.0004563502    1.092    0.085
        49 -10.0998    103.1043    130.3449   1.1978035764e+02   3.5789140092e+01    0.2770689    0.2344029 -36.19 0.0008179806    1.366    0.268
        50  -9.2020    123.4695    128.9907   1.1425808990e+02   3.2246834374e+01    0.2793966    0.2152998  46.56  0.000166556    1.291    0.225
        51 -12.8559     10.7016    243.5311   1.5108614986e+02   2.4702009440e+01    0.3852318    0.2184169  64.79  0.001133755    1.190    0.160
        52  -9.8684     25.5319    127.1555   1.3989055627e+02   4.6805768247e+01     0.240442    0.1769285  47.14 0.0004408045    1.482    0.325
        53 -10.1892    237.1093    126.5453   8.9798494753e+01   7.7452760411e+00    0.2529281    0.2424677  27.28 0.0004136189    1.108    0.097
        54  -9.1494    120.0819    126.1346   1.1447431834e+02   3.3553109947e+01    0.3050255    0.2244152  -7.76   0.00132273    2.224    0.550
        55  -9.4615    135.0000    122.0152   1.0974814960e+02   3.1401051134e+01    0.5943665   0.08654036 -46.60  0.001250353    6.911    0.855
        56  -9.0782    110.6959    121.9356   1.1596043179e+02   3.6308409465e+01    0.2355508    0.2047217  49.27 0.0008159765    1.168    0.144
        57  -9.2733      1.9353    202.5423   1.5074522013e+02   3.2901051156e+01    0.1449267    0.1018357  71.90 0.0004751731    1.062    0.058
        58  -8.3366     67.8474    116.3868   1.2658106779e+02   4.4601912851e+01    0.1681183    0.1336707  17.65 0.0006259939    1.620    0.383
        59  -9.4330    168.2933    113.6561   9.9813194608e+01   2.5639940225e+01    0.3727326    0.2731244  79.93 0.0009075398    1.820    0.450
        60 -11.0923     43.9920    130.4997   1.3548889967e+02   4.4224874389e+01    0.3042468    0.2062809  44.46  0.001783725    1.574    0.365
        61  -9.6089     23.1597    113.5929   1.3880451895e+02   5.0108564538e+01     0.267761     0.157757  80.65  0.001465185    1.831    0.454
        62 -10.7961      5.7894    109.1357   1.4308301812e+02   5.2373126129e+01    0.3930815    0.2835824 -17.92  0.002258957    1.976    0.494
        63 -10.1361     65.6934    105.4400   1.2498975858e+02   4.7441973058e+01    0.2931807    0.2098948 -40.34  0.001124306    1.503    0.335
        64  -9.7330      1.7359    103.9667   1.4363306492e+02   5.3770392283e+01    0.1720919    0.1189355 -77.34 0.0006413729    1.103    0.093
        65  -9.5754      2.0113     96.0064   1.4261814660e+02   5.5525429380e+01    0.1466444    0.1086221 -73.85   0.00101928    1.025    0.024
        66  -8.0798     50.6455     91.3039   1.2660426796e+02   5.2564490010e+01    0.1315039   0.09596005  76.00 0.0007040169    1.711    0.416
        67  -9.1740      3.3207     79.3329   1.3991999846e+02   5.9139191927e+01    0.1223195   0.06434815 -47.68 0.0007049402    1.699    0.411
        68  -8.4524    191.2869     64.1163   8.1440069666e+01   2.8843841952e+01    0.2034112    0.1856164 -39.79 0.0003681969    1.097    0.089
        69 -11.0807    135.0699    250.0967   1.3080261077e+02   7.1893809929e+00    0.4767457    0.2039181  47.54  0.002535664    1.787    0.440
        70 -10.4869    105.4493    240.9547   1.3509884179e+02   1.3159320196e+01    0.2823591    0.1800983  63.15  0.000503925    1.376    0.273
        71  -8.5605     93.0698    198.9220   1.3297171816e+02   2.2600212107e+01    0.1910874    0.1384929  69.25            0    1.236    0.191
        72  -8.2066    132.1261     52.8267   9.0145670017e+01   4.5705123920e+01     0.193632    0.1662243  19.56            0    1.239    0.193
        73  -9.6423    246.4838     51.0256   7.0190592223e+01   1.7126358768e+01    0.2290691    0.1952872  72.18 0.0004201402    1.235    0.191
        74  -8.5950     77.0109     51.4981   1.0603025200e+02   5.7285060698e+01     0.182689    0.1207992  65.47  0.000810549    2.606    0.616
        75  -9.0732    211.8636     38.1399   7.1010627763e+01   2.7292462431e+01     0.191633    0.1684357  41.46 0.0002794811    1.286    0.222
        76 -10.1473    141.9092     29.2909   7.9621104904e+01   4.6688847228e+01    0.2386928    0.2190314 -21.02 0.0003078346    1.144    0.126
        77 -15.7338     24.0198    243.9513   1.4904309651e+02   2.3243172136e+01     1.725795     1.523856  48.59   0.01502105    1.654    0.396
        78  -9.9950    213.5157    238.9594   1.1559164965e+02  -3.9430367433e+00     0.194182    0.1292339  35.50  0.001059921    1.181    0.153
