#   1 NUMBER                 Running object number                                     
#   2 MAG_AUTO               Kron-like elliptical aperture magnitude                    [mag]
#   3 X_IMAGE                Object position along x                                    [pixel]
#   4 Y_IMAGE                Object position along y                                    [pixel]
#   5 X_WORLD                Barycenter position along world x axis                     [deg]
#   6 Y_WORLD                Barycenter position along world y axis                     [deg]
#   7 A_WORLD                Profile RMS along major axis (world units)                 [deg]
#   8 B_WORLD                Profile RMS along minor axis (world units)                 [deg]
#   9 THETA_WORLD            Position angle (CCW/world-x)                               [deg]
#  10 FWHM_WORLD             FWHM assuming a gaussian core                              [deg]
#  11 ELONGATION             A_IMAGE/B_IMAGE                                           
#  12 ELLIPTICITY            1 - B_IMAGE/A_IMAGE                                       
         1 -12.8321     23.8639     16.9662   4.4070069463e+01   6.9649981683e+01    0.6073242    0.3811013  24.21  0.002700601    1.362    0.266
         2 -11.2350     49.7572     14.3172   3.1125439869e+01   6.6128120386e+01     0.268593    0.1952309  28.86 0.0007366318    1.101    0.092
         3 -10.3282     45.4964     12.1195   3.1878299848e+01   6.7071963926e+01    0.2190872    0.1906432  27.08 0.0007406743    1.238    0.192
         4  -9.7360     79.1901     11.8842   2.0263194684e+01   6.0807992359e+01    0.1742588    0.1515507  57.88 0.0005602611    1.209    0.173
         5 -11.4601    129.2801      8.7623   8.5293565968e+00   5.0006912068e+01    0.2623886    0.1904838  68.81 0.0002853789    1.120    0.107
         6 -11.1775    123.9025      6.5362   8.7568294204e+00   5.1432556406e+01    0.3811817    0.2009818  80.16   0.00119462    1.979    0.495
         7 -11.0780     32.9071     18.7923   4.0424344943e+01   6.8225522349e+01    0.2942697    0.2110309 -34.90  0.001286035    1.636    0.389
         8 -11.4050    178.8414      8.7078   2.1826934677e+00   3.8667988639e+01    0.2249815    0.1201563 -48.29  0.001265463    1.861    0.463
         9  -9.5531    115.2565      8.9473   1.0996618913e+01   5.3202197576e+01    0.1694108    0.1374048  61.48 0.0004620354    1.009    0.008
        10  -8.9612     69.3077      9.3357   2.2178008981e+01   6.3020166352e+01    0.1288643   0.07552446  28.67 0.0007041869    1.675    0.403
        11 -11.4730     99.8127      6.5795   1.3298215735e+01   5.6858172808e+01    0.4828968    0.3072859  51.33  0.002877574    1.265    0.210
        12 -11.5000     86.4170      6.9434   1.6513509658e+01   5.9726040363e+01     0.411474    0.1928316  48.55  0.001397511    1.671    0.402
        13  -9.1893    235.8027      7.3651   3.5728289131e+02   2.6934319590e+01    0.1464045   0.08292499  71.46 0.0009447932    1.686    0.407
        14 -11.0294    178.9646      1.4453   5.6173318604e-01   3.9335131122e+01    0.3020814     0.187675  47.60 -1.854552e-05    2.030    0.507
        15 -11.6089    174.3751      3.8466   1.5422461328e+00   4.0132282426e+01    0.2684626    0.2231477 -25.52  0.001121479    1.618    0.382
        16 -12.0982    170.8537      3.4545   1.8109159836e+00   4.0957351782e+01    0.3374075    0.2564981  53.99  0.001446445    1.475    0.322
        17 -10.3096     15.9976      4.7188   4.2471126563e+01   7.2104497390e+01    0.1927102    0.1444188 -14.89 0.0005599279    1.272    0.214
        18 -10.9438     11.3779      3.2753   4.4350566735e+01   7.2808287832e+01    0.3268806     0.228164  42.98  0.001982516    2.222    0.550
        19  -9.6817      4.2216      3.8258   4.8872321477e+01   7.3490401519e+01    0.1544723   0.09663258  -3.72 0.0006613157    1.312    0.238
        20 -11.0969    183.3507      3.0524   5.0335301615e-01   3.8217578738e+01    0.2426144    0.1437738  84.53  0.001130034    1.388    0.280
        21 -11.0262    113.8403      1.7397   9.0200843891e+00   5.4105013214e+01    0.2567156    0.1399198  66.99 0.0006446275    1.490    0.329
        22 -10.0214     91.7870    116.1310   4.9850027886e+01   4.0816100098e+01    0.2211572    0.2104722  80.08 0.0004042879    1.148    0.129
        23  -9.8725     96.0472    111.5425   4.7335235784e+01   4.1084510247e+01    0.2305477    0.2026291 -42.77 0.0005087851    1.139    0.122
        24  -9.1870     13.2330    105.9724   7.5316086375e+01   5.3358143674e+01      0.16727   0.09755444 -64.71 0.0002866942    1.512    0.339
        25 -10.0909    246.3089    105.3483   1.4466728944e+01   1.1249507855e+01    0.1182957   0.09540842 -16.25 0.0007044299    1.708    0.415
        26 -10.2352      2.0126    104.5608   7.9193870331e+01   5.4382485263e+01    0.2653799    0.1327022 -51.23   0.00134338    1.612    0.380
        27  -9.2947     76.8370    103.3617   5.1480864854e+01   4.6408121058e+01    0.2004661    0.1385791  21.11   0.00015731    1.580    0.367
        28 -10.9026    249.5024     99.4911   1.2965398988e+01   1.1661957166e+01    0.1943876    0.1214882  60.27   0.00112389    1.872    0.466
        29 -10.2549    231.5019    102.4849   1.5822588165e+01   1.4374753300e+01    0.1320793    0.1095668 -59.46 0.0003033598    1.038    0.036
        30 -10.7822    117.5276    101.9955   3.8410174387e+01   3.8833453788e+01    0.2443805    0.2013872  44.65  0.000582354    1.185    0.156
        31 -11.6540    235.6430     95.2938   1.3851679705e+01   1.4815277359e+01    0.4486692    0.2125603 -65.99  0.001747375    3.395    0.705
        32 -10.7753    103.1742     95.9501   4.0926302672e+01   4.3101231868e+01    0.3476607    0.2364825 -48.19  0.001192411    1.531    0.347
        33 -11.2126     64.6566     96.2034   5.3865084380e+01   4.9981822720e+01    0.3095919    0.2795422  33.50 0.0007154707    1.164    0.141
        34  -9.1940    143.4467     96.4776   3.0257781343e+01   3.4216299862e+01    0.1486681    0.1454683  61.00 0.0003779658    1.037    0.036
        35  -9.5837      4.1706     95.9091   7.6969247852e+01   5.6304794721e+01     0.188633     0.120397 -42.63 0.0005776614    1.344    0.256
        36 -10.8004     15.8745     94.3208   7.2126995651e+01   5.5924198091e+01    0.2510651    0.1740581 -56.43  0.001418236    1.257    0.204
        37 -11.0534    137.5879     93.4684   3.0862065454e+01   3.6129938743e+01    0.4922386     0.195776  45.49  0.001734062    2.491    0.599
        38  -9.8120     89.8590     94.1367   4.4597387424e+01   4.6102827401e+01    0.2206049    0.2052937  58.50 0.0005874811    1.182    0.154
        39 -10.0849    126.8976     92.8132   3.3374020752e+01   3.8659682299e+01    0.2750792    0.1959337 -73.37 0.0006198768    1.938    0.484
        40 -10.0770     37.0353     90.0165   6.2770262053e+01   5.4992217563e+01    0.1665668    0.1447293 -33.64 0.0003589682    1.027    0.026
        41 -10.3922     96.9655     86.3142   4.0077236288e+01   4.6323826648e+01    0.2263488     0.210271 -30.63 0.0003769244    1.105    0.095
        42 -10.6413     11.9126     85.7564   7.1951451986e+01   5.8160420941e+01    0.2201103    0.1664952 -58.05   0.00028633    1.215    0.177
        43 -10.8985    237.8124     81.2225   1.0833583173e+01   1.6681634626e+01    0.2205169    0.1107126 -69.93 0.0009532755    2.816    0.645
        44 -11.3245     54.4062     78.4999   5.2742436581e+01   5.5295272115e+01    0.3111207    0.2767834  66.10  0.001789054    1.495    0.331
        45  -9.3579     77.9859     78.0223   4.3853563213e+01   5.1576930330e+01    0.1710542    0.1540913  19.41            0    1.043    0.041
        46  -9.4872     72.6756     77.9946   4.5723672023e+01   5.2517064552e+01    0.1925058    0.1750836 -13.50 0.0006577417    1.058    0.055
        47  -9.2968    144.2896     77.3424   2.4967170535e+01   3.7554200944e+01    0.1438509    0.1157552  15.20 0.0007024197    1.650    0.394
        48 -10.2748      3.1735     74.8377   7.3299588927e+01   6.1103775715e+01    0.1810562    0.1152122 -36.30 0.0004469203    1.324    0.245
        49 -10.3957     55.8384     72.8231   5.0464508873e+01   5.6229551229e+01    0.2432027    0.2103612 -18.38  0.001134701    1.070    0.065
        50 -11.2551     64.0573     69.5397   4.6257124619e+01   5.5588751690e+01     0.234691    0.1971036 -25.93 0.0002248673    1.161    0.138
        51 -10.7355      7.7046     68.6116   6.9880772916e+01   6.2165256797e+01    0.2272194    0.1834711 -36.18  0.000367288    1.020    0.019
        52  -9.7511     83.1639     68.1474   3.8978706876e+01   5.2459205224e+01    0.2062731    0.1768181  14.01 0.0003419611    1.134    0.118
        53  -9.7012    204.8849     65.9275   1.1755628776e+01   2.5660480485e+01    0.2182232    0.1367458 -71.07  0.001115235    1.703    0.413
        54  -9.7315    151.8361     66.2124   2.0409136189e+01   3.7639653850e+01     0.188771    0.1658653  34.86 0.0006332771    1.304    0.233
        55  -9.4438    250.2996     65.3448   6.5205150926e+00   1.6797035747e+01     0.102405   0.09342158 -15.64 0.0007036713    1.678    0.404
        56 -10.5868     74.0843     63.2954   4.0535444600e+01   5.5001506184e+01    0.3079761    0.2336834 -75.40  0.001503678    2.229    0.551
        57 -11.2253      3.3110     59.1492   6.9541391120e+01   6.4375044495e+01    0.3069639    0.2259502 -32.12  0.001422216    1.088    0.081
        58 -10.0137     85.4008     63.1648   3.6621953469e+01   5.2893391943e+01    0.2706622    0.1736354 -19.14 0.0007989474    1.973    0.493
        59  -9.9533     44.2906     62.9839   5.2064803480e+01   5.9736943005e+01    0.1905878    0.1624645 -18.24 0.0008449366    1.061    0.057
        60 -11.3075     22.0001     61.9726   6.1599063365e+01   6.2419834864e+01    0.2894377     0.194805 -20.67  0.001474808    1.372    0.271
        61 -10.9771     22.3041     58.0162   6.0272980208e+01   6.3162623030e+01     0.272673    0.1730507 -55.59 0.0007552169    1.706    0.414
        62 -10.7534      4.6346     63.5537   7.0036819927e+01   6.3402513948e+01    0.2459759    0.1610378 -36.33 0.0007321908    1.243    0.196
        63 -11.2503    248.8794     54.9225   4.7548138162e+00   1.8541605221e+01    0.2606651    0.2073275 -84.72  0.001852921    1.170    0.145
        64 -11.4029    230.4623     59.6456   7.4416918887e+00   2.1353473802e+01    0.4386069     0.198687 -69.16  0.001834923    3.102    0.678
        65  -9.8300    114.3113     60.9491   2.7427297077e+01   4.7148710782e+01    0.1881553    0.1816325  17.90  0.000360167    1.091    0.083
        66 -10.3576     99.6720     61.8507   3.1760840697e+01   5.0198928905e+01    0.3055144    0.2446658 -67.73  0.001541678    1.646    0.393
        67 -11.1977     35.8403     58.8198   5.4373196025e+01   6.1575187201e+01    0.3796358    0.2654535 -16.73   0.00135817    1.373    0.272
        68  -9.1689    124.7060     59.7111   2.4466798917e+01   4.4981570602e+01    0.1391976    0.1060764  26.56  0.000284647    1.548    0.354
        69  -9.7329     85.0475     57.5123   3.4869797979e+01   5.3897327538e+01    0.2190806    0.1261816  42.79 0.0007720239    1.589    0.371
        70 -10.2920     29.1862     56.4604   5.6606522656e+01   6.2766727196e+01    0.2385298   0.08243643 -47.15 0.0009974291    2.606    0.616
        71  -9.2341     17.3308     57.3213   6.2392074860e+01   6.3739219151e+01     0.135767   0.07694674 -24.54 0.0007049153    1.695    0.410
        72  -9.9605     99.2201     55.3519   2.9804693562e+01   5.1321160198e+01    0.2131391    0.1816398 -10.16 0.0004195352    1.294    0.227
        73  -9.6443     78.1768     55.8266   3.6595243748e+01   5.5497523550e+01     0.193191    0.1498522  12.78 0.0004453324    1.333    0.250
        74  -9.7982     44.2576     55.7306   4.9669625227e+01   6.1068551929e+01    0.3270151    0.1886385  52.69  0.001420018    3.063    0.674
        75 -10.3660     70.0144     55.3330   3.9306447208e+01   5.7078075478e+01    0.1986004    0.1641428  27.69 0.0008100326    1.095    0.087
        76 -10.7843     11.8942     51.9525   6.3389253451e+01   6.5205386375e+01    0.2382603    0.1507163 -48.72 0.0009540326    1.457    0.314
        77 -10.1039    233.4991     50.9864   5.4616896828e+00   2.1988545341e+01    0.1832686   0.07165506 -57.43 0.0008103733    2.551    0.608
        78 -11.3629     94.1511     47.5598   2.8708894507e+01   5.3546355709e+01    0.5822656    0.2038275 -31.69  0.002128539    3.461    0.711
        79 -10.1202     95.9402     38.2711   2.5058739474e+01   5.4418757405e+01     0.221104    0.1899544   1.25 0.0003850538    1.278    0.218
        80 -10.5985     51.1817     46.1723   4.3351079790e+01   6.1677183561e+01    0.2761658    0.1895137  37.83  0.001072671    1.457    0.314
        81 -10.2133    249.1494     44.2564   2.8137813360e+00   1.9948181614e+01    0.2420706    0.1070875 -61.31  0.001256997    2.103    0.525
        82 -10.6891     39.1832     43.7665   4.7642347418e+01   6.3782233656e+01    0.2932212    0.2154076   3.50  0.001100723    1.238    0.193
        83  -9.1442      7.0000     44.9872   6.3684710186e+01   6.6863515883e+01        0.186   0.05939512 -54.59 0.0007288686    2.904    0.656
        84 -10.6140    118.9890     42.4705   2.0608348751e+01   4.8747142396e+01    0.2872196    0.2045121 -26.64  0.000511749    1.650    0.394
        85 -10.1073      1.4396     41.2933   6.5406575342e+01   6.7905710815e+01    0.2175783   0.08955176 -49.75  0.001128081    2.007    0.502
        86  -9.8237    185.9007     41.5078   8.7953374293e+00   3.3313498982e+01    0.1875157    0.1131627  68.10 0.0003427739    1.502    0.334
        87  -9.9916     90.0090     39.0692   2.7025431385e+01   5.5571880112e+01    0.1990562    0.1693254  31.25  0.000304453    1.069    0.064
        88 -10.7337     18.3376     39.0626   5.5890118602e+01   6.6959321392e+01    0.2663518    0.1552739  14.91 0.0006327082    1.610    0.379
        89 -10.8763    129.8054     36.0683   1.6373543049e+01   4.7047635929e+01    0.2239231      0.18946  77.14 0.0002824653    1.130    0.115
        90 -10.5835    119.1539     35.1319   1.8315044889e+01   4.9628395431e+01    0.2154326    0.1826146  53.05 0.0003332037    1.047    0.045
        91  -9.8066     46.9400     35.7031   4.1157896252e+01   6.3908598541e+01    0.1780746    0.1394355  22.36 0.0004148338    1.116    0.104
        92 -10.7141     40.1764     35.6790   4.4108189228e+01   6.4901466620e+01    0.4242835    0.1745887  39.99  0.001942625    2.473    0.596
        93 -11.4122     27.9093     33.8809   4.9153956636e+01   6.6764006054e+01    0.4461624      0.28959   2.32   0.00254215    1.466    0.318
        94 -10.9666    159.5302     35.0877   1.0927147026e+01   4.0193528736e+01    0.3157713    0.1612093  56.90  0.001006657    1.761    0.432
        95  -9.1823    174.3412     34.7238   8.7266854716e+00   3.6805496830e+01    0.1341571   0.08649065 -78.14 0.0007001526    1.619    0.382
        96 -10.7637      4.2754     31.4432   6.0569192589e+01   6.9432113990e+01    0.2861284    0.1857648  37.70  0.001205814    2.154    0.536
        97 -11.8035     92.5124     31.1748   2.3564643850e+01   5.6019814193e+01     0.237513    0.1990789  42.80 0.0002891585    1.013    0.013
        98  -9.6705     51.9692     33.0000   3.7993889965e+01   6.3497299946e+01    0.1978296   0.06337039  40.78 0.0004559883    2.809    0.644
        99 -10.2829     17.2304     31.0033   5.3431488185e+01   6.8380033588e+01    0.2485092     0.144326  32.34  0.001154422    1.865    0.464
       100  -9.7254     59.0252     29.6709   3.3895128480e+01   6.2746694332e+01    0.1868392    0.1393108  31.38  0.001002815    1.136    0.120
       101 -10.0458     39.4165     28.6731   4.1629936475e+01   6.6009311583e+01    0.2761883    0.1313654  31.79   0.00140877    1.881    0.468
       102 -10.6493    160.3552     27.2146   8.8110568397e+00   4.0928728537e+01    0.4075667    0.1495786  57.08  0.001710222    2.348    0.574
       103 -10.4275    153.0875     27.5623   9.9636013346e+00   4.2584294369e+01    0.1798414    0.1609715  89.62 0.0003672111    1.089    0.081
       104  -9.7417    103.9905     28.3119   1.9623685397e+01   5.3846689676e+01    0.1859544    0.1407425  54.30  0.000279513    1.126    0.112
       105 -10.0606    119.1804     26.9433   1.5789415742e+01   5.0559830107e+01    0.2613079    0.1313846  42.38 0.0007378752    2.044    0.511
       106 -10.6102     88.4593     25.4154   2.2654535105e+01   5.7530584937e+01    0.3012867    0.1936202 -56.95  0.001521092    2.421    0.587
       107 -10.7820     46.9749     26.6694   3.7503165593e+01   6.5135099215e+01    0.2021323    0.1626344 -11.30 0.0002692656    1.214    0.176
       108  -9.5500     83.1667     26.1400   2.4430819574e+01   5.8552127683e+01    0.1626208    0.1493541  71.28  0.001059729    1.303    0.233
       109  -9.6193     60.5309     25.9620   3.1853859842e+01   6.2938056161e+01    0.1688205   0.09839335   1.38 0.0008069468    2.383    0.580
       110  -9.3415    239.3857     24.2458   1.4225123981e-02   2.4315518620e+01    0.1519572   0.08106595 -53.33 0.0003623883    1.526    0.345
       111  -9.8175    128.8491     23.9382   1.3003870788e+01   4.8645884943e+01    0.1901089     0.153484  46.89  0.000341436    1.226    0.184
       112 -10.5030     98.5657     22.7962   1.9094176901e+01   5.5636293017e+01    0.2372823    0.1910884  51.52 0.0007062408    1.043    0.041
       113  -9.7589     38.1475     22.6761   3.9684003492e+01   6.6987466609e+01    0.1680407    0.1249277  19.64 0.0004590917    1.103    0.093
       114 -10.0816      1.4131    241.0367   9.1618214360e+01   2.1670411714e+01    0.1661471    0.0968043 -84.21 0.0003530974    1.534    0.348
       115 -10.1664     34.9961     13.9433   3.7274993527e+01   6.8508846915e+01    0.1822355    0.1431589  12.92 0.0007092307    1.036    0.035
       116  -9.9651    147.4279     18.7755   8.5005030529e+00   4.4849558055e+01    0.1530038    0.1264722  -2.36 0.0009502618    1.669    0.401
       117 -10.1544    108.6031     18.6014   1.5386679913e+01   5.3827240669e+01    0.2464556    0.1679244 -73.33 0.0006542481    2.058    0.514
       118  -9.2340     48.5291     19.5078   3.3850928564e+01   6.5758889682e+01    0.1231679   0.09785754  19.90 2.938827e-05    1.003    0.003
       119 -10.0582     85.5766     15.7786   1.9958567294e+01   5.9121180690e+01     0.315967    0.1122016  53.40  0.001381206    2.219    0.549
       120 -11.0153    183.3132     14.8867   3.0970059311e+00   3.7040003826e+01    0.2171844    0.1372514  88.13 0.0005766572    1.372    0.271
       121 -10.7380    244.2279    180.4971   2.9059831571e+01  -1.3821643566e+00    0.2716297    0.1773888 -67.51  0.001273305    2.985    0.665
       122  -9.3918     20.8134    174.8645   8.2217081261e+01   3.5384122022e+01    0.1873146    0.1405433  70.21 0.0005339378    1.299    0.230
       123  -9.6631    162.3529     12.2799   4.8489333953e+00   4.2047469138e+01    0.1235577   0.08054446  50.49 0.0005878119    1.652    0.395
       124  -9.9818    120.7232     12.5624   1.1103427529e+01   5.1637006896e+01    0.2438811   0.09452118  59.43  0.001106506    1.995    0.499
       125 -10.5624    224.4109    173.2392   3.1041793652e+01   2.8231668036e+00    0.1923876    0.1146255 -49.09 0.0009519252    1.669    0.401
       126  -9.5902    241.3232     10.3251   3.5743905526e+02   2.5560745151e+01   0.09362242   0.08039835  61.68 0.0007047995    1.686    0.407
       127 -10.0397     21.6184    170.1082   8.1490555600e+01   3.6518393827e+01    0.2158253    0.1735496  51.54 0.0005202972    1.269    0.212
       128  -9.9934     63.2004    162.8716   6.8523795041e+01   3.3597428350e+01    0.2178425    0.1908918  79.13 0.0003568655    1.168    0.144
       129  -9.9912     39.9282    148.7782   7.3328258522e+01   4.0177760872e+01    0.3377343    0.1853921 -70.40  0.001124129    1.757    0.431
       130  -9.9852     25.3424    146.3387   7.7486856635e+01   4.2279865164e+01    0.2385003    0.1681488  26.28 0.0007484627    1.568    0.362
       131  -9.1263     75.2961    143.7501   6.1342829010e+01   3.6778040194e+01    0.1480871    0.1154774  65.05  0.000192506    1.488    0.328
       132  -9.4070      6.5146    143.5053   8.2870082525e+01   4.4506084167e+01    0.1334829    0.1113909 -64.89 2.518602e-05    1.059    0.055
       133 -10.7014    246.1962    138.3951   2.0813695836e+01   5.6332542329e+00    0.1540872     0.122327  69.42 0.0009406578    1.630    0.387
       134  -9.8600     28.7816    138.2002   7.5223744694e+01   4.4051544163e+01    0.1944208    0.1759818 -88.32 0.0003908818    1.112    0.101
       135  -9.8163     11.4820    133.9997   8.0168683951e+01   4.6556016257e+01    0.1994738    0.1151657 -69.42 0.0009982393    1.490    0.329
       136 -10.0251     17.9286    132.2452   7.7851285812e+01   4.6512638203e+01    0.2282559    0.1733605  47.84 0.0009597829    1.476    0.322
       137 -11.2599    235.9961    129.7982   2.0624669966e+01   8.8175630902e+00    0.3419999     0.146757 -34.94  0.001421077    2.474    0.596
       138  -9.4789     12.5516    129.5010   7.9215925176e+01   4.7610977989e+01    0.1354395    0.1136997 -58.77 2.742704e-05    1.043    0.041
       139 -11.0462    134.9966    124.7974   3.9571603128e+01   3.0119843146e+01    0.2778593    0.2298062 -46.98 0.0004578927    1.211    0.174
       140 -11.2260    245.1626    120.1740   1.7460719646e+01   8.9458708137e+00    0.1798682    0.1338966 -62.56 0.0006961388    1.331    0.249
       141  -9.2338     49.5044    120.5757   6.5089880991e+01   4.6277597823e+01    0.1450922    0.1321532 -36.26 0.0001367916    1.046    0.044
       142  -9.9688     14.7041    115.4240   7.6375104228e+01   5.0956549873e+01    0.5236995   0.08990411 -52.47   0.00169486    3.649    0.726
