#   1 NUMBER                 Running object number                                     
#   2 MAG_AUTO               Kron-like elliptical aperture magnitude                    [mag]
#   3 X_IMAGE                Object position along x                                    [pixel]
#   4 Y_IMAGE                Object position along y                                    [pixel]
#   5 X_WORLD                Barycenter position along world x axis                     [deg]
#   6 Y_WORLD                Barycenter position along world y axis                     [deg]
#   7 A_WORLD                Profile RMS along major axis (world units)                 [deg]
#   8 B_WORLD                Profile RMS along minor axis (world units)                 [deg]
#   9 THETA_WORLD            Position angle (CCW/world-x)                               [deg]
#  10 FWHM_WORLD             FWHM assuming a gaussian core                              [deg]
#  11 ELONGATION             A_IMAGE/B_IMAGE                                           
#  12 ELLIPTICITY            1 - B_IMAGE/A_IMAGE                                       
         1  -9.9555     57.8238     30.5924   1.0650627307e+02   6.3966970199e+01    0.9145789    0.4687595 -22.94  0.004157948    2.407    0.585
         2 -12.2090     60.5490     45.4928   1.1127223919e+02   6.0963643366e+01     1.318604    0.5062683 -43.48  0.005620897    2.303    0.566
         3 -11.4234    111.1626      2.1769   7.7066527740e+01   5.7272167480e+01     1.725092    0.2594821  62.11  0.004498491    5.949    0.832
         4 -12.5590    105.0021     13.0364   8.3176984035e+01   5.7608099572e+01    0.7152879    0.4419271 -26.43  0.003657319    1.649    0.394
         5 -12.2128    124.6024     27.5685   8.4178644653e+01   5.1365054665e+01    0.8959911     0.532342  50.70  0.003021908    1.569    0.362
         6 -11.2510    120.2111     18.0099   8.1484665905e+01   5.3562574418e+01    0.9301435    0.5053472  75.11  0.003791163    2.596    0.615
         7 -12.4959    131.1739     13.9044   7.7487935984e+01   5.1351557523e+01     1.565874    0.7143366  77.69  0.005433549    3.436    0.709
         8 -13.5304    119.0187     40.7596   9.0575805833e+01   5.0829236497e+01     1.232996    0.9167194  47.48  0.002301926    1.310    0.237
         9 -12.8518    112.7096     24.8690   8.6073584468e+01   5.4481259506e+01     1.297589    0.5432346  51.53   0.00528494    2.200    0.546
        10 -11.3529    154.8564     24.0192   7.6601718154e+01   4.4199685983e+01     1.475684    0.5407294  45.84  0.004266701    2.829    0.646
        11 -10.6556    134.3757     37.1471   8.5453788642e+01   4.7711113104e+01     1.098255     0.594072  44.66  0.004683624    1.820    0.451
        12 -11.0519    140.8258     20.4089   7.7972539712e+01   4.8226529163e+01    0.6848251    0.2965458  48.58  0.002728886    2.135    0.532
        13 -11.9166    145.6309     47.5137   8.6545164740e+01   4.3393594950e+01     1.167518    0.5136573 -27.69  0.003859362    2.516    0.603
        14 -10.2043    147.8244     16.3037   7.5175753158e+01   4.6888869366e+01    0.5695446    0.4263871  50.14  0.002986087    1.240    0.193
        15 -11.7186    182.3667     25.2657   7.2542649844e+01   3.6781921071e+01    0.7109647    0.3453353  50.68  0.002233782    2.030    0.507
        16 -11.6445    178.1822     21.1336   7.1871441343e+01   3.8374188785e+01    0.5869047    0.3832287  30.45  0.002233562    1.910    0.476
        17 -11.5150    163.9179     28.0521   7.6362107423e+01   4.1338562360e+01      0.53109    0.4145947  58.16  0.001626566    1.201    0.168
        18 -11.4445     26.1878     27.7796   1.1905090676e+02   6.8139252635e+01    0.4584009    0.4490118  11.14  0.003229091    1.373    0.272
        19 -11.6306     19.9472     22.8724   1.2011341245e+02   6.9549266472e+01    0.4935632    0.2574503 -42.96  0.001734882    1.488    0.328
        20 -11.8998     15.0482     21.7605   1.2208467134e+02   7.0127275660e+01    0.7175562    0.5680532 -79.27  0.003675529    1.927    0.481
        21 -11.6359     22.5489     11.1722   1.1378946411e+02   7.1288289620e+01    0.4688979    0.2793645  -6.46  0.002536049    1.871    0.466
        22 -11.4800     16.8639     13.7053   1.1786713148e+02   7.1376502109e+01    0.3543015     0.171114 -40.46 0.0009313399    1.603    0.376
        23 -11.3319     14.3726      9.2358   1.1717646326e+02   7.2313009419e+01    0.3697425    0.1993385  17.98  0.002308664    2.062    0.515
        24  -9.8949     87.2978      7.1663   8.5475000708e+01   6.1998528817e+01    0.5950366     0.336386  52.68  0.002553405    1.729    0.422
        25 -11.7083     90.6898     20.2897   9.0371401230e+01   5.9786237157e+01    0.6093775      0.41887 -17.69  0.002708612    1.444    0.307
        26 -11.5322     85.8764     14.6538   8.9354138795e+01   6.1442493395e+01    0.5642062    0.3126469 -14.71  0.001762432    1.976    0.494
        27 -10.7206     42.5802      3.5115   1.0017138957e+02   7.0073927647e+01    0.5088235     0.250175 -15.86  0.002425812    2.396    0.583
        28  -9.4058     32.1634     12.1631   1.0947494407e+02   7.0148404221e+01    0.1975947    0.1526868  28.09 0.0007619297    1.498    0.333
        29 -11.1909     46.5202     18.6604   1.0595958301e+02   6.7416228999e+01    0.3943657    0.3495756  57.08  0.002663828    1.721    0.419
        30 -12.2616     49.1517     13.1371   1.0219697341e+02   6.7870351228e+01     0.630716    0.3478025  37.90  0.003529851    1.926    0.481
        31 -11.4220     38.8060     18.8214   1.0946823652e+02   6.8352834587e+01    0.4499525    0.1496696 -44.03  0.001310408    2.727    0.633
        32 -11.3849     35.5626     18.6933   1.1090221847e+02   6.8746023621e+01     0.471426    0.2268558 -46.19  0.001939516    1.984    0.496
        33 -10.2499    206.8128     19.6601   6.7727255525e+01   3.0995831804e+01    0.4840033    0.2586374 -34.94  0.002202703    1.820    0.451
        34 -10.8703     71.6852      3.2126   8.8526705041e+01   6.5429424935e+01    0.6260097    0.3638342 -20.13  0.003435317    1.654    0.395
        35 -10.6620     66.1782     10.5552   9.4127133508e+01   6.5563573543e+01    0.5111068    0.2188375  43.38  0.002418433    2.286    0.563
        36 -10.5585     63.1372      6.3624   9.3173813085e+01   6.6583567843e+01    0.3652654    0.2258939  -7.78  0.001581905    1.650    0.394
        37  -9.8613     76.9923      6.7955   8.8518383072e+01   6.4057165952e+01    0.2649163    0.2396422  86.09  0.001534955    1.596    0.373
        38 -10.7767     77.1625      2.8512   8.6537853656e+01   6.4440364936e+01    0.2897918    0.2115992  24.22  0.001137476    1.231    0.188
        39 -12.0344     69.1274     17.8246   9.6505843610e+01   6.4119455617e+01    0.7634618    0.4321347  53.91  0.003802747    2.298    0.565
        40 -12.2393    238.1949     15.4270   6.3456312491e+01   2.3607749417e+01    0.5613284    0.4122134  62.88  0.002439573    1.422    0.297
        41 -11.0230    165.1773     17.3509   7.2620870817e+01   4.2241669592e+01    0.4676825    0.2693183  40.15   0.00132636    1.906    0.475
        42  -9.6306    201.4359      6.1978   6.4563146358e+01   3.3831424541e+01    0.5734386    0.2300025  78.82  0.002201203    2.554    0.609
        43 -10.8352    186.8096     14.6736   6.8713342364e+01   3.6796491670e+01    0.5764626    0.2681765  45.61  0.001531848    2.392    0.582
        44 -11.4590    192.2689      7.5154   6.5937669579e+01   3.6094339476e+01    0.4810278    0.3550619  27.17  0.001313552    1.691    0.408
        45 -11.2041     40.2701     14.3547   1.0671871187e+02   6.8865789856e+01    0.5391641    0.1906639  36.66  0.002483012    3.076    0.675
        46 -11.8042    211.4119     10.0152   6.4587868161e+01   3.0866331145e+01    0.5088198    0.3730768  18.52  0.001639093    1.873    0.466
        47  -9.3549     95.2132     11.7848   8.5282942942e+01   5.9865611657e+01    0.2933121    0.1404878  32.38  0.001250448    2.345    0.574
        48  -9.5944      4.1511     10.4681   1.2327444821e+02   7.2832065665e+01     0.347941    0.1227658 -36.15  0.001571705    2.374    0.579
        49  -9.5052    157.4905     10.2460   7.1447279563e+01   4.4996447172e+01     0.325032   0.09922506 -34.09  0.001142026    3.129    0.680
        50 -11.9370    239.5504      7.5307   6.1423809799e+01   2.4151392473e+01    0.5657174    0.2996224 -65.14  0.001829558    1.904    0.475
        51 -11.7204    245.8107      7.5971   6.0948658519e+01   2.2664082161e+01    0.4791825    0.3420248 -21.62  0.002017242    1.609    0.379
        52 -10.8839    242.2078      4.3945   6.0467767953e+01   2.3852747718e+01     0.320298    0.2033837 -80.10  0.001484465    1.499    0.333
        53 -10.4333    169.2854      9.6414   6.9497735288e+01   4.1952676855e+01    0.4108755    0.1755668  51.84  0.001541709    2.170    0.539
        54  -9.2375    162.9693     10.0507   7.0545330283e+01   4.3577925943e+01    0.2824415    0.2048903   4.93  0.001318398    1.684    0.406
        55  -9.9818    157.9073      2.6935   6.8827420210e+01   4.5589598887e+01    0.3772235    0.2349207  55.87  0.001871538    1.435    0.303
        56  -9.9599    162.6736      5.5341   6.9092669479e+01   4.4085999883e+01    0.3151025    0.2476485   9.60  0.001702395    1.496    0.331
        57  -9.9581    162.6645      1.3105   6.7700005035e+01   4.4466257855e+01    0.4140389    0.2045654 -78.47  0.001451719    2.994    0.666
        58 -10.4873    151.2379      7.3790   7.1451688340e+01   4.6900013698e+01    0.4919667    0.2311311  62.93  0.001302757    1.863    0.463
        59 -10.2736      1.3106      7.2337   1.2350437907e+02   7.3550216888e+01    0.1754211   0.07305326 -49.85 0.0002493301    1.809    0.447
        60 -11.0462    174.5202      4.4825   6.7157952446e+01   4.1063267514e+01    0.7697489    0.3033816  77.53  0.002835287    2.691    0.628
        61 -10.8828    218.6231      3.2261   6.2110856721e+01   2.9732863872e+01    0.3087313    0.2808225 -78.42 0.0009839426    1.062    0.058
        62 -11.6281    224.1832      2.3778   6.1413895976e+01   2.8429712239e+01    0.7709427    0.3360883 -86.98   0.00308739    2.675    0.626
        63 -10.6863    141.6801      3.6771   7.1706937494e+01   4.9691740100e+01    0.3966018    0.2628983  70.85  0.001504445    1.441    0.306
        64 -12.0096    133.7974      2.6805   7.2712711639e+01   5.1766698584e+01    0.4089583    0.2745541  65.26 0.0007004899    1.376    0.273
        65  -9.1487     55.3566      4.0202   9.4990494987e+01   6.8128590106e+01    0.1660046    0.1353759  -6.64 0.0004768241    1.068    0.064
        66 -10.0511     22.9153      2.5943   1.0932853628e+02   7.2550653719e+01    0.2802551    0.1476439 -25.99  0.001664149    1.667    0.400
        67 -10.5345    206.1037      2.3647   6.3038012715e+01   3.3001916799e+01    0.4779556    0.2303581 -89.22  0.002000388    2.279    0.561
        68 -10.9008      2.6436      1.8866   1.2034084009e+02   7.4348060760e+01    0.3021543    0.1654568  -2.30  0.001944632    2.020    0.505
        69  -8.8073     16.0865      1.0000   1.1218879044e+02   7.3441169870e+01    0.1526725   0.05815675  27.54  0.000793507    2.881    0.653
        70  -9.7515     69.4685    140.4781   1.3146779605e+02   3.8852330085e+01    0.1323739    0.1159402 -83.72 5.881193e-05    1.043    0.042
        71 -10.8853     81.6166    135.1201   1.2747698974e+02   3.8330902492e+01    0.5172026    0.3837538 -14.17  0.002254231    2.288    0.563
        72 -10.5919     47.7242    134.5959   1.3613085133e+02   4.2919017354e+01    0.3180676    0.1677234 -61.21  0.001191978    1.667    0.400
        73 -10.8683     71.4563    134.1711   1.2994447979e+02   4.0027212895e+01    0.5654269    0.4190108  -2.53  0.002878145    2.302    0.566
        74 -10.6727     79.6680    127.4397   1.2659858148e+02   4.0394842193e+01    0.6222823    0.3657129 -23.97   0.00191586    4.242    0.764
        75 -11.6473     92.1026    130.8972   1.2397456863e+02   3.7647688939e+01    0.7043982    0.4655733 -47.98  0.003507294    1.580    0.367
        76  -9.9990     62.1195    132.1956   1.3205442606e+02   4.1735707148e+01    0.3825395     0.193079 -54.32  0.001832294    1.888    0.470
        77 -10.9477     45.7074    120.4699   1.3460687022e+02   4.6394418023e+01     0.471678    0.2743438  60.79  0.002446517    1.963    0.491
        78  -9.4802     53.3910    125.1880   1.3325943561e+02   4.4433263357e+01    0.3738756     0.223603  84.91  0.001852527    1.961    0.490
        79 -10.5674     56.4976    122.1835   1.3193160298e+02   4.4757228050e+01    0.3485079    0.2572334  57.66   0.00128303    1.417    0.294
        80 -10.0919     18.7111    124.5973   1.4233409799e+02   4.7983265412e+01    0.2598164    0.1237608 -65.88 0.0008242184    1.672    0.402
        81 -10.9783      2.6835    123.3918   1.4627360238e+02   4.9408978975e+01    0.3433791     0.273028 -64.33   0.00255336    1.275    0.216
        82 -10.4774    239.7680    122.6782   8.9802286269e+01   7.9313994987e+00    0.4560656    0.2235478 -22.15  0.001798255    2.457    0.593
        83 -12.0160    104.9298    120.7289   1.1848532252e+02   3.7753810166e+01    0.5861075    0.5271618 -78.31  0.002880281    1.069    0.064
        84 -10.6221     93.4497    123.7635   1.2219502328e+02   3.9060420920e+01    0.2561637     0.232103 -82.25 0.0003058324    1.024    0.023
        85 -10.8575     34.6140    120.0302   1.3756253807e+02   4.7627147684e+01    0.2829854     0.199641 -79.17 0.0008173498    1.193    0.162
        86  -9.4582    221.2172    120.4417   9.2403835345e+01   1.2295469971e+01    0.1944309    0.1438901  65.30  0.000452355    1.599    0.375
        87  -9.4784    148.8563    119.6808   1.0714745460e+02   2.9033874165e+01    0.2472575    0.1941215  29.15 0.0009995537    1.451    0.311
        88  -9.2441     81.5352    117.5504   1.2416263676e+02   4.2398919258e+01    0.1391152     0.125531 -78.72 2.270647e-05    1.014    0.014
        89 -10.9274     25.2053     86.6256   1.3506573073e+02   5.6052558363e+01    0.5100733    0.3567584  41.88  0.002563107    1.693    0.409
        90 -11.0906     44.6719     85.0040   1.2837887058e+02   5.4633558174e+01    0.9177359    0.5375229  71.62  0.004174244    2.841    0.648
        91 -12.2413     36.4251     88.8407   1.3186209744e+02   5.4587114297e+01     2.025978    0.7212496 -62.47  0.006215679    2.275    0.560
        92 -12.3241     10.0239     97.7493   1.4147925168e+02   5.4636140338e+01     1.145108    0.5623154  60.08  0.005973066    2.563    0.610
        93 -12.0507      7.3271     88.6114   1.4105010977e+02   5.6831952698e+01    0.5121402    0.3593669 -64.74  0.001144807    1.117    0.105
        94 -11.4120     23.7548     98.5039   1.3750019673e+02   5.3489033096e+01    0.5474126    0.2318603 -65.27  0.001539388    1.829    0.453
        95 -11.8914      3.2822    111.2632   1.4494878973e+02   5.2048548562e+01    0.4872548    0.3371354 -65.69  0.003026716    1.224    0.183
        96 -11.6265      3.3649    104.9005   1.4424685734e+02   5.3452954247e+01     0.335339    0.2944959 -30.65  0.001274133    1.473    0.321
        97 -11.5297     20.4746     95.6282   1.3804802868e+02   5.4390748595e+01    0.4637867    0.2993189 -18.76  0.002691797    2.249    0.555
        98 -11.7675     18.5982     90.6730   1.3785122017e+02   5.5641637412e+01    0.4428007    0.2559772 -70.71  0.001112642    1.393    0.282
        99 -11.7043     28.8538    113.0507   1.3816917760e+02   4.9752861612e+01    0.4784121    0.3658838  23.26   0.00245075    1.676    0.403
       100 -12.6462     25.9374    107.0768   1.3814238695e+02   5.1364735287e+01     1.120815    0.5055101 -40.67   0.00514868    2.936    0.659
       101  -9.3503    113.7538    116.0098   1.1506703562e+02   3.7164915239e+01    0.2062723    0.1896044 -60.39 0.0003907866    1.062    0.058
       102  -9.8455     87.7775    114.6784   1.2182440538e+02   4.2078794709e+01    0.2914125    0.2081246  53.84  0.001494531    1.484    0.326
       103 -10.6373     66.9793    112.3436   1.2721753044e+02   4.5699862903e+01     0.477267    0.2992612 -71.46  0.002413297    1.569    0.363
       104  -9.4156    126.7249    114.0455   1.1121413402e+02   3.5002823882e+01    0.2140874    0.1956197 -55.78 0.0006592404    1.083    0.077
       105 -10.6473    107.6732    112.4090   1.1583885679e+02   3.9125359600e+01    0.4631172    0.3219534 -88.39  0.001819266    1.993    0.498
       106 -10.9806    103.9990    108.7216   1.1595709521e+02   4.0633966259e+01    0.5926388    0.4627983  15.73  0.002937067    1.698    0.411
       107 -10.2611     49.6185    111.9362   1.3211595997e+02   4.7936718656e+01    0.3596873    0.2493055 -27.56  0.001935771    2.033    0.508
       108 -11.0521    170.7028    110.1357   9.9734760541e+01   2.5926271914e+01    0.4976083    0.4136751  41.94  0.001643498    1.211    0.174
       109 -10.1742     15.2027    109.7625   1.4153220957e+02   5.1590243194e+01     0.346082    0.2131217  73.44  0.002064898    1.705    0.414
       110 -11.0454     80.1021    108.7098   1.2269580044e+02   4.4656484804e+01    0.6389259    0.3947769  56.49  0.003040748    1.889    0.471
       111 -11.2324     86.2510    105.3120   1.2015692697e+02   4.4470137301e+01    0.4052267    0.3381308  15.20  0.001545632    1.496    0.332
       112  -9.7449    119.9888    108.9978   1.1170780854e+02   3.7484713660e+01    0.1845029    0.1737117 -62.90 0.0006010979    1.035    0.034
       113  -9.4531    150.3058    108.6452   1.0399708354e+02   3.0989879947e+01    0.1617564    0.1227843 -81.21 0.0007041348    1.717    0.418
       114  -9.0856     79.2918    114.3448   1.2412846461e+02   4.3480270198e+01     0.138942    0.1036008 -32.99 0.0004174817    1.660    0.397
       115 -10.3435    157.9819    105.4888   1.0136421596e+02   2.9849033171e+01     0.303894     0.286543   6.20 0.0006602894    1.147    0.129
       116  -9.7518    159.7967    102.0529   1.0002354415e+02   3.0103977281e+01    0.2352058    0.2338957   6.26 0.0004412394    1.032    0.031
       117 -10.3658    143.5177    105.8057   1.0488537628e+02   3.3118825443e+01    0.3570512     0.315789  13.88  0.001354626    1.305    0.234
       118 -11.0767    145.8290    100.5976   1.0291963431e+02   3.3664728187e+01    0.4994893    0.4169074  19.11   0.00243076    1.417    0.295
       119  -9.9636     48.4308    103.1520   1.3088060240e+02   5.0097282939e+01     0.401651    0.3021514 -12.43  0.001254501    1.882    0.469
       120  -9.9628     52.4354     96.6953   1.2839135787e+02   5.1127920847e+01    0.4266865    0.1243953 -57.08  0.001618828    2.741    0.635
       121  -9.5825     57.5185    102.5065   1.2802938221e+02   4.9189684862e+01    0.2327431    0.1160421 -61.60 0.0007770635    1.758    0.431
       122 -10.5664     57.6736     97.4966   1.2694339552e+02   5.0320975863e+01    0.4104105      0.30498 -66.55  0.002359588    1.208    0.172
       123 -11.1923     67.2160     97.7789   1.2408115319e+02   4.9022498328e+01    0.6755148    0.3951211 -45.22  0.003309821    1.683    0.406
       124  -9.5030    137.2600    100.0580   1.0489154480e+02   3.5717813073e+01    0.2314802    0.2079881   5.82  0.001177467    1.280    0.219
       125 -10.4168    211.2371     97.5228   8.8434291367e+01   1.8464377104e+01    0.3819725     0.299417  24.70  0.001207919    1.484    0.326
       126  -9.6025    140.5333     96.3112   1.0303780699e+02   3.5752296056e+01    0.2934128    0.2456173  11.07 0.0008846361    1.458    0.314
       127  -9.5921    138.8136     93.0354   1.0254495297e+02   3.6811619034e+01    0.3990437    0.2349725  25.97  0.001436346    2.688    0.628
       128  -9.5383     66.1294     73.3100   1.1823234083e+02   5.4603139627e+01    0.3290461    0.2316655 -78.14   0.00148161    1.913    0.477
       129 -11.3211     89.7123     89.4628   1.1516305363e+02   4.7451246911e+01    0.7106101    0.4157294 -31.64  0.003022475    2.208    0.547
       130 -10.0244     78.0859     97.0248   1.2060606968e+02   4.7631337166e+01    0.2697603    0.1820413 -48.96 0.0003848639    1.377    0.274
       131 -11.1800     81.9457     92.9660   1.1843361459e+02   4.7947752108e+01    0.5398454     0.399811  72.70  0.001934818    1.733    0.423
       132  -9.7252     76.8078     92.8226   1.1996784089e+02   4.8772149546e+01    0.2076638    0.1948075 -79.40 0.0004266766    1.083    0.076
       133 -11.5564     80.3743     82.7839   1.1622617354e+02   5.0443747768e+01    0.8165188    0.5655012 -73.18  0.003959309    1.816    0.449
       134 -11.4700     66.2385     82.0349   1.2057005525e+02   5.2692977669e+01    0.6009151    0.4239818 -61.26  0.003256788    1.351    0.260
       135 -11.7496     72.0689     79.2624   1.1792225301e+02   5.2473754771e+01    0.6907747    0.4346323 -35.59    0.0034009    1.698    0.411
       136 -10.2740     43.1723     94.8679   1.3090341125e+02   5.2556396524e+01    0.3511724    0.2367968  34.91   0.00203801    1.715    0.417
       137 -11.6446    120.3891     85.7370   1.0525681285e+02   4.2366258662e+01    0.5788767    0.4841785 -86.26  0.001631391    1.433    0.302
       138 -10.7650    122.7411     94.0229   1.0699581653e+02   4.0140941679e+01    0.3498286    0.2765508 -47.80  0.001003377    1.242    0.195
       139 -10.2375    126.6221     93.2636   1.0574981632e+02   3.9471294546e+01    0.3081116    0.2886611  43.10 0.0009223294    1.091    0.084
       140 -10.5705     99.8462     91.0492   1.1258495809e+02   4.5311752498e+01    0.7150255    0.3483764  51.71  0.002415035    2.411    0.585
       141 -10.0520    104.4131     88.1962   1.1046321437e+02   4.5071900426e+01    0.3431918    0.2324376  40.87  0.001632394    1.555    0.357
       142  -9.3152    160.5678     93.5111   9.7487111571e+01   3.1589295133e+01    0.2897148    0.1532709  63.57  0.001035198    2.394    0.582
       143 -10.2648    153.2333     91.7373   9.8674916492e+01   3.3699700557e+01    0.4621595    0.3009214  37.17  0.001962894    1.708    0.415
       144 -10.1561    105.3569     75.6957   1.0648590530e+02   4.7497611295e+01    0.4510253    0.3708392 -26.42  0.001635719    1.270    0.213
       145 -11.2464    113.5071     83.4181   1.0648010512e+02   4.4278720101e+01    0.8247628      0.35083 -40.28  0.003019677    2.391    0.582
       146 -10.9110    108.6937     81.0162   1.0713519650e+02   4.5747248612e+01    0.3922223    0.3416953 -26.76  0.001413719    1.188    0.158
       147  -9.9778    212.1475     87.2079   8.5574970985e+01   1.9971049973e+01    0.2707363    0.2403895  -4.54 0.0006705878    1.231    0.187
       148 -10.2409    183.7656     85.5416   9.0314041172e+01   2.7317190883e+01    0.7286642    0.2271137 -42.29  0.002209902    3.190    0.686
       149 -10.6864    164.3992     83.1866   9.3668388322e+01   3.2598368888e+01    0.4742742     0.411407 -76.43  0.001661846    1.280    0.219
       150 -11.5133    143.4061     83.3854   9.8594164509e+01   3.7663880909e+01    0.4798652    0.3865439 -23.35  0.001501099    1.368    0.269
       151 -10.6332    127.3744     83.5729   1.0273651277e+02   4.1294541395e+01    0.4246702    0.2789564  48.68  0.001404708    1.544    0.352
       152 -10.2960    117.2974     92.9869   1.0818165320e+02   4.1494695588e+01    0.5510322    0.2843718  36.72  0.002082324    2.241    0.554
       153  -9.7831     46.6432     72.9416   1.2485610365e+02   5.7091292174e+01    0.3050662    0.1504108 -61.15  0.001291959    1.865    0.464
       154  -9.2476     51.4503     83.4645   1.2579212079e+02   5.4234524150e+01    0.1313287    0.1111813 -52.85 0.0001277665    1.041    0.040
       155 -11.5488     52.8046     76.5907   1.2365424952e+02   5.5598079369e+01    0.5598907    0.3406256 -62.19  0.002203816    1.543    0.352
       156 -10.8696     58.3219     78.2550   1.2221169315e+02   5.4562857737e+01    0.4112032    0.3078716 -86.06  0.001108123    1.682    0.406
       157 -11.8619     13.6627     74.8692   1.3678717807e+02   5.9475788895e+01    0.6287435    0.4507878  -4.39  0.004164489    1.826    0.452
       158 -10.8868     14.2349     67.0501   1.3509574187e+02   6.1137764280e+01    0.3344381    0.2358414 -68.41  0.001105007    1.190    0.160
       159  -9.8797     13.2700     54.0003   1.3261928375e+02   6.3964385759e+01    0.1615657    0.1551581 -63.03 0.0007755385    1.237    0.192
       160 -12.1678      2.2097     70.4945   1.3997741767e+02   6.1066135823e+01    0.7028209    0.1493376 -65.61  0.002930861    2.967    0.663
       161 -12.2975      9.1555     61.4930   1.3583969800e+02   6.2630091393e+01    0.6700799    0.4538392 -54.42   0.00451934    1.148    0.129
       162  -9.9155     84.7557     62.4641   1.0864305766e+02   5.3946040131e+01    0.5048455     0.283549 -32.71  0.001959102    1.907    0.476
       163 -10.2308     98.4174     62.3490   1.0425852852e+02   5.1478807039e+01    0.4125206    0.3184763  41.17  0.001831694    1.346    0.257
       164 -12.3254     74.8878     50.1682   1.0773697215e+02   5.7937985995e+01     1.048694    0.9085145 -63.43  0.006224524    1.399    0.285
       165 -10.6533     93.4913     76.2341   1.1022703152e+02   4.9622738878e+01    0.5308295    0.4234507   6.85  0.002111723    1.545    0.353
       166 -12.0980     85.2332     73.0075   1.1184204353e+02   5.1731596142e+01    0.7545196    0.6546851 -69.69  0.002870571    1.282    0.220
       167 -11.5634     78.7437     67.1499   1.1214604067e+02   5.4005573285e+01    0.6514614    0.4786248 -80.68  0.003119813    2.035    0.509
       168 -11.4537     92.0248     62.5476   1.0632397511e+02   5.2640609042e+01    0.7711028    0.3457162 -44.75  0.003141413    2.127    0.530
       169 -11.0540     87.5007     56.9649   1.0587468963e+02   5.4524936507e+01    0.4507315    0.3227286 -45.67  0.001423243    1.362    0.266
       170  -9.6366      4.9455     77.6991   1.4019976877e+02   5.9363861053e+01    0.2172434    0.1146382 -53.75  0.000995525    1.531    0.347
       171  -9.2043    134.4969     77.4642   9.9025868357e+01   4.0888706864e+01    0.1513753    0.1498327 -72.76 0.0001210502    1.023    0.022
       172 -10.3282    241.5774     75.8678   7.8177933012e+01   1.4762603311e+01     0.235193    0.1761428  71.37  0.001218286    1.479    0.324
       173  -9.5628    184.3098     61.0003   8.3093188919e+01   3.1302516414e+01    0.2420652    0.2345053  64.79 0.0007587211    1.032    0.031
       174 -12.0472    186.3376     70.1477   8.5412866742e+01   2.9299952425e+01     0.974856    0.7181916 -37.46  0.003717826    1.349    0.259
       175  -9.6404    192.1712     65.6958   8.3070538661e+01   2.8516188674e+01     0.307384    0.2356846 -76.30  0.001159087    1.520    0.342
       176  -9.3554    230.8213     73.8166   7.9158713889e+01   1.7585441240e+01    0.2091331     0.164081 -63.67  0.001068701    1.360    0.265
       177 -11.3828     40.2691     71.7312   1.2679869886e+02   5.8017415086e+01    0.5183239    0.2815315 -46.07  0.002739943    1.610    0.379
       178 -11.1791     33.1236     71.8306   1.2935611102e+02   5.8668101148e+01    0.4147334    0.2613174  28.50  0.002265953    1.890    0.471
       179  -8.8835    151.3148     73.3335   9.3651980314e+01   3.7643702477e+01     0.160804    0.1226419  14.79 0.0006025086    1.686    0.407
       180  -9.4629     61.4270     72.9642   1.1973607363e+02   5.5312345303e+01    0.2314714    0.1746103  52.46 0.0006078217    1.604    0.377
       181 -10.2896    162.0598     70.4259   9.0354546536e+01   3.5476593249e+01    0.3991178    0.2916202  74.38  0.001794014    1.586    0.369
       182 -11.5131    122.4689     67.9520   9.9170553319e+01   4.5421835422e+01    0.6856771    0.4237511  40.83  0.002316797    1.685    0.407
       183 -10.4318    129.8975     66.0183   9.6568874283e+01   4.4096874153e+01    0.6441882    0.3884152 -66.24  0.002367137    2.823    0.646
       184 -11.6412    219.3979     66.1810   7.8819391009e+01   2.1521959872e+01    0.7025034    0.4333926  59.94  0.002187458    1.649    0.393
       185 -10.5194    172.1817     67.7901   8.7444493619e+01   3.3342450598e+01     0.449899    0.3306423 -50.10  0.001561463    1.422    0.297
       186  -9.7114    113.4982     68.2998   1.0177405323e+02   4.7297328908e+01    0.4186366    0.2616089  71.14  0.001644637    2.619    0.618
       187 -11.2789     25.4362     56.2511   1.2839576301e+02   6.2638497849e+01     1.130113    0.6894571   7.25  0.006595301    2.118    0.528
       188 -10.7833     58.4824     62.5888   1.1774900393e+02   5.7881864483e+01    0.8045385     0.420392 -60.31  0.003703343    2.118    0.528
       189 -10.6424     27.0881     47.5816   1.2532523077e+02   6.4280294504e+01    0.4281065    0.2267148 -11.95  0.000906216    2.886    0.654
       190 -10.0187     20.6319     47.7150   1.2802749686e+02   6.4759614365e+01    0.3257665    0.1879077 -47.22  0.001594749    1.359    0.264
       191 -10.5733     51.4058     46.2647   1.1507552633e+02   6.2023403815e+01    0.4900989    0.3629055 -69.22  0.001128705    1.835    0.455
       192 -11.4729     32.8118     42.3228   1.2129389943e+02   6.4810813915e+01    0.5831503     0.445797  38.30  0.002472432    1.644    0.392
       193 -10.3909    143.5820    248.7379   1.3018225508e+02   6.4342962910e+00    0.2444843    0.1768929  22.65  0.001577063    1.785    0.440
       194 -11.8050     47.2261     30.7906   1.1092612029e+02   6.5353401789e+01    0.6697782    0.3378525  23.08  0.002437147    2.423    0.587
       195  -9.6817    174.5139    246.8074   1.2457512568e+02   1.7329016065e+00     0.223121    0.1197297  33.75  0.001263534    1.672    0.402
       196 -10.7024     60.8643     36.6852   1.0779753891e+02   6.2499035938e+01    0.3132725    0.1865852 -42.73 0.0009252962    1.556    0.357
       197 -11.5581     51.3796     61.4501   1.1999022861e+02   5.8998076813e+01    0.4336978    0.2815189 -63.97 0.0006365333    1.664    0.399
       198 -11.3837     46.2267     58.0731   1.2090295486e+02   6.0286586490e+01    0.5407683    0.3352214 -56.99  0.002980719    1.491    0.329
       199 -11.3608     40.3567     56.2379   1.2259668569e+02   6.1289835460e+01    0.4650654      0.34215  66.16  0.002360322    2.039    0.510
       200 -11.7637     45.9449     49.0378   1.1816763081e+02   6.2134862298e+01      0.44396    0.3290496 -13.23  0.001114948    1.474    0.322
       201 -12.4870     41.8221     45.4815   1.1862772818e+02   6.3285943752e+01    0.3065535    0.2742828  -3.20 0.0003178754    1.191    0.160
       202 -10.7339     21.0036     65.2246   1.3223932904e+02   6.1073104734e+01    0.1913197    0.1724238 -63.87 0.0005759507    1.142    0.124
       203 -10.1667    204.5233     63.8557   8.0474566922e+01   2.5626320884e+01    0.2829684    0.2189283  39.76  0.001379131    1.429    0.300
       204 -10.4669    105.8865     62.1548   1.0193778265e+02   5.0037592840e+01    0.4494141    0.3301783 -79.10  0.002047111    2.112    0.526
       205  -9.5357    198.1382     62.6833   8.1186571005e+01   2.7448343989e+01    0.2764722     0.196659 -48.03 0.0008547995    1.413    0.292
       206 -10.2505    167.6123     63.0762   8.6925864946e+01   3.5304100262e+01    0.2730363    0.2142513  54.37  0.001313504    1.249    0.199
       207 -10.7974    159.5449     61.5948   8.8141559746e+01   3.7618702848e+01    0.5032178    0.3195337  38.72  0.001937565    1.743    0.426
       208 -10.6859    127.7362    242.9050   1.3232268685e+02   9.7874351514e+00    0.2767633    0.1702095 -85.45  0.001591622    2.376    0.579
       209 -10.2192    150.5871    237.7677   1.2767134391e+02   6.8753287519e+00    0.1439651    0.1132091 -77.70 0.0009587508    1.654    0.396
       210 -10.1332    198.6817    244.3073   1.2007302026e+02  -1.8430073634e+00    0.2229379    0.1147806  47.29  0.001251871    1.715    0.417
       211  -9.6012     15.2633    233.2079   1.5068696536e+02   2.6284257732e+01    0.2016293   0.09538492 -79.44  0.001360688    1.897    0.473
       212 -10.4798    242.6337    231.4895   1.1075359719e+02  -7.2610522608e+00    0.2247318    0.1817388  58.86  0.001509663    1.982    0.495
       213 -11.7412    119.1349     58.4118   9.6880901433e+01   4.7900942824e+01     1.172285    0.7386816  46.17  0.004804352    1.589    0.370
       214 -10.9759    112.9623     50.2446   9.5713820830e+01   5.0666884805e+01     0.514999    0.3730329  17.18  0.001540382    1.673    0.402
       215 -10.5370    197.9714    231.8238   1.1841686774e+02  -1.9250325243e-01     0.209083    0.1164576  24.02  0.001091763    2.039    0.510
       216 -11.5673    105.7026     32.9725   9.1219563650e+01   5.4936209739e+01    0.5648208    0.3338389   6.33  0.001504991    2.691    0.628
       217 -10.2742    247.4866    231.0474   1.0989018600e+02  -7.9408746892e+00     0.199783    0.1030626 -22.03  0.001019222    2.136    0.532
       218  -9.8960    147.9335     60.5681   9.0378399668e+01   4.0718013469e+01    0.4654793    0.1527547  56.69  0.001436677    3.143    0.682
       219  -9.3552     23.4934    231.5558   1.4929417511e+02   2.5715435522e+01    0.1057449   0.07061017  69.11 0.0005764146    1.019    0.019
       220  -9.1699    190.1266    229.8514   1.1951799762e+02   1.3729360457e+00    0.1645712    0.1217679  24.65 0.0005678113    1.285    0.222
       221 -10.1572    133.9950     24.4150   8.0859253172e+01   4.9470128463e+01    0.4421833    0.3339151 -55.48  0.002248516    1.568    0.362
       222 -10.5727    143.6924     25.0226   7.9070997252e+01   4.6959229024e+01    0.5580809    0.3521095  50.24  0.002637422    1.474    0.322
       223  -9.6330      9.0834    227.4655   1.5141826759e+02   2.7898331492e+01    0.1363773   0.07927787  47.49 0.0003679975    1.529    0.346
       224 -11.2587    136.4901     56.2128   9.1637534168e+01   4.4254341571e+01    0.6834192    0.5117558 -21.41  0.002140167    1.450    0.310
       225  -9.4612    200.6542    226.6800   1.1717479198e+02   1.9304401348e-02    0.1263029   0.08167028  18.21 0.0007049379    1.730    0.422
       226 -10.2845    207.1946     68.5318   8.1343833704e+01   2.4219023117e+01      0.44531    0.2164318  48.43  0.001591867    2.158    0.537
       227 -10.5412    157.4694     56.5322   8.6964879797e+01   3.8975817122e+01    0.9688288    0.3338422 -28.82 0.0005917617    3.417    0.707
       228 -11.2456    156.9622     53.4664   8.6078327102e+01   3.9592974894e+01    0.8217075    0.5101604 -54.83  0.003111074    1.929    0.482
       229  -9.7032      2.1824     56.1037   1.3739650677e+02   6.4127355122e+01    0.1737479    0.1153115 -50.99 0.0005590561    1.199    0.166
       230  -9.4035    188.0755     55.1494   8.0691972447e+01   3.1221223262e+01    0.2416026    0.2033855  38.25  0.001218521    1.281    0.220
       231  -9.7797     67.0403     54.9734   1.1221210719e+02   5.8231306462e+01    0.2009116    0.1804567 -37.63 0.0005729539    1.065    0.061
       232  -9.4736    211.7442     53.2213   7.6417567678e+01   2.5367983138e+01       0.3285    0.2030329 -64.31  0.001405911    1.943    0.485
       233 -11.1971    239.9942     50.4392   7.1999669324e+01   1.8783409611e+01    0.3988095    0.3493591  87.11  0.001001242    1.155    0.134
       234 -10.2816    244.5022     50.4992   7.1491877393e+01   1.7713562488e+01    0.2858967    0.2186806 -40.78 0.0009044227    1.193    0.162
       235  -9.9342    249.2914     53.0376   7.1572499784e+01   1.6258475854e+01    0.3356327    0.2198704 -74.56  0.001393213    1.785    0.440
       236 -11.0327    201.6791     48.6788   7.6623070189e+01   2.8613627984e+01    0.9363087    0.3984246 -50.08  0.003307041    2.713    0.631
       237 -11.2731    173.6637     48.0776   8.1080205299e+01   3.6063410947e+01    0.6228375    0.3994751  69.06  0.002138296    1.616    0.381
       238 -10.3791    177.3556     43.3976   7.8963567989e+01   3.5761325561e+01     0.405403    0.3240512 -80.30  0.001553643    1.374    0.272
       239 -10.1262     90.5881     47.8430   1.0158468930e+02   5.5617596564e+01    0.2598785    0.2268207 -44.79 0.0007006619    1.211    0.174
       240  -9.2288      3.9375     48.9245   1.3518737414e+02   6.5532465186e+01    0.1616351    0.1479894  16.24   0.00110112    1.403    0.287
       241 -10.0199    194.1622     46.3566   7.7100534312e+01   3.0908330339e+01    0.5193979    0.2676517  89.39  0.001732848    3.281    0.695
       242  -9.6087     14.2922     46.2646   1.3026689047e+02   6.5489494178e+01    0.2449763   0.09076209 -47.90  0.001233235    2.014    0.503
       243 -10.2731    233.4217     45.1677   7.1434803773e+01   2.1079048497e+01    0.3319959    0.2345809  52.99  0.001626343    1.528    0.346
       244 -10.6212    231.1042     39.1916   7.0166190188e+01   2.2438738861e+01    0.5492374    0.2952696 -70.75  0.002247466    2.429    0.588
       245  -9.9942    234.5023    222.5165   1.1065470711e+02  -5.0122446986e+00    0.1203279   0.09346465  21.61 3.216714e-06    1.005    0.005
       246 -10.1916    100.9267     43.8544   9.6852708465e+01   5.4266552575e+01     0.393758    0.3047635 -86.94  0.001806919    2.017    0.504
       247 -11.2898     93.7308     41.2452   9.8071402699e+01   5.6129481358e+01    0.5719813    0.3188812  45.43  0.001833048    1.827    0.453
       248 -12.1156    156.7103     41.9782   8.2339469731e+01   4.1379720611e+01    0.7299297    0.4313177  72.30  0.001330239    1.944    0.486
       249 -11.1284    153.4243     36.3193   8.1084203456e+01   4.3016126933e+01    0.3629391    0.3033953  79.16 0.0006728009    1.259    0.206
       250  -9.8572      4.0847     44.4839   1.3409376837e+02   6.6431178735e+01    0.2915127    0.1700605 -10.17  0.001225002    2.121    0.529
       251 -10.3627      4.9927     35.7581   1.3144435014e+02   6.8124880804e+01    0.4855102    0.2815128 -42.15  0.002558349    1.370    0.270
       252  99.0000      6.4607     30.7420   1.2931078814e+02   6.9017363124e+01    0.3310556    0.1875088   5.54  0.002087575    2.140    0.533
       253  -9.5836    188.8401     42.1454   7.6686360425e+01   3.2897711850e+01    0.2997203    0.2266125 -15.85 0.0009157363    1.519    0.342
       254  -9.5685    189.2862     38.3362   7.5476180612e+01   3.3295888660e+01    0.2341976     0.156866 -21.96 0.0005454058    1.659    0.397
       255  -9.4512     18.5176     41.7044   1.2719477876e+02   6.6116533895e+01    0.2050112    0.1271272  -6.90  0.001236109    1.969    0.492
       256 -11.2663     81.6557     39.3874   1.0130665421e+02   5.8686096904e+01    0.4206684    0.3310364  64.88  0.001237413    1.760    0.432
       257 -10.8307     77.7887     34.4336   1.0064835439e+02   6.0172743110e+01    0.3872567     0.267561  47.41  0.001282957    1.622    0.383
       258 -10.9234     82.3250     31.7443   9.7977400000e+01   5.9783809417e+01    0.4532274    0.3891355  40.10  0.002744729    1.249    0.199
       259  -9.3220    218.2072     38.7982   7.1606329447e+01   2.5711058346e+01    0.1941373    0.1703474  35.02 0.0007424536    1.326    0.246
       260 -10.8564    176.8888     37.4732   7.7192704904e+01   3.6697175032e+01     0.439375    0.3110697 -30.51  0.002113833    1.464    0.317
       261 -10.1084      9.9625    217.8078   1.5085065789e+02   2.9534645516e+01    0.1789167    0.1122685  85.04 0.0006995655    1.219    0.180
       262  -9.7197    166.5299    213.3711   1.2143283304e+02   7.8338269459e+00    0.2884723    0.1821571 -87.56  0.001037549    3.677    0.728
       263 -10.9673    172.9628     33.6669   7.6646518138e+01   3.8238613043e+01    0.5354053    0.2667549  59.69    0.0021971    1.854    0.461
       264 -10.4417    175.8494     29.6849   7.4912895453e+01   3.7977249959e+01    0.3276386    0.3154685  -9.29  0.001256692    1.130    0.115
       265 -10.2701     22.4592     36.1487   1.2372765496e+02   6.6900343107e+01    0.3681012    0.2822135  40.01  0.002504289    1.726    0.421
       266 -10.3443    206.8002     37.1288   7.2620013561e+01   2.8859134482e+01    0.3361365    0.2473117 -52.39 0.0008000699    1.341    0.254
       267  -9.6803     18.1360     34.3822   1.2508569715e+02   6.7568406673e+01    0.1781383    0.1408807 -55.67 0.0005176982    1.229    0.186
       268 -10.3804    189.7222     32.5959   7.3692152683e+01   3.3928263769e+01    0.3677138    0.2905226  75.09 0.0008329034    1.223    0.182
       269 -10.4044    189.2703     27.7266   7.2299003278e+01   3.4653727441e+01     0.422061    0.3145784  -6.56  0.001672757    1.649    0.394
       270 -10.5186    160.7806     33.1562   7.8615038300e+01   4.1519175716e+01    0.3904704    0.2976065 -74.38  0.001236926    1.533    0.348
       271  -8.6143     90.3062    210.6903   1.3581843013e+02   2.1025920031e+01    0.1274249   0.07603497  68.01 0.0004593771    1.613    0.380
       272 -10.6584    240.8036     31.0215   6.7056676596e+01   2.1130938054e+01     0.508922    0.3054392 -22.01   0.00234699    1.877    0.467
       273  -9.2277    182.5110     32.0549   7.4609463649e+01   3.5909987820e+01    0.2109453    0.1450807 -30.91 0.0003927292    1.504    0.335
       274 -11.0060    198.0914     28.8005   7.1405473427e+01   3.2193092376e+01    0.4301666    0.3625166  42.34  0.001515608    1.302    0.232
       275 -10.4407    199.5409     24.9777   7.0113175002e+01   3.2274526876e+01    0.2896814    0.2567874  27.72 0.0008037892    1.313    0.238
       276 -10.7876    139.0372     43.7606   8.6737013300e+01   4.5604137833e+01    0.4958256    0.2280702  39.92  0.001693017    2.509    0.602
       277  -9.2464    152.8059    207.8357   1.2325324163e+02   1.1171340920e+01     0.179818    0.1377305  62.67  0.000780676    1.316    0.240
       278 -10.8584      4.4592    203.8322   1.5113277591e+02   3.2632687611e+01    0.4072967    0.1026629 -69.06  0.001993775    3.388    0.705
       279 -10.0559    238.9746    204.7492   1.0686513225e+02  -3.6200887640e+00    0.2002657    0.1575782 -39.44  0.001280753    1.632    0.387
       280 -10.4652    245.3138    200.9870   1.0512310580e+02  -4.1998578544e+00    0.1713341    0.1411318   1.07 0.0005432366    1.105    0.095
       281 -10.3636    234.2487    197.0497   1.0628906712e+02  -1.8533507913e+00    0.3319591     0.240673   1.39  0.001374458    1.387    0.279
       282 -12.3176      5.4802    185.5666   1.5002810339e+02   3.6074785338e+01    0.7224554    0.3986793  79.17  0.004544818    1.389    0.280
       283  -9.1832    230.5547     30.4862   6.7984755701e+01   2.3684164205e+01    0.2265861    0.1952862 -57.73 0.0005576047    1.061    0.057
       284  -9.7747    230.4878     26.5227   6.6975203365e+01   2.4186951827e+01     0.239555    0.1294942 -30.98 0.0008506216    1.810    0.447
       285  -9.8726    250.5379     25.0467   6.4684559446e+01   1.9572542540e+01    0.1961989    0.1203875 -33.31 0.0004770349    1.537    0.350
       286 -11.2272    214.7616     23.6040   6.7904548384e+01   2.8489374831e+01    0.4311807    0.3836566 -19.58  0.001777597    1.273    0.214
       287 -11.7025     70.1678     32.5799   1.0261479616e+02   6.1753881086e+01    0.4440004    0.2784224  32.16  0.002368358    1.665    0.400
       288 -10.3770     17.0383    192.6129   1.4828401515e+02   3.3619808683e+01    0.2037483    0.1488475  66.91 0.0005292422    1.130    0.115
       289  -9.7493     80.5124     19.3539   9.3218347135e+01   6.1882157213e+01    0.2901933    0.2051584  37.81  0.001163818    1.368    0.269
       290  -9.6856    170.0888    191.2016   1.1720900636e+02   1.0789906986e+01    0.3539756    0.1600184  31.40  0.001188094    2.936    0.659
       291  -9.6661    213.0117    181.6924   1.0720778594e+02   4.1205812933e+00    0.2830978    0.1662938  -6.16  0.001196139    2.780    0.640
       292  -9.2769    250.3118    180.1516   1.0037395881e+02  -2.4037154742e+00    0.2500074    0.1069903 -24.22  0.001082605    2.617    0.618
       293  -9.0099     57.3158    175.1007   1.3877140457e+02   3.2764140756e+01    0.1711548    0.1321797  87.69 0.0005303313    1.086    0.079
       294 -10.0417     51.8705    174.2636   1.3985195010e+02   3.3616963807e+01    0.2314715    0.1397925  78.43  0.001053547    1.555    0.357
       295  -9.2909    248.1264    173.3515   9.9394628144e+01  -1.1225650897e+00    0.2613431    0.1007103  38.01  0.001093731    2.559    0.609
       296  -9.9941     39.5124    173.0679   1.4236423998e+02   3.5304733021e+01    0.1798209    0.0982877 -76.12 0.0007089288    1.584    0.369
       297 -11.1413     35.2499    170.6075   1.4304418832e+02   3.6290431168e+01    0.2485176    0.1823556  74.56  0.001682694    1.108    0.097
       298  -9.8267    223.0020     22.4906   6.6711369336e+01   2.6531232349e+01    0.2957256    0.2143951  54.62 0.0009136918    1.469    0.319
       299 -10.2430    220.9801     19.0510   6.6018731717e+01   2.7439397469e+01    0.2412654    0.1989369 -57.79  0.001375133    1.126    0.112
       300 -12.1641      9.1935    166.8433   1.4817487761e+02   3.9567613963e+01    0.9582237    0.3200557 -75.06  0.004860821    2.352    0.575
       301 -10.7872     14.2317    159.9409   1.4663320383e+02   4.0592031364e+01    0.2476822    0.1539698 -88.91 0.0006264772    1.254    0.202
       302 -10.7251     13.6643    156.6951   1.4650653514e+02   4.1333728119e+01    0.2131094    0.2070978  60.70  0.001011514    1.439    0.305
       303  -9.4109    198.1363    167.8132   1.0729707538e+02   9.2282491179e+00    0.2019157    0.1894375  57.53 0.0005944157    1.179    0.152
       304  -9.9337     18.5822    165.3444   1.4612469965e+02   3.9057651381e+01    0.2151397    0.1709427 -85.48   0.00124737    1.157    0.136
       305  -9.8896    205.1299    163.2154   1.0500873544e+02   8.5756393846e+00    0.2390043    0.2100154  22.15 0.0006090314    1.068    0.063
       306  -9.7639     66.3921     22.1862   9.9519143602e+01   6.3962194877e+01    0.2284511    0.2052988 -23.36 0.0006006352    1.195    0.163
       307  -9.6274    188.9220    164.0504   1.0835269607e+02   1.1747190530e+01    0.2247667    0.1690573   9.38 0.0008572458    1.641    0.391
       308  -9.7073     28.1253    163.1264   1.4390932635e+02   3.8623564474e+01    0.1745944    0.1390692 -75.94 0.0006861087    1.235    0.190
       309 -11.7093    243.2499     16.2396   6.3214433831e+01   2.2309267082e+01    0.3236106     0.237511  77.22  0.001851088    1.333    0.250
       310  -9.4489      1.7329     20.4466   1.2830114026e+02   7.1200160938e+01    0.1406858   0.08675663 -17.15 0.0009436421    1.665    0.399
       311 -10.3093     80.6365    159.9446   1.3166068771e+02   3.2866942721e+01    0.3307667    0.2721956  48.51  0.002009042    1.252    0.201
       312  -9.8563    191.6882     16.9171   6.8761746172e+01   3.5264328160e+01    0.2870009    0.2575203  31.83   0.00116555    1.265    0.210
       313 -10.0809    246.5809    158.2570   9.6561321702e+01   1.2504293138e+00    0.2567562    0.1175332 -36.30   0.00114649    2.144    0.534
       314  -9.1558    215.3076    158.3369   1.0207004748e+02   7.3081834488e+00    0.1458341    0.1038178   9.55 0.0007042157    1.677    0.404
       315 -10.7591    104.5481    153.1324   1.2493359766e+02   3.0541654652e+01    0.5193339    0.3263056 -66.82  0.002540697    1.645    0.392
       316 -10.7880     10.7688    127.0595   1.4460258075e+02   4.8041204699e+01    0.5132907    0.1428402 -60.75    0.0016137    2.774    0.640
       317  -9.6293    224.9740     16.3323   6.4909659173e+01   2.6746232034e+01    0.2000684    0.1658762  87.45 0.0008419584    1.123    0.110
       318  -9.0596     27.7468     15.5405   1.1320312062e+02   7.0083995410e+01     0.134463    0.1063166  31.55 0.0009320403    1.586    0.369
       319  -9.9973    218.6627     12.8097   6.4610062411e+01   2.8721607082e+01    0.3760853    0.1668181  65.75  0.001619889    2.078    0.519
       320 -11.6956     12.7055    138.4690   1.4520278411e+02   4.5371739328e+01     1.527482     0.496869  66.01  0.005377756    5.139    0.805
       321 -10.7266     14.1114    132.5006   1.4430776295e+02   4.6580623769e+01      0.25673    0.1649336  81.82  0.001633103    1.360    0.265
       322 -11.8255     22.6400    149.5435   1.4390764001e+02   4.2096209828e+01     0.465318    0.3059028 -30.42  0.002659888    2.663    0.625
       323 -10.2657     15.9373    148.0633   1.4529953958e+02   4.3006566041e+01    0.3133358    0.1886193  51.76  0.001668902    1.621    0.383
       324 -11.3394     30.6276    149.0157   1.4201734599e+02   4.1459541274e+01    0.7777298    0.2843447 -81.01  0.003208685    2.751    0.636
       325 -11.1047     33.3502    144.4769   1.4089831952e+02   4.2201415822e+01    0.3260095    0.2136541 -86.39 0.0006407059    1.286    0.222
       326 -12.1533     23.2774    136.2261   1.4244609100e+02   4.4991095884e+01    0.7973387    0.5303043  56.13  0.005105183    1.501    0.334
       327 -11.7046     29.8127    132.7399   1.4043947791e+02   4.5184200209e+01    0.4955998    0.2915418 -86.19 0.0004846132    1.514    0.340
       328  -9.6710     22.7037    155.0635   1.4439053149e+02   4.0885195104e+01    0.2068507    0.1691749   9.46  0.001430523    1.885    0.470
       329 -10.3837     72.2830    151.7918   1.3246830896e+02   3.5891143766e+01    0.7360238    0.2891309  59.99  0.002539667    3.958    0.747
       330 -11.2281     63.0859    150.6414   1.3451886765e+02   3.7395303625e+01    0.3693899     0.336407   4.37    0.0021212    1.553    0.356
       331  -9.9670     60.9962    147.2588   1.3456209877e+02   3.8430433180e+01    0.2504055    0.1999799  38.74 0.0008241484    1.428    0.300
       332 -11.9017      5.1163    147.9914   1.4771435318e+02   4.3885268724e+01    0.5557486    0.3424633 -67.43  0.002977683    1.457    0.313
       333 -11.1399      2.8561    141.4422   1.4772830621e+02   4.5460736095e+01    0.3081852    0.2826481  85.47  0.002498504    1.301    0.231
       334 -11.7971      3.8484    136.4869   1.4711137778e+02   4.6464580131e+01    0.2119908    0.1706755  85.41 0.0004059876    1.105    0.095
       335 -10.5225     47.4504    151.6120   1.3836497491e+02   3.9093731197e+01    0.7193707    0.2626531  56.20  0.002909575    3.254    0.693
       336 -10.2908     48.3253    147.6901   1.3768475114e+02   3.9873615944e+01    0.2246003    0.1655382  79.13 0.0007447487    1.218    0.179
       337 -10.2219     46.3916    144.7973   1.3779466169e+02   4.0746597581e+01    0.3926975    0.1892117 -54.35  0.001440855    2.115    0.527
       338  -9.5940    214.2369    151.4401   1.0078844494e+02   8.6463610107e+00    0.1946818    0.1350438  56.43 0.0008991634    1.620    0.383
       339  -9.8971     56.5615    149.3162   1.3591122108e+02   3.8523720207e+01     0.242088    0.1122848 -73.20  0.001127346    2.041    0.510
       340 -10.6356    249.5678    142.8596   9.2773357787e+01   2.9133956586e+00    0.5589089    0.2264636 -33.23  0.002323522    2.315    0.568
       341  -9.5652    239.8109    146.6297   9.5204143786e+01   4.2424138932e+00    0.1808246    0.1294619  55.88 0.0007948415    1.640    0.390
       342 -10.2136    133.6088    139.9757   1.1543862572e+02   2.7966319167e+01    0.3541211    0.3174738   4.58   0.00189773    1.375    0.273
