#   1 NUMBER                 Running object number                                     
#   2 MAG_AUTO               Kron-like elliptical aperture magnitude                    [mag]
#   3 X_IMAGE                Object position along x                                    [pixel]
#   4 Y_IMAGE                Object position along y                                    [pixel]
#   5 X_WORLD                Barycenter position along world x axis                     [deg]
#   6 Y_WORLD                Barycenter position along world y axis                     [deg]
#   7 A_WORLD                Profile RMS along major axis (world units)                 [deg]
#   8 B_WORLD                Profile RMS along minor axis (world units)                 [deg]
#   9 THETA_WORLD            Position angle (CCW/world-x)                               [deg]
#  10 FWHM_WORLD             FWHM assuming a gaussian core                              [deg]
#  11 ELONGATION             A_IMAGE/B_IMAGE                                           
#  12 ELLIPTICITY            1 - B_IMAGE/A_IMAGE                                       
         1 -14.4740    200.7105     18.4043   6.4289424363e+01   3.3179377909e+01      2.47303     1.663172  30.98   0.01059469    2.258    0.557
         2 -13.7669    206.3441     11.6025   6.2039495922e+01   3.2587267141e+01     1.380834    0.7625643  50.14  0.001407456    2.056    0.514
         3 -13.0672      2.3011     25.9797   1.2126766120e+02   6.8929581002e+01     3.491866          nan -42.51   0.01030952    7.394    0.865
         4 -11.7847      2.3298     14.4745   1.1707620048e+02   7.0688583563e+01    0.6406606    0.1979806 -35.00  0.003284423    2.625    0.619
         5 -11.5001      2.0000      6.5025   1.1400623517e+02   7.1833356236e+01    0.6121507    0.2077597 -37.97  0.003467628    2.239    0.553
         6 -12.2682     79.1547    232.9005   1.3695982923e+02   1.6383763708e+01    0.4655006    0.3392431  41.60 0.0003589525    1.477    0.323
         7 -11.5142    248.0844    249.2906   1.0714873305e+02  -1.4148746622e+01    0.4661347    0.1973768  35.67  0.002420292    2.071    0.517
         8 -12.2273    139.3627    248.1492   1.2722192192e+02   3.7336844700e+00    0.4417615    0.3627666 -89.36  0.002828745    1.377    0.274
         9 -11.2611    101.1245    249.1656   1.3454775177e+02   9.8760648101e+00    0.4140236    0.3161248  68.95  0.001537104    1.110    0.099
        10 -12.8756    107.8121    246.7536   1.3303779418e+02   9.2464024222e+00     1.224629    0.2531178  49.11  0.003946281    4.336    0.769
        11 -11.6895    103.1778    242.8895   1.3347856473e+02   1.0709902630e+01    0.3461868    0.1941206  48.57  0.001362231    1.482    0.325
        12 -12.8667     89.9463    245.7909   1.3626064428e+02   1.2247113837e+01     0.761914    0.3892967  61.22  0.003964294    1.829    0.453
        13 -10.9354     84.1552    238.8209   1.3662499199e+02   1.4464115983e+01    0.2574973    0.1617706  59.23 0.0007802864    1.324    0.245
        14 -10.8978     81.7152    249.6047   1.3813418953e+02   1.2779656900e+01    0.2686198    0.1677406  47.51   0.00162646    1.395    0.283
        15 -14.4390     35.5913    247.4517   1.4594839750e+02   1.9447725249e+01     11.11774     2.888819  32.73   0.02248661   19.362    0.948
        16 -15.8787      7.6463    208.8295   1.4815080185e+02   3.0237567560e+01     8.898105     1.076315 -71.09   0.02146655    5.057    0.802
        17 -10.2393    228.3226    205.0738   1.0284201094e+02  -4.7935631347e+00    0.2534774    0.2172867 -51.66 0.0008656055    1.448    0.309
        18 -10.1810    192.0700    193.1495   1.0764079904e+02   4.0003717719e+00    0.4710501     0.281875 -71.78  0.001664647    3.766    0.734
        19 -11.8350     68.1897    193.1543   1.3469113717e+02   2.6504881143e+01    0.3943268    0.2663804 -44.13  0.002071059    2.018    0.504
        20  -8.7108    181.5096    192.4748   1.0969823263e+02   6.2102590374e+00    0.1438169    0.1356418  34.71 1.947049e-05    1.007    0.007
        21 -11.8122     73.1150    186.1041   1.3269933323e+02   2.7407817933e+01      0.30496    0.2325482 -56.71 0.0005343629    1.412    0.292
        22 -11.1618     81.9976    174.4525   1.2898958838e+02   2.8791680039e+01    0.2470499    0.2182403 -81.74 0.0003677569    1.065    0.061
        23 -13.3091     69.4744    171.8033   1.3153664880e+02   3.1277884308e+01    0.5048584    0.2831274 -45.03  0.001472679    2.233    0.552
        24 -12.7300     58.2086    132.2141   1.2796300362e+02   4.2251620761e+01      2.05462    0.7145706 -73.45  0.004760942    7.785    0.872
        25 -12.5791     88.6216    166.1656   1.2607599348e+02   2.9710302952e+01     2.074722    0.6426648  51.32  0.001532984    4.235    0.764
        26 -10.6473     74.9518    228.0240   1.3725919560e+02   1.7990727968e+01    0.2276319    0.1675871  48.64 0.0007666472    1.318    0.241
        27 -13.2833     67.5761    144.5311   1.2766120019e+02   3.8068805802e+01     1.220304    0.6943297 -89.45  0.002155373    2.517    0.603
        28  -9.9777    100.9368    149.8107   1.2001657781e+02   3.1549515629e+01    0.3080534    0.2899186 -13.94 0.0007996251    1.286    0.223
        29  -9.6376    103.7323    145.8328   1.1849919235e+02   3.2004827964e+01    0.3274913     0.209948 -32.93  0.001385301    2.130    0.530
        30 -12.2273     89.7542    148.9972   1.2272611069e+02   3.3643545203e+01     0.292317    0.2580252 -42.26 0.0005145376    1.263    0.208
        31 -11.6117     33.5302    148.8036   1.3696561186e+02   4.1107570212e+01    0.3919068    0.1939529 -87.76  0.001765564    2.369    0.578
        32  -9.0191    134.0000    145.0042   1.1066804279e+02   2.6327952014e+01    0.2623108    0.0873583 -49.60  0.000807135    2.975    0.664
        33 -12.4941      2.5118    149.6480   1.4439657789e+02   4.3588903293e+01    0.6597183    0.4681543 -80.10 0.0006652538    1.058    0.055
        34  -9.7016    111.4637    135.5372   1.1428443430e+02   3.3026225282e+01    0.3149145    0.2243775 -14.80  0.001096338    2.265    0.559
        35 -10.6418     98.9648    132.6524   1.1696197459e+02   3.5992515550e+01    0.2912187    0.2378501 -21.12  0.000771373    1.546    0.353
        36 -13.2483     43.0942    225.9532   1.4303313911e+02   2.2756049404e+01    0.6128995    0.3312515  55.58   0.00117912    1.563    0.360
        37  -8.6728    117.2808    128.3782   1.1111271990e+02   3.3578572919e+01    0.1564502    0.1203284 -20.44  0.000700974    1.713    0.416
        38  -9.4312    108.0138    122.9572   1.1229970691e+02   3.6621010111e+01    0.2121681    0.2043608 -54.98  0.001165105    1.040    0.039
        39 -15.4864     52.7016    215.3500   1.4028557097e+02   2.3737167219e+01     5.787246     1.487913  46.38   0.02333703    3.207    0.688
        40 -11.2681     24.9374    237.6665   1.4707066129e+02   2.2586785045e+01    0.2719445    0.1622459  80.02 0.0004851983    1.299    0.230
        41 -10.8470    167.9909    113.0893   9.4829135770e+01   2.5811520225e+01    0.3809094     0.305593 -83.58 0.0007945689    1.470    0.320
        42 -11.1784     53.4913    110.5274   1.2507369150e+02   4.7898761991e+01    0.3293217    0.2202407 -71.38 0.0008611241    1.535    0.349
        43  -9.5999    204.7109    110.9022   8.6764238336e+01   1.7555846423e+01     0.390354    0.1856785  38.13  0.001340152    2.947    0.661
        44 -10.2595    173.7563    220.5975   1.1634303129e+02   2.4402534746e+00    0.2021753    0.1162182  49.84 0.0009563238    1.674    0.403
        45 -11.4577     43.9102    109.1803   1.2764928524e+02   4.9278121633e+01    0.3350043    0.2354504  51.00  0.001756608    1.713    0.416
        46 -10.5817    143.0592    241.4883   1.2562606151e+02   4.2519875527e+00    0.2014058    0.1099947  43.88 0.0004381161    1.543    0.352
        47  -9.2191    156.3318     76.7132   8.7544119258e+01   3.5710259294e+01    0.1543289    0.1181886 -82.93 0.0002541459    1.620    0.383
        48 -10.1105    128.3931     54.7539   8.7426984457e+01   4.5930588226e+01    0.2572501    0.2164399  89.78  0.000659333    1.459    0.315
        49 -11.3227    118.1554     48.2592   8.7890471037e+01   4.9168847562e+01    0.4866211    0.3146011  78.49 0.0009088967    2.603    0.616
        50 -13.1058     14.4780    239.8221   1.4892527754e+02   2.3331706111e+01     1.147163    0.5694594  67.85  0.006836037    1.585    0.369
        51 -11.4625     18.8473    230.1893   1.4760884080e+02   2.4737706768e+01    0.3004637    0.2355468  44.89   0.00168478    1.579    0.367
        52 -10.3437     24.6090    226.5647   1.4637472241e+02   2.4825315900e+01     0.213957    0.1552723  77.39  0.001086566    1.020    0.020
        53  -9.8900    208.6725    245.6817   1.1367086855e+02  -7.6592832474e+00    0.1277538   0.08616149  11.21 0.0003117469    1.680    0.405
        54 -11.3612    124.9968    244.1648   1.2946823351e+02   6.8737867988e+00    0.2162885    0.1847639 -79.33  0.001408603    1.284    0.221
