#   1 NUMBER                 Running object number                                     
#   2 MAG_AUTO               Kron-like elliptical aperture magnitude                    [mag]
#   3 X_IMAGE                Object position along x                                    [pixel]
#   4 Y_IMAGE                Object position along y                                    [pixel]
#   5 X_WORLD                Barycenter position along world x axis                     [deg]
#   6 Y_WORLD                Barycenter position along world y axis                     [deg]
#   7 A_WORLD                Profile RMS along major axis (world units)                 [deg]
#   8 B_WORLD                Profile RMS along minor axis (world units)                 [deg]
#   9 THETA_WORLD            Position angle (CCW/world-x)                               [deg]
#  10 FWHM_WORLD             FWHM assuming a gaussian core                              [deg]
#  11 ELONGATION             A_IMAGE/B_IMAGE                                           
#  12 ELLIPTICITY            1 - B_IMAGE/A_IMAGE                                       
         1 -13.1699    174.2354     53.4127   5.8493780915e+01   3.4737741468e+01     2.039887     1.267032  30.18  0.005905358    2.183    0.542
         2 -13.9347    213.6464      7.6865   4.0280104091e+01   3.0519932692e+01     2.284148     1.325297  45.37   0.01036152    2.129    0.530
         3 -12.8643    193.8902     33.4645   4.9471519308e+01   3.2477943608e+01    0.7161368    0.6694471  -3.18  0.001272293    1.233    0.189
         4 -13.3371    189.0545     39.4746   5.1890000490e+01   3.2925163917e+01     1.042548    0.9783297 -71.97  0.003511423    1.028    0.027
         5 -10.7222     52.1702      7.3242   7.3497966465e+01   6.7756698907e+01    0.2404811   0.09153447  36.38 0.0009935031    2.579    0.612
         6 -10.8569    246.9846    227.0162   8.5560851809e+01  -8.7580703890e+00    0.3075189    0.1263026  28.33  0.001477269    2.375    0.579
         7 -12.4449    248.0527    246.9227   8.8644613821e+01  -1.1110449403e+01    0.6768934    0.5297799  18.20  0.005103575    1.168    0.144
         8 -19.4971     24.2223    147.4954   1.2094137497e+02   4.1609314524e+01     19.12081     4.687982 -74.86   0.06679091    3.840    0.740
         9 -11.2468     67.4375    206.5050   1.1742967254e+02   2.3572881920e+01    0.2088587    0.1715976  74.04   0.00140313    1.040    0.038
        10  99.0000     72.8825    203.6687   1.1603868474e+02   2.3407011909e+01    0.3563884    0.1928736  62.68  0.001777788    1.803    0.445
        11 -11.0413     58.7360    202.8454   1.1882705721e+02   2.5471367596e+01    0.3085201    0.2242477 -41.93  0.001829257    2.117    0.528
        12  -9.3108     75.2090    249.3683   1.1974058530e+02   1.4528315518e+01     0.290032   0.09652865 -60.08   0.00142219    3.428    0.708
        13 -10.9199    193.2205    195.3515   8.9774784546e+01   4.4699175242e+00    0.9587501    0.4936752 -61.88  0.002985884    5.784    0.827
        14 -10.2035    204.0032    199.4256   8.8426770416e+01   1.8817675982e+00     0.365434    0.1138409  38.77  0.001332632    3.003    0.667
        15 -11.1012    151.1197    196.4773   9.8578800960e+01   1.2017360985e+01    0.3438232    0.2919533 -23.58  0.001992326    1.405    0.288
        16 -11.6304     60.7504    196.4459   1.1779484370e+02   2.6547589676e+01    0.3363801     0.247878 -41.04  0.001549971    2.041    0.510
        17  -8.9835     82.3580    194.8585   1.1307287639e+02   2.3887550971e+01    0.2239495    0.1510467  55.54 0.0008565849    1.319    0.242
        18  -8.5220    159.5116    194.5225   9.6487873735e+01   1.0837679901e+01    0.1383092    0.1241323  45.38 0.0001102967    1.042    0.040
        19  -8.4555     78.2140    192.9303   1.1373062649e+02   2.4899246676e+01    0.1367119   0.09574048 -77.41            0    1.380    0.275
        20 -10.7093     96.5373    190.1384   1.0940436634e+02   2.2723436850e+01    0.3869212    0.3409078  16.79   0.00108067    1.496    0.331
        21 -10.6532     99.3450    186.7059   1.0831182814e+02   2.3006543194e+01    0.3146133    0.2079554  51.53  0.001102377    1.387    0.279
        22  -9.4902    156.7062    189.9929   9.6294252456e+01   1.2202714226e+01     0.180424    0.1786609 -19.27 0.0003514746    1.106    0.096
        23 -11.3374    149.9608    188.3224   9.7444559151e+01   1.3780959051e+01     0.333416    0.3000313 -75.65  0.001954706    1.240    0.194
        24 -11.1246    133.8863    186.7949   1.0067928943e+02   1.7043975566e+01    0.3155564    0.1870059 -66.59  0.001429985    2.133    0.531
        25  -9.8680    238.4859    185.5006   7.9414166384e+01  -2.0019131615e+00    0.1305794    0.1116991   2.22 0.0008102643    1.036    0.035
        26 -10.8309    151.1327    180.3076   9.5767269548e+01   1.5128413941e+01    0.4090491    0.2727023 -80.69  0.001772363    2.441    0.590
        27 -11.4391    145.2635    180.7688   9.7139151774e+01   1.6150705969e+01    0.3919057    0.3177196  48.80  0.001306214    1.150    0.130
        28 -11.7049    141.6808    174.9560   9.6885966905e+01   1.8012957607e+01     0.630294    0.4440005  84.08  0.002355779    2.037    0.509
        29 -10.8308     99.3427    180.8650   1.0747308981e+02   2.4268227536e+01     0.294442    0.2673328  22.09 0.0006521583    1.364    0.267
        30 -10.0566    189.1238    178.3413   8.7350804729e+01   8.1465454690e+00    0.4016474    0.2746026  58.86  0.001040831    1.823    0.451
        31  -9.8536    187.9777    173.8161   8.6679796221e+01   9.1797568845e+00    0.4207101    0.2714434 -68.41  0.001716744    2.854    0.650
        32 -10.9076    124.1570    172.8765   1.0050384994e+02   2.1721617508e+01    0.3878167    0.2534419 -53.13  0.001894369    1.596    0.373
        33  -6.1600     63.0809    221.2851   1.1963399299e+02   2.1224843795e+01    0.3449026     0.139258  61.57  0.001587753    2.612    0.617
        34 -11.1233    130.3509    171.7021   9.8870272907e+01   2.0831615497e+01    0.4985372    0.2345486  48.68  0.002019956    2.090    0.521
        35 -12.2455     54.6908    211.5784   1.2040647156e+02   2.4210057545e+01    0.4264907    0.1890181  63.80  0.001448446    2.292    0.564
        36  -9.6045     48.3054    217.3308   1.2208663773e+02   2.3861035763e+01    0.2176166    0.1166417  42.84 0.0008971938    1.698    0.411
        37 -10.1317    240.2148    169.1955   7.5811254923e+01   1.2428012831e-01    0.1668274    0.1579143 -35.38 0.0004597914    1.315    0.239
        38  -9.7393     51.4796    215.4421   1.2134070601e+02   2.3842981933e+01    0.1652707    0.1340386 -77.52 0.0005821751    1.326    0.246
        39 -11.6867     96.9519    151.5675   1.0328647143e+02   3.1302397934e+01    0.5929021    0.4413407 -33.66  0.002959939    1.729    0.422
        40 -10.8368    133.9440    145.7577   9.2913784431e+01   2.5814504651e+01     1.174332    0.3147202 -54.92  0.002931821    5.277    0.810
        41  -9.6662    113.2077    150.8984   9.9085881272e+01   2.8620285138e+01    0.3022496    0.2135646  86.85  0.001382654    1.817    0.450
        42  -9.7194    174.3770    148.9415   8.4259776124e+01   1.6706773964e+01    0.2875871    0.2595234  66.54 0.0007486881    1.219    0.179
        43  -9.9185    143.5045    145.4680   9.0542974426e+01   2.3935572615e+01    0.2778183    0.1450793 -58.89  0.001035779    2.358    0.576
        44 -10.8436    105.8565    130.9843   9.6892131565e+01   3.4596426485e+01    0.5059096    0.3208531 -54.37  0.001822047    1.519    0.342
        45 -10.1971    107.4391    145.2780   9.9440290233e+01   3.0961114830e+01    0.3873751    0.2507331 -69.68 0.0009895533    1.718    0.418
        46 -10.9786    108.2824    138.0891   9.7764832985e+01   3.2488748221e+01    0.5530209    0.3451216 -39.42  0.002430361    1.850    0.459
        47  -9.7951    188.1740    152.3933   8.2093404600e+01   1.3119296585e+01     0.296293    0.2400577  85.18  0.001444341    1.714    0.417
        48  -8.9236    112.7103    142.3443   9.7503025731e+01   3.0686480941e+01    0.1534438    0.1139553  84.73 0.0006566076    1.654    0.395
        49 -11.7984     96.5647    137.3890   1.0070159891e+02   3.4710863944e+01    0.2938274    0.2791382  87.89 0.0001963159    1.038    0.037
        50  -9.7006    136.0987    128.9217   8.8568228741e+01   2.9134391947e+01    0.3512588    0.1632452 -44.71  0.001295515    2.157    0.536
        51 -10.0209    115.2160    128.9587   9.3954784077e+01   3.3325037422e+01    0.3186884    0.2535885 -33.75 0.0006798485    1.405    0.288
        52  -9.2401    160.8437    127.7219   8.2310011619e+01   2.4021815426e+01    0.3042306    0.2082835 -70.04  0.001239145    2.063    0.515
        53 -10.5745    103.0531    124.7483   9.6269331443e+01   3.6571127435e+01    0.3169442    0.2597562 -16.99 0.0007067433    1.554    0.356
        54 -10.2131    135.1603    121.6550   8.7034310885e+01   3.0953042330e+01    0.6727419    0.1116923 -48.15   0.00142548    6.430    0.844
        55 -10.0040    120.3751    123.0632   9.1213249857e+01   3.3678535093e+01    0.4504557    0.2778575 -22.85  0.001663485    2.723    0.633
        56  -9.5514     43.9612    211.7825   1.2247628462e+02   2.5479376001e+01    0.2536431    0.1344937 -80.68  0.001035863    1.735    0.424
        57  -9.3106    110.3532    118.1838   9.2735944705e+01   3.6755955121e+01     0.223196    0.2062107  27.31 0.0003400026    1.177    0.150
        58  -8.4578    150.4623    117.4570   8.2175316472e+01   2.8524373612e+01    0.1566931    0.1522557 -78.92 0.0002415937    1.051    0.049
        59  -9.9839    231.1695    113.7159   6.4885431383e+01   1.0939106866e+01    0.2707555    0.2411892  20.88 0.0007718064    1.202    0.168
        60  -9.4163    167.5882    112.4385   7.6870389759e+01   2.5647391113e+01    0.3525564    0.2481843 -74.42  0.001436115    2.072    0.517
        61  -9.9199    134.6384    106.0480   8.3108675276e+01   3.4503111967e+01    0.4410175    0.1429439 -46.01  0.001337694    3.055    0.673
        62 -11.1699    119.0524    110.5007   8.8431501043e+01   3.6807817485e+01    0.5439415    0.4013592  74.02  0.002139167    1.781    0.439
        63  -9.6276    205.3795    110.1266   6.8513593449e+01   1.7279562423e+01    0.3265386    0.2278457  45.56 0.0009663164    1.494    0.331
        64 -11.3401     39.2663    212.6925   1.2342857417e+02   2.5846350252e+01    0.1741593    0.1373221  75.17 0.0002989502    1.075    0.070
        65  -9.9443    184.4916    211.1027   9.4251244268e+01   3.4890965512e+00    0.3337221    0.1871919 -32.55  0.001651806    2.123    0.529
        66  -8.6928    183.1884     82.8225   6.5431611633e+01   2.7565660655e+01    0.2165021     0.186783  16.39  0.001066219    1.334    0.250
        67 -10.9885     71.8987    245.4096   1.2000692964e+02   1.5648924440e+01    0.2856892     0.164674 -75.81  0.001815702    1.844    0.458
        68 -10.0504     43.9022    220.7529   1.2315646333e+02   2.3724624394e+01    0.2026098    0.1473258 -81.30  0.001316151    1.319    0.242
        69  -9.8336    157.1584    233.1560   1.0289383830e+02   4.6896081257e+00    0.1721239    0.1346896  58.47  0.001082471    1.333    0.250
        70  -9.3384    167.7976    231.5580   1.0064636638e+02   3.1701869544e+00    0.1998635    0.1604611  23.65 0.0007131228    1.213    0.176
