#   1 NUMBER                 Running object number                                     
#   2 MAG_AUTO               Kron-like elliptical aperture magnitude                    [mag]
#   3 X_IMAGE                Object position along x                                    [pixel]
#   4 Y_IMAGE                Object position along y                                    [pixel]
#   5 X_WORLD                Barycenter position along world x axis                     [deg]
#   6 Y_WORLD                Barycenter position along world y axis                     [deg]
#   7 A_WORLD                Profile RMS along major axis (world units)                 [deg]
#   8 B_WORLD                Profile RMS along minor axis (world units)                 [deg]
#   9 THETA_WORLD            Position angle (CCW/world-x)                               [deg]
#  10 FWHM_WORLD             FWHM assuming a gaussian core                              [deg]
#  11 ELONGATION             A_IMAGE/B_IMAGE                                           
#  12 ELLIPTICITY            1 - B_IMAGE/A_IMAGE                                       
         1 -15.2548      7.7039    144.7331   1.4309688915e+02   4.3899868920e+01     9.830395      3.43938  85.84    0.0367537    4.001    0.750
         2 -13.5290    196.7215     29.2188   6.7322539480e+01   3.2332432406e+01     1.470174     1.377404 -26.69  0.006876369    1.174    0.148
         3 -13.5476    212.9575      9.3929   6.0311818178e+01   3.0570381572e+01     1.121303    0.9207469  36.24  0.003144012    1.519    0.342
         4 -12.5003      3.3287      7.1765   1.1551531637e+02   7.3152949757e+01    0.8603811    0.3302246 -39.52  0.004773571    1.955    0.488
         5 -10.3028     81.8664    249.1409   1.3723924952e+02   1.4217858393e+01    0.1865691    0.1201402  62.83 0.0009707572    1.298    0.229
         6 -12.1116    246.6960    248.5226   1.0812932518e+02  -1.0188502102e+01    0.4786207    0.3338555  26.76  0.003452305    1.194    0.162
         7 -11.2428    139.2389    250.4248   1.2714025584e+02   5.6164238570e+00    0.3427978    0.1489909  37.07  0.001735583    2.001    0.500
         8 -11.5278    123.8669    249.7833   1.2983633694e+02   8.0562340293e+00    0.5348968    0.1220825  39.47  0.001979575    3.722    0.731
         9  -9.9085    111.7053    250.6184   1.3210211880e+02   9.7391498496e+00    0.1653566   0.08373085  48.50 0.0005710251    1.561    0.359
        10  -9.4809     66.5046    250.0552   1.3996459587e+02   1.6100644732e+01    0.1691882    0.1146764  54.23 0.0004183825    1.138    0.121
        11 -10.7192     46.3360    249.1475   1.4329801764e+02   1.8752704373e+01    0.2367155    0.1374388  63.39  0.001181078    1.327    0.247
        12 -12.1740     34.9975    245.7768   1.4496837001e+02   2.0646214085e+01    0.5132197    0.4133528 -84.91  0.004176574    1.376    0.273
        13 -11.0258     29.1894    248.6233   1.4607045831e+02   2.0801625384e+01    0.4114124    0.1883757 -61.48  0.002511501    2.692    0.628
        14 -10.9451      5.7314    241.0934   1.4944525132e+02   2.4529958435e+01    0.2775615     0.129949  41.09  0.000434343    1.943    0.485
        15 -12.4671     12.4516    241.8235   1.4841434626e+02   2.3739975493e+01    0.5071311    0.2321906 -84.75  0.003305768    1.912    0.477
        16  -9.6289     85.2923    245.6398   1.3633613367e+02   1.4334720653e+01    0.1200746   0.06911889  67.10 0.0003748843    1.697    0.411
        17  -9.8623    156.3777    249.8450   1.2398308264e+02   3.0495686700e+00    0.1420023    0.1094519 -28.86 0.0009465742    1.697    0.411
        18 -10.8132     19.0435    242.2338   1.4737776771e+02   2.2994387879e+01    0.1910718    0.1141327  79.82 0.0005957248    1.315    0.240
        19 -10.4040    183.0149    238.9809   1.1769668625e+02   3.7448331482e-01    0.1889698    0.1310229  11.27 0.0005905083    1.677    0.404
        20 -11.3126    119.5853    237.8419   1.2930229114e+02   1.0619688961e+01    0.3071361    0.1835549 -82.00  0.001638238    2.477    0.596
        21  -9.4610    233.6970    237.3147   1.0852138718e+02  -7.1521813579e+00    0.0981891    0.0893387  45.27 0.0002796801    1.617    0.382
        22 -11.0189     50.2655    235.1418   1.4169100256e+02   2.0743774376e+01    0.2744876    0.1743319 -63.34   0.00180038    1.831    0.454
        23 -12.0201     21.7838    126.3969   1.3756315441e+02   4.6986036901e+01    0.4654055    0.2398187  51.13  0.001121628    2.168    0.539
        24 -10.8430    197.5134    245.0067   1.1596869950e+02  -2.6837868701e+00    0.2283976     0.114288 -46.52  0.001218663    2.723    0.633
        25 -10.8468      4.9681    227.0398   1.4895063063e+02   2.7120946810e+01    0.2969893   0.09131449 -72.51   0.00158992    2.823    0.646
        26  -9.8113     55.2521    229.9551   1.4041931917e+02   2.1078247942e+01    0.2606415    0.1103655  52.83  0.001129245    1.926    0.481
        27  -9.3357    171.6693    222.7037   1.1740273928e+02   4.6040186140e+00    0.1263949   0.09059872  13.90 0.0002465583    1.638    0.389
        28 -12.5368      9.5922    207.1496   1.4714555788e+02   3.0466319747e+01    0.6275301    0.4325638  29.12  0.003283797    1.938    0.484
        29  -8.7351    152.4894    213.0272   1.1966932125e+02   9.4431930934e+00    0.1642137    0.1303508 -51.20 0.0003943104    1.454    0.312
        30 -11.6752     59.4203    198.6566   1.3687764265e+02   2.6685677739e+01    0.2500927    0.2212764 -68.14  0.000548708    1.337    0.252
        31  -9.9806    192.7882    194.6247   1.0862669333e+02   5.3895721189e+00    0.6260915      0.30695 -60.43  0.001866929    6.313    0.842
        32 -12.0526     12.6186    195.6151   1.4589917309e+02   3.2493632928e+01    0.2543621    0.1661135  64.59 0.0004585597    1.250    0.200
        33 -12.8433     32.3805    232.5215   1.4462399670e+02   2.3299860826e+01    0.2645619     0.219501 -88.26 0.0007657852    1.318    0.241
        34 -11.9800     65.9208    190.2565   1.3463658242e+02   2.7599686871e+01    0.2678453    0.2222378 -67.29 0.0004450294    1.290    0.225
        35 -14.0473     37.4758    225.5697   1.4328820520e+02   2.4014956794e+01    0.7856711    0.6359333  57.09  0.002897175    1.246    0.198
        36 -11.4482     10.2702    249.5178   1.4909479294e+02   2.2631696285e+01    0.4216084    0.1851989  36.04  0.002657915    2.403    0.584
        37 -13.2494     62.9625    175.4886   1.3356758175e+02   3.1202859061e+01    0.4920171    0.2735037 -46.39  0.001806001    2.331    0.571
        38 -10.9143     76.3519    177.4182   1.3078662697e+02   2.8941473849e+01    0.2297495     0.206134 -87.77 0.0003771265    1.093    0.085
        39  -9.8068     96.5713    173.3178   1.2557579302e+02   2.6779858104e+01     0.242538    0.2177868  84.66 0.0006947303    1.029    0.029
        40 -11.7897     84.1359    168.3736   1.2772417022e+02   2.9811908493e+01    0.6068304    0.5570788  18.42  0.003731195    1.374    0.272
        41 -12.8985    124.4698    231.9808   1.2769924815e+02   1.0837771008e+01     1.536341    0.1675361  40.53   0.00387062    7.309    0.863
        42 -10.1758     96.9449    152.4054   1.2201251830e+02   3.1416317641e+01    0.3184077    0.2810847 -27.43 0.0008832348    1.390    0.280
        43  -9.2925    100.0096    148.1601   1.2046816532e+02   3.1876770315e+01    0.2108632    0.1994523 -67.24 0.0004072564    1.080    0.074
        44 -11.9750     85.3708    151.5401   1.2474809113e+02   3.3464597060e+01     0.294328    0.2448675 -46.27 0.0003269257    1.325    0.245
        45 -12.2250     67.4593    143.5996   1.2798762758e+02   3.7919237795e+01    0.6783244    0.4249395  65.64  0.002583902    1.851    0.460
        46  -9.7554    108.8959    137.3966   1.1606941045e+02   3.2789737185e+01    0.4412021    0.2781487 -23.31  0.001376329    2.763    0.638
        47 -10.4878     96.0207    134.6818   1.1885851175e+02   3.5667067633e+01    0.2483843    0.2169491 -38.35 0.0004052821    1.253    0.202
        48 -10.9385      2.4536    248.3646   1.5024510931e+02   2.3592448769e+01     0.459121    0.1445527 -82.16  0.002588897    2.821    0.646
        49  -9.1264     77.7125    130.4278   1.2292519629e+02   3.9570333718e+01    0.3021448    0.1765371  72.96  0.001214923    2.699    0.629
        50 -10.7832     30.1921    130.9820   1.3591455787e+02   4.5170406536e+01    0.2400098     0.177858  42.82 0.0004630308    1.507    0.336
        51  -9.5736     84.6431    126.8541   1.2031658322e+02   3.9352557450e+01    0.2749856    0.1904479  72.90 0.0006304238    1.832    0.454
        52  -8.8568    106.2735    124.0119   1.1382184539e+02   3.6333568093e+01     0.193917    0.1765164 -60.48 0.0003022432    1.052    0.050
        53 -13.1591     91.7619    227.1367   1.3338609652e+02   1.6660473193e+01     2.235021   0.06321274  45.78  0.005053932    9.668    0.897
        54 -10.3236    167.9978    113.0933   9.5909319100e+01   2.5702949274e+01    0.3185816    0.2732454 -78.71 0.0006347818    1.365    0.268
        55  -9.2168    203.1773    111.5912   8.8446154871e+01   1.7943068756e+01    0.2097245    0.1369584  38.63 0.0005675255    1.680    0.405
        56  -9.3946     42.4957     97.1409   1.2664333581e+02   5.1884389746e+01    0.4145463    0.1565647  50.39  0.001446423    4.451    0.775
        57 -10.4951    242.1689     94.1640   7.7841309485e+01   1.2326767093e+01    0.4019188    0.1995573  25.56  0.001103739    6.380    0.843
        58  -9.7740    158.1646     77.1401   8.8032026755e+01   3.4862835850e+01    0.2158508     0.182355 -66.49 0.0005139127    1.317    0.241
        59  -8.5555     46.1877     69.3261   1.1860876923e+02   5.7683954702e+01    0.1618968    0.1154487  41.05  0.000389338    1.680    0.405
        60 -12.0449      2.4920     63.8106   1.3366669546e+02   6.2433097136e+01    0.5509028    0.2253604 -74.46  0.002570223    2.581    0.613
        61 -12.0986      8.7147     52.9817   1.2874686745e+02   6.4364105072e+01    0.4396372     0.268484  31.16  0.002136715    2.050    0.512
        62 -12.0991      3.6035     45.1273   1.2886545517e+02   6.6255125970e+01    0.4914559    0.2087296 -50.54  0.002715494    1.679    0.404
        63 -10.2865    162.1674    249.3503   1.2287875948e+02   2.2186258414e+00    0.1608696    0.1380171  26.99 0.0009647731    1.144    0.126
        64 -11.8320     99.5798    247.3980   1.3395233632e+02   1.2024070716e+01    0.3413991    0.3114966  33.98  0.002586941    1.385    0.278
        65  -8.8478     31.9264     62.4545   1.2202356087e+02   6.0612056388e+01     0.164803    0.1220013  24.78  0.001014854    1.576    0.365
