#   1 NUMBER                 Running object number                                     
#   2 MAG_AUTO               Kron-like elliptical aperture magnitude                    [mag]
#   3 X_IMAGE                Object position along x                                    [pixel]
#   4 Y_IMAGE                Object position along y                                    [pixel]
#   5 X_WORLD                Barycenter position along world x axis                     [deg]
#   6 Y_WORLD                Barycenter position along world y axis                     [deg]
#   7 A_WORLD                Profile RMS along major axis (world units)                 [deg]
#   8 B_WORLD                Profile RMS along minor axis (world units)                 [deg]
#   9 THETA_WORLD            Position angle (CCW/world-x)                               [deg]
#  10 FWHM_WORLD             FWHM assuming a gaussian core                              [deg]
#  11 ELONGATION             A_IMAGE/B_IMAGE                                           
#  12 ELLIPTICITY            1 - B_IMAGE/A_IMAGE                                       
         1  -8.5422    119.4725     33.4744   1.7790053628e+01   5.0492247293e+01    0.2523868    0.1216696 -42.53 0.0007874594    2.272    0.560
         2  -9.8523     97.4583     12.9350   1.4885418861e+01   5.8374150625e+01    0.4575709    0.2399253 -10.04  0.001981917    2.556    0.609
         3 -10.3573     41.0469     13.8213   3.6332765780e+01   7.0425436407e+01    0.2407366    0.1815801  20.40 0.0002503794    1.173    0.148
         4  -9.0630      3.4127     12.2424   6.1085540083e+01   7.5336001796e+01    0.1525267    0.1094842 -58.30 0.0009495954    1.601    0.376
         5  -9.0717     62.7669     10.2171   2.4305673901e+01   6.6694862013e+01    0.4153295    0.1389727  35.19  0.001315265    4.207    0.762
         6  -8.3170     80.1683     12.1399   1.9262305123e+01   6.2609608850e+01    0.1770602    0.1593657 -88.61 0.0005375273    1.332    0.249
         7  -8.3171     65.1289      4.8760   2.0579277590e+01   6.6741242900e+01     0.180472    0.1307273  30.16 0.0002655229    1.270    0.213
         8  -8.0419     52.2700      3.2851   2.4748614616e+01   6.9611884902e+01     0.129465   0.08421817  24.07 0.0001675591    1.500    0.333
         9  -8.7299      3.1022      2.8701   5.6342000400e+01   7.7019074528e+01    0.1676246    0.1107405 -15.28 0.0004269245    1.303    0.233
        10  -9.5588     67.5361      1.3826   1.7886283216e+01   6.6531536492e+01    0.2335412     0.110127  57.45 0.0003357126    1.841    0.457
        11 -10.9756    236.7089    239.9827   4.2587086114e+01  -5.7149363317e+00    0.4898771    0.2480606   4.49  0.002367181    2.083    0.520
        12 -10.4325    247.1310    248.3014   4.2130590537e+01  -7.7418404484e+00    0.2719251    0.1793496   8.13 0.0008480443    1.105    0.095
        13  -9.2229    205.8857    250.1468   4.9454270586e+01  -3.3613107562e+00    0.1652287    0.1300757  19.33 0.0006990921    1.278    0.218
        14 -11.2971    173.6155    246.0876   5.4986190390e+01   1.2187964900e+00     0.661103       0.4927 -46.17  0.004389818    1.838    0.456
        15 -11.4860    166.3601    248.0731   5.6688742128e+01   1.8997805936e+00    0.7849456     0.306576  35.47   0.00385331    2.072    0.517
        16 -11.5755    167.0904    241.9598   5.5717985046e+01   2.6677176346e+00    0.7939219    0.3267075  28.74  0.003351357    2.029    0.507
        17 -10.8192    168.2104    233.8327   5.4352329393e+01   3.7004890043e+00    0.5193604    0.3722391  12.12  0.002739673    1.220    0.180
        18 -11.3062    162.3902    225.7054   5.4371336518e+01   5.7630802717e+00    0.5809098    0.3278873  24.41  0.002821893    1.557    0.358
        19 -10.6544     27.0539    247.0324   8.5772136726e+01   1.9624991103e+01    0.4038111    0.2268171  83.72  0.002524999    1.848    0.459
        20 -10.0264      4.3145    249.3157   9.0344054474e+01   2.1379245879e+01    0.2880513    0.1563433  56.56 0.0009939604    1.371    0.271
        21  -9.6349      2.1997    244.3948   9.0606748239e+01   2.2457309661e+01    0.2121284     0.139326  61.68  0.001099402    1.173    0.147
        22 -11.4147     19.2949    247.7710   8.7361317390e+01   2.0260858154e+01    0.5490022    0.2794367  50.10  0.003438444    1.448    0.310
        23 -10.1666     13.1532    250.2414   8.8664855635e+01   2.0402713778e+01    0.3013942    0.1437618  40.75  0.001038613    1.514    0.339
        24 -10.8239     97.8071    241.4474   7.0315958582e+01   1.2238677270e+01    0.4572531    0.2389635  33.18  0.001469934    1.512    0.339
        25  -9.6255    250.3616    241.5257   4.0599804292e+01  -7.3479515754e+00    0.2259885    0.1304329 -21.71 0.0009870791    1.479    0.324
        26  -9.5413    249.3071    237.6637   4.0179438207e+01  -6.8151934967e+00    0.2125739    0.1415269 -15.77  0.001278749    1.243    0.195
        27  -9.0135    221.1907    239.9869   4.5235957785e+01  -3.9478807743e+00    0.2038703    0.1314681  10.73 0.0007104503    1.220    0.180
        28 -10.8129     54.0844    248.8855   8.0310890911e+01   1.6366288199e+01    0.4631235    0.3066106   4.80   0.00186715    2.293    0.564
        29  -8.2567    124.3222    237.9515   6.4153954470e+01   9.2069876318e+00    0.1765435    0.1050874 -88.42 0.0007033926    4.525    0.779
        30 -10.2400    161.3710    231.3665   5.5403534129e+01   5.0297824794e+00    0.5856991    0.2417303  30.52  0.001746399    2.038    0.509
        31  -9.5022     15.4482    237.2902   8.7713401498e+01   2.2572729477e+01    0.3055417   0.04301372  33.47  0.001211632    3.562    0.719
        32 -10.3474    231.1321    234.5329   4.2689284410e+01  -4.4516099216e+00    0.2736293    0.1984481  -7.17 0.0007560591    1.120    0.107
        33 -11.7731    106.5196    224.1924   6.6480341079e+01   1.4142104133e+01     1.221422    0.6872758 -22.35  0.005039891    3.559    0.719
        34 -11.3697     95.7018    217.9411   6.8259742930e+01   1.6863269767e+01    0.5292411    0.3455469  50.64  0.001731768    1.468    0.319
        35 -10.2483     99.9800    217.3204   6.7180749931e+01   1.6376823320e+01    0.3427348    0.2304366  54.45 0.0008153249    1.538    0.350
        36 -11.3380    238.8648    230.0701   4.0697147590e+01  -4.8064291171e+00    0.5109596    0.2713036  11.74   0.00223571    1.775    0.437
        37 -11.9017     89.7829    230.4382   7.0983882111e+01   1.5296585594e+01     1.732882    0.8969285 -76.82  0.008288067    2.857    0.650
        38 -11.8341    126.2290    222.7817   6.1823248827e+01   1.1544468481e+01    0.6641069    0.5764279  69.86  0.001809154    1.453    0.312
        39  -9.1555     81.2133    227.7771   7.2667079206e+01   1.6938296435e+01    0.1896265    0.1466236  50.97 0.0006276951    1.155    0.134
        40  -7.8106     17.7204    228.7359   8.6873363758e+01   2.4006519024e+01   0.09317077   0.08811904 -23.79  0.000187549    1.481    0.325
        41  -9.6772    242.8564    223.8597   3.9055420905e+01  -4.5234218802e+00    0.2287929    0.1412518 -30.09 0.0008984689    1.576    0.365
        42  -9.4806    185.0085    226.7155   4.9932299068e+01   2.4208713825e+00    0.2169205    0.1931511  40.92 0.0008378852    1.530    0.347
        43  -9.4110    181.2814    226.0058   5.0561413609e+01   3.0398592716e+00    0.2783085    0.1915712   4.30  0.001388578    1.380    0.275
        44 -11.3711     98.6137    225.3376   6.8425065327e+01   1.5041607010e+01    0.4976741    0.4193524  17.14  0.001617829    1.221    0.181
        45  -8.2350     73.4224    224.5164   7.4144634951e+01   1.8583163152e+01    0.1259746    0.1061449  42.42 0.0001200272    1.040    0.038
        46  -8.5103     66.5550    223.9102   7.5673254522e+01   1.9573988739e+01    0.1706484    0.1223421 -72.69  0.001026792    1.595    0.373
        47  -8.9227     27.8056    226.3982   8.4582564066e+01   2.3476656319e+01    0.1601551    0.1050207  18.83 0.0009532123    1.760    0.432
        48  -9.3460    157.5864    221.4467   5.4754289746e+01   7.1419084114e+00    0.2435847    0.1875271  12.07 0.0008529203    1.164    0.141
        49  -9.5439    218.8715    219.0872   4.2367199239e+01  -1.0290597173e+00    0.3554748    0.2130603   4.96  0.002084342    1.628    0.386
        50  -9.4616    133.2813    220.6564   5.9952989559e+01   1.0878196227e+01    0.2330277    0.1966269  79.91  0.001099472    1.656    0.396
        51 -10.4118    131.0207    214.5200   5.9605497683e+01   1.2313981695e+01    0.3943491    0.2724639 -65.16  0.001652482    1.991    0.498
        52  -9.3998    127.9944    211.7054   5.9899855379e+01   1.3290669072e+01    0.2501605    0.1803869  48.13 0.0003388429    1.424    0.298
        53  -9.8600    115.2084    220.6433   6.4051245572e+01   1.3546349966e+01    0.2277447    0.2115128  43.10 0.0006786173    1.150    0.130
        54  -8.9056    149.4505    219.5109   5.6219178857e+01   8.6665164201e+00    0.2014438    0.1707289   9.21  0.001272331    1.096    0.088
        55  -9.3874    151.5434    216.1414   5.5262544821e+01   8.9215799295e+00    0.3509908    0.2079223   7.44   0.00123465    2.223    0.550
        56  -9.6686     74.9824    219.3356   7.3286373172e+01   1.9406221296e+01    0.3144262     0.178857  41.83  0.001238785    1.443    0.307
        57  -9.7722    190.2254    216.2550   4.7258943073e+01   3.2235650134e+00     0.420965     0.247069 -30.77  0.002351308    1.749    0.428
        58  -9.6105    175.9951    216.3432   5.0123491799e+01   5.2541729184e+00    0.2873335    0.1863132 -18.63  0.001592502    1.684    0.406
        59  -8.5981    143.5113    216.9514   5.7147872256e+01   9.9935133916e+00    0.1770547    0.1310409 -43.51 0.0007072101    1.567    0.362
        60 -10.2178     23.6692    216.8674   8.4984385439e+01   2.5819543177e+01    0.4715012   0.09364051  33.19  0.001863708    3.233    0.691
        61 -10.0671    117.6105    227.5305   6.4368324086e+01   1.1951055078e+01    0.3548276     0.219568  52.16   0.00152945    1.774    0.436
        62  -9.1309    144.9795    227.5329   5.8332390507e+01   7.9889631805e+00    0.2188005    0.1654332 -14.31 0.0005192224    1.483    0.326
        63 -10.2915    113.4747    212.5248   6.3399645993e+01   1.5329987418e+01    0.6305013     0.375502   2.70  0.002663631    2.849    0.649
        64 -10.5499     77.9300    211.3118   7.1764843381e+01   2.0644525878e+01    0.4030383    0.3432305 -38.39  0.002451458    1.446    0.308
        65  -8.6851    228.4853    214.0473   3.9857755971e+01  -1.5844148894e+00    0.1793311    0.1307138  12.08 0.0007779563    1.143    0.125
        66  -9.5856     63.9998    213.4701   7.5331748155e+01   2.2009190919e+01    0.4195109    0.1977291  37.65  0.002043475    1.721    0.419
        67 -10.2268    170.7591    215.2038   5.1022919717e+01   6.2026382194e+00    0.2837812    0.2215502  13.23 0.0007310121    1.087    0.080
        68  -9.3560    202.4661    212.5064   4.4288910728e+01   2.0584957245e+00    0.1817396    0.1041056 -23.03 0.0007835921    1.774    0.436
        69  -8.8882    202.5203    209.5139   4.3778638372e+01   2.4830941817e+00    0.2123417    0.1434725  16.40 0.0009784618    1.296    0.228
        70 -10.3517    211.9542    208.2725   4.1816231546e+01   1.3582730909e+00     0.408108    0.3288924   4.95  0.002762329    1.060    0.056
        71  -9.6513    213.1159    203.6018   4.0805900029e+01   1.8610647294e+00    0.4850013    0.1743461  40.11  0.002108005    2.950    0.661
        72 -11.9290     14.5708    197.8091   8.6067295650e+01   3.0733429692e+01     1.134751    0.3255572 -57.91  0.003637675    3.986    0.749
        73 -10.1102     11.2541    187.4423   8.6314625484e+01   3.3331614284e+01    0.2968504    0.2030793  30.86  0.001314625    1.447    0.309
        74 -11.9895     14.5058    181.1021   8.5125789658e+01   3.4505614982e+01     1.215405    0.6152837  27.20   0.00627942    1.938    0.484
        75 -11.0650      5.3954    176.6507   8.7213812249e+01   3.6272754977e+01    0.4310891    0.3323202 -73.47  0.001777728    1.302    0.232
        76 -12.1511      3.8823    169.2282   8.7209872485e+01   3.8118838831e+01    0.3191249    0.2507619  85.71 0.0002456166    1.117    0.105
        77  -8.0692     98.4893    205.9784   6.6139346936e+01   1.8845801849e+01    0.1819277    0.1134268  79.10 0.0008101646    2.528    0.604
        78  -9.5723    237.6742    210.4199   3.7702915922e+01  -2.2545135537e+00    0.2004276    0.1314215  24.80  0.001314867    1.430    0.301
        79  -9.4187    130.1338    201.9016   5.7955583576e+01   1.4805705497e+01     0.467137    0.3123793  71.52  0.002118889    2.591    0.614
        80  -9.8099    166.8969    199.3590   4.9243208932e+01   9.4142244822e+00    0.3608022    0.2121882 -32.49   0.00120071    1.841    0.457
        81 -11.2979    176.1902    185.1630   4.4752712230e+01   1.0365864328e+01    0.5820952    0.4682568 -42.41  0.002202341    1.407    0.289
        82 -11.2998    178.4950    196.5694   4.6314160351e+01   8.0594986549e+00    0.7348185    0.4694386 -25.20  0.002559967    1.653    0.395
        83 -11.2409    172.7719    195.5589   4.7336367926e+01   9.1321279272e+00    0.6552252    0.3140185 -38.65   0.00108222    2.200    0.545
        84  -9.1170     60.6891    200.6342   7.4917688895e+01   2.5157678414e+01    0.3854319    0.1517955  38.82  0.001675875    2.067    0.516
        85  -8.8317    212.8573    198.8974   4.0034546587e+01   2.5736100786e+00    0.1922864    0.1385587  -3.50 0.0004631397    1.236    0.191
        86  -9.3682    105.2609    197.5989   6.3349693274e+01   1.9552622862e+01    0.2871542    0.2307104 -13.38  0.001139178    1.520    0.342
        87  -7.9624     88.0000    198.9162   6.7846212224e+01   2.1843676430e+01    0.2030969   0.07909954 -62.01 0.0007968306    2.904    0.656
        88  -8.3829    144.4504    198.5167   5.4091426707e+01   1.3156029710e+01    0.1391732    0.1193424  16.77 -0.0001356182    1.045    0.043
        89  -9.7240    126.5254    196.7729   5.8024699641e+01   1.6377041175e+01     0.354463     0.245958   7.66  0.001338273    1.735    0.424
        90  -9.5504    124.8557    193.1584   5.7862529209e+01   1.7364971252e+01    0.2837227    0.2097278 -34.90 0.0009135162    1.536    0.349
        91  -9.0638     51.1199    197.8756   7.7062620028e+01   2.6931149740e+01    0.3659183   0.09873838  36.18  0.001390009    2.779    0.640
        92  -8.5351      1.0000    197.0327   8.9232147959e+01   3.2037477715e+01    0.1873479   0.05962449 -82.55 0.0008033966    2.949    0.661
        93  -9.3706    248.5686    195.1017   3.3327682341e+01  -1.6262364938e+00     0.332951     0.149951 -15.04  0.001503318    2.998    0.666
        94  -8.8125     40.0273    193.9736   7.9528841781e+01   2.9066812982e+01    0.4033135    0.1213548 -55.70  0.001509877    3.670    0.728
        95  -8.2179    131.7819    194.9600   5.6480991101e+01   1.5884620052e+01    0.2076086    0.1609058  80.96   0.00106146    1.912    0.477
        96  -8.5217     66.4784    194.9820   7.2863291653e+01   2.5662430973e+01    0.1927131    0.1041202  75.44 0.0008102168    2.574    0.612
        97  -8.8329    249.9908    200.7126   3.4073859839e+01  -2.5145967819e+00    0.1583335    0.1177859  -3.15 0.0004085048    1.043    0.041
        98 -11.7762     97.8290    188.4441   6.3933192163e+01   2.2637678076e+01    0.6264899    0.4272882  69.95  0.001475218    1.892    0.471
        99  -9.8590    104.0387    189.4408   6.2484386128e+01   2.1460061083e+01    0.3339029    0.2172241  31.59  0.000899377    1.397    0.284
       100 -10.7549     93.8178    181.8229   6.4021078121e+01   2.4714779413e+01    0.5124135    0.3101106 -40.79  0.001928693    2.005    0.501
       101  -9.0105    185.5347    190.0456   4.3710123561e+01   8.0320099860e+00    0.2572018    0.1672339  17.58 0.0007925007    1.535    0.348
       102  -8.2992    117.1144    190.8731   5.9407667468e+01   1.9081114679e+01    0.1896318    0.1577841   2.79 0.0004116578    1.317    0.241
       103  -9.4776    203.8808    187.6726   3.9686043750e+01   5.5691039948e+00    0.2933143    0.2620654  67.04  0.001817091    1.794    0.443
       104  -8.3087    198.9384    185.4886   4.0226011777e+01   6.6699855280e+00    0.2533546    0.1162354  31.92  0.000777898    2.138    0.532
       105  -8.2639    138.4521    189.2192   5.3950042432e+01   1.5909368969e+01      0.18128     0.140508 -66.32 0.0009470616    1.695    0.410
       106  -9.4232    112.7004    195.6580   6.1226019075e+01   1.8798481656e+01    0.4585215      0.29656 -50.97   0.00154038    1.733    0.423
       107  -8.2385    155.1891    187.5790   4.9783073976e+01   1.3423567865e+01    0.2011531     0.121432  24.03 0.0009414475    1.664    0.399
       108  -9.6608    250.1468    185.0537   3.1312073612e+01  -5.1302280775e-01     0.325393    0.1395058 -23.82  0.001587125    2.344    0.573
       109  -9.4435    228.3028    184.1259   3.4665948845e+01   2.5314887362e+00    0.2418425    0.1639103  18.81  0.001467464    1.412    0.292
       110  -9.6021    183.1753    185.6294   4.3385873703e+01   9.1466327113e+00    0.2170589    0.1810579 -40.74 0.0007384521    1.377    0.274
       111  -9.8082    108.5338    185.5028   6.0739971552e+01   2.1591529300e+01    0.3661584     0.274862  83.10  0.001466072    1.784    0.439
       112  -8.6262    111.5026    184.4554   5.9816445578e+01   2.1336702622e+01    0.2698494    0.2340079 -18.97 0.0009131625    1.300    0.231
       113  -9.7450    209.4980    184.5285   3.8060747283e+01   5.2060732994e+00    0.2322369    0.1558903  29.03  0.001331275    1.425    0.298
       114  -9.0056    212.5089    182.4711   3.7128989049e+01   5.0681933905e+00    0.1933745    0.1098621  23.40 0.0009855558    1.821    0.451
       115  -8.6161    217.7141    182.9771   3.6289245556e+01   4.2192363042e+00    0.1801925    0.1462828  -7.17 0.0008470195    1.023    0.022
       116  -9.4971     46.0703    182.3693   7.6916196418e+01   3.1052802121e+01    0.2838256    0.2412561  88.65 0.0009306719    1.153    0.133
       117  -9.2034     47.0000    177.4514   7.6173907472e+01   3.2103230163e+01    0.3741408    0.1756437 -72.76  0.001609159    2.186    0.543
       118  -9.4528    181.7065    180.0241   4.2644250926e+01   1.0343283424e+01    0.1961955    0.1668435 -15.73  0.001161713    1.119    0.106
       119  -9.8011    171.8560    201.4401   4.8540630772e+01   8.2841865273e+00    0.3784516     0.315583  63.82  0.001048517    1.801    0.445
       120  -9.1604    138.6338    180.0559   5.2316979315e+01   1.7692370736e+01    0.3002186    0.1855484  50.39  0.001368933    1.821    0.451
       121  -9.8262    105.3606    175.0861   5.9908644730e+01   2.4383910078e+01    0.3743024     0.227448  78.48   0.00140346    3.120    0.680
       122  -8.9281    103.9716    180.0398   6.1070567874e+01   2.3512144392e+01    0.2795711    0.2090008 -43.70  0.001441936    1.489    0.328
       123  -8.6969    101.4186    177.7876   6.1389609297e+01   2.4421368425e+01    0.3903455    0.1460698  24.86  0.001187808    3.795    0.736
       124  -9.0963    112.3564    179.4364   5.8788693674e+01   2.2276288559e+01    0.2783985    0.1346692  29.68  0.001117767    2.048    0.512
       125  -8.5629    240.6900    177.9691   3.1504547780e+01   1.6879589257e+00    0.1735638     0.127578 -19.43 0.0005867819    1.119    0.106
       126  -8.4047    219.1772    178.1828   3.5137030126e+01   4.7208190514e+00    0.1556297     0.145671 -21.40  0.000429604    1.341    0.254
       127  -9.2700    158.2264    176.9751   4.7160862552e+01   1.4894412941e+01    0.3574099    0.2112365 -28.63  0.001615544    1.979    0.495
       128  -9.0010     89.1967    177.2603   6.4586534743e+01   2.6454718181e+01    0.2980121    0.1865612  65.62  0.001204346    2.050    0.512
       129  -9.6679     90.6445    172.3596   6.3450780575e+01   2.7357695404e+01    0.5776628    0.2780678  26.81  0.001836838    2.207    0.547
       130 -10.6785    207.0201    168.0193   3.5372250244e+01   8.1874762021e+00     0.497992    0.2899882 -22.83  0.002475027    1.790    0.441
       131 -10.7401    150.5518    174.4334   4.8451647920e+01   1.6728128260e+01    0.5852699    0.3709581  36.20    0.0020349    1.462    0.316
       132  -9.0865    179.3084    176.3132   4.2437982808e+01   1.1390405183e+01    0.1419934   0.09918997  -0.54 0.0004180536    1.626    0.385
       133  -8.6827     77.3443    175.8103   6.7616440428e+01   2.8547119896e+01    0.2824577    0.1530968  51.99 0.0008412215    1.922    0.480
       134  -8.9719     31.3507    166.3211   7.9448195334e+01   3.6464670949e+01    0.2710022    0.1526706 -46.06 0.0009032752    2.133    0.531
       135 -10.0400     29.1508    174.7264   8.0793296778e+01   3.4659402353e+01    0.3529271    0.2308409 -77.69  0.001673855    1.479    0.324
       136  -9.9466     28.5371    170.0055   8.0564239965e+01   3.5848921222e+01    0.4055827    0.2750809  27.89  0.002244947    1.497    0.332
       137  -8.7880    182.6265    175.2524   4.1545416773e+01   1.1015224353e+01     0.186947    0.1211199 -29.09 0.0008155881    1.558    0.358
       138  -9.7652     24.2231    174.5743   8.2115340590e+01   3.5166974657e+01    0.2557229    0.1619579  61.44 0.0008152734    1.463    0.317
       139  -8.5628    223.9732    172.2728   3.3189172134e+01   4.8921170802e+00    0.1743353    0.1465023   9.18 0.0004968048    1.125    0.111
       140  -8.2461    193.4934    172.5045   3.8824574521e+01   9.6664989553e+00    0.1382813    0.1157752  -0.25  0.000230887    1.070    0.065
       141  -7.9982    179.6836    169.7045   4.1076217507e+01   1.2494167259e+01      0.14156    0.1315081   8.54 0.0003410828    1.104    0.094
       142  -9.3679    176.8656    167.8181   4.1295764031e+01   1.3324103387e+01    0.3242835    0.2006243 -34.96 0.0009303006    1.625    0.385
       143  -8.3502    135.2459    171.4076   5.1571030131e+01   2.0048248920e+01    0.2081216    0.1281855  44.32 0.0009415405    1.593    0.372
       144  -9.1753    121.5187    169.7241   5.4739766987e+01   2.2823817280e+01    0.3415117    0.2354685  62.97  0.001154397    1.903    0.474
       145  -9.6884     20.6425    170.1924   8.2754664965e+01   3.6537299004e+01     0.240307    0.1741187 -77.54  0.001404059    1.315    0.239
       146  -8.5643     54.8461    169.0258   7.3048423424e+01   3.3183126647e+01    0.2459884    0.1394558  68.54  0.001074507    2.119    0.528
       147  -9.5662    159.2794    164.2608   4.4453922170e+01   1.7144499127e+01     0.445782    0.1496026 -47.69  0.001504647    3.299    0.697
       148 -10.3152    150.0307    164.0552   4.6566344783e+01   1.8878016906e+01    0.5120668     0.337061 -32.30  0.002129535    1.656    0.396
       149 -10.8541    204.0438    175.4700   3.7369829904e+01   7.4683638102e+00    0.6566792    0.3438661  22.11  0.002983295    2.289    0.563
       150 -11.0708    217.6665    165.2435   3.2919700918e+01   6.9290881600e+00    0.5555589    0.3676348  30.04  0.002754788    1.530    0.347
       151  -9.7292    219.4241    159.1296   3.1409441350e+01   7.6018949864e+00    0.3051794    0.1898278  52.77  0.001559471    2.222    0.550
       152  -9.3443    200.0698    166.9095   3.6454547713e+01   9.5075300792e+00    0.2013151    0.1701937  -1.39 0.0003812878    1.052    0.050
       153  -8.8888    139.0190    164.9566   4.9410287674e+01   2.0708448354e+01    0.3222336    0.2264531  84.79  0.001332491    2.631    0.620
       154  -9.1853     97.9726    165.1105   6.0250377390e+01   2.7864417413e+01    0.4250448    0.2513238  67.75  0.001570988    2.664    0.625
       155 -11.2599    248.8488    158.9025   2.6689163838e+01   3.2207963095e+00     1.041814    0.3156634 -29.79  0.003987403    3.457    0.711
       156  -8.4227     80.6958    164.9006   6.5086911668e+01   3.0632441306e+01    0.3011071    0.1722897  81.11  0.001123433    2.936    0.659
       157  -9.6912     99.8668    159.3125   5.8710707581e+01   2.8898425759e+01    0.3513752    0.3060737 -46.22 0.0009932981    1.223    0.182
       158 -10.2272     22.9712    160.3813   8.1313369692e+01   3.8706676470e+01    0.5167098    0.2671382   9.42  0.002317558    2.593    0.614
       159  -8.8334     92.8090    160.1151   6.0849404199e+01   2.9877309027e+01    0.2378701     0.188695  64.31 0.0008997498    1.377    0.274
       160 -10.2985    143.0155    158.4512   4.7132495889e+01   2.1320186045e+01    0.7229351    0.2430826  42.54  0.002415237    2.872    0.652
       161  -8.9192    167.2194    157.6121   4.1311498949e+01   1.6960485518e+01    0.3291777    0.2572878  79.18  0.001583247    2.045    0.511
       162  -9.2619    105.1782    157.6040   5.6911954981e+01   2.8389059891e+01     0.298139    0.2256885  79.16 0.0009939821    1.721    0.419
       163  -8.7242     37.3057    164.1965   7.7540725516e+01   3.6374042579e+01    0.2858662    0.1335888  51.02  0.001242072    2.111    0.526
       164  -9.9292    208.3545    156.7080   3.2870537928e+01   9.8004429926e+00    0.3822166    0.2502901  18.31  0.001974935    1.727    0.421
       165 -11.8369    206.1207    150.0607   3.1908729286e+01   1.1274606054e+01    0.8293381    0.6604181 -71.94    0.0044586    1.988    0.497
       166  -9.7615    206.6897    142.0262   3.0117015788e+01   1.2509524894e+01    0.2622672    0.1969338 -33.05 0.0007392888    1.229    0.187
       167  -8.3200    127.5343    156.9299   5.0743012379e+01   2.4527321952e+01    0.2184343    0.1497941 -49.06 0.0007325923    1.546    0.353
       168  -9.6854    157.6966    155.5580   4.3037053825e+01   1.9142909319e+01     0.240514    0.1873091 -68.43  0.000801992    1.762    0.432
       169  -9.3549    234.0533    153.9680   2.7984433735e+01   6.1009563501e+00    0.2938623    0.1932694 -48.04  0.001635214    1.815    0.449
       170  -9.9949    134.5222    153.7973   4.8305603214e+01   2.3898830197e+01    0.5448007    0.3541118  61.60  0.001675544    2.140    0.533
       171  -8.8944    133.5896    147.2210   4.7165678452e+01   2.5494057023e+01    0.2755277    0.1892355 -27.50  0.001227124    1.730    0.422
       172  -8.7253    119.5968    154.8229   5.2425688769e+01   2.6453332902e+01    0.2938876     0.189566 -83.18  0.001061125    2.814    0.645
       173  -9.3579     81.9290    154.2951   6.3019354377e+01   3.3002267411e+01    0.2702582    0.1973225  74.19 0.0008698431    1.643    0.391
       174  -9.9183     68.4562    153.7210   6.6959840536e+01   3.5137921978e+01    0.5229462    0.3025813 -78.03  0.002243315    2.062    0.515
       175  -8.7814     49.3330    154.6278   7.2884907005e+01   3.7397648772e+01    0.3449885    0.1636052  66.59  0.001159615    3.079    0.675
       176  -9.0813     99.6441    153.0536   5.7629642263e+01   3.0405372700e+01    0.4449996    0.2703516 -85.00  0.001657755    2.857    0.650
       177  -9.4213      4.7664    152.7457   8.5984790622e+01   4.2009866962e+01    0.4155913    0.1387892  64.52  0.001507513    3.567    0.720
       178 -10.6235    223.5035    148.3703   2.8559935706e+01   8.6192171739e+00    0.4227882    0.3518034  10.58  0.001856018    1.190    0.159
       179  -8.9565    189.7540    150.7735   3.5155209901e+01   1.4062526898e+01    0.2929561    0.1785288  41.65   0.00103545    1.677    0.404
       180  -8.6811     89.0974    150.8798   6.0300397806e+01   3.2690168872e+01    0.2942176    0.2015689  29.49  0.001371398    1.455    0.313
       181  -9.0261    121.7845    149.1667   5.0692224166e+01   2.7315072355e+01     0.377872    0.2458936  11.34  0.001529357    2.196    0.545
       182  -9.5598    125.0225    144.2025   4.8775510690e+01   2.7809150897e+01    0.5991431    0.4092373 -48.97  0.002458646    1.531    0.347
       183  -9.2254    118.0101    144.9926   5.0851338365e+01   2.8966389873e+01    0.4970298    0.2147978  52.94  0.001567403    3.289    0.696
       184  -9.4268    108.8890    139.7976   5.2321971392e+01   3.1870898872e+01    0.9569609    0.4620579  61.98  0.002476307    5.391    0.815
       185  -9.1197     27.9677    148.8608   7.8744345478e+01   4.1112690961e+01    0.4398174    0.1835079  75.03  0.001527412    3.571    0.720
       186  -8.3645     82.6703    149.6774   6.2002598292e+01   3.4013113175e+01    0.1524957    0.1156163 -19.45 0.0007049433    1.696    0.410
       187  -9.5462     39.2364    146.6632   7.4997921580e+01   4.0542656695e+01    0.5270252    0.2569036  74.86  0.002001047    2.894    0.654
       188 -10.4189    245.1376    142.5577   2.4063349316e+01   6.0882827485e+00    0.2807953    0.2192885  -3.89  0.001819403    1.258    0.205
       189  -8.6793    142.9750    146.9435   4.4730123043e+01   2.3729757291e+01    0.2519598    0.1836076  -2.95  0.001131146    1.796    0.443
       190  -8.4170     77.7984    147.1793   6.3043204442e+01   3.5383968272e+01     0.208029     0.178117 -17.58  0.001076865    1.365    0.267
       191  -9.9574     56.8243    145.4149   6.9286343581e+01   3.8788425855e+01    0.7017117    0.2686677  39.90   0.00233755    2.428    0.588
       192  -8.9520    195.2528    145.4674   3.2959453739e+01   1.3988135434e+01    0.3142315    0.1486071 -44.12 0.0009753599    2.159    0.537
       193  -9.3324    158.7819    145.5146   4.0636648193e+01   2.0926222297e+01    0.4479157    0.2501404  -6.90   0.00119713    5.680    0.824
       194  -9.8348    148.7069    144.6928   4.2835283689e+01   2.3073581526e+01    0.5054827    0.3530846 -87.59  0.002004832    2.746    0.636
       195  -8.1222     13.4545    146.4523   8.2953347100e+01   4.2938999794e+01    0.1321183    0.1121359  74.13 7.872375e-05    1.066    0.062
       196  -8.5774    190.8062    145.4354   3.3810594947e+01   1.4810977283e+01     0.193874    0.1264533  27.76 0.0007485535    1.662    0.398
       197  -8.0779    165.4675    143.9825   3.8784817970e+01   1.9917820047e+01    0.1928296    0.1304296 -67.05 0.0006517859    2.335    0.572
       198  -8.7105     87.9128    143.7303   5.9330954734e+01   3.4621013360e+01    0.2888322    0.1945404  80.50  0.001017358    2.127    0.530
       199 -10.3540     70.1404    141.9138   6.4510866631e+01   3.7841485812e+01    0.5426368    0.3665826  80.88  0.002426194    1.898    0.473
       200  -9.1355      2.3341    142.3718   8.6013750455e+01   4.4715457691e+01    0.2228394    0.1481661  41.64  0.001274475    1.486    0.327
       201  -9.8629     41.0695    135.5063   7.2944297191e+01   4.3190578295e+01    0.3811978    0.3220293  -7.02   0.00154714    1.389    0.280
       202 -10.8421     43.6365    130.8195   7.1402286159e+01   4.4110503221e+01    0.7787059    0.4294233  75.70    0.0031362    2.507    0.601
       203  -9.8397    192.5911    133.8176   3.0922479868e+01   1.6522086102e+01    0.3257454    0.2193829  60.92  0.001552175    1.979    0.495
       204 -10.6395    197.1978    136.5676   3.0664863042e+01   1.5169618103e+01    0.5200147    0.3653084  -3.14  0.002003671    1.768    0.434
       205 -10.0410    202.9841    136.2176   2.9530699909e+01   1.4155009476e+01    0.3688318    0.2456463  58.72  0.001823236    1.980    0.495
       206  -9.3483     23.4948    138.3386   7.9047080534e+01   4.4173834500e+01    0.5423028    0.2260254  68.55  0.001930212    3.428    0.708
       207  -9.3265     22.6207    131.0902   7.8536730550e+01   4.6096151651e+01      0.48182    0.2080199 -35.15  0.001773317    3.449    0.710
       208  -9.6081    234.2657    136.5007   2.4444150284e+01   8.6857563695e+00     0.294776    0.2165549  -3.94  0.001129178    1.472    0.321
       209  -8.9369     81.5693    136.9306   5.9986679887e+01   3.7329182452e+01    0.3213768    0.1760275 -42.32  0.001290564    2.075    0.518
       210  -8.8040    161.5106    136.4957   3.7994817562e+01   2.2170637963e+01    0.2873065    0.2199134  28.07  0.001423104    1.342    0.255
       211  -9.4782    106.8867    144.7744   5.3933777850e+01   3.1074866288e+01    0.5199958    0.3241785  76.28  0.001862368    3.027    0.670
       212  -9.5803    244.5790    134.8275   2.2605000550e+01   7.2950833570e+00    0.1768709   0.09831409 -42.07 0.0004390482    1.676    0.403
       213 -10.4115    107.0702    122.5107   4.8962554728e+01   3.6258923328e+01    0.8923813    0.4500656  25.64  0.003062329    2.727    0.633
       214  -9.9708    118.1640    118.3489   4.4695902210e+01   3.4986492113e+01    0.5841044    0.2578025 -48.21  0.002093585    2.335    0.572
       215 -10.0860    109.3337    131.0396   5.0272704913e+01   3.3831738579e+01    0.8098059    0.4378749  21.10  0.002819438    2.772    0.639
       216  -9.1521    110.2365    125.4444   4.8717213288e+01   3.4958341518e+01    0.3284149    0.2777576  14.00  0.001122098    1.295    0.228
       217 -10.4317    116.3146    125.3967   4.6941924153e+01   3.3766353791e+01    0.8111516    0.6529497 -18.36  0.003825257    1.459    0.315
       218  -8.4621      4.0110    134.4828   8.4926373581e+01   4.6573623975e+01    0.1791808   0.09418273 -26.93 0.0008104129    2.625    0.619
       219  -9.7918     83.7972    131.9208   5.8282775100e+01   3.8204356280e+01    0.4715729    0.3030786  66.10  0.001407267    2.119    0.528
       220  -8.5879    208.4751    131.8741   2.7618488633e+01   1.3873889827e+01    0.2856523     0.159289  61.10  0.001220014    2.767    0.639
       221  -9.9240    132.1633    131.0975   4.3931853227e+01   2.9285714489e+01    0.4079521    0.2706127 -64.69  0.001224644    1.995    0.499
       222 -10.8162    107.0157    114.0899   4.6911330458e+01   3.8222256983e+01     1.152798    0.8578974 -14.31  0.005092126    1.773    0.436
       223  -9.3413     12.9203    129.3610   8.1590504757e+01   4.7281501247e+01    0.4256876    0.1899538  65.97  0.001732489    2.704    0.630
       224 -10.6088    246.7686    128.9317   2.1117575010e+01   7.8083754960e+00    0.3381137    0.1921463 -50.82  0.001560589    2.114    0.527
       225  -8.9858    152.9439    128.6962   3.8163981865e+01   2.5491058340e+01    0.4044045    0.2096623 -57.84  0.001379172    2.804    0.643
       226  -9.9367     99.4107    128.1700   5.2594757198e+01   3.6376409509e+01     0.540308     0.360939  83.66  0.002093543    2.496    0.599
       227  -8.9795     73.3410    129.3446   6.1154674766e+01   4.0520624902e+01    0.3063825     0.201205  68.55 0.0009762861    2.020    0.505
       228  -9.8247     59.8556    124.3228   6.4739192186e+01   4.3757163405e+01    0.6262639    0.3271611  69.27  0.002075139    3.576    0.720
       229  -9.5222    227.2556    125.5147   2.3213792407e+01   1.1540937121e+01    0.2630752    0.1649958 -42.55 0.0009001602    1.497    0.332
       230  -9.0745    135.8891    124.1549   4.1299046170e+01   3.0015191604e+01    0.2834942    0.2206861  34.45 0.0009434348    1.279    0.218
       231 -10.1162     44.0835    122.7154   6.9970378963e+01   4.6146976803e+01    0.6941983    0.3558749  71.63  0.002493493    3.179    0.685
       232 -10.2371     28.6683    122.5623   7.5397164321e+01   4.7760691744e+01    0.5762266    0.3307707  69.45   0.00258513    2.096    0.523
       233  -9.7997    180.8512    120.8166   3.0217254040e+01   2.1189718444e+01    0.6555274    0.3332164 -21.22  0.002264369    3.268    0.694
       234  -8.6262     84.1974    121.9906   5.6034571477e+01   4.0585730412e+01    0.2565807    0.1691042 -29.18  0.000858344    1.948    0.487
       235  -8.1549    188.8142    121.3921   2.8808567025e+01   1.9460335065e+01    0.2025229     0.129117  34.56 0.0009408974    1.740    0.425
       236  -9.2101    172.4479    118.8793   3.1463519327e+01   2.3302701402e+01    0.4537932    0.2212468 -33.44  0.001774638    2.194    0.544
       237  -8.2947    158.9488    121.4898   3.5037016073e+01   2.5667234706e+01    0.2083065    0.1347468  70.59 0.0008081982    2.471    0.595
       238  -9.6583    142.0627    119.4014   3.8552898855e+01   2.9708902793e+01    0.4317247    0.2950814 -75.74  0.001715211    2.396    0.583
       239 -10.3345     22.3960     91.9131   7.3062767893e+01   5.6137569206e+01    0.5415595    0.2717033 -37.44  0.002382499    2.147    0.534
       240 -10.8911     15.5381    113.7703   7.8980290402e+01   5.1076392561e+01    0.8128346    0.3311566 -65.73  0.003499719    2.071    0.517
       241 -10.7609     23.4345    102.2554   7.4371123917e+01   5.3428422037e+01    0.8662113    0.3652336  61.89  0.002831219    4.251    0.765
       242 -10.1689     22.7406    110.1189   7.5822919507e+01   5.1470388777e+01    0.5660043    0.2208322 -71.49  0.002253305    2.367    0.577
       243 -11.1572     16.8978    105.0262   7.7337242761e+01   5.3216605861e+01    0.5755506    0.4146097 -40.46  0.003065474    1.411    0.291
       244  -8.8352     71.3856    120.1129   5.9927242188e+01   4.3141913038e+01    0.2138025    0.1437145 -75.47 0.0009358732    1.760    0.432
       245  -9.3697    131.0745    118.3800   4.1138050341e+01   3.2274675086e+01    0.4814115    0.2712065 -68.68  0.001534072    3.573    0.720
       246  -9.9481    248.3808    116.6571   1.8418464478e+01   9.3210208404e+00    0.3029776    0.1886751 -21.69  0.001697845    1.609    0.378
       247  -9.4466      2.4487    116.4471   8.3950731772e+01   5.1197680648e+01    0.4973558    0.2136386  76.60  0.002039277    2.730    0.634
       248  -9.6497     92.9703    112.6821   5.0976446709e+01   4.1272713464e+01    0.4388348    0.3143105  88.45  0.001267741    2.069    0.517
       249  -9.7174     79.2872    112.6607   5.5547948930e+01   4.3714142960e+01    0.4705426    0.3053154  87.62   0.00161209    2.564    0.610
       250 -10.0523    122.1316    110.8269   4.1649941585e+01   3.5823222097e+01    0.7257359    0.3472768 -44.83  0.002599618    2.140    0.533
       251  -8.6879    141.3376    112.3400   3.6944386711e+01   3.1331649050e+01    0.1626292    0.1228631   3.87 0.0007050659    1.761    0.432
       252  -8.2094    159.3129    111.6744   3.2516198623e+01   2.7508883589e+01     0.152258    0.1212452 -80.88 0.0003096594    1.663    0.399
       253  -9.8537     66.2126    109.0840   5.9335402008e+01   4.6697280153e+01    0.6294923    0.3180974 -68.99  0.002352145    2.483    0.597
       254  -8.9794     61.5130    105.9590   6.0351606960e+01   4.8174898672e+01    0.3372082    0.1927119  45.32 0.0008800895    1.870    0.465
       255  -9.7139    133.9521    108.2271   3.7760347150e+01   3.3812114521e+01    0.5757738    0.2271594 -44.32  0.001959637    2.585    0.613
       256  -8.4562     59.4676    109.5214   6.1897092873e+01   4.7571530332e+01    0.1455316    0.1423472 -52.99 0.0001148331    1.003    0.003
       257 -10.4493    184.6557    113.7069   2.7782121401e+01   2.1680078589e+01    0.5062923    0.3882867 -80.90  0.001907683    1.849    0.459
       258  -8.6878    196.7982    106.5781   2.3878349112e+01   2.0392989504e+01    0.1862059    0.1372622  67.75 0.0005741036    1.652    0.395
       259  -8.4839     77.4970    106.4732   5.4680343816e+01   4.5530501208e+01    0.1499529    0.1486539  10.68 0.0001278882    1.005    0.005
       260  -9.1027    150.3506    103.5807   3.2468011075e+01   3.1084654599e+01    0.4096331    0.2126097 -53.98  0.001369823    2.395    0.582
       261  -9.1960    140.0495    104.8266   3.5294170686e+01   3.3157267818e+01     0.392218    0.2540956 -69.58  0.001511442    2.428    0.588
       262 -10.1873     45.6620    101.9672   6.5537151085e+01   5.1277978852e+01    0.8046491    0.3785659  62.04  0.002461581    4.459    0.776
       263  -9.7418    250.0049    103.6952   1.5565415205e+01   1.0901909206e+01    0.3180135    0.1313565 -35.07  0.001512544    1.995    0.499
       264  -8.4855     93.0227    104.0072   4.8739603285e+01   4.3310544308e+01    0.2504766    0.1916168  -9.61 0.0007713349    1.681    0.405
       265 -10.6498     30.8360    101.6975   7.1342971075e+01   5.2924550298e+01    0.8141657    0.2176742  40.82  0.002590419    4.051    0.753
       266 -10.8267    130.6739    101.2302   3.6738739725e+01   3.5999311114e+01    0.6925987    0.4274096  25.91  0.002276442    2.179    0.541
       267 -10.1871    108.6074     98.6324   4.2307804973e+01   4.1381780971e+01    0.6008869    0.4542696  71.22  0.001902268    1.704    0.413
       268  -8.7686     82.2856     99.8888   5.1309431051e+01   4.6277069512e+01    0.3329664    0.2187405  79.67  0.001242497    2.736    0.635
       269  -9.9787     63.8819     95.7286   5.6995818080e+01   5.0350315557e+01    0.5371215    0.3386936  77.55  0.002030136    2.862    0.651
       270  -9.2886     44.2878     91.8991   6.3887229277e+01   5.3969460960e+01    0.3742332    0.2333165   3.36  0.001664511    2.051    0.512
       271  -8.6664    139.0828     92.3728   3.2109601323e+01   3.5862886028e+01    0.3039375    0.1980877  65.25  0.001069864    1.868    0.465
       272  -9.3792    124.8071     90.9479   3.5414471011e+01   3.9437831685e+01    0.4219157    0.2885603 -85.31  0.001430194    2.529    0.605
       273  -8.8289    108.2271     91.8428   4.0480037929e+01   4.2938757617e+01     0.317662    0.2052955  19.54  0.001240579    2.193    0.544
       274  -8.7467     95.0556     97.0208   4.6165821793e+01   4.4525018568e+01    0.2410479    0.1931325  81.97 0.0007553106    1.627    0.385
       275 -10.4508      4.4781     90.8753   8.0418436796e+01   5.7540365576e+01    0.5177552    0.2403946  88.40  0.002220942    2.473    0.596
       276  -8.9426     12.0345     83.0186   7.6012106570e+01   5.9089629878e+01      0.25459    0.1866747 -26.70  0.001409514    1.411    0.291
       277  -9.7949      7.7873     84.2085   7.8074563274e+01   5.9035632967e+01    0.3664728    0.2184538 -43.83  0.001537539    1.558    0.358
       278  -9.6008      8.3276     80.6810   7.7284643642e+01   5.9881291796e+01    0.2722478    0.1600517  45.45 0.0009257492    1.986    0.496
       279  -7.9001    159.6848    101.3135   2.9761026409e+01   2.9407894593e+01    0.1524574    0.1199899 -79.36 0.0003710898    1.641    0.391
       280  -9.7355     34.6757     88.9177   6.7259175499e+01   5.5777245703e+01    0.5094107    0.2853041 -86.80  0.002062972    2.575    0.612
       281  -9.4053     36.7466     81.2120   6.4594182475e+01   5.7459963715e+01     0.502267    0.2474491 -19.20  0.001755834    3.519    0.716
       282  -8.4731    138.8266     87.7876   3.0863960013e+01   3.6809493893e+01    0.2597286    0.1678646  12.29 0.0008253017    2.794    0.642
       283  -9.4302     86.6796     86.5302   4.5992107793e+01   4.8535085353e+01    0.4410367    0.2873417  80.29  0.001542631    3.155    0.683
       284  -9.0888     65.5958     86.6066   5.3890298763e+01   5.2268888105e+01    0.3666332    0.1902202  16.13  0.001284752    2.972    0.663
       285  -8.8592    126.4821     83.8191   3.2855420472e+01   4.0471092922e+01    0.4902556    0.2720971  16.66  0.001216192    6.008    0.834
       286  -9.2398    104.4890     82.7747   3.8910387783e+01   4.5665578497e+01    0.3649983    0.2670472 -83.23   0.00147721    2.088    0.521
       287  -8.8002    116.9489     83.0495   3.5258429327e+01   4.2825582685e+01     0.234544     0.186625   8.47 0.0003497908    1.562    0.360
       288 -10.3410    186.2605     79.9877   1.9084432943e+01   2.7074645782e+01    0.4672129    0.3651845 -65.28  0.002463909    1.384    0.278
       289  -9.6977     24.7284     80.6712   6.9866241825e+01   5.8751117396e+01     0.407585    0.2357857  70.33  0.001329751    2.664    0.625
       290  -9.3106     87.6464     80.0653   4.3669208081e+01   4.9763679435e+01    0.5398842    0.2079819  29.18  0.001410912    4.791    0.791
       291  -8.5033     74.4550     80.2123   4.8565361074e+01   5.2233951989e+01    0.2112142    0.1465983 -64.18 0.0009425515    1.751    0.429
       292  -9.2030     49.4510     76.9242   5.7854358332e+01   5.6941332160e+01    0.3217698    0.2164977 -21.41  0.001023337    1.763    0.433
       293  -9.4732    192.1718     76.6999   1.7296921517e+01   2.6263094906e+01    0.2623006    0.1871885   1.93  0.001180694    2.102    0.524
       294  -8.8590    104.5093     77.0063   3.7086755475e+01   4.6840875444e+01    0.2167304    0.1367702 -16.29  0.000809683    2.486    0.598
       295  -8.9095    128.0115     75.3775   2.9876547907e+01   4.1715575682e+01    0.2801845    0.2168159 -70.56 0.0009562526    1.603    0.376
       296  -9.9882     10.7730     74.1953   7.5039618317e+01   6.1337737126e+01    0.3728528    0.1977436  12.81  0.001193199    2.073    0.518
       297  -9.4431     48.5419     84.0048   6.0170700243e+01   5.5374620671e+01    0.3957382    0.2648058  78.24  0.001370781    2.351    0.575
       298  -9.2381     82.3279     72.4541   4.3126033634e+01   5.2437208032e+01     0.307397     0.256837 -86.46  0.000820309    1.579    0.367
       299  -9.8922     27.8393     70.9985   6.6187560372e+01   6.0822112895e+01    0.6198002    0.2639464 -21.42  0.001939878    4.587    0.782
       300 -10.9064      5.5671     70.0612   7.6782516888e+01   6.2620473216e+01    0.4921499    0.1704713 -57.33   0.00211408    2.194    0.544
       301  -8.8915     94.9901     70.6780   3.8086239169e+01   5.0188158914e+01    0.3069496    0.2026657 -61.01  0.001298636    2.000    0.500
       302  -9.3583     51.4662     69.4045   5.4723683577e+01   5.8393858749e+01    0.4733776    0.2618204 -73.52  0.001719388    3.296    0.697
       303  -8.7528    129.2903     69.4167   2.7682595672e+01   4.2488053835e+01    0.3389933    0.2031533  25.02  0.001252558    2.631    0.620
       304  -9.0818      1.4666     69.0010   7.8589936858e+01   6.3059817781e+01    0.1981527    0.1099693 -69.26 0.0006901329    1.565    0.361
       305  -8.1238    146.7097     68.3164   2.3293150232e+01   3.8412418153e+01     0.152421    0.1153308 -72.91 0.0003384844    1.595    0.373
       306  -8.6116    106.4931     67.0096   3.3183353187e+01   4.8334042395e+01    0.2097912    0.1365068 -10.32 0.0008090271    2.424    0.587
       307  -9.3256     16.3791     69.1103   7.1312398285e+01   6.2210239967e+01    0.4115313    0.1815523 -80.02  0.001581208    3.080    0.675
       308  -8.4080    121.5171     66.0041   2.8587746750e+01   4.4973720926e+01    0.2156602    0.1268857 -60.45 0.0007671424    2.455    0.593
       309  -9.0612     83.8561     64.4026   3.9811105571e+01   5.3771670908e+01    0.4361256    0.2559256   8.95  0.001406423    3.779    0.735
       310  -8.6102     95.4951     63.9824   3.5621419944e+01   5.1379234286e+01    0.2114043    0.1336775 -13.20  0.000600882    2.480    0.597
       311  -8.7228     37.4744     63.9788   5.9581452341e+01   6.1449338194e+01     0.239098    0.1841207  67.17  0.001147462    1.797    0.444
       312  -8.5099    110.0302     63.5097   3.0944292743e+01   4.8154503819e+01    0.2088871    0.1353042  76.25 0.0008076814    2.378    0.579
       313  -9.6564     18.2434     61.5298   6.8590242284e+01   6.3871568809e+01    0.3441981     0.166785 -45.09  0.001029425    1.811    0.448
       314 -10.3777      2.2233     56.1495   7.5847087396e+01   6.6079850111e+01    0.3703291    0.2383706 -75.36  0.001764187    1.541    0.351
       315 -10.7593      7.2047     56.9509   7.3332868867e+01   6.5653664165e+01    0.5018137    0.2212873 -77.72  0.002128952    2.681    0.627
       316  -8.6735    170.4271     60.5258   1.6503109678e+01   3.3833934678e+01    0.1406243    0.1357631 -81.04 5.589655e-05    1.037    0.035
       317  -9.3266     73.2878     59.4291   4.2039207533e+01   5.6847452713e+01    0.3536798    0.2564356 -67.03  0.001062736    1.952    0.488
       318  -8.4423    164.7970     59.4196   1.7155184828e+01   3.5374585204e+01    0.2059394    0.1283205  50.40 0.0009427413    1.626    0.385
       319  -8.5832    110.9216     58.6266   2.9004422045e+01   4.8803941645e+01    0.2485675    0.1774273  34.46 0.0006524566    1.483    0.326
       320  -9.4334     39.4334     57.8436   5.6670837487e+01   6.2584070554e+01     0.277323    0.1765697   2.48   0.00125938    1.880    0.468
       321  -8.6577     51.8327     61.1465   5.1854455992e+01   6.0162795407e+01    0.2048377    0.1604518 -10.90  0.000754723    1.352    0.260
       322  -8.6660    100.2416     54.8880   3.0844328536e+01   5.1955106491e+01    0.2469726    0.1745438   0.74  0.001079691    1.984    0.496
       323  -9.0218     62.8753     54.5292   4.4525098343e+01   5.9730662133e+01    0.2701976    0.1920845 -63.43 0.0007630707    1.915    0.478
       324 -11.3140     45.4277     49.2062   5.0598118072e+01   6.3602492961e+01    0.4507205    0.2529718 -38.65  0.002113996    1.751    0.429
       325  -8.2088    119.4797     55.9584   2.5756169529e+01   4.7183932734e+01    0.2132512    0.1222822 -58.38 0.0008090049    2.468    0.595
       326  -8.3392     54.3755     54.1841   4.8191924281e+01   6.1228741516e+01    0.1973777    0.1338617 -57.23 0.0007871962    1.744    0.426
       327  -8.7217     75.6242     50.1928   3.7613562061e+01   5.8137044205e+01    0.4318942    0.2003039  24.26  0.001229988    4.700    0.787
       328  -9.0011     92.4106     50.3855   3.1672494099e+01   5.4511447838e+01    0.3580227    0.1336125 -43.26  0.001240139    2.941    0.660
       329  -8.9014     31.0260     51.0930   5.8739497879e+01   6.5043540389e+01    0.1993152    0.1640464  70.21 0.0007911962    1.709    0.415
       330  -8.8283     82.1150     46.6662   3.3781838300e+01   5.7405515726e+01    0.2398984    0.1974328 -46.06 0.0005699854    1.355    0.262
       331  -8.8542     64.2359     46.7393   4.0879964640e+01   6.0970526691e+01    0.3018849     0.164235  21.01  0.001171463    2.596    0.615
       332  -8.7685      1.6065     45.9785   7.3941319335e+01   6.8440706851e+01    0.1773661    0.1330464 -53.42  0.000407673    1.135    0.119
       333  -8.9293    149.8854     44.1796   1.5255557721e+01   4.1308197690e+01    0.2715081     0.155186 -39.60  0.001219014    1.775    0.437
       334  -8.4932    130.6873     45.6785   1.9566911325e+01   4.5973954701e+01    0.1518082     0.110377  28.74 0.0007038857    1.654    0.395
       335 -10.0467     16.0951     43.8534   6.4748890381e+01   6.8027356985e+01    0.3262781    0.2133124 -71.97  0.001732399    1.845    0.458
       336 -10.2497      4.8363     40.6869   7.0611050198e+01   6.9462786351e+01    0.4561625    0.2203029 -81.80  0.001935664    3.163    0.684
       337  -9.1998    113.9344     41.2909   2.1980318468e+01   5.0814414920e+01    0.2469518    0.2165716  -4.13 0.0002422651    1.281    0.219
       338  -8.3849     58.3248     42.6612   4.1802068680e+01   6.2784224132e+01    0.1342663     0.114704  82.55 0.0007051273    1.724    0.420
       339  -9.2046     22.4875     46.8585   6.2024826356e+01   6.6826929084e+01    0.2671941    0.1791019   0.37  0.001445957    1.557    0.358
       340  -9.1520    123.5764     40.0208   1.9205056091e+01   4.8575607452e+01    0.2663456     0.182127  45.84 0.0004232493    1.422    0.297
       341  -8.8886     84.1176     39.7971   3.0279597587e+01   5.8091454877e+01    0.2776565    0.1799175  31.20  0.001187121    1.632    0.387
       342  -8.7758    106.2161     36.8187   2.2315329054e+01   5.3352373317e+01    0.2055891    0.1609189  31.25  0.000562938    1.336    0.252
       343  -8.2461     37.8076     35.4072   4.8944935115e+01   6.7374922445e+01    0.1821915     0.117943  15.73 0.0005373319    1.596    0.373
       344 -10.0278    196.0746    248.5528   5.1029391252e+01  -1.9729640565e+00    0.2703009    0.1743005  26.56  0.001245309    1.278    0.217
       345 -10.0957      6.5600     33.6743   6.7366143784e+01   7.0874899209e+01    0.2414819    0.2010612 -29.63 0.0008016736    1.020    0.020
       346  -9.0800    222.2638     32.2301   2.9468975424e+00   2.5720189476e+01    0.1883039   0.09255514  88.88  0.000883926    2.397    0.583
       347  -8.1106     60.4781     32.5031   3.6356185778e+01   6.4125190546e+01    0.1375832    0.1252902  18.15 0.0003858094    1.059    0.055
       348  -8.2695     49.4299     32.2186   4.1404539296e+01   6.6153596410e+01    0.1842285    0.1281213 -49.79 0.0009508624    1.746    0.427
       349  -9.1658     12.6902     31.1511   6.2429289484e+01   7.0967764435e+01    0.2007354    0.1665241  22.72 0.0008888693    1.341    0.254
       350  -9.4024    148.2622     28.3873   1.0568314684e+01   4.3738451741e+01    0.2448215    0.1864951  -7.49  0.001276798    1.664    0.399
       351  -8.8202      1.7861     27.6641   6.8583466998e+01   7.2403743332e+01    0.2459764    0.1247655 -18.37 0.0003792149    1.985    0.496
       352  -9.0143     81.0597     27.0526   2.5851918288e+01   6.0626962918e+01    0.2189125    0.1746499 -77.83  0.001131603    1.777    0.437
       353  -8.3840     61.5347     26.9903   3.3304334139e+01   6.4771126932e+01    0.1928187    0.1142075  -5.85 0.0008087565    2.522    0.603
       354  -9.6657     44.4117     25.0940   4.0530532844e+01   6.8166537701e+01    0.2311749    0.1741018  28.72 0.0003551373    1.226    0.184
       355  -8.8407     26.1684     36.4448   5.6060287525e+01   6.8624991212e+01    0.2330415    0.1752737 -71.70  0.001004242    1.879    0.468
       356  -8.3841    110.5596     24.2694   1.6372780856e+01   5.3877649889e+01    0.1732315    0.1386164   0.96 0.0003112433    1.478    0.323
       357  -9.0938     67.0314     23.7073   2.9449682286e+01   6.4125717341e+01    0.1909713    0.1661932  30.86 0.0003631937    1.029    0.028
       358  -7.9318    137.6834     22.3489   1.0326355733e+01   4.7146656232e+01    0.1492242   0.09889671 -66.73 0.0007047763    1.729    0.422
       359  -8.2361     58.6287     22.1841   3.2212724004e+01   6.6034684357e+01     0.177065     0.121568 -14.66 0.0002910906    1.594    0.373
       360  -9.9950     13.0463     21.1550   5.8002665907e+01   7.2897510225e+01    0.2711365    0.1945114   9.30 0.0007432362    1.320    0.243
       361  -9.4203    188.9234     20.4920   3.1695581066e+00   3.4533067216e+01    0.1991729    0.1652389 -45.70 0.0008096584    1.195    0.163
       362  -8.4702     92.3324     21.3276   1.9836321489e+01   5.8714917464e+01    0.1510859   0.09631895  30.79 0.0007051571    1.715    0.417
       363  -8.7330     84.9820     21.3220   2.2012036405e+01   6.0455976161e+01    0.2006269    0.1599737  50.89 0.0004510632    1.129    0.114
       364  -8.0470     48.3111     21.6657   3.6788500185e+01   6.8032232326e+01    0.1207111    0.1090898 -89.89 0.0003665134    1.679    0.405
       365  -8.6979     41.0384     21.1562   4.0321971469e+01   6.9340491558e+01    0.2011769    0.1513382   7.14 0.0002948115    1.273    0.214
       366  -8.3507     63.3306     20.6657   2.9455106750e+01   6.5300808829e+01    0.1285153    0.1096042 -81.96 0.0007052143    1.728    0.421
       367  -8.9448     30.4500     18.8146   4.5229124145e+01   7.1309491213e+01    0.1759766     0.108113 -26.34 0.0004431882    1.614    0.380
       368  -8.7863      1.5086     19.4983   6.5770509881e+01   7.4071555393e+01    0.1221541    0.0974426 -28.06 0.0008106313    1.003    0.003
       369 -10.8128    169.8066    224.9554   5.2723130154e+01   4.8157946721e+00    0.5699056    0.3370925  25.89  0.003124584    1.428    0.300
       370  -8.8371    147.8662    249.1177   6.0556989562e+01   4.2188042804e+00    0.1877338    0.1411704  39.22  0.001231012    1.313    0.239
       371 -10.0004    107.3094    246.8945   6.8818285870e+01   1.0043215121e+01    0.3921998    0.2443174 -77.74  0.001838159    2.493    0.599
       372 -10.6437    107.7017    238.1399   6.7803027483e+01   1.1476266156e+01    0.3721315    0.3053032 -66.92  0.002455447    1.551    0.355
       373 -10.0037     36.3825    248.2742   8.3935404155e+01   1.8432016546e+01    0.2182144    0.1506668  52.33  0.000877386    1.118    0.105
       374  -8.8235     50.6801     15.1949   3.2202598056e+01   6.8513510396e+01    0.2540487    0.1413549  25.34 0.0007180937    1.986    0.497
       375 -10.7259     73.6496    244.5567   7.5841831637e+01   1.4803060403e+01    0.2647601    0.2121499  32.29 0.0005432233    1.145    0.127
       376 -11.3378      8.5868    242.2682   8.9284420355e+01   2.2277470040e+01    0.6240742    0.2813773  52.77  0.003737278    1.642    0.391
       377  -9.2483    213.7170    250.2175   4.8060630341e+01  -4.2922301130e+00    0.2295186    0.1179835  19.43 0.0009656789    1.612    0.379
