#   1 NUMBER                 Running object number                                     
#   2 MAG_AUTO               Kron-like elliptical aperture magnitude                    [mag]
#   3 X_IMAGE                Object position along x                                    [pixel]
#   4 Y_IMAGE                Object position along y                                    [pixel]
#   5 X_WORLD                Barycenter position along world x axis                     [deg]
#   6 Y_WORLD                Barycenter position along world y axis                     [deg]
#   7 A_WORLD                Profile RMS along major axis (world units)                 [deg]
#   8 B_WORLD                Profile RMS along minor axis (world units)                 [deg]
#   9 THETA_WORLD            Position angle (CCW/world-x)                               [deg]
#  10 FWHM_WORLD             FWHM assuming a gaussian core                              [deg]
#  11 ELONGATION             A_IMAGE/B_IMAGE                                           
#  12 ELLIPTICITY            1 - B_IMAGE/A_IMAGE                                       
         1 -12.3079     56.9775     35.2141   4.6270876707e+01   6.3945392814e+01    0.8469058    0.4277929 -25.17  0.003586702    2.540    0.606
         2 -11.9788     74.7978     34.0972   3.8820037249e+01   6.0559523227e+01    0.6454396    0.5009709 -67.11  0.003409987    1.818    0.450
         3 -10.5685     82.6548     21.9387   3.1092509409e+01   6.0414411273e+01    0.5426008     0.290066 -33.16  0.002609205    2.038    0.509
         4 -11.0783     69.9416     22.6913   3.5514090583e+01   6.3120039601e+01    0.5427605     0.305617 -50.03   0.00171687    2.502    0.600
         5 -11.2753     82.1883      7.0202   2.4711880526e+01   6.2054074865e+01    0.2237269    0.1739496  43.08 0.0002869507    1.161    0.139
         6 -12.1770     75.1764     10.8068   2.8356058442e+01   6.3296666060e+01    0.8568861    0.5373868  23.84  0.004430647    1.849    0.459
         7 -10.9876     73.8368      1.9755   2.4608609420e+01   6.4396143023e+01    0.3123821    0.2272296 -86.92   0.00146731    1.764    0.433
         8 -11.5884    137.2532     15.2786   1.7304347281e+01   4.8065138668e+01    0.5851735    0.2245588 -45.90  0.002175104    2.760    0.638
         9 -10.1895    138.2175     10.8573   1.5787598104e+01   4.8256030827e+01    0.2274448    0.1841628 -53.29 0.0005184973    1.264    0.209
        10 -12.1511    133.0246     18.8552   1.9070905203e+01   4.8729295779e+01     0.373016    0.2623687 -56.54 0.0002795813    1.498    0.332
        11 -12.1154     34.3038     22.5635   5.1380671732e+01   6.9791009770e+01    0.2852066    0.2338641 -16.33 0.0001482568    1.163    0.140
        12 -10.5463     22.1091     23.7635   5.9242629745e+01   7.1298449436e+01    0.6510292    0.2663678 -40.36  0.002978584    2.357    0.576
        13 -12.0468     28.7150     19.7822   5.3157890426e+01   7.1058992331e+01    0.3636945    0.2263014  22.22 0.0002977098    1.526    0.345
        14 -11.5740     13.1779     16.2289   6.1422781637e+01   7.3620589763e+01    0.7724829    0.4786387  33.39  0.003750425    1.710    0.415
        15 -10.7042      9.5836      9.4521   6.0354827269e+01   7.5121268541e+01    0.3573231    0.2341193  31.37  0.001637203    1.592    0.372
        16 -10.7836     32.5263     15.4155   4.8595679998e+01   7.1129786391e+01    0.3057996    0.2418708  16.76  0.001820347    1.084    0.078
        17 -10.9950     35.9536     14.3408   4.6109089427e+01   7.0721041393e+01    0.2347497    0.1824281 -41.87   0.00033951    1.591    0.372
        18 -11.2396      3.5303     18.5448   6.9676605829e+01   7.4128921490e+01    0.2822965    0.2619477 -57.18  0.001545179    1.431    0.301
        19 -12.2290      3.2510     13.3100   6.7366138309e+01   7.5090553564e+01    0.7959553    0.2244475 -45.98  0.003419968    2.941    0.660
        20 -11.5189    161.8632     19.5667   1.5410128933e+01   4.1756464140e+01    0.4570011    0.3134914  28.63  0.002435086    2.120    0.528
        21 -12.0101    240.7433      3.1953   5.6686808993e+00   2.6931083826e+01    0.5139189     0.219715  77.11  0.002606806    2.333    0.571
        22 -12.2026    238.0555     17.5688   8.5976209244e+00   2.5951338530e+01    0.3879689    0.2765508 -11.29   0.00134666    2.154    0.536
        23 -11.9805    233.1084     14.0728   8.1966811231e+00   2.7233835119e+01    0.3323407    0.1685171 -47.95  0.001625114    1.531    0.347
        24 -12.1351    236.1235      9.9125   7.2026535530e+00   2.7103496678e+01    0.3770851    0.2053501 -71.20  0.001441519    1.641    0.391
        25 -10.5028    169.4201     17.1245   1.3914255236e+01   4.0257076942e+01     0.234804    0.1843042 -29.15      0.00141    1.431    0.301
        26 -10.2080     50.4278     17.1065   4.0500659480e+01   6.7767502751e+01    0.2616019    0.2208392 -77.77 0.0005309933    1.851    0.460
        27 -11.7099     54.4017     13.9000   3.7148881692e+01   6.7385384260e+01    0.3549447    0.2951714 -69.44  0.000157521    1.787    0.440
        28 -10.3195    155.5072     13.5534   1.4456903831e+01   4.3863753516e+01    0.1902041    0.1278573  -6.66 0.0007369482    2.096    0.523
        29 -10.1195     99.5800     13.5239   2.3320386740e+01   5.7359656077e+01    0.2052077    0.1886763 -43.16 0.0006304798    1.224    0.183
        30 -10.9023    102.1382      9.6152   2.1259049165e+01   5.7112776310e+01    0.4137869    0.2895481 -18.86  0.001352469    1.670    0.401
        31 -10.7482     60.8160     11.4871   3.3422521585e+01   6.6346093783e+01    0.3832537    0.1942678 -24.52  0.001465683    2.203    0.546
        32 -10.2634     65.0128     12.0042   3.2181191257e+01   6.5403340467e+01    0.3089854     0.177447  36.91 0.0007552751    1.649    0.394
        33 -10.3211     26.9635     11.9855   4.9932259970e+01   7.2474019223e+01    0.3041331    0.1641966 -29.38 0.0007625887    1.906    0.475
        34 -11.0913    175.9958     10.3785   1.1516225172e+01   3.9434296667e+01    0.4969264    0.2388737 -47.59   0.00256252    1.903    0.475
        35 -10.7802    145.0054     11.4830   1.5106364395e+01   4.6563986000e+01    0.2957359    0.2177304  51.25 0.0008210958    1.424    0.298
        36 -10.9302    145.2647      8.0125   1.4034901068e+01   4.6823178755e+01    0.3123937    0.2369776  73.43  0.001131758    1.164    0.141
        37 -10.4279    168.6291      2.1653   1.0039176008e+01   4.1870655716e+01    0.2376799    0.1495049 -65.30  0.001380184    1.471    0.320
        38 -11.4261    164.5958      4.8202   1.1102603889e+01   4.2560551835e+01    0.2656376    0.2051592  85.56 0.0003717671    1.124    0.111
        39 -11.2637    160.0669      8.9478   1.2669716312e+01   4.3233719178e+01    0.2885434    0.2311013 -45.25 0.0003969055    1.271    0.213
        40 -10.9392    154.4327      8.3533   1.3097268519e+01   4.4612654599e+01    0.2984983    0.2168734  78.05  0.001094292    1.212    0.175
        41 -10.7295    133.0980      9.8081   1.6150474624e+01   4.9590967032e+01    0.2615033    0.1560168 -44.70 0.0009730463    1.746    0.427
        42 -11.3751    248.3378      8.1226   6.2337353203e+00   2.5089245096e+01    0.2338532    0.1551787 -81.17  0.001712166    1.367    0.269
        43  -9.6765    107.4278      9.5022   2.0188194478e+01   5.5848831376e+01    0.1298785    0.1149777  74.04 5.877944e-05    1.048    0.046
        44 -10.0457     36.2226      7.7090   4.2189275618e+01   7.1523888468e+01    0.2924248    0.2023812  39.56   0.00175625    1.301    0.232
        45  -9.1187     23.5831      8.7421   5.0134453267e+01   7.3428685809e+01    0.1307043   0.08023921  10.79 0.0001850467    1.753    0.430
        46 -11.0334     19.8700      7.2829   5.1680106744e+01   7.4163221177e+01     0.369419    0.2973755 -14.71  0.001396304    1.172    0.146
        47 -10.7145     16.0549      2.7760   5.1478191166e+01   7.5309404698e+01    0.3172233    0.1987664  43.27   0.00184253    1.890    0.471
        48 -10.7334     26.8238      2.3731   4.4184639423e+01   7.3746735323e+01    0.2379038     0.172263  37.47 0.0008173776    1.295    0.228
        49 -10.1902     22.2104      1.5975   4.6543528333e+01   7.4568809534e+01    0.2948104    0.1331446  32.57  0.001106581    2.023    0.506
        50 -11.0203    223.0413      5.5132   7.0426855602e+00   3.0016896656e+01    0.1941818    0.1345846 -45.37 -2.958535e-05    1.257    0.204
        51  -9.5628     68.5130      5.4983   2.7849159498e+01   6.5282443218e+01    0.1301187    0.1091516  43.12 0.0008105091    1.014    0.014
        52  -9.4890     60.2152      5.3750   3.0518817608e+01   6.7091121937e+01    0.1819161    0.1126451  64.69 0.0009521943    1.726    0.421
        53 -11.3640    179.0480      3.7576   9.5865947427e+00   3.9374567215e+01    0.2285986    0.1755102  83.44 0.0002013432    1.170    0.145
        54 -12.6200    128.5304     23.9699   2.1475442123e+01   4.9275462022e+01    0.3602884    0.2556856 -34.99 0.0003339127    1.511    0.338
        55 -10.5433    126.0801      2.9961   1.4891838379e+01   5.1880769768e+01    0.2330291     0.203723  19.89 0.0006847477    1.385    0.278
        56  -9.6771    114.0247      2.7192   1.6564119167e+01   5.4826431632e+01    0.1880436    0.1489627  70.02 0.0005376755    1.080    0.074
        57 -10.0703     97.9664      3.2072   1.9567710057e+01   5.8659110513e+01    0.1841244    0.1606589  88.49   0.00046469    1.169    0.145
        58 -11.4898     91.1513      2.4698   2.0656315093e+01   6.0339619855e+01    0.2421984    0.2041545  82.57 0.0004094375    1.199    0.166
        59  -9.5028     86.6024      3.5464   2.2120052692e+01   6.1323909803e+01     0.212406    0.1093056  62.18 9.247028e-05    1.638    0.390
        60  -9.9611      9.9672      2.7328   5.5973680556e+01   7.6097454710e+01    0.2227917    0.1672411  44.49  0.001343088    1.877    0.467
        61 -11.5064    102.6432      1.5803   1.8053184672e+01   5.7665615808e+01    0.2264745    0.1464997  71.52 0.0006128484    1.358    0.263
        62 -10.3439    230.1107      1.4066   5.8392088440e+00   2.9066230727e+01    0.1677419   0.09174003  79.94 0.0003748445    1.775    0.437
        63  -9.9715    214.9145      7.1586   7.8645739237e+00   3.1453086999e+01    0.1871121    0.1208688 -65.27 0.0008511344    1.279    0.218
        64 -10.5375    119.6008     11.0930   1.8621221137e+01   5.2751980964e+01     0.298922    0.2267357   9.60  0.001708272    1.691    0.409
        65 -10.8952     23.0844    180.1901   9.1450128937e+01   3.3562308884e+01    0.4015141    0.1615821  54.44  0.001511216    2.591    0.614
        66 -11.9377    248.0565    248.0681   5.0214108530e+01  -6.8354804890e+00    0.5378218    0.2831713 -12.82  0.003538505    1.640    0.390
        67 -12.5227    226.8596    245.3584   5.3260431324e+01  -4.4655241178e+00    0.6315424    0.3769324 -13.85  0.004233207    1.411    0.291
        68  -9.7507    109.8688    250.1615   7.6955676581e+01   8.5856122413e+00    0.1871812    0.1425058  39.38 0.0005793683    1.210    0.174
        69 -10.5062     91.1459    249.5011   8.0984147867e+01   1.0995878411e+01    0.2150636    0.1951855  57.54 0.0006929938    1.216    0.178
        70 -12.0799     21.1690    248.3794   9.6093422319e+01   1.8826306998e+01       0.5912    0.1760053  41.60  0.002838469    2.303    0.566
        71 -10.8718      5.4066    244.4422   9.9205440630e+01   2.0994624513e+01    0.8950717    0.1183099  48.54  0.003388374    3.997    0.750
        72 -10.3735      6.7305    249.3519   9.9111756545e+01   1.9941006285e+01    0.1984548     0.139688  69.37 0.0006834783    1.251    0.200
        73 -10.9941     10.2868    248.3517   9.8348476959e+01   1.9820711519e+01    0.2558729    0.1848999  42.68  0.001356562    1.124    0.111
        74 -10.7172    249.4442    179.8120   3.8960462047e+01   1.8803475602e+00      0.22879   0.09118132 -40.02  0.001153014    2.169    0.539
        75 -11.9153      3.5052    178.9009   9.6672139717e+01   3.5456566345e+01    0.5654057    0.2757064 -41.89  0.002573812    2.717    0.632
        76 -11.4414      8.2681    172.5752   9.4985877950e+01   3.6648909337e+01    0.2745573    0.1865485 -83.23  0.001424125    1.353    0.261
        77 -10.4879     54.1350    175.8958   8.2267789029e+01   3.1381010854e+01     0.261873    0.2136132 -62.92 0.0006742133    1.249    0.199
        78  -9.9223    172.1759    175.3911   5.1801862163e+01   1.3474085575e+01    0.1864194    0.1248561  43.74 0.0008078253    1.666    0.400
        79 -10.5969     18.1300    172.9505   9.2253555285e+01   3.5774902767e+01    0.2159716    0.1563295  61.17 0.0008918408    1.301    0.231
        80  -9.0953    116.6476    170.6772   6.4046445622e+01   2.3601627963e+01    0.1552245    0.1119756 -11.19 0.0007047661    1.754    0.430
        81  -9.3247    177.2833    168.6635   4.9438111602e+01   1.3903988951e+01    0.1266189    0.1110455 -78.40 0.0002675635    1.623    0.384
        82 -10.3512      5.5048    168.0430   9.5459180654e+01   3.7968024994e+01    0.2011235    0.1158617 -82.03  0.000749007    1.588    0.370
        83 -10.5056      1.4574    165.5652   9.6443406741e+01   3.8858280392e+01    0.3952673    0.1172437 -82.32  0.001450988    3.199    0.687
        84 -10.4692    186.4328    165.8615   4.7049921976e+01   1.2938491538e+01     0.224443    0.1574522  27.34  0.001201539    1.470    0.320
        85  -9.1585     93.3176    166.7348   6.9699746108e+01   2.8243321199e+01    0.1482729     0.109594  59.46 0.0002336441    1.551    0.355
        86 -10.2527     67.7495    165.6856   7.6930893153e+01   3.2197737761e+01    0.2859311    0.2010578 -82.50  0.000838814    1.611    0.379
        87 -11.0304     51.1323    160.5331   8.1198014246e+01   3.5595516481e+01    0.5074207    0.2580855 -75.03  0.002114157    2.135    0.532
        88 -10.4489      7.9637    163.5920   9.4452219375e+01   3.8901281047e+01    0.2793486    0.1897729 -25.95  0.001489066    1.881    0.468
        89  -9.2409    132.6229    161.2046   5.8135274697e+01   2.2999170685e+01     0.214549    0.1315939 -38.14 0.0007734119    1.702    0.413
        90 -10.6468     19.8682    156.9855   9.0369289323e+01   3.9654189089e+01    0.3711519    0.2342366 -87.17   0.00130753    1.540    0.351
        91 -10.8305    247.8901    156.4345   3.4973871162e+01   5.4495773639e+00    0.2281252    0.1676501 -23.34  0.001406342    1.113    0.101
        92 -10.3372      2.7592    157.1621   9.5522576460e+01   4.0871977597e+01    0.2344346    0.1478786 -32.81 0.0009903323    1.960    0.490
        93  -9.7480    214.8775    154.4123   3.9627882075e+01   1.0447291289e+01    0.3324252    0.1242944  42.39  0.001413809    3.028    0.670
        94 -10.2757    158.8801    153.8520   5.0383441023e+01   1.9902633676e+01    0.3435225    0.2109603  32.74   0.00111047    1.686    0.407
        95 -10.0994     11.0221    152.8276   9.2706093771e+01   4.1406076581e+01    0.3489064    0.1389369  32.75   0.00150198    2.358    0.576
        96  -9.7021    143.8784    148.3641   5.2704933596e+01   2.3748418552e+01    0.2430339    0.1665015 -39.13 0.0004712688    1.448    0.309
        97 -11.5660     13.8660    147.9141   9.1387432015e+01   4.2459308058e+01    0.2579477    0.2151622 -89.76 0.0002803438    1.100    0.091
        98 -12.2756     16.1717    142.1309   9.0084913561e+01   4.3783497851e+01    0.8563515    0.3358329  70.03  0.002799432    4.010    0.751
        99 -10.9647    217.4170    145.3006   3.7402171118e+01   1.1552490994e+01    0.3264278    0.2062358  21.24  0.001657393    2.045    0.511
       100 -10.5904      6.8995    145.6510   9.3389623346e+01   4.3531259536e+01    0.3401117    0.1958879  23.59  0.001720128    1.835    0.455
       101  -9.3198    181.8965    145.3836   4.3750872333e+01   1.7456320810e+01     0.182168    0.1261679  24.54 0.0003752619    1.635    0.388
       102 -10.0335     40.8526    152.6992   8.3360801003e+01   3.8767712964e+01    0.2391076    0.1740301 -61.75  0.000552733    1.327    0.246
       103  -9.7277    126.4835    142.4793   5.5808836463e+01   2.8242742912e+01     0.151121    0.1441925  -4.21 0.0001152446    1.026    0.026
       104 -13.4030     37.4164    134.7710   8.2026872727e+01   4.3809057211e+01    0.7427575    0.3885075 -67.78  0.001288035    1.808    0.447
       105  -9.5963    188.7627    139.5923   4.1196511894e+01   1.7308757892e+01    0.1757425    0.1330052  54.58 0.0003710499    1.601    0.375
       106  -9.7974     65.4617    138.9862   7.3273022705e+01   3.9291617849e+01     0.221947     0.143999 -61.27 0.0004294554    1.522    0.343
       107  -9.9450    236.2757    138.0148   3.3114640671e+01   9.8402334040e+00    0.1734477    0.1357744 -32.95 0.0005855112    1.048    0.046
       108 -10.3567     43.9844    136.9204   8.0105748052e+01   4.2536711604e+01    0.2212156    0.2072732 -84.11 0.0005197591    1.039    0.037
       109 -10.6287      2.8618    136.2750   9.3906545465e+01   4.6197222763e+01    0.3365853    0.1653342 -71.78 0.0008719033    1.765    0.433
       110 -10.6978     20.8511    135.0661   8.7748060324e+01   4.5259877174e+01    0.2608182    0.1696579 -68.70 0.0008028925    1.401    0.286
       111  -8.8997      9.2903    136.3041   9.1780298624e+01   4.5788361838e+01    0.1375248   0.09039825 -45.56 0.0002221655    1.570    0.363
       112  -9.9287    144.2703    136.9658   5.0098720734e+01   2.6086060119e+01    0.2111003    0.1873643 -27.67 0.0003902629    1.108    0.098
       113 -11.0225     53.3969    132.5374   7.6168312422e+01   4.2561055927e+01    0.3289643    0.3125856  57.63 0.0005050466    1.071    0.067
       114 -10.9834     59.2863    131.3353   7.3935424915e+01   4.2107815757e+01    0.3289508    0.2616292  -9.98  0.001058272    1.469    0.319
       115 -11.0030      4.5097    130.2469   9.2821878435e+01   4.7659569577e+01    0.2435715    0.2130837 -49.52 0.0002411801    1.166    0.143
       116 -10.2835      3.8612    126.4008   9.2683860880e+01   4.8694424664e+01    0.1893814    0.1718528 -80.64 0.0004791107    1.021    0.021
       117  -9.8490    160.3419    129.9805   4.4811736102e+01   2.4414667196e+01    0.2462836    0.1135931 -25.49 0.0007050527    4.393    0.772
       118 -10.6859     73.6764    129.0506   6.8631247467e+01   4.0624603487e+01    0.3310291     0.284952  65.71 0.0009504784    1.277    0.217
       119  -9.5076    225.7017    129.3596   3.2913401521e+01   1.2818273423e+01     0.126134   0.09013762 -58.87 0.0007034743    1.710    0.415
       120 -11.1129     24.8948    126.9485   8.5309413273e+01   4.7052393709e+01    0.3139193    0.2371002  48.75  0.001063691    1.390    0.281
       121 -10.9428     56.5578    127.0477   7.4074576925e+01   4.3578925858e+01    0.2782219    0.2161015  10.37 0.0007091606    1.433    0.302
       122 -10.2037    229.5316    125.0859   3.1498552775e+01   1.2881876823e+01    0.1999269    0.1041062 -38.40  0.001031135    1.594    0.373
       123 -10.4878     46.9338    124.4246   7.6998079492e+01   4.5464047701e+01    0.3614433    0.2354726  15.80  0.001052265    1.717    0.418
       124  -9.7339     30.4860    124.4776   8.2945171079e+01   4.7198219671e+01    0.1404113    0.1320541 -76.01  0.000313935    1.020    0.020
       125 -10.1114     20.2032    122.0420   8.6343476962e+01   4.8726912871e+01    0.2630264    0.1635884 -60.02 0.0009604681    1.446    0.308
       126 -10.7678     23.1463    119.0410   8.4841311146e+01   4.9275170937e+01    0.4507249    0.3007578 -15.24  0.002214531    1.802    0.445
       127  -9.2993    243.4774    122.4740   2.9107908373e+01   1.1122452250e+01    0.1215073    0.0974872 -33.07 0.0005208742    1.021    0.021
       128 -10.8571     72.0956    116.3069   6.6398966091e+01   4.4072711211e+01    0.4152672    0.3598286 -54.96 0.0009865327    1.143    0.125
       129 -10.9952     68.4780    121.9277   6.8895794807e+01   4.3214401805e+01    0.2699884     0.255648  55.43 0.0007137838    1.095    0.087
       130  -9.5391     71.6443    120.6860   6.7535449573e+01   4.3046430227e+01    0.2208001    0.1464367 -42.53 0.0005974845    1.547    0.354
       131 -10.6742     56.4876    121.3768   7.2999327226e+01   4.5052185885e+01    0.2547856    0.2447863 -62.55 0.0005550468    1.024    0.023
       132 -10.4383      1.4014    118.5280   9.2794478714e+01   5.0867831219e+01    0.2411442    0.1143253 -75.35 0.0002208842    1.847    0.459
       133 -10.2637     99.8945    117.6809   5.7608066814e+01   3.8931455939e+01    0.2520231    0.2004062  11.01  0.001193888    1.460    0.315
       134 -11.9510     16.4560    115.8616   8.6905521526e+01   5.0628524030e+01    0.4255483    0.3218158  65.65  0.001073714    1.435    0.303
       135 -12.6415     12.6164    110.2009   8.7611825515e+01   5.2370325791e+01     1.636485    0.6310083  14.17  0.006486766    2.920    0.658
       136 -12.3654     25.7255    106.1839   8.1820586573e+01   5.2406829090e+01    0.9804454    0.4980006  19.79  0.004244711    2.106    0.525
       137 -10.0408    249.5350    117.5026   2.7388595077e+01   1.0950902009e+01    0.1198057   0.09430335 -37.29 8.836107e-05    1.021    0.021
       138 -10.3780     85.9857    116.0723   6.1639984284e+01   4.1827920823e+01    0.2237332    0.2210508 -29.74 0.0003101562    1.015    0.015
       139 -10.8489     52.4169    116.0692   7.3409263769e+01   4.6951389706e+01    0.2833642    0.2184987  15.56  0.001421426    1.396    0.284
       140 -11.7862     10.3300    121.2306   8.9841561850e+01   4.9646936423e+01    0.5243819    0.3361847  80.10  0.001685862    1.657    0.396
       141 -10.9041    182.0214    114.7401   3.6907641212e+01   2.3067742815e+01    0.4754243    0.2338775  38.90  0.001649937    2.425    0.588
       142 -10.2428    249.9912    112.2190   2.6311212842e+01   1.1651265668e+01    0.1777715    0.1044197 -49.61  0.000648813    1.609    0.378
       143  -9.8845     75.9689    112.1919   6.4089748575e+01   4.4468937433e+01    0.2453237    0.1743979  -3.02 0.0007279792    1.880    0.468
       144 -11.3258     55.1377    109.7279   7.1055662536e+01   4.8211751764e+01    0.3125755    0.2980821  69.30 0.0005714129    1.118    0.106
       145 -11.7151     51.5704    103.9529   7.1127145734e+01   5.0146273786e+01     0.448676    0.3273675  39.61 0.0007555421    1.430    0.301
       146  -9.1846     42.4462    108.4855   7.5647521698e+01   5.0118212619e+01    0.1452238     0.134888 -44.79 3.440526e-05    1.027    0.027
       147 -10.4153      3.3178    107.9065   9.0937075519e+01   5.3514072400e+01    0.2146975    0.1717449  37.68 0.0005451969    1.374    0.272
       148 -10.2982     62.3076    106.4299   6.7620115264e+01   4.8026050404e+01    0.2718358    0.1676677 -46.89 0.0006856886    1.581    0.368
       149 -10.9271     19.4913    108.9698   8.4746408869e+01   5.2197176934e+01    0.4014469    0.2594839 -10.21  0.001580075    1.841    0.457
       150  -9.0810     93.6831    104.3252   5.6145431076e+01   4.3203777281e+01    0.1556282    0.1230454  79.50  0.000704436    1.671    0.402
       151 -10.4458     38.4357    103.4956   7.6217328794e+01   5.1847249485e+01    0.2390953    0.1904182  -3.44 0.0009246122    1.376    0.273
       152 -10.9453     75.6905    101.9651   6.1627489130e+01   4.6991998205e+01     0.367265    0.2917286 -89.71  0.001448787    1.633    0.388
       153 -10.4721     76.8212     97.6676   6.0081637758e+01   4.7814993009e+01    0.3417242    0.2468472   3.63 0.0005763698    1.784    0.439
       154  -9.4683    119.5430    101.5086   4.7661571521e+01   3.8631685002e+01    0.1517219    0.1471907  -2.68 0.0001824761    1.043    0.041
       155 -11.8760     62.0740     98.2522   6.5696248181e+01   5.0072044236e+01    0.6555493    0.3272795 -43.25  0.002613348    2.049    0.512
       156 -10.0713     66.9991     97.7535   6.3701993964e+01   4.9428293636e+01    0.2392359    0.1895241 -37.15 0.0005896122    1.269    0.212
       157 -10.3054    107.9813     99.3377   5.0361094017e+01   4.1495763006e+01    0.3112278    0.1998886 -74.90  0.001160606    2.686    0.628
       158 -11.5548     15.8636     97.5685   8.4410734333e+01   5.5407860645e+01    0.5121793     0.268678 -58.23  0.002405805    1.638    0.390
       159  -8.8497    144.7148     99.3414   4.0753529169e+01   3.3680188829e+01    0.1505327    0.1163208 -75.31 0.0004074458    1.638    0.389
       160 -10.4241     32.1893     96.4056   7.7318391633e+01   5.4306464537e+01     0.404296    0.2454353  80.82 0.0005205866    2.465    0.594
       161 -10.2772     31.5459     92.5538   7.6777139730e+01   5.5341596885e+01    0.3397672     0.219287 -86.61  0.001233129    1.984    0.496
       162 -10.4517     20.9752     98.7546   8.2470530388e+01   5.4717874115e+01    0.1911283    0.1801954 -46.59 0.0008481186    1.039    0.037
       163  -9.5228      9.5321     99.0509   8.7285574468e+01   5.5444692965e+01    0.1934234    0.1221575 -72.36 0.0003304732    1.448    0.309
       164 -10.2593    225.8124     98.0130   2.6402073052e+01   1.7688522538e+01    0.1827634    0.1734826 -79.15 0.0003170375    1.188    0.158
       165  -9.5629     81.8009     97.7905   5.8359349411e+01   4.6907149788e+01    0.2249871    0.1953541 -18.46 0.0006876452    1.223    0.182
       166  -9.2934     87.3084     97.3159   5.6341895863e+01   4.6006785222e+01    0.1559322    0.1192881 -10.65            0    1.631    0.387
       167 -10.4779    102.2144     95.9366   5.1148857829e+01   4.3407596110e+01    0.3782163    0.2118866  53.07 0.0009980538    2.039    0.509
       168  -9.2226     57.3208     96.2927   6.7038888874e+01   5.1251671946e+01    0.1526643     0.110462 -20.86 0.0001718475    1.609    0.379
       169 -10.4444    226.3439     93.2077   2.5320576794e+01   1.8319671482e+01    0.2167086    0.1824468 -72.83  0.000516372    1.297    0.229
       170  -9.0516    112.9793     94.0184   4.7415099993e+01   4.1586634119e+01    0.1768631     0.171344  36.97 0.0009517712    1.023    0.023
       171 -10.2511     52.4791     93.5112   6.8260506975e+01   5.2612622867e+01    0.3034766    0.2362517  39.46  0.001143544    1.347    0.258
       172 -11.0139     56.7484     90.4893   6.5754246205e+01   5.2736314510e+01    0.3690335     0.257069 -32.48 0.0006038891    1.528    0.346
       173  -9.5025     26.8087     93.8659   7.9081300868e+01   5.5463889798e+01    0.1803557    0.1559396  58.06 0.0002496584    1.308    0.236
       174 -10.0102    231.6151     91.7074   2.4365008973e+01   1.7622947934e+01    0.1786001   0.09414195 -44.31 0.0006388778    1.584    0.369
       175  -9.3791    249.7599     91.0198   2.2197651180e+01   1.4712246256e+01    0.1565257   0.07986794 -38.20 0.0004722727    1.551    0.355
       176 -10.8804    160.3802     89.8755   3.4919792094e+01   3.2027718128e+01    0.4058912    0.3152712 -43.32  0.001291822    1.239    0.193
       177 -11.6759     10.4899     90.8262   8.5603264221e+01   5.7481091427e+01    0.2361948    0.2063115 -36.25 0.0002822156    1.104    0.094
       178 -10.6693     49.1277     89.9732   6.8727887433e+01   5.3926618842e+01    0.2207714    0.2035152  12.30 0.0002926796    1.096    0.088
       179  -9.8205    177.8320     88.9787   3.1465142758e+01   2.8429726026e+01    0.1959535    0.1782362 -13.05 0.0002693113    1.224    0.183
       180 -10.0631    153.0353     89.0913   3.6204917079e+01   3.3781214607e+01     0.208135    0.1973728 -69.74   0.00117646    1.051    0.049
       181 -11.2299     95.1319     88.6656   5.1275777669e+01   4.6403998170e+01    0.4357754    0.2491926  47.46  0.001632516    1.791    0.442
       182 -10.5903     84.5735     88.4825   5.4750510944e+01   4.8502285239e+01    0.5044715    0.2335933  39.46  0.001585589    2.139    0.532
       183 -10.3033     38.8128     86.6748   7.2276889569e+01   5.6014133074e+01    0.3443146    0.1490634 -40.26  0.001170137    2.481    0.597
       184 -12.3436    107.4843     84.8340   4.6324760683e+01   4.4641221790e+01     0.384813    0.3006419  69.80 0.0004241396    1.545    0.353
       185 -10.8793     65.2199     86.0176   6.1153723169e+01   5.2474837493e+01    0.3323057    0.2979415 -45.61  0.001750429    1.112    0.101
       186  -9.8112     62.4626     80.1288   6.0507037345e+01   5.4262432726e+01    0.2584697    0.2126124 -89.33  0.001023106    1.616    0.381
       187 -10.2853     29.9502     85.4693   7.5898788010e+01   5.7262023562e+01    0.2592359    0.1969909  48.89  0.001085319    1.527    0.345
       188 -10.7076     30.2130     81.5235   7.4849028771e+01   5.8201124669e+01    0.3629787    0.2381686 -42.74 0.0008919024    1.419    0.295
       189 -11.0519     21.4559     83.9727   7.9406196021e+01   5.8405808682e+01    0.4570979    0.1949221 -68.19  0.001377717    2.337    0.572
       190 -10.5629     73.9269     89.1554   5.8754803694e+01   5.0287112831e+01    0.2706069    0.2061897 -41.98 -0.0006383859    1.305    0.234
       191 -10.3637    117.0940     83.4845   4.3201808455e+01   4.2825718760e+01    0.3409748    0.2086199 -55.26  0.001443106    1.904    0.475
       192  -9.9796     69.0009     82.6441   5.8694541084e+01   5.2609070591e+01    0.3054185    0.2129306 -68.86   0.00092926    1.868    0.465
       193 -10.8962     76.8457     82.0390   5.5565313755e+01   5.1354066840e+01    0.5568134    0.2237286  41.81  0.001835794    2.476    0.596
       194 -10.1577      7.3622     81.0553   8.5348814295e+01   6.0113019255e+01    0.3411172     0.174501 -40.78  0.001166792    1.812    0.448
       195  -9.7444     44.7209     74.5755   6.6389741784e+01   5.8148319790e+01    0.1902275    0.1653574  60.36 0.0009515682    1.396    0.283
       196 -10.2203     50.5135     78.5115   6.4998966607e+01   5.6447843869e+01    0.4623553    0.1975312 -54.07  0.001800444    2.287    0.563
       197 -10.5123     47.5082     77.5027   6.6010030808e+01   5.7098996416e+01     0.271918    0.2411586 -73.69 0.0006633025    1.299    0.230
       198 -12.2441     88.1411     77.4034   5.0130450954e+01   5.0168944616e+01    0.3601971    0.2840065  31.76 0.0002427805    1.273    0.214
       199 -11.0307     38.3292     75.9728   6.9689483564e+01   5.8631978836e+01    0.4098352    0.3112093 -50.21 0.0006613635    1.248    0.199
       200  -9.8620    165.0554     78.4801   3.1039504893e+01   3.2957374108e+01    0.1938648     0.138104  58.97 0.0003548159    1.444    0.307
       201 -10.2003     18.5058     77.9891   7.9487535865e+01   6.0114700322e+01    0.3514477    0.1605444 -41.30  0.001513151    2.082    0.520
       202 -10.6050     21.6039     75.2152   7.7371145485e+01   6.0531728798e+01    0.3357696    0.2644889  73.70  0.001837943    1.617    0.382
       203  -9.6046      2.9454     78.0402   8.6902942756e+01   6.1089829058e+01    0.1636918    0.1231616 -64.12 0.0003293972    1.181    0.153
       204  -9.2816    148.9933     77.7654   3.3952343144e+01   3.6688596718e+01    0.1850566    0.1194475  55.15 0.0004795319    1.557    0.358
       205 -11.0404     99.5296     75.7656   4.5921339680e+01   4.8143229819e+01    0.3488515    0.2612081 -56.20  0.001684315    1.502    0.334
       206  -9.1930    138.6858     76.3164   3.5752078429e+01   3.9290609028e+01    0.1498607    0.1134073 -77.05  0.000703607    1.645    0.392
       207 -11.7244    167.7870     73.1359   2.9146778127e+01   3.3221737063e+01     0.384165    0.2170644 -39.27 0.0005852564    1.693    0.409
       208 -10.4601     55.2027     75.0566   6.1956883002e+01   5.6541826900e+01    0.3355899    0.2065864  31.54  0.001558504    1.624    0.384
       209  -9.5596     61.3092     73.9426   5.9058687791e+01   5.5821306903e+01      0.21103    0.1882745 -34.28  0.001162141    1.098    0.089
       210 -10.8158      7.2400     73.3647   8.3973503201e+01   6.2006334916e+01    0.3884571     0.198842   2.53   0.00119907    2.197    0.545
       211 -10.7893    103.1402     71.7543   4.3539716463e+01   4.8136684837e+01     0.395163    0.1984701 -36.56  0.001571902    2.145    0.534
       212  -9.2974     68.3691     72.5149   5.5764430751e+01   5.4925657639e+01    0.1440684    0.1352923 -16.47 0.0001048798    1.037    0.035
       213 -10.1961     25.9288     72.0894   7.4500452623e+01   6.0883874397e+01    0.2385036    0.1440451 -28.72  0.001135531    1.747    0.427
       214 -13.8130     16.6444     67.3311   7.7915293687e+01   6.2815203179e+01    0.4822147    0.3619941 -38.28 0.0008498369    1.191    0.160
       215  -9.3273    160.4874     71.5407   3.0012443041e+01   3.5118434603e+01    0.1398462    0.1320422 -72.74 0.0007390644    1.008    0.008
       216 -11.0645    142.3583     71.0083   3.3418032429e+01   3.9358937135e+01    0.3061381    0.2032241  73.61 0.0009274339    1.805    0.446
       217  -9.8077     45.1690     70.8222   6.5057408628e+01   5.8939546565e+01    0.1917594    0.1879658 -50.99 0.0003036378    1.144    0.126
       218 -12.5251     50.7456     66.6021   6.1198956859e+01   5.9071107649e+01     1.249509    0.5725017 -31.13  0.002408621    3.160    0.684
       219 -11.6836     46.3390     60.6835   6.1212742725e+01   6.0980974123e+01    0.5812056    0.3738954  -4.19  0.000818352    2.047    0.511
       220 -12.4600     39.0849     50.6165   6.1117481950e+01   6.4077591832e+01    0.9412537    0.6153824  34.22  0.004897438    1.542    0.351
       221 -11.2697     44.9524     38.2526   5.3175981639e+01   6.5526925284e+01    0.2781408    0.2387685 -29.39            0    1.187    0.158
       222  -9.9121    244.8366     68.9628   1.8316981855e+01   1.8542975466e+01      0.16362    0.1414424 -31.09 0.0004574042    1.258    0.205
       223 -11.6395    122.6839     67.4705   3.6855784408e+01   4.4511315000e+01    0.2810366    0.2567559 -52.84 0.0002540362    1.126    0.112
       224 -10.6410     93.4762     67.0634   4.4978422733e+01   5.1099466301e+01    0.3678985    0.2409401 -15.38  0.001553185    2.205    0.546
       225 -10.5896      6.6596     68.1706   8.3210909891e+01   6.3290425630e+01    0.2456081    0.2106618 -88.90 0.0009109094    1.323    0.244
       226 -11.2529      2.5852     63.7351   8.4400915227e+01   6.4561307674e+01    0.4895977    0.2732926 -76.30  0.002438806    1.885    0.470
       227 -12.5448    147.0544     65.6171   3.0900062849e+01   3.9156047151e+01    0.3060266    0.2729228 -64.55   0.00173114    1.118    0.105
       228  -9.6037    239.5037     67.5578   1.8540079457e+01   1.9649386082e+01    0.1184699   0.09537227 -50.51 0.0001425595    1.007    0.007
       229 -11.0886    104.8315     65.3643   4.0952672218e+01   4.8936962165e+01    0.4337395    0.3234848 -11.31  0.001632825    1.721    0.419
       230 -10.5848    109.9749     64.2701   3.9143745275e+01   4.7974175498e+01    0.4204838    0.3059331 -73.06  0.001944275    1.888    0.470
       231 -12.6364     30.2379     63.3894   6.9921767231e+01   6.2447212213e+01    0.5136335    0.4545644 -32.61  0.001115455    1.040    0.039
       232 -11.0453     81.4041     64.9519   4.8329767017e+01   5.3993009864e+01    0.2747887    0.2053772  35.46 0.0004733499    1.305    0.234
       233  -9.8769     61.8755     64.2318   5.5595256034e+01   5.7778831558e+01    0.2770428    0.1763894 -20.16 0.0008928701    2.051    0.512
       234 -10.8902    155.1048     62.6983   2.8547477322e+01   3.7747732463e+01    0.3238375    0.2494789 -30.87  0.001726601    1.381    0.276
       235 -10.6835    150.7684     60.9682   2.8852094454e+01   3.9021313997e+01    0.2509478     0.201077  63.07 0.0003498289    1.225    0.184
       236 -10.4834    210.0070     63.0743   2.0685387205e+01   2.5771871873e+01    0.1862701    0.1584494 -54.79 0.0003637135    1.010    0.010
       237 -11.3217    202.0725     62.4481   2.1483545273e+01   2.7461775617e+01    0.2472821    0.1771505 -36.34  0.001432359    1.328    0.247
       238  -9.6780    193.7450     62.5969   2.2570895656e+01   2.9172247283e+01    0.1725391     0.120828  82.57 0.0009406834    1.571    0.363
       239 -10.5951     23.8353     41.7161   6.5989214578e+01   6.7758110990e+01    0.5817115    0.3213252 -32.25  0.002849256    1.808    0.447
       240 -13.5657     12.4568     47.7076   7.4749829957e+01   6.7581782537e+01    0.5966889    0.5774527  33.19 0.0007975223    1.266    0.210
       241 -11.8933     11.1630     56.3977   7.8009679722e+01   6.5750343499e+01    0.7881665    0.7102775 -28.36  0.003541143    1.061    0.057
       242 -12.8107     27.6389     37.6520   6.2167658436e+01   6.8105739861e+01    0.2781757    0.2372031 -14.69 0.0003950791    1.032    0.031
       243 -11.3266     24.2761     34.9857   6.3016935795e+01   6.9015837148e+01    0.2550312    0.1908672 -18.97 0.0004736491    1.236    0.191
       244  -9.3951    143.1466     60.8332   3.0279556846e+01   4.0825279443e+01    0.1869309    0.1618825  31.18  0.000410339    1.315    0.239
       245 -10.5638    119.6520     60.0220   3.5239260860e+01   4.6467249571e+01    0.4856378    0.2229455 -41.98  0.001217102    2.242    0.554
       246 -11.1401    115.1012     55.5877   3.4919498613e+01   4.8244787145e+01    0.5679139    0.2662791  41.31  0.001855871    2.379    0.580
       247 -10.2301     90.0453     61.0479   4.4022002592e+01   5.2935888200e+01    0.2142695    0.2070742  49.50  0.000383202    1.070    0.066
       248  -9.5046    172.9455     61.0000   2.5113228587e+01   3.3934409238e+01    0.2144479   0.07560576  61.18 0.0007463762    2.886    0.654
       249 -10.7204    169.5731     58.8119   2.5055718055e+01   3.5015526651e+01    0.3478716    0.2507036  30.92  0.001092768    1.886    0.470
       250 -10.6158    135.9469     58.8213   3.1148860300e+01   4.2833207330e+01    0.4523089    0.2587369  83.27  0.001715056    2.876    0.652
       251  -9.8600    114.4930     60.1553   3.6586342786e+01   4.7641550748e+01    0.2539282    0.1797794  43.93 0.0005677749    1.393    0.282
       252 -10.0398    163.3962     58.0361   2.5830159075e+01   3.6538014694e+01    0.2763318     0.202094  32.89  0.001414864    1.769    0.435
       253 -10.4645     87.4866     57.4792   4.3597982202e+01   5.4116247777e+01     0.250982    0.2140999  15.84   0.00135064    1.238    0.192
       254 -10.8733     89.0263     53.6612   4.1709562642e+01   5.4447420873e+01    0.5376236    0.2988742 -45.07   0.00236811    1.962    0.490
       255 -11.1562     79.9042     56.8200   4.5965467135e+01   5.5809930289e+01    0.3509468     0.280643  -6.84 0.0008439935    1.428    0.300
       256  -9.9270    131.3322     65.4227   3.4172563866e+01   4.2852310965e+01    0.2459973    0.1641862 -57.13 0.0006538755    1.718    0.418
       257 -10.6634    127.0694     58.3360   3.2941782900e+01   4.5001915317e+01    0.2739116    0.2242007 -38.29 0.0005932574    1.267    0.211
       258  -9.0792    177.2794     56.3133   2.3251229695e+01   3.3643132560e+01    0.1246287    0.1050949  19.92  0.000319358    1.568    0.362
       259 -10.3833    107.0169     54.7336   3.6747516768e+01   5.0252757222e+01     0.287047     0.230435  48.73 0.0006663215    1.180    0.153
       260 -10.9584    103.7211     53.0647   3.7076221114e+01   5.1276333212e+01    0.5330136    0.3416276  17.86  0.001999569    2.430    0.588
       261 -10.1025    143.7534     53.7904   2.8071983711e+01   4.1750868656e+01    0.4270202    0.1975306  74.37  0.001212527    3.231    0.690
       262 -10.1332     27.6498     53.9421   6.8252499154e+01   6.4804981941e+01    0.2466529    0.1834534  25.17  0.001060408    1.367    0.268
       263 -10.0593     62.0016     52.7792   5.1363349998e+01   5.9994650936e+01    0.2256632    0.1909382 -31.31 0.0003587976    1.193    0.161
       264 -11.9012      3.2570     48.2210   8.0356820067e+01   6.8086570731e+01     0.820031    0.3416244 -56.99   0.00386789    1.977    0.494
       265  -9.7318    149.0325     51.0387   2.6292380072e+01   4.0901329238e+01    0.2127822    0.1662418  25.45   0.00100049    1.651    0.394
       266 -10.6593    127.6826     50.6337   3.0352674846e+01   4.6037358212e+01    0.2780994    0.2410429  18.49  0.000963279    1.351    0.260
       267 -11.5116    130.9713     49.2154   2.9202040682e+01   4.5460959390e+01    0.5591461     0.290439  75.29            0    2.636    0.621
       268  -9.9905     81.2531     51.1345   4.3376161993e+01   5.6527423231e+01    0.3318688    0.1529313  46.56  0.001349081    2.052    0.513
       269 -10.0590     73.7541     49.7827   4.5557962712e+01   5.8293223939e+01     0.319989     0.285032  34.27  0.001621223    1.062    0.059
       270 -10.1665     50.5916     43.8001   5.2824333247e+01   6.3619274443e+01    0.3037664    0.2411076 -56.28  0.001087156    1.578    0.366
       271 -10.2465    180.8056    249.6145   6.2209893797e+01  -7.2995714866e-03    0.1668005   0.09062255  33.07 0.0009573727    1.721    0.419
       272  -9.5633     54.4639     29.5785   4.4814555337e+01   6.5280559906e+01    0.2058453    0.1856151  11.20 0.0004864666    1.047    0.045
       273 -10.9703     62.2048     40.1869   4.6210069540e+01   6.2162153738e+01    0.4000246    0.2667397 -50.52  0.001665342    1.844    0.458
       274 -11.7705     65.0435     36.6788   4.3565921590e+01   6.2171393096e+01    0.4053743    0.2593879  49.02 0.0001874453    1.544    0.352
       275  -9.9518     55.5617     49.0150   5.2672365410e+01   6.1826603210e+01    0.2775235    0.2252366  87.73 0.0003745203    1.948    0.487
       276 -10.8560     52.5274     48.9763   5.4020582912e+01   6.2346967944e+01    0.4907708    0.3148887 -17.73  0.002304843    1.945    0.486
       277  -9.1251    141.7067     49.3099   2.7111984445e+01   4.2885887774e+01    0.1400512    0.1320886  82.26 0.0002423078    1.015    0.015
       278 -11.0915    141.3566     45.6264   2.6058600430e+01   4.3485236632e+01    0.4497267    0.3096429  48.52  0.002311146    1.487    0.328
       279 -10.0871    105.1817     47.0590   3.4558455429e+01   5.1875517426e+01    0.2757069    0.2107956  75.45  0.001408539    1.490    0.329
       280  -9.6043     82.5831     46.7491   4.1246186283e+01   5.6973868757e+01    0.1905649    0.1340761 -47.30 0.0009451662    1.606    0.377
       281  -9.9062     62.4621     47.4721   4.9095885867e+01   6.0873562684e+01    0.2286216    0.1281365  50.64 0.0007218268    2.010    0.503
       282  -9.1673    121.4973     46.5785   3.0393703597e+01   4.8103038657e+01    0.1409167       0.1305  71.88 5.550749e-05    1.034    0.033
       283 -10.8217    112.7448     45.2040   3.1976768930e+01   5.0378971648e+01    0.2600924    0.2245622  24.30 0.0005590207    1.276    0.216
       284 -11.3165     72.6999     43.3567   4.3409530296e+01   5.9580680216e+01     0.350103     0.250003  25.39 0.0008711751    1.479    0.324
       285  -9.7240    163.5366     44.5351   2.2100351278e+01   3.8393561910e+01    0.1901037      0.12303  81.23  0.000600623    1.635    0.388
       286 -10.1679    130.9747     42.3593   2.7013942493e+01   4.6422117044e+01     0.298549    0.1920391 -34.38  0.001322535    1.638    0.389
       287 -10.0627    100.0324     43.9609   3.4840217980e+01   5.3527088568e+01    0.2443129    0.2068145 -37.08 0.0008620677    1.263    0.209
       288 -10.9966     96.3197     42.3185   3.5276971319e+01   5.4619393826e+01    0.3626429    0.2677919  21.00 0.0007717943    1.615    0.381
       289 -11.2234     44.9443     43.8128   5.5526206105e+01   6.4528948374e+01    0.4363549    0.3556492 -75.93  0.001540082    1.868    0.465
       290 -11.1216    226.4443     39.9173   1.3983619075e+01   2.5579805447e+01    0.3889708    0.1541136 -44.15  0.001960819    1.998    0.500
       291 -10.0826     83.0963    248.4822   8.2661718830e+01   1.2146509085e+01    0.2900874   0.08352204  34.44  0.001202445    2.551    0.608
       292 -11.1985     89.1922     41.4167   3.7049529972e+01   5.6359739495e+01    0.3043428    0.2752663 -79.67 0.0009555428    1.302    0.232
       293 -12.2892     83.6274     35.8464   3.6589928104e+01   5.8401230172e+01    0.5589994    0.4237318  -4.99  0.000958999    1.565    0.361
       294 -10.6972    236.3290     39.9700   1.3199863201e+01   2.3730247356e+01    0.1914478    0.1718944 -41.54 0.0004474664    1.263    0.208
       295 -10.4532    186.9841     41.0314   1.8119572475e+01   3.3541928474e+01    0.1618263    0.1510097  36.85  0.001052541    1.339    0.253
       296 -10.2708    152.5423     45.3046   2.4025058015e+01   4.0868363152e+01    0.3279251    0.1454548  61.47  0.001388734    2.130    0.531
       297 -10.1536    108.9254     41.0936   3.1472029192e+01   5.1865695995e+01    0.3536502    0.1981253  69.29  0.001521182    2.070    0.517
       298 -10.4719    202.2090     37.1521   1.5563070021e+01   3.0759113350e+01    0.2040126    0.1884196 -89.54 0.0005116619    1.172    0.147
       299  -9.1307    155.2230     38.0584   2.1514235496e+01   4.1181962103e+01    0.1691957    0.1094333 -32.11 0.0008632832    1.631    0.387
       300 -10.2051    135.0320     35.6929   2.4120828581e+01   4.6315011471e+01    0.3615282     0.213521 -41.90  0.001767248    1.738    0.424
       301 -11.0425    247.8842     36.2936   1.1626628868e+01   2.2104436602e+01     0.194609     0.145861 -52.17 0.0002637003    1.038    0.037
       302 -10.6020    110.3626     35.2135   2.9024935480e+01   5.2317882747e+01    0.3377528    0.2373645  44.55  0.001669436    1.390    0.281
       303 -11.1401     95.3621     35.9743   3.3139998418e+01   5.5737047345e+01    0.6358863    0.2429759  56.89  0.001985821    2.475    0.596
       304 -12.8319    240.4239     34.4028   1.1776533174e+01   2.3645355899e+01    0.2333703    0.1804953 -61.69 0.0004042147    1.055    0.052
       305 -10.5951    193.8074     34.7650   1.5842030008e+01   3.2830977586e+01    0.3910691     0.137194 -43.20   0.00132515    2.424    0.587
       306  -9.7825    129.0788     35.7584   2.5247420670e+01   4.7745311209e+01    0.1947038    0.1650034  63.75 0.0004077874    1.093    0.085
       307 -10.9475      9.8224     34.7607   7.1962457738e+01   7.0500105332e+01    0.3410954    0.2727562  37.81  0.002083987    1.540    0.351
       308 -10.7059    226.2859     32.9915   1.2538654347e+01   2.6433905277e+01    0.1675817    0.1221627 -50.17 0.0004146592    1.128    0.113
       309 -10.0832    123.3004     32.9998   2.5461127480e+01   4.9488192773e+01    0.2605126    0.1720672  42.90  0.001309282    1.594    0.373
       310  -9.6071    118.0369     33.1824   2.6603016265e+01   5.0736418434e+01    0.3864818    0.1255619  47.24  0.001332188    3.176    0.685
       311  -9.5873     34.0403     33.5429   5.6781673774e+01   6.8008782891e+01     0.186632    0.1191031  31.63 0.0009935435    1.502    0.334
       312  -9.5405     30.4289     32.0472   5.8134120888e+01   6.8774733740e+01    0.1845414    0.1199298 -41.19 0.0004798309    1.532    0.347
       313  -9.9743     19.0487     30.9979   6.4515088575e+01   7.0357257718e+01    0.2617844    0.2050187  -2.76 0.0009147207    1.142    0.124
       314 -10.0611     15.7261     31.6667   6.6916030236e+01   7.0576172086e+01    0.2217555    0.1525091 -32.78  0.000775119    1.298    0.230
       315 -10.2802    163.1165     28.8314   1.7819892116e+01   4.0440075798e+01    0.3517143    0.1806004 -30.62  0.001157467    2.044    0.511
       316  -9.6336      1.3065     37.2587   7.8392580673e+01   7.0572045983e+01    0.1629886    0.1065257 -65.02 0.0009232783    1.597    0.374
       317 -10.5209     87.1135     20.0429   2.9023193017e+01   5.9612425831e+01     0.240802    0.1679651  48.89            0    1.264    0.209
       318  -9.4191     80.4836     30.5342   3.5407381475e+01   5.9824509948e+01    0.1979322    0.1334563 -12.19  0.000576787    1.822    0.451
       319  -9.9683     80.3108     26.3210   3.3678953568e+01   6.0408999270e+01    0.2470673    0.1878304 -25.23 0.0009335924    1.439    0.305
       320 -10.1731    182.2903    246.6794   6.1511896403e+01   2.3703206027e-01    0.1020521   0.08831938  37.72 0.0002554008    1.604    0.376
       321  -8.5498     65.3174     30.2885   4.0655745968e+01   6.3067212374e+01    0.1389074   0.09660589  19.77 0.0005710523    1.593    0.372
       322 -11.8880    233.9145     27.2597   1.0798214608e+01   2.5653454486e+01    0.2965695    0.1907712 -84.16 0.0003496611    1.523    0.343
       323 -11.5302    197.6031     28.1876   1.3904999101e+01   3.2790393717e+01    0.4624939    0.2090882  83.47  0.002154949    2.490    0.598
       324 -10.4033    101.4688     28.3337   2.8615385603e+01   5.5294769786e+01    0.2967433    0.2170786 -86.25 0.0008739262    1.720    0.419
       325  -9.5216     12.0587     29.4306   6.8384509140e+01   7.1355632018e+01    0.1691451    0.1116772  12.37 0.0003707361    1.449    0.310
       326 -10.7049    176.6940     26.9621   1.5713525690e+01   3.7528077506e+01    0.2315449    0.1961333 -70.30 0.0006829373    1.041    0.040
       327 -10.7236    173.0019     27.4482   1.6254188131e+01   3.8312976563e+01    0.2271535    0.1779747 -86.91 0.0002971175    1.170    0.145
       328  -9.5310    156.7948     28.1999   1.8469539909e+01   4.1999137382e+01     0.170827    0.1414341  54.02 0.0002813596    1.285    0.222
       329  -9.7437    145.6074     27.5072   1.9851206514e+01   4.4746421552e+01       0.2937    0.1949129  -4.76 0.0009689903    2.209    0.547
       330 -11.2811    112.1712     27.4989   2.5847582563e+01   5.2838699161e+01    0.3860609     0.300339  77.73  0.001474461    1.291    0.226
       331 -11.3481    118.3034     27.1898   2.4467603532e+01   5.1394031046e+01    0.4830782    0.3145537  79.80  0.001924301    1.651    0.394
       332 -10.6168     64.8621     19.7807   3.5984973179e+01   6.4549818722e+01    0.3020513    0.2532343  36.40  0.001088534    1.041    0.040
       333 -11.1781     73.1151    244.3210   8.4505632332e+01   1.4098079112e+01    0.4047822    0.3286511  -7.66  0.002610692    1.503    0.335
       334 -12.3492     75.5617    239.7329   8.3542345351e+01   1.4681574768e+01      0.55942    0.4802204 -74.97  0.003234722    1.361    0.265
       335 -10.7625     59.4963     21.6150   3.8923302424e+01   6.5417626909e+01    0.3271713    0.1883491  43.11  0.001096517    1.541    0.351
       336 -11.1187     59.4776     26.2332   4.1123662969e+01   6.4802309240e+01    0.4580166     0.310269  57.11  0.001067799    1.670    0.401
       337 -11.3966     54.7165     24.4798   4.2292968134e+01   6.5968632634e+01    0.3956856    0.2997061  30.71 0.0006286266    1.186    0.157
       338  -9.4802    102.4740    243.4917   7.7858904787e+01   1.0680158699e+01    0.1260105    0.1041477  29.31 0.0001800534    1.012    0.012
       339  -9.8032     76.5398     15.6060   3.0137678634e+01   6.2497735856e+01    0.1720473    0.1656351  -9.10 -2.07781e-05    1.164    0.141
       340 -10.4868     89.0028    240.9811   8.0617832917e+01   1.2815453308e+01    0.1898575    0.1427947 -13.96   0.00112399    1.664    0.399
       341 -10.9189    239.7812     26.1622   1.0185712798e+01   2.4700256509e+01    0.2897457    0.1154421 -51.52   0.00147163    2.013    0.503
       342 -11.4349    215.9904     25.5739   1.1753892255e+01   2.9294717454e+01    0.3162811    0.1954851  67.89  0.001106617    1.696    0.410
       343 -10.1129     59.8820    240.8961   8.7188365761e+01   1.6275786470e+01    0.1814789     0.155995  17.09 0.0009847131    1.239    0.193
       344  -9.5360    115.6748    240.3083   7.4561518013e+01   9.5748895294e+00    0.1262688   0.08648413  50.95 0.0005097506    1.652    0.395
       345 -10.3182    195.6873    238.4604   5.7772283387e+01  -1.5602053318e-01    0.2277403    0.1776987  -4.67 0.0009457225    1.065    0.061
       346  -9.9307     90.1697     25.7632   3.0544786031e+01   5.8245209347e+01     0.195616    0.1704734  71.45 0.0005037562    1.190    0.159
       347  -9.4876     16.4006     26.5301   6.4240414425e+01   7.1467943255e+01    0.1260354    0.1040659 -14.04 8.978075e-05    1.020    0.019
       348  -9.9414    151.8053     24.4428   1.8059695376e+01   4.3607302117e+01    0.2577203    0.1209422 -51.90  0.001138921    2.285    0.562
       349  -9.9161     10.8606     24.5157   6.7074174516e+01   7.2392931895e+01    0.2698154    0.1434749 -27.03 0.0008212915    1.884    0.469
       350 -10.9360     35.1375    237.8871   9.2514925754e+01   1.9518102458e+01    0.2441954    0.1274116  45.72  0.001355682    1.558    0.358
       351 -11.0938     30.8657    234.8902   9.3285446930e+01   2.0547073241e+01    0.3419023    0.2381532  89.05  0.001478091    1.488    0.328
       352 -10.2610     32.0355    230.4542   9.2753499708e+01   2.1337091891e+01     0.208767    0.1645319  11.36  0.001004046    1.480    0.324
       353  -9.3191     18.3149    237.3310   9.6177858654e+01   2.1251240641e+01    0.1065658   0.08709624 -33.57 0.0003395218    1.681    0.405
       354  -8.9756      3.5782    237.4929   9.9333439910e+01   2.2511223794e+01    0.1144155   0.08930635  56.78  0.000169945    1.013    0.013
       355 -11.2982    160.4866    235.1208   6.4221395046e+01   4.6618952372e+00    0.2839195    0.1778421  17.67  0.001099496    1.420    0.296
       356  -9.9703     67.3029    236.0921   8.5099981786e+01   1.6364601635e+01    0.2280152    0.1583339  19.43  0.001329728    1.443    0.307
       357 -11.0976    182.9791    234.0470   5.9540001905e+01   2.0057159971e+00     0.320386     0.202846  29.98  0.001243918    1.474    0.321
       358 -11.7758    185.1688    227.9704   5.8190339649e+01   2.6559121774e+00     0.476266    0.2610899 -15.97  0.002431118    2.148    0.534
       359 -10.0568    159.6357     23.8048   1.6858912821e+01   4.1822997569e+01     0.251491    0.1554824 -53.71  0.001332239    1.598    0.374
       360 -11.0285     39.7871    229.4638   9.0914995388e+01   2.0753339034e+01    0.2944553    0.1989281  73.36  0.001537708    1.504    0.335
       361 -10.3813    224.6151     21.8377   1.0325813187e+01   2.8016335249e+01    0.2288928    0.1521534 -35.16 0.0009967481    1.461    0.316
       362  -9.5088     48.2499     22.8924   4.4421853765e+01   6.7395082400e+01    0.1445876    0.1086383 -32.09  0.000286577    1.422    0.297
       363 -11.5446    249.0257     20.8280   8.5884204087e+00   2.3641482737e+01    0.2438844    0.1568326 -57.50 0.0003615353    1.196    0.164
       364  -9.4659    156.1505     21.7902   1.6725915193e+01   4.2864402091e+01    0.1668795    0.1428867  52.02 0.0004330745    1.285    0.222
       365 -10.4430    121.8910     20.6577   2.1529764234e+01   5.1247692674e+01    0.3541843    0.2413874  33.24  0.001849992    1.753    0.429
       366 -10.0184    243.0368     21.5284   9.0739804419e+00   2.4624041582e+01    0.1493427   0.09754506  84.02 0.0008316468    1.562    0.360
       367 -10.5487    193.1961     20.8889   1.2574215881e+01   3.4548978135e+01    0.2176874    0.1862605  55.58 0.0003025447    1.402    0.287
       368 -10.2780    194.0000     16.7075   1.1511799615e+01   3.4821310828e+01    0.2587958    0.1593412 -81.76  0.001495863    1.545    0.353
       369 -10.1716     58.6403    229.0470   8.6498998781e+01   1.8781924321e+01    0.3036386    0.1282769  43.26  0.001269346    1.999    0.500
       370  -9.5091    169.3026    228.6887   6.1466098877e+01   4.5604280107e+00    0.1116456   0.09552316  47.80 0.0003141646    1.609    0.379
       371  -9.8010     45.6845    244.5332   9.0611451765e+01   1.7121494653e+01    0.1747459   0.08667319  39.51 0.0009432504    1.581    0.367
       372 -10.2585      4.0718    225.6719   9.8774663385e+01   2.4874249796e+01    0.2047208    0.1689592 -34.12  0.001401142    1.651    0.394
       373  -9.7890     43.0262     19.1103   4.5012062614e+01   6.8856586736e+01    0.4055681    0.1767073  43.97  0.001842028    2.137    0.532
       374  -9.9035     16.3033    222.0670   9.5863997902e+01   2.4582276882e+01    0.1673683    0.1353024  71.12 0.0005335281    1.115    0.103
       375 -10.4990     94.2308     17.2500   2.6037069667e+01   5.8254266032e+01     0.212784    0.1660943  45.83 0.0002407239    1.175    0.149
       376  -9.0370    123.6203    221.7401   7.0395735461e+01   1.1922326555e+01    0.1352348    0.0933534   0.42 0.0005874078    1.670    0.401
       377 -10.3241    108.6293     16.3602   2.2512712220e+01   5.4906357876e+01    0.2154985    0.1871011  62.90 0.0001809217    1.019    0.018
       378 -11.5108     48.3279    218.7078   8.8087341408e+01   2.2111129375e+01    0.6217946    0.2592316  18.90  0.002556018    2.860    0.650
       379 -11.0331    244.4957     15.5866   7.8440373994e+00   2.4998902862e+01    0.1895305    0.1416375 -61.45 0.0001223747    1.029    0.028
       380  -9.6428    215.8275     16.3296   9.7676378622e+00   3.0333474267e+01    0.2802826   0.06097277  63.44   0.00110355    4.171    0.760
       381  -8.9064    118.6444     16.7103   2.0744211474e+01   5.2444023659e+01    0.1399767     0.088975  41.84 0.0007026742    1.680    0.405
       382  -8.7885    126.3391     15.2901   1.8956053231e+01   5.0713325191e+01     0.136214   0.08931684  43.05 0.0003180842    1.643    0.391
       383  -9.6015    211.8064    218.8444   5.1763480721e+01   7.6031737260e-01    0.1478982    0.1303976  -7.18  0.001060008    1.301    0.231
       384 -10.5844     70.0373    218.1106   8.2750904489e+01   1.9717382195e+01    0.2412349    0.1562138 -39.12  0.001252583    1.944    0.485
       385  -9.5520    176.3447    218.7283   5.8496865819e+01   5.2501194091e+00    0.1147988   0.09538863  45.90 0.0002620211    1.617    0.382
       386  -9.7307    136.0683    216.8570   6.6858939974e+01   1.1108208034e+01    0.2009085    0.1706265  42.44   0.00121919    1.287    0.223
       387 -10.3049     14.7463    215.4007   9.5874960705e+01   2.6153729927e+01    0.2105045    0.1299292  34.22 0.0006877657    1.444    0.307
       388 -10.3359    165.6986     13.1805   1.3244899871e+01   4.1515244742e+01    0.2275781     0.152554 -88.46 0.0009568519    1.381    0.276
       389 -11.5435     11.7843    210.2666   9.6303212477e+01   2.7536223309e+01    0.4352261    0.2180851  63.32  0.001218718    1.868    0.465
       390 -11.3263      7.7024    215.8264   9.7532011027e+01   2.6663025965e+01    0.2706996    0.2442743  74.83  0.001939127    1.135    0.119
       391 -11.6178      5.4361    210.8017   9.7825910073e+01   2.7944145144e+01    0.4456667    0.1892234 -71.18  0.002035837    2.302    0.566
       392 -11.7079      3.6069    206.0486   9.8038321132e+01   2.9141768468e+01    0.3488984    0.3039475 -84.85   0.00242405    1.193    0.162
       393 -10.0646     91.6604    235.6844   7.9464221626e+01   1.3484700407e+01    0.1267533   0.09287313  -8.60 0.0002977718    1.703    0.413
       394 -10.7798     29.3856    215.3271   9.2400092111e+01   2.4812627751e+01    0.2463791    0.2211215  14.38  0.001118585    1.282    0.220
       395  -9.4956     23.9869    216.0266   9.3732734894e+01   2.5177358265e+01    0.1487884    0.1259375  63.62 0.0004192306    1.044    0.042
       396  -9.7673    110.3800    211.8141   7.2150989259e+01   1.5704361902e+01    0.1825915    0.1206705 -41.69 0.0009423191    1.675    0.403
       397 -12.2493     20.1453    200.9422   9.3719148385e+01   2.8906799718e+01     1.055673    0.2125551 -71.56  0.003615829    4.244    0.764
       398 -10.1128    216.9855    209.2568   4.9268663783e+01   1.5356227005e+00    0.1701061     0.132173 -10.00 0.0007288124    1.014    0.014
       399 -10.0094    148.0196    205.8156   6.2460694562e+01   1.1458226908e+01    0.2663029     0.177094   9.09  0.001363482    1.625    0.384
       400  -9.8605    205.7212    203.8359   5.0364603428e+01   3.7648648328e+00    0.2832912   0.09917506 -42.47  0.001217706    2.814    0.645
       401 -10.3550     28.0029    205.2907   9.2050161437e+01   2.7182886005e+01    0.1783101    0.1468746  48.06  0.000471765    1.077    0.072
       402  -9.1381    188.3034    204.7111   5.3809432196e+01   5.9380898379e+00    0.1089522    0.1022425  53.60 0.0002926367    1.566    0.362
       403  -9.9248     67.4265    203.1948   8.1822680291e+01   2.3300637489e+01    0.2475294    0.1688321  33.39 0.0006232359    1.324    0.245
       404 -10.5426    175.3135    202.0550   5.5963204898e+01   8.1935520268e+00    0.2357712    0.1749704  21.46 0.0004030716    1.243    0.195
       405  -9.0708    113.2622    202.3088   7.0096450640e+01   1.7247202183e+01    0.1342816    0.1017861 -15.10 0.0002305114    1.529    0.346
       406  -9.6060    185.6853    200.6866   5.3635248374e+01   6.9662101514e+00     0.134243    0.0881747  -6.56 0.0002809737    1.640    0.390
       407  -9.3235    120.3028    200.3433   6.8078673634e+01   1.6621795255e+01    0.1427583    0.1022849 -13.48 0.0007039478    1.681    0.405
       408  -9.6619     41.1669    198.1779   8.8132208211e+01   2.7486005347e+01    0.3244045    0.1007163 -76.05  0.001132679    3.726    0.732
       409  -9.9480    134.9624    196.4790   6.3946240160e+01   1.5209096133e+01    0.2001183    0.1778988 -31.56 0.0004740389    1.166    0.143
       410  -9.4771     56.4706    197.4981   8.4060218367e+01   2.5929308759e+01    0.1324047    0.1240748  47.33 9.203785e-05    1.045    0.043
       411 -11.9477     15.6919    191.9504   9.4269946923e+01   3.1386914191e+01    0.4269649    0.3676687 -47.36  0.002073913    1.363    0.266
       412 -11.9556     15.9679    182.1787   9.3538055221e+01   3.3695872155e+01    0.4577438    0.2635059  61.38  0.001804486    1.674    0.403
       413 -10.5263    186.6135    193.2271   5.2144541877e+01   8.0968039577e+00    0.5430642    0.2799955   8.99  0.002138363    3.281    0.695
       414  -9.9213    187.6452    189.6891   5.1307509851e+01   8.5532945625e+00    0.2725249    0.1594603  28.76  0.001355184    1.694    0.410
       415  -9.3920     60.6397    192.3204   8.2389099703e+01   2.6637728401e+01    0.1517271   0.09146839  57.18 0.0001917227    1.769    0.435
       416 -10.2598    145.1006    190.1286   6.0500749212e+01   1.4916418646e+01    0.2272031    0.1931429 -27.27 0.0006067702    1.169    0.144
       417 -10.1960    244.8381    188.1490   4.1102248293e+01   1.2464169822e+00    0.1666859    0.1357073 -22.58 0.0005051969    1.183    0.155
       418 -10.2012    226.1793    188.5611   4.4132255449e+01   3.4707686652e+00     0.157762    0.1024316  14.12 0.0005231714    1.603    0.376
       419  -9.7895     61.9587    184.5247   8.1115587339e+01   2.8326816963e+01      0.21614    0.1840328 -73.11  0.001227852    1.211    0.175
