#   1 NUMBER                 Running object number                                     
#   2 MAG_AUTO               Kron-like elliptical aperture magnitude                    [mag]
#   3 X_IMAGE                Object position along x                                    [pixel]
#   4 Y_IMAGE                Object position along y                                    [pixel]
#   5 X_WORLD                Barycenter position along world x axis                     [deg]
#   6 Y_WORLD                Barycenter position along world y axis                     [deg]
#   7 A_WORLD                Profile RMS along major axis (world units)                 [deg]
#   8 B_WORLD                Profile RMS along minor axis (world units)                 [deg]
#   9 THETA_WORLD            Position angle (CCW/world-x)                               [deg]
#  10 FWHM_WORLD             FWHM assuming a gaussian core                              [deg]
#  11 ELONGATION             A_IMAGE/B_IMAGE                                           
#  12 ELLIPTICITY            1 - B_IMAGE/A_IMAGE                                       
         1 -13.3640     29.6923     59.9039   1.0087273492e+02   6.1482195602e+01     1.276659     1.060132  45.34  0.003023333    1.602    0.376
         2 -12.0521     42.7412     20.9697   8.0406493160e+01   6.7244364974e+01    0.5780141    0.3588921  34.23  0.001688472    1.723    0.420
         3 -12.5310    216.1059     14.3666   3.8132867159e+01   2.9599644511e+01    0.7699145    0.5633561  46.08  0.003002061    1.635    0.388
         4 -11.4795    111.9286     13.7761   5.3646631728e+01   5.5132528672e+01    0.5953948    0.3210958  87.14  0.002020633    4.506    0.778
         5 -11.0209     65.5651     11.0389   6.6148882537e+01   6.4982696561e+01    0.3285478     0.186838  42.12  0.001468899    1.639    0.390
         6 -12.9607    188.6274      7.5902   3.9189177586e+01   3.6895606091e+01    0.9615142    0.4494749 -76.53  0.003778153    3.006    0.667
         7 -12.1124     57.4022      6.6300   6.7069243228e+01   6.6881040240e+01    0.5803724    0.5207067 -42.10  0.003389738    1.645    0.392
         8 -10.7765    167.9830      8.4675   4.1909604500e+01   4.1932643519e+01    0.2299501    0.1751235 -52.31 0.0004251698    1.387    0.279
         9 -10.6655    109.5103      8.8003   5.2235727313e+01   5.6154612351e+01    0.2516074    0.1746059  80.33  0.001013276    1.848    0.459
        10 -11.9587     43.5288      8.4612   7.3876493082e+01   6.8840882742e+01     0.310907    0.2203158  30.95 0.0007656494    1.405    0.288
        11 -11.3941    165.2563      1.8695   4.0293060494e+01   4.3197203778e+01    0.5243702     0.155993  66.99  0.001442967    2.755    0.637
        12 -10.7456     12.5187    227.5246   1.2692005094e+02   2.5017025998e+01    0.2971261    0.1488762  78.86 0.0007610687    1.681    0.405
        13 -10.2723     72.1505    228.2210   1.1591747920e+02   1.8050798381e+01    0.2126841    0.1549234 -88.97 0.0007589075    1.346    0.257
        14  -9.9850    104.4641    225.3842   1.0915846445e+02   1.4006615994e+01    0.2354535    0.1236783 -62.79  0.001201744    2.152    0.535
        15 -10.5587     96.2574    225.2901   1.1081668980e+02   1.5243455926e+01    0.2683869    0.1122604  53.47  0.001176046    2.443    0.591
        16 -10.0273    149.7380    224.1328   9.9696686100e+01   7.0455129623e+00    0.2160555     0.135316  70.66   0.00095676    2.874    0.652
        17  -9.8398     36.3012    223.0289   1.2236416247e+02   2.3434860998e+01    0.1651706    0.1190555  82.63  0.001142463    1.154    0.133
        18 -11.0928    226.8942    221.5560   8.4135268083e+01  -4.9695314042e+00    0.2230484    0.1673272 -47.95  0.001327485    1.982    0.495
        19 -11.7876    238.9720    216.3517   8.1022976716e+01  -6.0535479825e+00     0.597409    0.2231518 -26.40  0.002500758    3.077    0.675
        20 -10.1007    233.2926    219.6454   8.2632974038e+01  -5.6617414519e+00     0.103618    0.1021278 -57.16 0.0007030051    1.684    0.406
        21  -9.8561    211.5518    218.2974   8.6430336451e+01  -2.1497774688e+00    0.2190061    0.1207281 -40.60  0.000970035    2.050    0.512
        22  -9.6638    101.3055    218.6432   1.0901229572e+02   1.5775437352e+01    0.1349117    0.0870906  68.23 0.0007040596    1.721    0.419
        23 -11.5406    222.2578    214.2412   8.3692346073e+01  -3.2415088684e+00    0.3000476    0.1403817  36.61  0.001454848    1.960    0.490
        24  -9.7693    236.6091    210.2075   8.0326160328e+01  -4.8667613348e+00    0.1779295    0.1039203 -20.64 0.0009538696    1.668    0.400
        25 -10.2903    232.5154    210.5368   8.1127836074e+01  -4.2940089842e+00    0.1291199    0.1026038   4.82 0.0003573149    1.013    0.013
        26 -10.2381    116.2652    209.1534   1.0461116644e+02   1.5312457828e+01    0.3783428    0.1162038 -56.57  0.001381234    3.591    0.722
        27  -9.6547     85.5188    209.0337   1.1120756773e+02   2.0033706462e+01    0.1829834    0.1007023  83.60 0.0008101182    2.571    0.611
        28  -9.8993     98.6135    205.3965   1.0794120498e+02   1.8845816539e+01    0.2473365    0.1194551 -78.20 0.0009588739    3.303    0.697
        29  -9.6545    185.6485    204.3321   8.9066355349e+01   4.3441993656e+00    0.1311315    0.1078779  70.19 4.858876e-05    1.778    0.438
        30 -10.6679     49.6700    202.3771   1.1808888614e+02   2.6147425610e+01    0.3349906    0.1256389  53.47  0.001485268    2.587    0.613
        31 -10.5394    149.4975    198.5382   9.5717317605e+01   1.1762487833e+01    0.2974065    0.1983119 -86.17  0.001262449    2.824    0.646
        32 -10.0222      2.1906    199.2417   1.2732232972e+02   3.1590593185e+01    0.1623236   0.09612292  67.77  0.001064692    1.363    0.266
        33 -10.0623    112.7573    198.1507   1.0381833217e+02   1.8119908400e+01    0.2384879    0.1352608  71.06 0.0009532396    2.856    0.650
        34 -12.0147    161.3938    193.2312   9.2189822668e+01   1.0649351849e+01    0.5074716    0.4473696 -56.85   0.00179927    1.306    0.234
        35 -12.1561    158.6725    191.3097   9.2438029205e+01   1.1511513393e+01    0.6213575    0.4219492 -79.83  0.002567398    2.682    0.627
        36  -9.8183     66.3213    194.6501   1.1373893228e+02   2.5745213551e+01    0.1396705   0.08399723  69.07 0.0006446438    1.744    0.427
        37 -10.0504    109.9910    186.8145   1.0274121152e+02   2.0989712033e+01    0.2472746     0.144108  61.00   0.00108451    2.081    0.519
        38 -10.0357     94.6080    186.8349   1.0632453647e+02   2.3439982013e+01    0.1986426    0.1251289 -77.89 0.0009544665    1.820    0.451
        39  -9.7206     34.3491    187.6703   1.2002129421e+02   3.1062853184e+01    0.1340735   0.07351162  66.74 0.0007048787    1.764    0.433
        40 -10.6445    183.4109    183.5418   8.5619176568e+01   8.4181819958e+00    0.3966779    0.2385493 -46.00  0.001852499    1.812    0.448
        41  -9.8569    223.6998    183.6734   7.7584406929e+01   1.1705023437e+00    0.1415371   0.09520444   0.24 0.0006008835    1.637    0.389
        42 -10.6700    147.8662    180.5680   9.2884862218e+01   1.5641539629e+01    0.2887917    0.2010173 -70.20  0.001332685    1.957    0.489
        43  -9.6393    137.9792    179.4858   9.4966457458e+01   1.7688858765e+01    0.2095776    0.1162636  59.09 0.0008096996    2.481    0.597
        44 -10.0842    192.0016    178.5093   8.2808374907e+01   7.7382785219e+00    0.2199116    0.1345423  39.69 0.0008883783    1.584    0.369
        45  -9.5075     28.4073    176.7905   1.2036290432e+02   3.4105523168e+01    0.1652941   0.09512331 -66.11 0.0003650281    1.563    0.360
        46  -9.6178     12.5068    176.4784   1.2381275259e+02   3.5622306975e+01    0.1200969   0.09122109  83.42 0.0001493278    1.036    0.035
        47  -9.8275    159.3176    175.6335   8.9329567095e+01   1.4494009181e+01     0.148286    0.1175792  82.82 0.0007038558    1.779    0.438
        48  -9.8233     76.9811    175.5102   1.0889873462e+02   2.8617641641e+01    0.2054458   0.09305556  55.45 0.0008098715    2.603    0.616
        49 -10.2296     38.2536    174.7910   1.1794858936e+02   3.3561925737e+01    0.1653101    0.1383864 -57.28  0.001067932    1.349    0.259
        50 -10.1794    176.4906    172.0041   8.4776421779e+01   1.1911984287e+01    0.2234479    0.1432411 -40.92  0.001034242    1.594    0.373
        51 -11.2202     44.3201    171.6607   1.1621141480e+02   3.3629773242e+01    0.4202707    0.1867495  53.81  0.001912744    2.363    0.577
        52 -10.2117     44.3322    168.3353   1.1583963195e+02   3.4405077522e+01    0.1375937    0.1121427  83.57 0.0006329951    1.069    0.064
        53 -11.7094     55.6016    167.8616   1.1306674663e+02   3.3214053534e+01    0.5888934    0.3100179  88.44  0.002599527    2.346    0.574
        54 -11.2642    121.2187    169.4676   9.7125080715e+01   2.2906209650e+01    0.3132608    0.2421834 -83.69  0.001480478    1.552    0.356
        55  -9.7087    168.3243    169.6502   8.6093454792e+01   1.3962362623e+01    0.1480206    0.1201063  85.10 0.0007048811    1.752    0.429
        56 -11.0620    138.8411    159.8250   9.0943333271e+01   2.1784282311e+01    0.4231029    0.2145995 -27.34  0.001308971    3.887    0.743
        57 -11.6219    106.8607    158.1618   9.8619235617e+01   2.8018276976e+01    0.6998686    0.4555689  74.65  0.002968396    2.212    0.548
        58  -9.9802     92.3460    160.6570   1.0278349690e+02   2.9815675988e+01    0.1542862    0.1053841  73.17 0.0007045684    1.793    0.442
        59 -10.6061     51.9147    159.3340   1.1289231078e+02   3.5679863865e+01    0.3052621    0.1729266 -87.92  0.001259198    1.934    0.483
        60 -10.6546     22.3280    159.3165   1.2014731738e+02   3.8698919617e+01    0.3208318    0.1851537  77.06  0.001743863    1.709    0.415
        61 -11.1498    167.3784    156.8345   8.3572644674e+01   1.6756037221e+01    0.3760943    0.3272163 -84.85  0.001917868    1.462    0.316
        62 -11.5711    118.1769    157.4245   9.5594694434e+01   2.6196742238e+01     0.368207    0.3494624  35.43   0.00118757    1.079    0.073
        63 -10.7237    122.5052    157.5111   9.4518727251e+01   2.5387341697e+01    0.2765572    0.2207235   6.70 0.0006983507    1.588    0.370
        64 -10.5078    218.5005    156.4573   7.2813662411e+01   6.6810716206e+00    0.3114219    0.1321187 -37.40  0.001226723    2.220    0.550
        65  -9.8573    196.1981    156.8092   7.7308190823e+01   1.0951499655e+01    0.3380783    0.1064914 -45.59  0.001041975    3.520    0.716
        66 -10.2349     79.7757    164.3512   1.0657793855e+02   3.0836950695e+01    0.2982846    0.1519216  84.72    0.0009539    4.196    0.762
        67  -9.6664     68.1877    154.4010   1.0801779340e+02   3.4837809022e+01    0.1987948    0.1169661  48.21 0.0009466299    1.759    0.432
        68 -10.0291     23.6538    153.9272   1.1929353575e+02   3.9849102910e+01    0.1818668    0.1341649 -83.55 0.0006607544    1.111    0.100
        69 -10.1643     40.6292    153.0895   1.1495663560e+02   3.8424291629e+01    0.1896363    0.1390054 -73.07 0.0006163438    1.169    0.145
        70 -10.6774    240.9987    150.0009   6.7337222919e+01   3.6308065363e+00    0.2108102    0.1700365 -60.69   0.00114398    1.721    0.419
        71 -11.0654    107.7230    146.0337   9.6024718324e+01   3.0735251704e+01    0.5280216    0.3018878  68.34  0.001859235    3.118    0.679
        72 -10.6752    189.7668    150.2982   7.7183130242e+01   1.3493610864e+01    0.3621997    0.1989269 -53.33  0.001414137    2.327    0.570
        73 -11.2516    148.9108    145.4072   8.5357272873e+01   2.2960171925e+01    0.4943668    0.3312131  85.40  0.001809736    2.914    0.657
        74 -10.1584     55.7744    146.1640   1.1005034723e+02   3.8413809788e+01     0.242547    0.1260343  69.50  0.000955024    2.874    0.652
        75 -10.3513    124.9559    143.2763   9.0908290722e+01   2.8210219654e+01    0.3134386    0.1981813 -78.89  0.001162787    2.668    0.625
        76 -10.4181    181.8727    141.7822   7.6897095700e+01   1.6815372940e+01    0.2910335    0.2046817 -66.53   0.00123418    2.066    0.516
        77 -10.5549     83.3072    132.0849   9.9908621290e+01   3.8136984889e+01    0.3896901    0.2423367 -89.93  0.001562259    2.500    0.600
        78 -11.9266     98.6809    128.0740   9.4664896598e+01   3.6616087003e+01    0.7949263    0.4586723 -82.28  0.002621971    3.590    0.721
        79 -10.0703    117.4669    125.6528   8.8843206834e+01   3.3759908669e+01    0.3011585    0.1878363  66.41    0.0011354    2.492    0.599
        80 -10.2208     59.0016    124.0398   1.0542965586e+02   4.3467224964e+01    0.3257615    0.1849013 -88.28  0.001315589    2.613    0.617
        81 -11.0316     42.9416    122.1187   1.0986735691e+02   4.5742806044e+01    0.6338354    0.2704012 -82.47  0.002112671    3.931    0.746
        82 -10.9040     15.0029    120.9923   1.1785566246e+02   4.8399091746e+01    0.3548067    0.2715589 -21.72  0.001728987    1.668    0.401
        83 -11.8043    193.2134    118.2361   6.8720010184e+01   1.8979531314e+01    0.6835001    0.4806081 -63.91  0.002295882    1.907    0.476
        84 -10.4221    132.2922    131.8613   8.6373193706e+01   2.9389442873e+01    0.2560981    0.2021378 -69.26  0.001192092    1.481    0.325
        85 -11.5630    140.8016    117.1709   8.0475293427e+01   3.0905430970e+01     0.530419    0.2726604 -54.86  0.001909491    2.321    0.569
        86  -9.9441      2.7999    117.6134   1.2091162159e+02   4.9966661789e+01    0.2791542    0.1116587  82.70   0.00109065    3.510    0.715
        87 -10.5708    108.4152    112.9395   8.8222322750e+01   3.8454100855e+01    0.6438158    0.2790817 -60.55  0.001981132    3.431    0.709
        88 -10.8535     78.6941    112.5599   9.7037273551e+01   4.3593453197e+01    0.5044941    0.2805675 -82.98  0.001614687    4.042    0.753
        89 -11.3054    174.3849    110.6439   7.0718040826e+01   2.4733437323e+01    0.4950284    0.3403712 -46.09   0.00121812    1.461    0.315
        90 -13.3602    157.7708    110.3274   7.4439246170e+01   2.8602719809e+01     1.491326    0.8232669  58.00  0.005600965    2.231    0.552
        91 -12.6005    141.3344    105.2847   7.7126084384e+01   3.3364999693e+01    0.6112233    0.4101512  62.27  0.002544539    1.874    0.466
        92 -12.3314    142.6096    101.0588   7.5613182879e+01   3.3973132217e+01    0.7058125    0.4632559  64.56  0.002861216    2.017    0.504
        93 -10.2594     91.7513    110.8581   9.2631263314e+01   4.1919805142e+01    0.4722953    0.1797568 -60.04  0.001450687    3.446    0.710
        94 -10.9874     27.3039    121.1510   1.1432740925e+02   4.7424446034e+01    0.6251566    0.2727362  84.46  0.002093218    4.469    0.776
        95 -11.2476     14.8190    109.7422   1.1641891871e+02   5.1106532244e+01    0.6375678    0.3708509 -89.85   0.00337594    1.804    0.446
        96 -11.6718     44.7758    101.2517   1.0539936712e+02   5.0636334697e+01    0.6869979    0.3954358 -88.70  0.002891577    2.720    0.632
        97 -12.4822    127.2460    100.5077   7.9521392558e+01   3.7462586373e+01    0.6488206    0.6315234  61.93  0.003129215    1.100    0.091
        98 -11.4461    107.6543     99.3624   8.4792091123e+01   4.1703824996e+01    0.7257411    0.4322381 -66.16  0.002723528    2.536    0.606
        99 -10.5579     20.6056     99.2317   1.1298135642e+02   5.3219690725e+01      0.57706    0.2550485  87.99  0.001938655    4.677    0.786
       100 -10.3068     94.8433     97.5011   8.8167929885e+01   4.4495563727e+01    0.3082857    0.1994804 -64.73 0.0009927503    1.933    0.483
       101 -10.6957     63.2861     96.3253   9.8098641025e+01   4.9643458708e+01    0.3971929    0.2233527 -84.54  0.001303279    4.240    0.764
       102 -12.6246    170.3947     91.1961   6.6245202070e+01   2.9452419751e+01    0.5636553    0.4434399 -50.31  0.001177796    1.315    0.240
       103 -11.6643    114.8980    102.3833   8.3520026618e+01   3.9604488352e+01    0.8605487    0.2434958  41.96  0.002502489    3.664    0.727
       104  -9.9682      4.4848     91.4798   1.1704601039e+02   5.6017964962e+01    0.2244136    0.1009643 -82.53  0.001035888    2.337    0.572
       105 -10.4276     34.2254     87.1644   1.0600068002e+02   5.4989378982e+01    0.5649735    0.1423754 -60.80  0.001966932    3.210    0.688
       106 -11.0301     86.8169     86.9931   8.7729031506e+01   4.8245791917e+01    0.3969511    0.3102356  60.46  0.001974485    1.645    0.392
       107 -10.5026     48.9874     85.4948   1.0034351547e+02   5.3904107020e+01    0.3617201    0.2228113  75.68  0.001440599    3.407    0.706
       108 -10.5974     45.3676     81.8130   1.0071787072e+02   5.5142868090e+01    0.2607026    0.2213415 -59.82 0.0008386926    1.161    0.139
       109  -9.3864     44.3305     86.3114   1.0220601132e+02   5.4215833563e+01     0.142838   0.08905478 -32.32 0.0004534617    1.671    0.402
       110 -10.6279    104.8451     83.6433   8.1001745053e+01   4.5669167804e+01    0.3681978    0.2929111  68.45  0.001768414    1.663    0.399
       111  -9.5854    140.6666     83.3424   7.0890689555e+01   3.8000509959e+01    0.1617067    0.1258121 -77.32 0.0007050827    1.756    0.431
       112 -10.4228     24.1306     80.6639   1.0822699210e+02   5.7317654304e+01     0.358302    0.1964892 -84.32  0.001617423    2.620    0.618
       113  -9.5454      1.4145     78.6963   1.1608278711e+02   5.9103183063e+01    0.1774909   0.08084608 -59.07 0.0008712437    1.569    0.363
       114  -9.5186    153.2043     77.7990   6.6158451417e+01   3.6079655271e+01    0.2145154    0.1793856  18.67 0.0004613574    1.328    0.247
       115 -10.8174     62.4051     70.7923   9.1315018521e+01   5.5515139490e+01    0.3595573    0.1885445 -46.39  0.001649117    1.685    0.407
       116 -10.8584     82.3598     73.2845   8.4999845668e+01   5.1940169086e+01     0.350274    0.2486553 -82.78  0.001470358    2.708    0.631
       117  -9.8317     95.2300     72.2507   8.0382638378e+01   4.9856467912e+01    0.2379395    0.1146971 -51.50 0.0008877664    2.426    0.588
       118 -10.9881     51.8802     70.6446   9.5216171595e+01   5.6897726447e+01    0.3231785    0.2797339 -67.59  0.001208493    1.358    0.264
       119 -11.7805     41.6253     62.8517   9.6880677388e+01   5.9717757339e+01     0.610055     0.425629 -60.49  0.003257523    1.524    0.344
       120 -10.5914     39.3620     52.7305   9.4591767807e+01   6.2042344649e+01    0.6016246    0.1476822 -43.88  0.001888372    3.283    0.695
       121 -11.3729    221.2486    248.6663   8.9653299990e+01  -7.6400020117e+00    0.5418519    0.2311376  45.01  0.002554572    2.857    0.650
       122 -11.5225     19.3932     59.8461   1.0512923973e+02   6.2293769341e+01    0.3778769    0.2319704 -42.67  0.001273287    1.298    0.230
       123 -10.3422    196.3908     67.9426   5.4732552342e+01   2.7198034807e+01    0.3517583    0.2176202  57.74  0.001595952    1.645    0.392
       124 -12.1006    239.4260     65.3533   4.7881187280e+01   1.7674763311e+01    0.5430186    0.3530871  88.43   0.00269035    1.946    0.486
       125 -11.8130    231.3688     59.5769   4.7493780568e+01   2.0291380741e+01    0.4912773     0.280567 -54.16  0.001146706    1.777    0.437
       126 -11.2975      9.1057     56.7267   1.0864096996e+02   6.3597052346e+01    0.4820799    0.3399436 -85.53  0.002709932    1.829    0.453
       127  -9.8531    119.5010     56.9969   6.7870423352e+01   4.7636955759e+01    0.2099491    0.1231188 -55.87 0.0008099908    2.489    0.598
       128 -10.1968     54.1924     54.5563   8.9113706249e+01   5.9933362123e+01     0.341084    0.1541222 -58.38  0.001255342    3.452    0.710
       129  -9.3090     62.6560     54.3279   8.5702194088e+01   5.8811672403e+01    0.1267702    0.1114149 -89.93   0.00070508    1.746    0.427
       130 -10.4817    161.5781     53.3519   5.6792894129e+01   3.8102603879e+01    0.2980296    0.1774631  54.82 0.0007299927    1.617    0.382
       131 -11.4300    148.8671     52.0755   5.9017952723e+01   4.1455914253e+01     0.390329    0.2100331  56.25  0.001208681    1.809    0.447
       132  -9.7776    193.5426     46.5165   4.9265432792e+01   3.1097795707e+01    0.1434841     0.132395 -72.20 8.482427e-05    1.041    0.040
       133 -11.5699     74.8290     43.4173   7.6968134367e+01   5.8837680848e+01    0.4140275    0.3680165  74.86  0.001749848    1.695    0.410
       134 -10.9402     69.7630     42.1771   7.8355265311e+01   5.9895333593e+01    0.3372819    0.2873509 -51.41  0.001971496    1.516    0.340
       135 -11.4525      7.7175     43.1397   1.0564052980e+02   6.6502175804e+01    0.4990126    0.2806004  34.69  0.002875486    2.389    0.581
       136 -12.1869     41.1988     37.8328   8.8373481277e+01   6.4669058666e+01    0.5720352    0.3567568  15.33  0.002198047    1.699    0.411
       137  -9.6019    146.5788     36.4694   5.4346484606e+01   4.4217001427e+01    0.1416508    0.1360172  50.86 8.729851e-05    1.022    0.022
       138 -11.5247    120.3524     34.5203   5.9538468471e+01   5.0805328965e+01    0.3376617    0.2626877  40.84 0.0007015016    1.193    0.162
       139 -10.8488     49.8640     34.7195   8.3318830907e+01   6.4119382506e+01    0.3439271    0.2124399  23.07  0.001198951    1.654    0.396
       140 -10.2762     73.8939     32.5225   7.2838824933e+01   6.0714996110e+01     0.313047     0.199439  59.21  0.001467166    2.485    0.598
       141 -11.4636    104.1180     30.0837   6.2123170404e+01   5.5045643978e+01    0.4361265    0.2951927  60.95 0.0009308518    1.680    0.405
       142 -12.2303    204.4060     22.1834   4.1304101766e+01   3.1510691642e+01    0.5502945    0.3051526 -77.67  0.002484704    2.177    0.541
       143 -11.5143     21.7219    248.3741   1.2640265029e+02   2.0250847051e+01     0.222491     0.179728  21.45  0.001701167    1.947    0.486
       144 -11.2678    239.4271     20.5025   3.7469443654e+01   2.3624236539e+01     0.284684    0.2025421  87.12 0.0006587175    1.350    0.259
       145  -9.5980    187.5415    248.4931   9.5829931259e+01  -2.6989591349e+00    0.2278473   0.09376984  28.90  0.001022688    2.412    0.585
       146 -10.3307    222.8874     16.2313   3.7948251888e+01   2.7822740759e+01    0.2955483    0.1975901  58.06  0.001478079    1.587    0.370
       147 -10.1752     89.7359     18.4398   6.1484131322e+01   5.9504512339e+01    0.3017727    0.2016333  66.28  0.001520954    2.004    0.501
       148 -10.1586     46.6857     16.6623   7.6574278732e+01   6.7318393279e+01    0.2588619    0.1552674 -10.43 0.0009032487    1.683    0.406
       149  -9.4844     69.7898    245.7702   1.1787014884e+02   1.5108145120e+01    0.1640971    0.1044188  63.78  0.001024532    1.353    0.261
       150 -10.2260     32.9213    242.4787   1.2419940979e+02   2.0116972085e+01    0.1582454   0.08637422  44.06 0.0008744294    1.564    0.361
       151 -12.0888     21.9359    238.8479   1.2588241234e+02   2.1951358132e+01    0.5461165    0.2042284  62.87  0.002912869    2.356    0.575
       152  -9.9469      8.0331    240.5200   1.2828579692e+02   2.3026178937e+01     0.144405   0.08460034  43.59 0.0006207614    1.565    0.361
       153  -9.6319      2.7427    240.3945   1.2914102412e+02   2.3546739953e+01     0.120198    0.0882241  41.29   0.00094204    1.542    0.351
       154 -10.1004    109.3168    232.8374   1.0904193856e+02   1.1900225864e+01    0.2193214    0.1365209  47.59 0.0006533123    1.355    0.262
       155 -10.3902     14.5138    231.4812   1.2677443571e+02   2.4071972485e+01    0.2259672   0.08901288  59.59  0.001195871    2.064    0.515
