#   1 NUMBER                 Running object number                                     
#   2 MAG_AUTO               Kron-like elliptical aperture magnitude                    [mag]
#   3 X_IMAGE                Object position along x                                    [pixel]
#   4 Y_IMAGE                Object position along y                                    [pixel]
#   5 X_WORLD                Barycenter position along world x axis                     [deg]
#   6 Y_WORLD                Barycenter position along world y axis                     [deg]
#   7 A_WORLD                Profile RMS along major axis (world units)                 [deg]
#   8 B_WORLD                Profile RMS along minor axis (world units)                 [deg]
#   9 THETA_WORLD            Position angle (CCW/world-x)                               [deg]
#  10 FWHM_WORLD             FWHM assuming a gaussian core                              [deg]
#  11 ELONGATION             A_IMAGE/B_IMAGE                                           
#  12 ELLIPTICITY            1 - B_IMAGE/A_IMAGE                                       
         1 -13.7996    189.6622     26.2775   6.3383568404e+01   3.4906618830e+01     1.623013     1.084544  15.88  0.001854526    2.831    0.647
         2 -10.9545     57.4046      6.1866   8.5000305378e+01   6.5070886418e+01    0.1849226    0.1226391  42.06   0.00107281    1.407    0.290
         3 -11.6758    208.9035      1.9322   5.5849553762e+01   3.3170504397e+01    0.5830166    0.1680561  72.59  0.002166665    2.956    0.662
         4 -10.0320      5.2440    236.4261   1.4709676725e+02   2.3846034435e+01    0.1195168   0.09996513  53.63 0.0007281051    1.416    0.294
         5 -19.3698     27.7994    140.7401   1.3319405859e+02   4.3432319329e+01     20.46422     4.837532 -68.95   0.06464744    4.116    0.757
         6  -9.5589     66.5181    233.0612   1.3541399553e+02   1.7172681631e+01    0.1771258    0.1539348  56.68 -0.0001669932    1.203    0.169
         7  -9.8047    164.4711    205.9766   1.1039372694e+02   6.4427973749e+00    0.2095117    0.1904118  34.80 0.0004607898    1.045    0.043
         8 -11.2186    125.2476    204.2393   1.1888023616e+02   1.4045271050e+01    0.2544836    0.1796645 -54.71  0.001265653    1.475    0.322
         9 -11.9541     46.3689    204.1639   1.3658242713e+02   2.6250644098e+01    0.2147299    0.1759565  69.73 0.0002965606    1.103    0.093
        10 -11.4501    193.5526    193.6185   1.0182026958e+02   3.4843965643e+00    0.7358521    0.4774932 -59.73  0.003346619    2.004    0.501
        11  -9.2607     94.3258    205.3019   1.2609592931e+02   1.9104204480e+01    0.1315802    0.1121985 -20.11 0.0003178681    1.639    0.390
        12 -10.5138     64.2905    193.0067   1.3128786873e+02   2.6510435881e+01    0.5068523    0.2407497  50.57  0.002255852    2.114    0.527
        13  -9.9049     78.2431    184.3839   1.2679598593e+02   2.6561859692e+01    0.2632625     0.185255  62.89 0.0004635034    1.453    0.312
        14  -9.4727     68.8105    196.8515   1.3075169670e+02   2.4965716455e+01    0.1828229    0.1520194  86.47 0.0003209326    1.061    0.057
        15 -12.0912     73.7158    191.9601   1.2896165818e+02   2.5416234812e+01    0.7383716    0.6295301  47.30  0.003568296    1.229    0.186
        16  -9.1441    180.2046    192.4181   1.0441079782e+02   6.2421370549e+00     0.200531    0.1352013  51.66 0.0004611974    1.611    0.379
        17 -10.7924    109.6382    189.1770   1.2001317894e+02   2.0272046444e+01    0.2122119    0.1298644 -48.65 0.0006937548    1.725    0.420
        18 -11.9885    114.6909    185.0469   1.1808784773e+02   2.0347835227e+01    0.6227109    0.2227041 -55.20  0.002152044    2.788    0.641
        19 -10.9902    207.1221    181.1605   9.6538362020e+01   3.3860205978e+00    0.4158246    0.3183413  29.81  0.002169344    1.357    0.263
        20  -9.8617    211.5163    178.5368   9.5126651366e+01   3.0751625080e+00    0.2415274    0.1834026 -30.76 0.0007989188    1.279    0.218
        21 -10.5375     99.4318    180.6774   1.2104285049e+02   2.4060998139e+01    0.2617997    0.2460344 -51.44 0.0006340677    1.168    0.143
        22 -11.3649     84.1451    176.9194   1.2418982198e+02   2.7469140834e+01    0.4498499    0.2553854 -47.13  0.001668231    1.917    0.478
        23 -11.6981     87.2723    172.3675   1.2265323074e+02   2.8088534071e+01    0.4681648    0.3141996 -69.00  0.001433042    1.463    0.316
        24 -10.7922    196.0338    170.8698   9.6648779283e+01   7.5735478056e+00    0.3803293    0.3253755 -29.83  0.001071099    1.153    0.133
        25  -9.6181    193.7013    165.0953   9.5898635429e+01   9.2276802357e+00    0.2880857    0.2198576 -70.64  0.001358323    1.678    0.404
        26 -10.5208    177.0017    218.4840   1.0994148587e+02   1.7074804246e+00    0.2244529    0.1282407  39.12  0.001046451    1.632    0.387
        27 -12.1368     47.0589    216.6234   1.3770546403e+02   2.3346581503e+01    0.3579277    0.1872241  53.04  0.001047013    1.750    0.429
        28  -9.6151    125.3217    172.3219   1.1312956119e+02   2.1394957602e+01    0.1529649    0.1227379 -13.67 0.0002898505    1.675    0.403
        29 -11.9972     98.9411    155.7397   1.1658713948e+02   3.0236673365e+01    0.6991802    0.4394962 -33.45   0.00212633    2.106    0.525
        30 -11.8202     64.8539    155.9636   1.2566919661e+02   3.5470372915e+01    0.5489834    0.2823423  54.47  0.001633856    2.352    0.575
        31 -11.5351     60.8003    215.2236   1.3470566899e+02   2.1853546053e+01    0.4686486    0.2208248  60.13  0.002101401    2.268    0.559
        32 -10.7855    133.6602    142.4010   1.0466208684e+02   2.6842347414e+01    0.6840435    0.1996665 -53.30  0.001850944    3.948    0.747
        33 -11.4937     97.9797    140.7324   1.1374398263e+02   3.4077496441e+01    0.2851895    0.2728485 -26.97  0.000433814    1.125    0.111
        34 -11.8078    109.4344    140.4701   1.1057044150e+02   3.2071196635e+01    0.6064217    0.3282991 -38.35   0.00234253    2.164    0.538
        35  -9.5584     56.4688    210.1840   1.3507229197e+02   2.3575337423e+01     0.338264    0.2771526   3.69  0.001970832    1.934    0.483
        36  -9.9431     82.8804    133.8704   1.1648853357e+02   3.8259281425e+01    0.2022653    0.1712839  82.05 0.0004562308    1.319    0.242
        37 -12.1312    116.8696    130.1853   1.0618825463e+02   3.3094383944e+01     0.582521     0.449329   0.97  0.001991024    1.787    0.440
        38 -10.6223     67.5403    211.4770   1.3284226617e+02   2.1761151721e+01    0.8160751    0.2656961  35.27  0.003088494    3.229    0.690
        39 -10.7645    135.6417    126.5869   1.0038273803e+02   3.0081025104e+01     0.649503    0.1475863 -48.19  0.001639858    4.442    0.775
        40 -10.7574    105.8234    130.8314   1.0935734272e+02   3.5049013042e+01    0.3600009    0.3212006 -82.13  0.001212247    1.191    0.160
        41 -10.5357    104.1128    127.0784   1.0894982005e+02   3.6252863962e+01    0.3213226    0.2749373 -25.46 0.0007327751    1.286    0.222
        42 -10.7228    111.4683    119.3457   1.0501481464e+02   3.6661595584e+01    0.3158404    0.2629198   3.27 0.0006478867    1.457    0.314
        43 -12.4165     68.2665    116.1440   1.1688156950e+02   4.4671224156e+01    0.5376956    0.3040219  35.74  0.001817161    1.918    0.479
        44  -9.6443    167.9175    112.7897   8.9215990224e+01   2.5893927482e+01    0.3618077    0.2418818  89.29  0.001400148    2.394    0.582
        45 -12.0047     64.7583    206.0367   1.3280406757e+02   2.3395819392e+01    0.5918503    0.3292249 -50.05  0.001521316    2.114    0.527
        46  -9.9936    184.3172    216.6497   1.0808509239e+02   7.5302811618e-01    0.1359899     0.110816  78.80  0.000454869    1.734    0.423
        47 -10.8277    115.3227    110.4905   1.0167925080e+02   3.7894629475e+01    0.2813489    0.1382686 -47.00  0.001082395    1.991    0.498
        48  -9.2173    205.8094    110.1735   8.1023869085e+01   1.7792265187e+01    0.1931886    0.1778132  -5.56 0.0005177523    1.295    0.228
        49 -10.1963     78.9685    210.4523   1.3022475912e+02   2.0325559810e+01    0.2852459    0.1990958 -55.70  0.001537014    1.538    0.350
        50 -11.1541    173.6429     72.4019   7.7577568720e+01   3.2153824573e+01    0.4308092    0.2861933 -87.91 0.0009089592    2.018    0.504
        51 -11.9089    171.9054     45.5969   7.0837715119e+01   3.6654779062e+01    0.4000604    0.3168151  66.31 0.0007635782    1.150    0.130
        52 -12.3794    184.8703     32.8867   6.5625181648e+01   3.5230645902e+01    0.5855101    0.4121788  49.97  0.002642829    1.513    0.339
        53  -9.6307    168.4375    248.4798   1.1660360348e+02  -2.1866023618e+00    0.1292257    0.1123321  34.04 4.579758e-05    1.022    0.022
        54 -11.1436    171.4086    239.4167   1.1459982561e+02  -1.1270799265e+00    0.2786923    0.2151961  66.76  0.001548967    1.685    0.407
