#   1 NUMBER                 Running object number                                     
#   2 MAG_AUTO               Kron-like elliptical aperture magnitude                    [mag]
#   3 X_IMAGE                Object position along x                                    [pixel]
#   4 Y_IMAGE                Object position along y                                    [pixel]
#   5 X_WORLD                Barycenter position along world x axis                     [deg]
#   6 Y_WORLD                Barycenter position along world y axis                     [deg]
#   7 A_WORLD                Profile RMS along major axis (world units)                 [deg]
#   8 B_WORLD                Profile RMS along minor axis (world units)                 [deg]
#   9 THETA_WORLD            Position angle (CCW/world-x)                               [deg]
#  10 FWHM_WORLD             FWHM assuming a gaussian core                              [deg]
#  11 ELONGATION             A_IMAGE/B_IMAGE                                           
#  12 ELLIPTICITY            1 - B_IMAGE/A_IMAGE                                       
         1 -15.7923    247.3890     66.0828   1.2517331414e+01   1.6515398076e+01     1.927681    0.9608923 -38.68  0.009582525    1.850    0.460
         2 -16.5222    231.9795     44.8416   9.6876433140e+00   2.2819303782e+01      2.14473     1.416748 -69.85   0.01114666    1.367    0.268
         3 -17.2834    243.5305     19.0412   3.4162819534e+00   2.3775223520e+01     4.324738     1.773652 -38.35   0.02191666    2.255    0.557
         4 -16.2878    127.0165     43.5126   2.5418850317e+01   4.7745094304e+01     1.611681     1.151341  59.79  0.008460923    1.304    0.233
         5 -12.3558    214.1876      2.8821   2.3738015264e+00   3.1871327472e+01    0.1863557    0.1254309 -68.80 0.0005703129    1.235    0.190
         6 -12.1873    146.1918    154.4120   5.0797127391e+01   2.1227613670e+01    0.2278827    0.1437493  53.77 0.0009530382    1.703    0.413
         7 -11.5540    137.6638    153.3482   5.2660490217e+01   2.3216198134e+01    0.1654155    0.1225301  83.16 0.0007047558    1.780    0.438
         8 -13.1437    163.8551    150.7123   4.5841166406e+01   1.8394282457e+01    0.2499145    0.2012002  23.14  0.001175704    1.438    0.305
         9 -11.6813    173.3324    145.3246   4.2527388602e+01   1.7574107771e+01    0.1562338    0.1226704  -1.80 0.0007050771    1.707    0.414
        10 -12.8201    157.7638    144.5756   4.5867694289e+01   2.1036545828e+01    0.2231553    0.1474115  55.88  0.000954063    1.648    0.393
        11 -12.5993    149.0089    144.5016   4.7924613928e+01   2.2907300092e+01    0.2456614    0.1541803  44.32  0.001038222    1.605    0.377
        12 -12.5599    168.9883    141.5186   4.2619598761e+01   1.9316388647e+01    0.2393656    0.1525704  45.51  0.001036806    1.605    0.377
        13 -12.7472    165.1762    136.8149   4.2386244773e+01   2.1158443201e+01    0.2180431    0.1919113  -1.81  0.001021738    1.351    0.260
        14 -12.9800    158.2506    137.5744   4.4146016261e+01   2.2489943766e+01    0.3047405    0.1507657  50.14  0.001138164    2.112    0.527
        15 -12.3326    144.7886    132.6285   4.6196952715e+01   2.6512832861e+01    0.2322012    0.1458104  55.20 0.0009542781    1.718    0.418
        16 -12.5578    156.7879    131.3896   4.3028910648e+01   2.4177579740e+01    0.2267658    0.1484186  36.76 0.0009574625    1.696    0.410
        17 -11.6479    248.7057    130.4919   2.5668985531e+01   5.5964530442e+00    0.2099916    0.1337874  58.28 0.0009226413    1.941    0.485
        18 -11.7347    183.6706    125.6720   3.5807885110e+01   1.9481227190e+01    0.1532178     0.122496   1.23 0.0005238145    1.708    0.415
        19 -11.0379    249.7876    124.6324   2.4313962841e+01   6.4171587878e+00    0.1610452    0.1256861  71.97 0.0006275644    1.593    0.372
        20 -11.6465    248.5051    119.9179   2.3524722615e+01   7.4578498969e+00    0.1873779    0.1742265 -64.20 0.0006113509    1.131    0.116
        21 -11.8492    142.4946    120.4873   4.3801202154e+01   2.9749899072e+01    0.1580765    0.1514321 -83.63 0.0008103991    1.026    0.025
        22 -11.0807    248.2170    113.1883   2.2173828821e+01   8.6656711377e+00    0.1800438    0.1383041 -64.20 0.0004893078    1.322    0.244
        23 -11.3281    125.6558    112.2963   4.6049921330e+01   3.5258961819e+01    0.1612785    0.1235587  84.52 0.0007033086    1.668    0.401
        24 -12.0329    243.8149    109.8427   2.2079616944e+01   1.0058469480e+01    0.1866474    0.1408819 -63.40 0.0005956351    1.325    0.245
        25 -11.1942    248.7477    107.5499   2.0934963573e+01   9.5287380999e+00     0.162002    0.1241642  84.58 0.0006061914    1.557    0.358
        26 -13.3584    245.1782     98.0454   1.9423189705e+01   1.1808110446e+01     0.361916    0.1669978 -45.05  0.001659572    1.820    0.451
        27 -11.8680    152.0360    103.5310   3.7148883719e+01   3.1241751628e+01     0.243692    0.1524149  51.98   0.00103576    1.608    0.378
        28 -11.9974    143.2676    103.5906   3.9247184878e+01   3.3243759891e+01    0.3082573    0.1501915  53.50  0.001138422    2.149    0.535
        29 -11.5199    132.1697    103.3782   4.1974270477e+01   3.5792572945e+01    0.2290942    0.1451724  57.89 0.0009535036    1.721    0.419
        30 -11.3768     26.1927    103.6237   7.5577058209e+01   5.2890839308e+01    0.1737127    0.1231485  -2.54 0.0009584887    1.746    0.427
        31 -11.7778    238.5175    102.5317   2.1261952482e+01   1.2335342657e+01    0.1375309    0.1155974 -56.25 0.0001708673    1.035    0.034
        32 -12.1213    163.2284    101.4206   3.4091806455e+01   2.9071922209e+01    0.2202514    0.1467672  65.11 0.0009519949    1.664    0.399
        33 -12.4863    112.9952     98.9004   4.5953177087e+01   4.0904956139e+01    0.3407025    0.2022711  59.08  0.001364208    2.062    0.515
        34 -11.6204    249.1570     98.1981   1.8945297213e+01   1.1025665871e+01    0.1884495    0.1636518 -45.86 0.0006614124    1.118    0.106
        35 -12.8260    235.7261     96.1450   2.0273932769e+01   1.3983489043e+01    0.2246381    0.1765603 -85.84  0.000970558    1.374    0.272
        36 -12.4310    242.3405     93.4373   1.8820493937e+01   1.3131402838e+01    0.2995114    0.1978239 -66.19 0.0007788427    1.594    0.373
        37 -11.5625    248.4085     92.7875   1.7917940326e+01   1.2065448919e+01    0.2071774    0.1642415 -88.82 0.0007741738    1.360    0.265
        38 -13.7339    143.9826     92.9133   3.6185211468e+01   3.5271513684e+01    0.3302649    0.2330275  59.53  0.001509181    1.458    0.314
        39 -12.5496    237.3006     90.6436   1.8880664976e+01   1.4599345834e+01    0.2783491    0.1873807 -70.09  0.000769122    1.610    0.379
        40 -12.0937    231.3322     91.5491   1.9875289424e+01   1.5658146366e+01    0.2336426    0.1338194  67.39 0.0009130998    2.013    0.503
        41 -13.7400    153.9895     89.8719   3.3050778656e+01   3.3523365753e+01    0.3342286    0.2265488 -46.86  0.001522868    1.471    0.320
        42 -11.5056    152.3252    179.6693   5.4508759532e+01   1.4326569941e+01     0.153529    0.1177292  79.14 0.0005040711    1.705    0.413
        43 -12.2318    139.9740    165.1721   5.4564918462e+01   2.0004346673e+01    0.2629435    0.1741989  67.02  0.001085274    1.990    0.497
        44 -11.8056    179.4897    160.5012   4.4521506412e+01   1.3086592334e+01    0.1486759    0.1428631 -16.38 0.0008102385    1.042    0.041
        45 -11.4904    235.0847     83.2781   1.7582395789e+01   1.6274619855e+01    0.1864166    0.1593659 -75.27 0.0005909076    1.100    0.091
        46 -11.1785    225.9830     82.4729   1.8601170620e+01   1.8305724891e+01    0.1884098    0.1106685 -85.51 0.0008082444    2.416    0.586
        47 -12.5309    162.7892     82.4101   2.9149396936e+01   3.2835872049e+01    0.2182123    0.1369952  46.37 0.0008716152    1.675    0.403
        48 -13.2311    145.6201     82.2725   3.2837480290e+01   3.6952815860e+01    0.2885684    0.1873389  65.33  0.001106159    1.688    0.408
        49 -14.5419    121.3284     80.5520   3.8368113748e+01   4.2875618776e+01      0.57646     0.290642  48.67  0.002316046    1.946    0.486
        50 -15.9741    133.3742     63.6027   3.0222877513e+01   4.3166742849e+01    0.7960078    0.6775114 -10.61  0.004235453    1.400    0.286
        51 -12.5755    153.8400     79.8537   3.0330702311e+01   3.5446550619e+01    0.2187694    0.1777381 -76.46  0.001086414    1.341    0.254
        52 -12.5399    105.1513     79.3430   4.2552074683e+01   4.6590989593e+01    0.3178693    0.1880776  69.05  0.001163849    2.943    0.660
        53 -13.2369    142.9832     74.9835   3.1362418302e+01   3.8918446060e+01    0.2396126    0.2276266  79.02  0.001182425    1.009    0.009
        54 -15.0501    140.7746     69.3238   3.0218513326e+01   4.0442675843e+01    0.7142643    0.4611054  24.24  0.002923992    2.424    0.587
        55 -13.9940    117.9353     72.8868   3.6963962080e+01   4.5073865993e+01    0.3681181    0.2509603  63.43  0.001693844    1.662    0.398
        56 -10.6887    222.6160     71.3060   1.6553107806e+01   2.0858603761e+01     0.148468   0.09201525 -71.77 0.0007020844    1.795    0.443
        57 -12.5710     28.6583     70.8300   6.7313689261e+01   6.0080050491e+01    0.1829829    0.1502341 -23.83   0.00115925    1.143    0.125
        58 -13.1998    149.4877     67.0385   2.7640315062e+01   3.8747635026e+01     0.384891     0.146014 -37.42  0.001366573    2.743    0.635
        59 -11.6228     87.6611     68.6877   4.4624594350e+01   5.2106417587e+01    0.1467104    0.1089681   2.60 0.0006603432    1.693    0.409
        60 -10.5364    203.6486     67.3037   1.8214587387e+01   2.5748782849e+01    0.1503394    0.0976442 -73.04  0.000704046    1.703    0.413
        61 -12.1185     16.2888     67.5780   7.1576090174e+01   6.1796384030e+01    0.2147773    0.1111113  25.08  0.001142105    2.147    0.534
        62 -13.3070    112.6977     63.9738   3.5594596553e+01   4.7818957090e+01    0.3432387    0.2004344  57.97  0.001502915    1.840    0.456
        63 -13.3412    166.6335     87.2540   2.9660301279e+01   3.1020291652e+01    0.2805556    0.2030199 -32.22  0.001316627    1.535    0.349
        64 -12.7179    159.4994    154.4976   4.7669750201e+01   1.8463456832e+01    0.2806107     0.142671  53.89   0.00103629    2.286    0.563
        65 -10.8151     22.5315     48.4794   6.3401221917e+01   6.5097334441e+01    0.1200193    0.1007019 -27.40 0.0008091062    1.043    0.041
        66 -11.8445    235.0222     86.5419   1.8295217581e+01   1.5746440257e+01    0.1884472    0.1306888  67.58  0.001021302    1.572    0.364
        67 -12.4815    230.8435     83.5508   1.8191568718e+01   1.7105108349e+01    0.2639309    0.2041688 -55.38 0.0008198058    1.115    0.103
