#   1 NUMBER                 Running object number                                     
#   2 MAG_AUTO               Kron-like elliptical aperture magnitude                    [mag]
#   3 X_IMAGE                Object position along x                                    [pixel]
#   4 Y_IMAGE                Object position along y                                    [pixel]
#   5 X_WORLD                Barycenter position along world x axis                     [deg]
#   6 Y_WORLD                Barycenter position along world y axis                     [deg]
#   7 A_WORLD                Profile RMS along major axis (world units)                 [deg]
#   8 B_WORLD                Profile RMS along minor axis (world units)                 [deg]
#   9 THETA_WORLD            Position angle (CCW/world-x)                               [deg]
#  10 FWHM_WORLD             FWHM assuming a gaussian core                              [deg]
#  11 ELONGATION             A_IMAGE/B_IMAGE                                           
#  12 ELLIPTICITY            1 - B_IMAGE/A_IMAGE                                       
         1 -14.6800     68.4420    144.3734   9.9754476724e+01   3.7539234602e+01     5.167598     2.782338  72.33  0.006461686    3.359    0.702
         2 -14.3239    218.1326     27.6940   3.6496151535e+01   2.7920819996e+01      1.15859    0.8998531  39.82  0.006937753    1.820    0.450
         3 -14.5070    205.0019     40.0520   4.0763274207e+01   2.9301239207e+01     1.977304     1.490285  34.31  0.008273108    1.885    0.469
         4 -12.6612    246.5014      4.5102   2.9489311250e+01   2.4626685760e+01    0.4525963    0.4492246 -86.21  0.003204008    1.515    0.340
         5 -12.6810    240.7742      4.4569   2.9833791941e+01   2.5785336197e+01    0.4771889    0.3169592 -59.84  0.003172415    1.193    0.162
         6 -10.0661     52.5284      4.4946   6.0517788744e+01   6.7709119226e+01    0.1965984    0.1111046  57.70  0.001029766    2.274    0.560
         7 -10.4514     47.5617      2.3739   6.1387678070e+01   6.8760631073e+01    0.2035207     0.186787  24.21 0.0005317424    1.316    0.240
         8 -10.0320    149.8448    187.7620   8.6660846615e+01   1.3104561989e+01     0.271995    0.1973534 -82.65  0.001204784    2.063    0.515
         9 -15.9507      5.2508    186.1857   1.2122596534e+02   3.4146059301e+01     9.981145    0.8254408 -74.72   0.01714009    7.461    0.866
        10 -15.0821     47.3186    190.3381   1.1186061283e+02   2.8841282892e+01     3.104957     1.602698  80.13    0.0131363    2.329    0.571
        11 -17.0896     16.1906    247.0827   1.2266912828e+02   2.0036496451e+01      8.89778     3.094291  25.11   0.03455189    5.292    0.811
        12  -9.2588     82.5092    182.4206   1.0217400081e+02   2.5932869820e+01    0.2132422    0.1791719 -54.87 0.0004590061    1.254    0.203
        13  -9.1964     79.4508    181.5049   1.0281202455e+02   2.6616909245e+01    0.2894724    0.2147212 -79.33  0.001212989    1.351    0.260
        14  -9.7906     99.4664    180.8160   9.7639852551e+01   2.3617288326e+01    0.2482653    0.1957785  42.40 0.0005548553    1.240    0.194
        15 -10.3458    189.3000    177.6730   7.6017278598e+01   7.8797284033e+00    0.4370246     0.248338 -58.63   0.00176508    2.562    0.610
        16 -12.3520     78.1308    160.4077   9.9831583302e+01   3.2042355352e+01    0.5734395    0.4400451  50.16 0.0004321248    1.314    0.239
        17 -13.5962     65.5864    156.2134   1.0259581255e+02   3.4925614980e+01    0.5857197    0.4378805 -48.50  0.001481946    1.388    0.279
        18 -13.6050     56.9120    238.7453   1.1433759926e+02   1.6939801815e+01    0.5361975    0.3510227 -85.42 0.0004635457    1.519    0.342
        19 -14.7378     17.4677    217.4668   1.2071968160e+02   2.5976812723e+01     1.281465    0.7012061  49.18  0.007561085    1.569    0.362
        20 -12.8623     85.6906    153.8925   9.6589891991e+01   3.2502758030e+01     1.700269    0.9281124 -54.67   0.00209878    1.743    0.426
        21 -15.7069      9.5262    207.4464   1.2170412194e+02   2.8943965267e+01     3.746431     1.213398 -60.58   0.00857051    3.103    0.678
        22  -8.8702    120.5265    165.5706   8.9519533126e+01   2.3554518086e+01    0.1510435    0.1453815  70.86 0.0001016825    1.025    0.024
        23 -10.8209     34.7423    160.8685   1.1167415175e+02   3.7499577017e+01     0.430081    0.2189594  42.12  0.001799801    1.991    0.498
        24 -11.2212     31.9210    156.2568   1.1187174136e+02   3.8946795000e+01    0.4703157    0.3115931  25.20  0.002530403    1.791    0.442
        25  -9.5638    151.9053    151.2344   7.8685987287e+01   2.0726980129e+01    0.3144197    0.1980008 -73.20  0.001155531    2.638    0.621
        26 -11.0444    133.5941    144.2212   8.1631494585e+01   2.6069043427e+01     1.173578    0.2885022 -54.17  0.002623797    5.923    0.831
        27  -8.8163    112.4239    150.4831   8.8577068623e+01   2.8697410399e+01    0.1532025    0.1479418 -71.62 0.0002353236    1.012    0.011
        28 -10.5355    174.5755    148.6670   7.2919980917e+01   1.6629589149e+01    0.3482997    0.2841232 -54.37  0.001392917    1.276    0.217
        29 -10.1515     47.8620    145.5844   1.0593920750e+02   3.9910058017e+01    0.3170128    0.2286667 -28.12  0.001605918    1.796    0.443
        30 -11.1878     32.4722    144.0297   1.1014442178e+02   4.1975470464e+01    0.4514603    0.2574926  49.99  0.002214493    1.902    0.474
        31 -12.5590     87.3211    139.1740   9.3235182956e+01   3.5945012773e+01    0.3215628    0.2702283 -47.50 0.0005366714    1.180    0.153
        32  -9.2464    197.2087    138.2270   6.5854506361e+01   1.4124619057e+01    0.1923781    0.1685234 -70.86 0.0003249507    1.308    0.236
        33 -11.0215     77.3686    137.7341   9.5863802868e+01   3.7902314328e+01     0.275709    0.2432172  78.45  0.001176099    1.182    0.154
        34 -10.8293    100.3842    139.3229   8.9511944264e+01   3.3649387238e+01    0.6147066    0.4052134 -15.59  0.002360289    2.592    0.614
        35 -10.2130    109.8073    130.3852   8.4810597928e+01   3.4086753808e+01    0.3542313    0.2811809  22.94  0.001111271    1.444    0.307
        36 -10.4097    105.8406    130.8622   8.6047587429e+01   3.4725268460e+01    0.4513152    0.3095226 -65.71  0.001978178    1.615    0.381
        37 -10.8139    135.3176    128.7421   7.7517995973e+01   2.9306088460e+01    0.4925645    0.2756519 -49.47  0.001959086    1.771    0.435
        38 -11.0443     44.4275    129.7608   1.0438309191e+02   4.4336528610e+01    0.2447026    0.2029645  34.12   0.00115121    1.348    0.258
        39  -9.7068    160.7094    127.7084   7.1072382362e+01   2.4054811090e+01    0.3257729    0.1857573 -62.51  0.001175288    2.486    0.598
        40 -10.8998     97.3303    125.8990   8.7349004134e+01   3.7509055152e+01    0.3211529    0.2609704 -21.56 0.0007713832    1.450    0.310
        41  -9.7035    116.3109    124.3461   8.1523160054e+01   3.4255202811e+01     0.242933    0.1868621 -10.11 0.0008021267    1.741    0.426
        42 -11.3501     43.5877    123.3868   1.0351937965e+02   4.6043633450e+01    0.4057208    0.2782204  16.60  0.001985607    1.778    0.438
        43  -9.4954    163.4229    121.2148   6.8838153836e+01   2.4845264883e+01     0.221025    0.1440653 -53.89  0.000636198    1.615    0.381
        44  -9.3825    135.0000    119.9738   7.5393382519e+01   3.1370602101e+01    0.2636648   0.08898061 -45.96 0.0007969454    2.905    0.656
        45  -9.8499    106.9373    118.9715   8.2842108875e+01   3.7379222503e+01    0.2217643    0.2138601 -34.86 0.0002879936    1.041    0.040
        46 -12.1571     68.7688    169.5920   1.0381237563e+02   3.1109205322e+01    0.4455511     0.300665 -38.95  0.001333457    1.847    0.459
        47  -9.1731     81.9762    116.5127   8.9787444205e+01   4.2467367666e+01    0.2123924    0.1510487  34.70 0.0003426377    1.494    0.331
        48 -12.2310     63.6979    174.7081   1.0587300479e+02   3.0540220151e+01    0.4506038     0.333059 -44.22  0.002360133    1.569    0.363
        49 -10.0313    205.4262    110.1846   5.7760391801e+01   1.7797827056e+01    0.2997718     0.210928  42.61  0.001089305    1.609    0.378
        50 -10.5840     27.9937    107.6050   1.0578586024e+02   5.1530298410e+01    0.3063665    0.1730217  15.86  0.001398411    2.177    0.541
        51  -9.5182    134.5181    105.5298   7.1686669980e+01   3.4667702834e+01     0.297349    0.1446763 -53.96  0.001041276    2.387    0.581
        52  -9.8729    119.3985    103.7544   7.5250044705e+01   3.8341691333e+01    0.2157028     0.146329 -36.04  0.000308086    1.542    0.351
        53 -11.1048    242.1537    101.8510   5.0231302313e+01   1.1824008527e+01     0.181371    0.1570886 -16.69 0.0008744269    1.337    0.252
        54 -10.2579    148.3267    174.9680   8.4550617330e+01   1.6151836541e+01    0.2874908    0.2037631 -75.02  0.001163117    1.969    0.492
        55 -10.0227    120.7281     97.9779   7.3257215586e+01   3.9314921161e+01    0.2201674    0.2034603 -49.11 0.0005025375    1.075    0.070
        56 -11.7212    246.4700     87.9965   4.6687635941e+01   1.3266553217e+01    0.3030857    0.1876747 -63.00  0.001026838    1.747    0.428
        57 -10.4749     52.9906     91.1658   9.3248114390e+01   5.2789725497e+01     0.260461    0.1897686 -50.98 0.0007214068    1.235    0.190
        58 -14.6274     37.7720    199.5008   1.1498910775e+02   2.7811821130e+01     1.837122    0.9845765 -81.99  0.006378388    1.757    0.431
        59  -9.7957     72.7068     83.5315   8.4027107462e+01   5.1647083435e+01    0.2939231    0.2197207  69.49 0.0009881004    1.974    0.493
        60  -9.4897    160.2200     82.6154   5.9252232347e+01   3.3286284426e+01    0.2090145    0.1391889  45.35 0.0003202659    1.572    0.364
        61  -9.5094     92.1466     66.6541   7.2043805862e+01   5.1557157701e+01    0.2200916    0.1794484  59.49 0.0007485568    1.437    0.304
        62  -8.7530     48.9393     62.7990   8.6479394387e+01   5.9462822947e+01     0.161739    0.1033345  25.98 0.0003513548    1.642    0.391
        63 -10.7785     13.4480     59.8796   1.0084638318e+02   6.3621590100e+01    0.2430943    0.1920555 -53.81 0.0004030616    1.173    0.148
        64  -9.5133     90.0994    212.8264   1.0451574437e+02   1.7761617470e+01    0.2121883    0.1622688  66.56 0.0005662557    1.270    0.213
        65 -12.2751    195.9443     46.2164   4.3405071829e+01   3.0567106937e+01    0.5599245    0.5218069  38.37  0.001288209    1.325    0.245
        66  -9.9778    107.5741    203.7542   9.9237980516e+01   1.7003594150e+01    0.2007011    0.1541964  64.50 0.0005713588    1.345    0.256
        67  -9.8993    135.8609     34.6533   4.9798294641e+01   4.6674517567e+01    0.2206548    0.1925368 -46.41 0.0003699462    1.228    0.186
        68  -9.7739    136.8971     43.0836   5.2295206606e+01   4.5319636493e+01    0.2140779    0.1803824 -79.30 0.0004448883    1.310    0.237
        69 -10.6118    197.9126     23.9453   3.7658385992e+01   3.2965241073e+01     0.269024    0.2162649   0.13  0.001093636    1.825    0.452
        70  -9.4989    189.6811     15.0153   3.6336561930e+01   3.5893854318e+01    0.1759063    0.1530646 -64.91 0.0006076623    1.120    0.107
        71  -8.8184     48.5333     42.5623   7.9329035802e+01   6.3261756414e+01     0.127207    0.1118702  -7.84 0.0001096223    1.075    0.070
        72  -9.4117    112.4236    205.5305   9.8370371075e+01   1.5818332859e+01     0.223507    0.1681917  49.70 8.127309e-05    1.244    0.196
        73  -9.9521    110.5071    202.5107   9.8365608535e+01   1.6796005801e+01    0.2031207    0.1866127  59.81 0.0007269288    1.016    0.016
        74 -11.5901    193.6593    196.0446   7.8735431680e+01   3.6592934741e+00     1.102601    0.5674397 -63.23  0.003129917    6.446    0.845
