#   1 NUMBER                 Running object number                                     
#   2 MAG_AUTO               Kron-like elliptical aperture magnitude                    [mag]
#   3 X_IMAGE                Object position along x                                    [pixel]
#   4 Y_IMAGE                Object position along y                                    [pixel]
#   5 X_WORLD                Barycenter position along world x axis                     [deg]
#   6 Y_WORLD                Barycenter position along world y axis                     [deg]
#   7 A_WORLD                Profile RMS along major axis (world units)                 [deg]
#   8 B_WORLD                Profile RMS along minor axis (world units)                 [deg]
#   9 THETA_WORLD            Position angle (CCW/world-x)                               [deg]
#  10 FWHM_WORLD             FWHM assuming a gaussian core                              [deg]
#  11 ELONGATION             A_IMAGE/B_IMAGE                                           
#  12 ELLIPTICITY            1 - B_IMAGE/A_IMAGE                                       
         1 -14.8993    136.5085    119.9787   2.6346628356e+01   3.0974228524e+01     3.925501    0.9456531 -46.34   0.01108796    3.987    0.749
         2 -18.4317    239.8581    112.9452   7.3079800790e+00   1.3908679165e+01     6.333335      3.87712 -36.24   0.03945667    1.272    0.214
         3 -15.6880    174.6943    107.4033   1.5443056174e+01   2.5910069448e+01     3.200405     1.128157 -41.40  0.008895284    2.534    0.605
         4 -16.9346    242.6608     65.0522   3.5749897116e+02   2.0159167144e+01     7.062014     2.203317 -58.35   0.02063184    7.518    0.867
         5 -14.0246    233.7461      5.8584   3.4598038606e+02   2.8667168149e+01    0.7221367    0.3905351 -70.94  0.004673395    1.598    0.374
         6 -12.0438    246.9286      3.2448   3.4495404300e+02   2.6619444108e+01    0.3575515    0.1430921 -78.46  0.002014904    2.530    0.605
         7 -10.9298    197.9588    223.0249   3.3098711171e+01   2.7785056010e+00    0.1775228     0.132182  -7.95 0.0005036522    1.082    0.075
         8 -13.9924    249.3465    248.1268   2.8530515659e+01  -5.1557734502e+00    0.6345063    0.4710996   5.92  0.005562809    1.330    0.248
         9 -13.0443    242.0415    250.3328   2.9893581027e+01  -4.8122366401e+00    0.4006721     0.230204  31.96  0.002403718    2.205    0.546
        10 -10.5581    217.6548    250.3199   3.3652733478e+01  -2.7277503569e+00   0.08701002   0.07665224  20.22 0.0007049472    1.728    0.421
        11 -10.3604    202.8064    221.1625   3.1979883516e+01   2.5172439615e+00    0.1660148    0.1076372 -11.49    0.0010769    1.384    0.278
        12 -11.4233    171.3141    219.0804   3.7426708536e+01   6.4164867261e+00    0.1646294    0.1369099 -14.26 0.0004570933    1.105    0.095
        13 -11.3059    173.6676    215.6599   3.6461741408e+01   6.6752785112e+00      0.21469    0.1746984  60.64  0.001153507    2.055    0.513
        14 -11.1022    190.0837    213.1951   3.3014337628e+01   5.1057807318e+00    0.2314103    0.1789567  57.97  0.001396797    2.384    0.581
        15 -11.7552    215.4178    208.0142   2.7843501783e+01   2.9995575355e+00    0.2019817    0.1961052 -14.65 0.0005649718    1.599    0.375
        16 -11.8015    239.6618    205.8273   2.3754882755e+01   7.6753775137e-01    0.2997494    0.2675062 -65.51  0.002247591    2.247    0.555
        17 -11.2529    232.4827    207.0132   2.5007110311e+01   1.3349363016e+00    0.2652315     0.200625   6.98  0.001448037    1.244    0.196
        18 -10.6318      6.3203    208.3233   7.5468807782e+01   2.7885250044e+01     0.117877   0.09248194 -39.49 0.0006666458    1.675    0.403
        19 -13.3668    192.1656    194.5424   2.9646541376e+01   7.7521318133e+00    0.9638134    0.5097073 -60.34  0.003632803    5.031    0.801
        20 -10.5783    224.9213    200.4218   2.5120052949e+01   3.0272308817e+00    0.2033602    0.1376321 -56.48  0.001182709    2.685    0.628
        21 -12.2046    225.2403    195.1439   2.4214284598e+01   3.7313033236e+00    0.3224888    0.2905153 -64.68  0.001729397    1.920    0.479
        22 -12.2791    204.5921    200.1989   2.8398102170e+01   5.3612188064e+00    0.3510668    0.2589957  25.28  0.002374744    1.409    0.290
        23 -11.6554    207.8592    198.1592   2.7512089058e+01   5.2814015742e+00    0.6986058    0.2994844  43.83  0.003263518    3.443    0.710
        24 -10.5669    180.0705    193.8223   3.1767531511e+01   9.4303429668e+00    0.1737689    0.1640996   3.92 0.0004981991    1.248    0.199
        25 -11.2092    239.5852    190.7398   2.1353704284e+01   2.7798260758e+00    0.1933297    0.1429491 -24.47 0.0006706111    1.089    0.082
        26 -12.6023    235.7739    185.3549   2.1015713375e+01   3.9332727526e+00     0.431989     0.236178 -39.31  0.001919027    1.608    0.378
        27 -11.5747    166.5316    190.0424   3.3790040913e+01   1.1912902900e+01    0.2800843    0.2506205 -54.19  0.001161741    1.385    0.278
        28 -14.6833    158.3587    110.4869   1.9260773178e+01   2.8548643939e+01     2.516484     0.900806 -48.77  0.008777351    2.834    0.647
        29 -10.9154    219.6492    239.3075   3.1816752019e+01  -1.5696473362e+00   0.08799794   0.07958024  18.65 0.0007043142    1.711    0.415
        30 -15.1821    205.6489    170.5147   2.3121548996e+01   9.8421681286e+00     1.115322    0.7233889 -52.56  0.003503292    1.907    0.476
        31 -14.9185    186.7308    167.3258   2.5840322781e+01   1.3028645974e+01     1.364769    0.8971736 -19.19   0.00368363    1.636    0.389
        32 -11.3796    199.1202    229.0096   3.3774422403e+01   1.8159361734e+00    0.2419847    0.1885598   4.37  0.001135749    1.101    0.092
        33 -15.0524    225.6437    171.6311   2.0161836607e+01   7.0920244806e+00     1.694463    0.9592314  -5.87  0.008723869    2.555    0.609
        34 -11.8781    146.6268    186.2856   3.7364833895e+01   1.5450412128e+01     0.454178    0.3554526  73.22  0.001285885    1.979    0.495
        35 -12.1469    115.8180    127.3625   3.3363435887e+01   3.3356554930e+01    0.3439896    0.3295977 -44.09 0.0006670012    1.044    0.042
        36 -11.8487    122.3212    126.0312   3.1321471227e+01   3.2417313715e+01    0.5274204    0.3099825  50.84  0.001690495    1.850    0.459
        37 -12.0113    153.1840    126.1132   2.4008847306e+01   2.6460315373e+01    0.2841897    0.1966309  39.42  0.001257618    1.559    0.358
        38 -10.6603    250.5591    222.9010   2.4779916781e+01  -2.3769565486e+00    0.1480073   0.07644361 -32.05 0.0004286672    1.550    0.355
        39 -14.6599     51.8472    115.9331   5.1797546171e+01   4.7160400469e+01     1.872942     1.072395  21.52  0.002162119    1.968    0.492
        40 -14.9333     43.4872    112.8737   5.4471404967e+01   4.9085536362e+01     2.221347     1.135838  13.29  0.006047363    2.582    0.613
        41 -13.3861     34.9957    113.1989   5.7936071757e+01   4.9994454288e+01    0.4648478      0.35271  19.15 0.0009621431    1.421    0.296
        42 -14.4998      4.9542    113.8887   7.0305542766e+01   5.2342619932e+01     1.052866    0.6561146 -80.47   0.00438659    1.462    0.316
        43  -9.7499     91.7214    112.7173   3.6983000244e+01   4.1431523819e+01    0.1494859    0.1227981 -16.81 0.0002544418    1.510    0.338
        44 -11.9774    148.6501    112.5268   2.1783012655e+01   3.0093621432e+01    0.3242625    0.2722666  44.67 0.0006280162    1.271    0.213
        45 -11.9329    142.2218    104.6106   2.1224138492e+01   3.3013399755e+01    0.3566862    0.2810406 -89.16  0.001028016    1.555    0.357
        46 -16.1320    155.6672    155.6778   2.9772054697e+01   2.0061059639e+01     3.162096     2.154642  26.51    0.0154718    1.599    0.375
        47 -10.0309    113.4407     95.4306   2.5917129604e+01   4.1061264695e+01    0.1510455    0.1464616 -76.94 7.757951e-05    1.015    0.015
        48 -10.8524    157.0737     92.1044   1.4917316977e+01   3.2300951970e+01    0.3178282    0.1672795 -38.68  0.001191558    1.827    0.453
        49 -11.2964    174.2801    185.8568   3.1533083902e+01   1.1573951488e+01    0.4805071    0.3248976 -64.70  0.002433523    2.423    0.587
        50 -11.4460    248.0895    186.3957   1.9449699595e+01   2.4665504080e+00    0.2730209    0.1727177 -54.65  0.001270103    2.840    0.648
        51 -10.4993    138.8518     75.4805   1.4022737254e+01   3.9382174195e+01    0.2771346    0.1449912  61.83  0.001137573    2.084    0.520
        52 -12.3014    210.2448     70.7043   1.8212188837e+00   2.5063683418e+01    0.2921215    0.1969949 -32.60 0.0006300691    1.419    0.295
        53 -11.9755    194.1128     66.1257   2.6267140453e+00   2.8876883070e+01    0.4334442    0.2490794 -20.76  0.001642489    2.476    0.596
        54 -11.5781    239.7034    221.7397   2.6176447032e+01  -1.2566169067e+00    0.2730276    0.1895459  47.17  0.001776783    3.008    0.668
        55 -11.8724    205.6878     61.9244   3.1244044599e-01   2.7193819896e+01    0.1837536    0.1720503  87.01 0.0004831314    1.243    0.195
        56 -14.1190    196.0149    173.7856   2.5358972471e+01   1.0619459701e+01    0.6615143    0.4078458 -52.29  0.001589998    1.972    0.493
        57 -12.6527     69.3260    145.6579   5.1069324545e+01   3.6724858196e+01    0.4794183    0.3767895  64.44  0.001445839    1.338    0.252
        58 -10.4871    209.9482     52.8683   3.5779781080e+02   2.7619421789e+01    0.1718295    0.1514295 -40.21 0.0003581403    1.224    0.183
        59 -12.4112    175.1528     50.5305   1.0420087975e+00   3.5161637841e+01    0.3787803    0.2169461 -15.70  0.001599448    2.928    0.659
        60 -11.3562    186.0871     47.8926   3.5906260468e+02   3.3154041129e+01    0.2723969    0.1906744 -24.37  0.001503238    1.673    0.402
        61 -12.8618     66.3147    143.6755   5.1712294176e+01   3.7681684740e+01    0.5397872    0.3887752 -89.29  0.001770945    1.567    0.362
        62 -12.1790    181.4724     50.8843   3.5865551023e-01   3.3730532581e+01    0.2750066    0.2079817  84.28 0.0008875653    1.344    0.256
        63 -11.7485    147.8998     41.8586   2.3533739792e+00   4.2663153832e+01    0.1992537    0.1925457  32.25 0.0006467571    1.279    0.218
        64 -10.9933    177.9594     40.6842   3.5810871498e+02   3.5891208254e+01    0.1819349    0.1527603 -76.68  0.001020875    1.085    0.078
        65 -11.3683    201.1070     36.1906   3.5471076277e+02   3.1544047143e+01    0.2503348    0.1860984 -29.53 0.0007397808    1.456    0.313
        66 -12.0956    158.4417     32.6174   3.5816590412e+02   4.1391289039e+01    0.4321299    0.2935316  16.49   0.00147415    2.670    0.625
        67 -11.1769    234.2945    217.4348   2.6338033563e+01  -2.0337927449e-01    0.2575749    0.1814392  40.17  0.001517438    2.198    0.545
