#   1 NUMBER                 Running object number                                     
#   2 MAG_AUTO               Kron-like elliptical aperture magnitude                    [mag]
#   3 X_IMAGE                Object position along x                                    [pixel]
#   4 Y_IMAGE                Object position along y                                    [pixel]
#   5 X_WORLD                Barycenter position along world x axis                     [deg]
#   6 Y_WORLD                Barycenter position along world y axis                     [deg]
#   7 A_WORLD                Profile RMS along major axis (world units)                 [deg]
#   8 B_WORLD                Profile RMS along minor axis (world units)                 [deg]
#   9 THETA_WORLD            Position angle (CCW/world-x)                               [deg]
#  10 FWHM_WORLD             FWHM assuming a gaussian core                              [deg]
#  11 ELONGATION             A_IMAGE/B_IMAGE                                           
#  12 ELLIPTICITY            1 - B_IMAGE/A_IMAGE                                       
         1 -14.0750    184.3554     29.8789   6.9104165365e+01   3.5674410824e+01    0.9011314    0.8385042  76.60  0.003011947    1.091    0.083
         2 -14.3239    191.6172     18.6606   6.5251366255e+01   3.5212535341e+01    0.7593113    0.7062037  18.12  0.001569501    1.375    0.273
         3 -10.7620     71.8402    237.6071   1.3866419113e+02   1.6470338978e+01    0.2659166    0.1580206 -89.71 0.0007212365    1.694    0.410
         4 -16.1921    119.0008    237.4323   1.2965530934e+02   9.0976551470e+00     8.058576     3.018742  50.49   0.03368393    2.430    0.588
         5 -11.5834     48.4348    216.6317   1.4107047627e+02   2.3946225523e+01    0.5688002     0.261605  36.85  0.002579066    2.382    0.580
         6 -12.6317    111.2455    204.4111   1.2672989071e+02   1.7090167536e+01      0.39658    0.2605682 -48.94  0.002003217    1.739    0.425
         7 -12.0898    198.7500    199.5783   1.0733661880e+02   1.5544233100e+00    0.4076056    0.2464242  31.75  0.001914193    1.703    0.413
         8 -12.1454    191.3460    190.9681   1.0716934317e+02   4.5744704378e+00     1.282289    0.5628158 -60.71  0.003225591    6.883    0.855
         9 -13.7612     72.7657    198.5756   1.3419969868e+02   2.4556828991e+01      0.83523    0.7817222 -44.56  0.003927047    1.439    0.305
        10 -10.7896    208.7888    188.4108   1.0314328911e+02   1.6650491306e+00    0.2019974    0.1280039  31.97   0.00070931    1.635    0.388
        11 -12.2746     82.5874    182.2927   1.2982097686e+02   2.6798154587e+01    0.5003456    0.2650282 -47.52  0.002224972    2.220    0.549
        12 -12.0661     85.9693    176.6452   1.2818289928e+02   2.7587933596e+01    0.3639313    0.2549957 -44.48 0.0008404134    1.696    0.410
        13 -10.7273    200.2198    180.4904   1.0324677013e+02   4.8125884895e+00    0.3339079     0.253968 -74.61  0.001302024    1.888    0.470
        14  -9.8191     99.4975    180.5489   1.2565456157e+02   2.4459327282e+01    0.1420692    0.1294888  84.59 0.0001712221    1.036    0.034
        15 -10.1098     95.7949    180.0085   1.2642621705e+02   2.5207359562e+01    0.2229014    0.1711653  80.18 0.0006686022    1.314    0.239
        16  -9.8914     72.8824    175.5298   1.3106521772e+02   2.9835780555e+01    0.1846758    0.1309697  43.37 0.0003854591    1.476    0.322
        17 -12.0966    118.4628    173.6590   1.2001884090e+02   2.2675695141e+01    0.4600635    0.2181474  40.07  0.001826414    2.145    0.534
        18 -11.7423    126.0224    172.9490   1.1810619138e+02   2.1409288652e+01    0.3518978    0.2072839  46.52  0.001545551    1.656    0.396
        19 -11.6784     67.1979    233.2701   1.3910735321e+02   1.7992009235e+01     0.352787    0.1831898  40.60   0.00102667    1.910    0.476
        20 -11.4956    136.8601    170.7206   1.1513583450e+02   1.9796404930e+01    0.2976001    0.2034049  60.67  0.001348418    1.591    0.371
        21 -10.1279     49.1087    238.1019   1.4281487914e+02   1.9482069227e+01    0.1872078      0.11661  75.17 0.0006759398    1.338    0.253
        22 -12.5071     53.6041    233.6860   1.4164023098e+02   1.9768404187e+01     0.506843    0.2598039 -69.92   0.00245774    1.855    0.461
        23 -12.1258     83.1799    231.3983   1.3589586825e+02   1.6026537489e+01    0.4220322    0.2504808  88.71  0.002245104    1.844    0.458
        24 -12.5038     97.8706    158.9988   1.2230076805e+02   2.9813681728e+01    0.6593699    0.3791855 -37.77  0.002030961    2.352    0.575
        25 -12.5075     64.2475    155.8424   1.3013935733e+02   3.5725685105e+01    0.3662844    0.2521514  64.71  0.001085642    1.568    0.362
        26 -11.3543    133.5523    144.1338   1.1032808687e+02   2.6563739881e+01     1.114306    0.2572169 -55.03  0.002195425    7.836    0.872
        27 -10.5890    179.9827    147.7029   1.0035706890e+02   1.5706605372e+01    0.2202933    0.2019007  50.85 0.0005339503    1.098    0.089
        28 -11.7740    108.7582    142.5604   1.1625420040e+02   3.1794339318e+01     0.564572    0.2678175 -38.86  0.002002878    2.752    0.637
        29 -12.3675     97.1627    143.4336   1.1944750283e+02   3.3655446225e+01    0.2663623    0.2634045   2.51 0.0004345087    1.154    0.133
        30 -11.0415    190.9114    230.6777   1.1445923865e+02  -2.3482684072e+00    0.3451225    0.1835949 -57.46  0.001512771    2.949    0.661
        31 -10.9960    115.4525    132.3227   1.1223334621e+02   3.2936223335e+01     0.289852    0.2480896 -27.37 0.0007062596    1.331    0.248
        32 -11.7011    104.4119    129.4707   1.1450254625e+02   3.5679729682e+01    0.4748904    0.3515524  78.15  0.001547044    1.728    0.421
        33 -10.5552    119.5294    129.5212   1.1051296477e+02   3.2787087585e+01    0.1542265    0.1456788 -78.71 3.868986e-05    1.043    0.041
        34 -12.1442     60.0322    227.7451   1.3991899873e+02   2.0104098742e+01    0.2665897    0.2335332 -53.63  0.001817586    1.616    0.381
        35 -10.3078    110.9124    120.5184   1.1063130406e+02   3.6539122832e+01    0.2184962    0.2000411 -55.05 0.0004881546    1.047    0.045
        36 -10.1547     69.3513    116.2758   1.2132463739e+02   4.4426236003e+01     0.138448    0.1032084 -23.95 0.0005172005    1.640    0.390
        37 -10.7687    168.6440    113.6109   9.4549084741e+01   2.5489299180e+01    0.3346239    0.2545357 -82.57   0.00100518    1.674    0.403
        38 -10.1608    205.0545    110.4778   8.6348288050e+01   1.7538353242e+01    0.2342519    0.1498662  52.13  0.001035989    1.614    0.380
        39 -10.4094     57.0238    225.2292   1.4024671482e+02   2.1027373247e+01    0.1797801    0.1335817  74.59   0.00116564    1.068    0.064
        40  -9.5822    123.6848    101.7096   1.0231578219e+02   3.8128541372e+01    0.1514296    0.1213657   1.19 0.0003035566    1.593    0.372
        41  -9.7311     69.4146    227.4759   1.3811985306e+02   1.8847853226e+01    0.1247051   0.09955385  75.89 6.330878e-05    1.023    0.022
        42 -13.1374    174.3265     39.0313   7.3109985920e+01   3.6986210998e+01    0.5581281     0.364032  48.03  0.001061281    1.551    0.355
        43 -19.3275     20.1776    131.6516   1.3772420313e+02   4.6230603185e+01     18.54166     2.308415 -68.37   0.04461218    7.786    0.872
