#   1 NUMBER                 Running object number                                     
#   2 MAG_AUTO               Kron-like elliptical aperture magnitude                    [mag]
#   3 X_IMAGE                Object position along x                                    [pixel]
#   4 Y_IMAGE                Object position along y                                    [pixel]
#   5 X_WORLD                Barycenter position along world x axis                     [deg]
#   6 Y_WORLD                Barycenter position along world y axis                     [deg]
#   7 A_WORLD                Profile RMS along major axis (world units)                 [deg]
#   8 B_WORLD                Profile RMS along minor axis (world units)                 [deg]
#   9 THETA_WORLD            Position angle (CCW/world-x)                               [deg]
#  10 FWHM_WORLD             FWHM assuming a gaussian core                              [deg]
#  11 ELONGATION             A_IMAGE/B_IMAGE                                           
#  12 ELLIPTICITY            1 - B_IMAGE/A_IMAGE                                       
         1 -13.0745    169.2143     49.0775   7.0145379063e+01   3.6635790707e+01     1.714425    0.9311494  29.71  0.005253294    2.459    0.593
         2 -13.3158    183.1032     34.2590   6.3019859539e+01   3.4967571444e+01      1.09802    0.9358444  11.62  0.003947075    1.264    0.209
         3 -12.5189    187.4710     27.8791   6.0394222748e+01   3.4577135335e+01     0.590832    0.5141847 -46.56  0.001176091    1.176    0.150
         4 -11.1600    189.9275     14.9815   5.6130422812e+01   3.5303007026e+01    0.2744704    0.2022314 -21.98 0.0009585012    1.417    0.294
         5 -12.8786    204.7549      3.8271   5.1286745864e+01   3.2561876954e+01    0.9293836    0.5313774  63.48  0.004298691    1.650    0.394
         6 -10.9022     63.8530      7.1904   8.2156457545e+01   6.6787912556e+01    0.2628855    0.1836022  53.04  0.001026205    1.792    0.442
         7  -9.6031     61.9811    216.0146   1.3037771213e+02   2.3920261866e+01    0.1627826    0.1219188  60.45  0.000492708    1.083    0.077
         8 -16.6601     63.0422    248.3987   1.3235433281e+02   1.8520599504e+01     7.471168     2.249855  28.94   0.02534262    5.559    0.820
         9 -10.2350     59.7331    207.6940   1.3018824375e+02   2.5663100032e+01    0.3003974    0.2562693 -57.89  0.001356474    1.488    0.328
        10 -10.3167     65.0579    208.2425   1.2916660555e+02   2.4939820288e+01    0.3119104    0.2198615 -25.50  0.001838706    2.624    0.619
        11 -11.8431     67.8813    202.7091   1.2812845914e+02   2.5610511941e+01    0.3283528    0.2315467 -43.61  0.001389557    1.992    0.498
        12 -12.5430     11.3406    207.0210   1.3944486809e+02   3.0623067428e+01    0.2586414    0.2226802  62.65  0.001522556    1.234    0.189
        13  -9.5721     89.4451    204.2029   1.2380930614e+02   2.2575836545e+01     0.321904    0.1093739  48.73  0.001386969    2.713    0.631
        14  -9.3528     93.8336    205.6686   1.2305137840e+02   2.1717756456e+01    0.2319155    0.1779542  28.77  0.001160689    1.361    0.265
        15  -9.8287     96.5553    201.8000   1.2206578547e+02   2.2033177962e+01    0.2458227    0.1551556  69.84  0.001375318    1.878    0.468
        16  -9.1252    163.3401    204.0051   1.0849101546e+02   1.1374846989e+01    0.1649058    0.1493598  15.14 0.0004391619    1.144    0.126
        17 -19.3181     28.6143    139.7282   1.3142735112e+02   4.2769505052e+01     17.97713     2.104937 -73.21   0.04533876    8.015    0.875
        18 -11.3403    193.4231    192.3442   1.0061145494e+02   8.0770748489e+00    0.6048423    0.3828685 -39.19  0.002834459    1.865    0.464
        19  -9.2839    209.2302    198.4282   9.8662904817e+01   4.6432079978e+00    0.1710132    0.1051298  42.60 0.0009418465    1.625    0.384
        20  -9.6614    154.2030    195.9427   1.0912510072e+02   1.4134629951e+01    0.2778145    0.1448625  55.69  0.001202681    2.698    0.629
        21 -11.3062     76.2368    190.8813   1.2524546161e+02   2.6796411626e+01    0.7910308    0.3596092  51.48  0.003949074    2.052    0.513
        22 -11.6320     79.4740    186.1259   1.2403237392e+02   2.7297522412e+01    0.4830649    0.3723664  57.28  0.001902172    1.144    0.126
        23 -11.9508    110.0417    189.9048   1.1772856104e+02   2.2245781713e+01    0.4018983    0.2788193 -52.97  0.002355004    1.654    0.395
        24  -9.6712    167.1618    187.8409   1.0512076724e+02   1.3240123606e+01    0.2335244    0.1873321 -57.15  0.001141137    1.682    0.405
        25  -9.7087     90.3878    183.9371   1.2134426294e+02   2.6243660594e+01    0.2492587    0.1421223  52.90   0.00112531    1.674    0.403
        26 -10.1731     99.4083    180.7213   1.1889881834e+02   2.5575896229e+01    0.2196392     0.203708  34.19 0.0005675636    1.141    0.124
        27  -9.8524    209.1877    178.0825   9.4971385179e+01   7.3899890276e+00    0.2770675    0.1704347 -14.94  0.001430575    1.782    0.439
        28  -9.6872    144.5089    179.4724   1.0856348615e+02   1.8554615977e+01    0.1354113    0.1174974  33.95 4.940222e-05    1.007    0.007
        29 -10.5367    144.3948    173.4750   1.0757535278e+02   1.9646150565e+01    0.3370406    0.2262848  85.64  0.001429668    3.093    0.677
        30 -11.9302    118.2473    174.0498   1.1362253977e+02   2.3958591534e+01    0.6751963    0.1812716  43.76  0.002298494    3.387    0.705
        31 -11.3586    125.6160    173.4285   1.1182793536e+02   2.2867479098e+01     0.362111    0.2739289  35.34  0.002052818    1.201    0.167
        32 -10.7178    195.8863    169.7573   9.5945426452e+01   1.0960445916e+01    0.3693585    0.2905504 -15.23  0.001626214    1.273    0.215
        33  -9.8465    193.2964    164.6132   9.5443797622e+01   1.2225368689e+01    0.3268928    0.3003844  66.60  0.001949675    1.507    0.336
        34 -10.6244    137.8351    171.2797   1.0867837323e+02   2.1191992539e+01    0.2392381    0.2067706  60.33    0.0012747    1.260    0.206
        35  -9.7575    141.7218    158.4186   1.0547253726e+02   2.2919276781e+01    0.2188072    0.2136239  70.08 0.0004909556    1.148    0.129
        36 -11.8760    100.3734    154.3745   1.1481539759e+02   3.0792319505e+01    0.5854902    0.3803584 -36.25  0.002885473    1.959    0.489
        37  -8.7319    128.9794    156.5020   1.0813817640e+02   2.5580910383e+01    0.1978868    0.1106314  58.04 0.0006190428    2.386    0.581
        38  -9.0726    120.0436    155.9706   1.1020951369e+02   2.7240772795e+01    0.2185415    0.1633761  70.44 0.0008523945    1.662    0.398
        39  -9.9849    166.5292    154.6793   9.9083573191e+01   1.8946538915e+01    0.3597736    0.2334105  73.70  0.001338477    3.563    0.719
        40  -9.1595    151.9777    151.4814   1.0172730683e+02   2.2318451379e+01    0.2007258    0.1195214  60.28 0.0008092492    2.453    0.592
        41 -10.6961    134.4037    148.1934   1.0524465215e+02   2.6255192456e+01    0.4189164    0.2269221 -57.40    0.0017704    2.302    0.566
        42 -10.6793    133.8054    143.2247   1.0439393504e+02   2.7362363450e+01    0.5984738    0.2130349 -54.80  0.001914724    3.844    0.740
        43  -9.4915    175.1582    149.1757   9.6041678330e+01   1.8233810418e+01    0.1881138    0.1740977  63.09  0.000479454    1.335    0.251
        44 -10.4426    143.8450    145.4124   1.0240115414e+02   2.5031862187e+01    0.3180213     0.174295 -60.84  0.001238426    2.769    0.639
        45 -11.4324    110.4497    139.3966   1.0957666200e+02   3.2345430006e+01    0.5380278    0.3232441 -30.09  0.002296203    2.365    0.577
        46 -11.6093     99.1849    139.7250   1.1260793236e+02   3.4135439524e+01    0.2659038    0.2532108  20.11 0.0004342059    1.110    0.099
        47 -10.5936    105.9689    130.9735   1.0911136301e+02   3.4936291640e+01    0.3404509    0.3123682 -89.87  0.001242078    1.162    0.139
        48 -10.3700    104.9134    126.2830   1.0843880801e+02   3.6147941991e+01    0.3238661      0.24644 -35.96 0.0007639705    1.437    0.304
        49 -11.2419    117.1885    130.0946   1.0591607044e+02   3.3157875394e+01     0.416079    0.2949391  21.14  0.001325908    1.645    0.392
        50 -10.2123    161.3916    128.3078   9.4450274224e+01   2.4804733228e+01    0.3707799    0.2610956 -79.89  0.001481938    2.767    0.639
        51 -10.8321    135.0000    121.0119   9.9188301511e+01   3.1666262786e+01    0.4807771    0.1607136 -50.18   0.00149044    3.520    0.716
        52  -9.5660    111.6100    119.1148   1.0502355589e+02   3.6545680679e+01    0.2630741    0.2073027  30.39 0.0004085648    1.295    0.228
        53 -10.1900    168.0191    112.9008   8.9125054709e+01   2.6245083821e+01    0.4004975    0.3142684 -81.82  0.001281727    1.970    0.492
        54  -9.5948    205.6747    110.1006   8.0610413544e+01   1.8417678460e+01    0.2818971    0.2040275  36.22 0.0006941136    1.358    0.264
        55 -10.1035     97.2733    213.2880   1.2313935323e+02   1.9918641002e+01    0.3016904    0.1738316  33.08  0.001741778    1.602    0.376
        56  -9.5672    135.0000    101.9698   9.4354846896e+01   3.5562813725e+01    0.2576507   0.08729026 -42.50 0.0008094092    2.991    0.666
        57  -9.2690    127.4292     94.4933   9.4344457487e+01   3.8687689470e+01    0.1529359     0.146029  -1.52 8.036214e-05    1.012    0.012
        58  -9.2558    151.3916     79.7983   8.3773841568e+01   3.6127251274e+01    0.2156774    0.1481101 -22.04 0.0006058224    1.585    0.369
        59 -11.1216    174.4844     73.0878   7.6579992122e+01   3.1666037540e+01    0.5661344    0.3782461 -84.86  0.001860892    2.697    0.629
        60 -11.2972     70.7496    228.4194   1.2963155625e+02   2.0777024127e+01    0.1882678    0.1474811  54.72 0.0003636108    1.028    0.027
        61 -10.8739    136.1423    209.8725   1.1483656802e+02   1.4793848368e+01    0.1927027    0.1502413  52.60 0.0006968763    1.269    0.212
        62  -8.9620     67.4622    225.2644   1.3001527199e+02   2.1692848423e+01    0.1284832   0.09650985 -56.05 0.0009192276    1.734    0.423
        63  -8.7579    198.5172    222.5478   1.0454748953e+02   3.2923853501e+00    0.1214681   0.09185791  24.70 0.0001123546    1.037    0.035
        64  -9.8977     87.2926     12.8922   7.6344874970e+01   6.1428364966e+01    0.2785103    0.1980251  66.47 0.0008663022    1.872    0.466
        65 -11.3162    183.8035    215.6046   1.0624452944e+02   6.4486637963e+00    0.3679243     0.242693  45.70  0.002193732    1.551    0.355
