#   1 NUMBER                 Running object number                                     
#   2 MAG_AUTO               Kron-like elliptical aperture magnitude                    [mag]
#   3 X_IMAGE                Object position along x                                    [pixel]
#   4 Y_IMAGE                Object position along y                                    [pixel]
#   5 X_WORLD                Barycenter position along world x axis                     [deg]
#   6 Y_WORLD                Barycenter position along world y axis                     [deg]
#   7 A_WORLD                Profile RMS along major axis (world units)                 [deg]
#   8 B_WORLD                Profile RMS along minor axis (world units)                 [deg]
#   9 THETA_WORLD            Position angle (CCW/world-x)                               [deg]
#  10 FWHM_WORLD             FWHM assuming a gaussian core                              [deg]
#  11 ELONGATION             A_IMAGE/B_IMAGE                                           
#  12 ELLIPTICITY            1 - B_IMAGE/A_IMAGE                                       
         1 -11.8430    249.7643    104.1196   9.6741476821e+00   1.1901747736e+01    0.5875504     0.124613 -36.02  0.002175119    3.502    0.714
         2  -9.8971     40.9942     13.7059   2.8061287494e+01   7.2642877453e+01    0.1833163    0.1536451  32.64 0.0001783153    1.087    0.080
         3 -11.5386     53.3316    249.5258   7.2752623067e+01   1.6020880937e+01    0.3691487    0.2035282  26.23  0.001194404    1.545    0.353
         4 -10.8512     56.8230    246.6341   7.1814252412e+01   1.6150669227e+01    0.3114513    0.1126054  38.09  0.001042228    1.896    0.472
         5 -12.7806     36.3307    247.9058   7.6366573409e+01   1.8106741773e+01     1.588391          nan  41.90  0.004270716    7.004    0.857
         6 -11.2549      4.4898    248.3569   8.3139698023e+01   2.1029873928e+01    0.4896156    0.1874526  45.17  0.002791155    1.694    0.410
         7 -13.0079      6.9512    241.9758   8.2481164083e+01   2.1990445471e+01    0.7260671     0.478359  61.41  0.005022845    1.248    0.198
         8 -10.7422     73.7639    244.4156   6.7905165635e+01   1.4606947559e+01    0.2161806    0.1783889  38.31 0.0005909195    1.084    0.077
         9 -10.7222     97.8916    242.1337   6.2347556098e+01   1.2076951712e+01    0.3172138    0.1853242  21.54  0.001143295    1.556    0.357
        10 -10.3746    167.0026    241.9904   4.7828118722e+01   3.4515905124e+00     0.166747    0.1270809  42.29 0.0007277265    1.638    0.390
        11  -9.4784    221.0460    239.4937   3.7749512813e+01  -2.3368234392e+00    0.1533065   0.08343007  22.71 0.0004339727    1.532    0.347
        12 -10.6391     34.0531    237.4958   7.6389823729e+01   2.0270725933e+01    0.1814336    0.0935283  31.15 0.0005180001    1.531    0.347
        13 -10.8544     38.6219    235.4238   7.5255971085e+01   2.0194928792e+01     0.216369    0.1573911  55.68 0.0007560422    1.169    0.144
        14 -11.7384     11.8901    249.2016   8.1620334823e+01   2.0223017462e+01    0.7895629    0.1449838  42.71  0.003593638    2.618    0.618
        15 -10.7427    231.3492    234.2849   3.5332537014e+01  -2.8013665741e+00    0.1766437    0.1212826  12.90 0.0008833708    1.197    0.164
        16 -11.9806    162.3475    225.7309   4.6567664300e+01   6.3781373388e+00    0.6176001    0.4616157 -66.40  0.003689604    2.328    0.571
        17  -9.7221    100.8394    233.1314   6.0803982967e+01   1.3261976974e+01    0.1899805    0.1435937  44.00 0.0005544106    1.210    0.173
        18 -11.2278     98.8885    225.3919   6.0446918323e+01   1.4910103058e+01    0.3098162    0.2029165  16.10 0.0009792352    1.566    0.361
        19 -11.3385     27.6569    225.3448   7.7294070982e+01   2.3295369331e+01    0.2474671    0.1567853  61.89  0.001356183    1.379    0.275
        20  -9.0555     90.6418    231.6706   6.2989803849e+01   1.4827617895e+01     0.125369   0.09064467  -4.41 0.0007043158    1.789    0.441
        21 -10.1677    126.4114    220.9950   5.3622501004e+01   1.1984862245e+01    0.2359364     0.146366  42.41 0.0007792239    1.523    0.343
        22 -11.9356     95.5723    218.0924   6.0444413286e+01   1.6722502406e+01    0.6165683    0.2676088  47.94  0.002087387    2.330    0.571
        23 -10.3238     99.8268    217.5795   5.9372103448e+01   1.6247399499e+01    0.2473621    0.1945637  49.44 0.0007218201    1.243    0.195
        24 -11.6327     24.6607    216.7906   7.7615540599e+01   2.5347029419e+01    0.4074465    0.2218211  78.58    0.0022256    1.859    0.462
        25 -11.6179     19.2537    215.1321   7.8845391115e+01   2.6210590701e+01    0.3810544    0.1054933  47.96  0.001621107    2.540    0.606
        26 -13.2987     20.0007    248.5721   7.9894450380e+01   1.9589082521e+01      1.12763    0.4168414  28.80  0.005830389    2.076    0.518
        27  -9.8404     56.0057    216.9400   6.9975991686e+01   2.1953778366e+01    0.1800264    0.1497423  44.05            0    1.040    0.038
        28 -10.0292    170.7739    215.0648   4.3323632680e+01   6.8832360490e+00    0.2120551    0.1519917  21.00 0.0007976092    1.170    0.145
        29 -10.4540     64.8838    213.5741   6.7507095440e+01   2.1586422357e+01    0.4354256    0.1582092  44.16  0.001848836    2.242    0.554
        30 -10.3371    112.6555    213.4624   5.5840214024e+01   1.5257369923e+01    0.2892676    0.1771483 -16.78   0.00132975    2.581    0.613
        31  -9.8112      4.6615    212.3342   8.2240403304e+01   2.8089565592e+01    0.1388097   0.06002121  52.50 0.0007051699    1.748    0.428
        32 -10.1969     22.1497    210.3245   7.7932981141e+01   2.6960637882e+01    0.2005482    0.1615305 -82.05  0.001223809    1.375    0.273
        33 -12.1910     12.5138    205.8136   8.0127049635e+01   2.8820216998e+01    0.6929297    0.2111233 -77.27  0.002901202    3.296    0.697
        34 -11.7648     16.7130    196.3536   7.8677304126e+01   3.0551640053e+01    0.5303684    0.2761472 -43.20  0.001909412    2.931    0.659
        35  -9.1348      1.6475    207.3217   8.2828871002e+01   2.9404837983e+01    0.1398302   0.06006914  51.96 0.0007047537    1.752    0.429
        36  -9.3528    124.1143    205.8793   5.2143451731e+01   1.5041305668e+01    0.1669629    0.1368534   7.65            0    1.220    0.180
        37  -9.4602    177.8290    197.1944   3.9094541515e+01   8.7005245732e+00    0.1764452    0.1295485   2.17  0.000502314    1.299    0.230
        38 -10.8625    172.5912    195.3763   3.9846994071e+01   9.7493086865e+00    0.2242302     0.220069 -88.70 0.0007787676    1.443    0.307
        39  -9.7191     94.0704    181.3055   5.6260691951e+01   2.4600876986e+01    0.2638043     0.241562  45.93  0.001184384    1.044    0.042
        40 -11.6280     98.1021    189.1925   5.6284224146e+01   2.2260940679e+01    0.5411181    0.3611812  62.50  0.001925666    1.795    0.443
        41  -9.9217    104.0355    189.5043   5.4789041431e+01   2.1303629982e+01    0.2221954    0.1904259  -0.99 0.0009702666    1.296    0.229
        42 -11.3903     10.9556    187.2137   7.9800559086e+01   3.3154792458e+01    0.4127753    0.1870845  63.58 0.0007256735    1.971    0.493
        43 -11.7846     15.7532    181.3940   7.8228782490e+01   3.4120310860e+01    0.6176627    0.2074104  58.80   0.00241963    2.789    0.641
        44  -9.6625    225.7808    182.7740   2.8001853289e+01   4.3005854283e+00    0.1449103     0.127926 -20.73 0.0006077776    1.313    0.239
        45 -10.8555     22.8316    179.8952   7.6168106481e+01   3.3842325129e+01    0.3389459    0.1704271  45.46  0.001645972    1.648    0.393
        46 -12.4558      4.7823    173.4983   8.0948426045e+01   3.6908137454e+01    0.5345061    0.3038427  75.06 0.0002934028    1.576    0.366
        47 -11.0821      5.0126    166.4637   8.0601580357e+01   3.8613292637e+01     0.495099    0.2643152 -11.41  0.002132661    2.984    0.665
        48 -10.1515     29.1058    172.3093   7.3859888760e+01   3.5093220270e+01    0.3219514    0.2356127  61.08  0.001789749    1.209    0.173
        49  -9.0277     52.4295    172.4746   6.6986450108e+01   3.2467174700e+01    0.1453207    0.1220827  56.44 7.339458e-05    1.062    0.058
        50  -9.8346    177.1556    167.8117   3.4011595232e+01   1.3719195229e+01    0.1924446    0.1473876  -3.76 0.0008940622    1.346    0.257
        51  -9.9881    219.0009    165.4975   2.5975903434e+01   7.6813006731e+00    0.1518521    0.1101127  64.86 0.0008105575    2.676    0.626
        52  -9.5948     23.4891    155.0240   7.4284676450e+01   4.0008370088e+01    0.1973441   0.09155977 -52.32 0.0008092403    2.450    0.592
        53  -9.2622    135.5245    154.4353   4.0748651636e+01   2.3546044239e+01    0.1480631    0.1359016  10.95 8.944527e-05    1.075    0.070
        54  -9.3716     40.9844    153.5089   6.8517099371e+01   3.8628772817e+01    0.2027315    0.1374485  25.97 0.0005001066    1.480    0.324
        55  -9.9504      5.6750    151.6953   7.9733752636e+01   4.2288452593e+01    0.1313179   0.09522016 -45.37 0.0003282974    1.644    0.392
        56 -10.1961    203.4917    150.4519   2.5666309685e+01   1.2354896115e+01    0.1292187    0.1126933 -15.61 0.0001215777    1.014    0.014
        57  -9.8756    189.6517    150.3792   2.8140180469e+01   1.4655741005e+01    0.1895108    0.1656473 -78.54 0.0008841913    1.621    0.383
        58 -10.1989     26.0987    148.2231   7.2879993524e+01   4.1543909604e+01      0.29579    0.1461874  65.51  0.001235909    2.118    0.528
        59  -9.8020    147.9188    143.5700   3.5493302046e+01   2.3498383651e+01    0.2938731     0.195406 -63.01  0.001302964    1.980    0.495
        60 -10.8887     21.4630    142.9582   7.3984499264e+01   4.3350810321e+01    0.2805616    0.1276029 -88.13  0.001138605    2.235    0.553
        61  -9.5824     13.4771    141.4649   7.6578014980e+01   4.4391417210e+01    0.1364544    0.1236157  79.55  0.000185949    1.051    0.049
        62 -10.6801     25.6092    138.9555   7.2202332404e+01   4.4049080240e+01    0.5351403    0.2006915  31.27  0.002102325    2.362    0.577
        63 -10.2752    197.6293    136.4708   2.3804892262e+01   1.5638710685e+01    0.2667499    0.1529423 -34.12  0.001247374    1.610    0.379
        64 -10.0825    188.0000    134.9841   2.5215089350e+01   1.7607075725e+01    0.2320778   0.07263666 -39.86 0.0008076726    2.979    0.664
        65 -10.7554     14.7788    133.7062   7.5552738780e+01   4.6356682490e+01    0.4458299    0.2772377 -24.19    0.0020882    2.139    0.532
        66 -10.1786     10.8179    132.1377   7.6842281258e+01   4.7061835361e+01     0.228452    0.1490288 -45.62 0.0007573513    1.731    0.422
        67 -10.8352    245.5032    134.2079   1.6129990695e+01   8.3854099068e+00     0.237399    0.1733854  76.58  0.001403805    2.567    0.610
        68 -10.0899      7.0342    131.9395   7.8171580677e+01   4.7366246890e+01    0.2184663    0.1461144 -45.56 0.0007621046    1.688    0.408
        69  -9.6670    131.5100    130.5500   3.6667478368e+01   2.9484669341e+01    0.2847269    0.1473164 -59.35  0.001036306    2.504    0.601
        70 -10.5061     66.9809    126.0834   5.5631736966e+01   4.2469683080e+01    0.3969058    0.2528929 -29.14  0.001598852    2.219    0.549
        71 -11.2878     14.3289    126.1212   7.5096690840e+01   4.8429150804e+01    0.3078104    0.2347817  33.60  0.001681811    1.319    0.242
        72 -10.4450     47.4184    125.5267   6.2648340325e+01   4.5340007048e+01    0.4336541    0.1363353  47.32   0.00130901    3.522    0.716
        73 -10.0253    180.3698    122.8009   2.3928788868e+01   2.1204626683e+01    0.2657286    0.1748426 -31.20   0.00129822    1.510    0.338
        74 -10.1182     74.7293    122.5129   5.2194751685e+01   4.2173109055e+01    0.3553723    0.2115882 -37.85  0.001404607    2.115    0.527
        75  -9.1133    118.2826    125.3475   3.9038625754e+01   3.3326924038e+01    0.1573103    0.1236722 -12.64 0.0007015573    1.646    0.392
        76  -9.6904    141.8016    118.6423   3.1240320048e+01   2.9918282690e+01    0.3414229    0.1799551 -64.79   0.00109221    3.491    0.714
        77 -11.4995     70.3585    110.6330   5.1207774489e+01   4.6003460535e+01     0.641522    0.4589438  52.55  0.002345371    1.438    0.305
        78 -10.5915     70.4911    118.5001   5.2868323754e+01   4.3917848233e+01     0.396143    0.1807479 -47.43  0.001424023    2.378    0.580
        79 -10.5928    107.8323    113.4627   3.9206321802e+01   3.8236186221e+01    0.5351392    0.2947539 -47.84  0.002120591    1.856    0.461
        80  -9.4410    185.6438    114.2113   2.0968695321e+01   2.1694248507e+01    0.1998437     0.123679 -30.53 0.0007063121    1.625    0.384
        81 -10.5092    159.3846    111.1548   2.5363392014e+01   2.7680158243e+01    0.3516513    0.1254966 -48.74  0.001132526    3.115    0.679
        82 -10.1659     91.7294    110.9372   4.3711694950e+01   4.2070200070e+01     0.449074    0.2511464 -71.50   0.00158578    2.594    0.614
        83 -11.4809     51.7722    109.8306   5.8218621978e+01   4.9027080836e+01    0.5980892    0.4135107 -73.74  0.002768497    1.476    0.323
        84 -11.2335     62.2343    107.1571   5.3527818434e+01   4.8221966882e+01    0.4586195     0.223311  53.35  0.001623332    2.524    0.604
        85  -9.3606    247.7508    247.9898   3.4744852205e+01  -5.8302976832e+00    0.1178878   0.06583792 -23.56 0.0005763242    1.521    0.343
        86  -9.9883     16.8046    112.5719   7.2845877033e+01   5.1928905871e+01    0.3417497    0.1256459  22.25  0.001300055    2.691    0.628
        87  -9.6041     92.7487    105.1694   4.1901211602e+01   4.3290603371e+01    0.2120519    0.1866568 -16.91 0.0004134713    1.328    0.247
        88 -11.7592     64.2529    101.0610   5.1326990214e+01   4.9507502657e+01    0.4988063    0.2844007  60.33  0.001793376    2.326    0.570
        89 -10.7228    132.7597    102.9570   2.9462085757e+01   3.5202497357e+01     0.626165    0.2494053  37.87  0.001953553    3.204    0.688
        90  -9.3955    160.6792    101.1817   2.2556101062e+01   2.9309361352e+01     0.284601    0.1149739  53.22  0.001012075    2.640    0.621
        91 -10.3753     84.7016    100.8028   4.3541065932e+01   4.5941881601e+01    0.4472581    0.2305006  49.79  0.001331751    2.074    0.518
        92  -9.4112     30.1514    101.1336   6.5687427170e+01   5.3922747549e+01    0.2053625     0.161023  69.49 0.0004434602    1.317    0.240
        93  -9.5235     75.1939     99.3847   4.6662814457e+01   4.8070251941e+01    0.2206099    0.1420053  45.76 0.0003925691    1.547    0.353
        94 -10.2225     53.3369     97.0345   5.4853236148e+01   5.2235091032e+01    0.2233175    0.2057114   4.88 0.0002982594    1.177    0.150
        95  -9.8001    150.2045    103.2152   2.5343758425e+01   3.1241627490e+01    0.2490247    0.1093868 -50.07 0.0008735846    2.482    0.597
        96 -10.4986      2.4747     95.5202   7.7275085300e+01   5.7402256712e+01    0.3332548    0.1422137 -45.95  0.001377665    2.389    0.581
        97 -10.4829    171.5635     94.7301   1.8753253082e+01   2.8092359459e+01    0.2725008    0.2208554   1.14 0.0007276132    1.586    0.369
        98  -9.8523     17.7728    102.9434   7.1332418723e+01   5.4486168636e+01    0.1998033    0.1743808 -87.91 0.0004376436    1.066    0.062
        99 -10.4201     57.2012     91.5949   5.1892836628e+01   5.3089013600e+01    0.4600133    0.2586996 -22.72  0.001539531    3.294    0.696
       100  -9.9852     24.5600     92.3942   6.6765860888e+01   5.6815382387e+01    0.2955132    0.1339324 -72.09 0.0008349547    2.085    0.520
       101 -10.2230     91.7510     90.3883   3.8136148660e+01   4.7046879020e+01    0.3021962    0.2497128 -72.55 0.0006398678    1.331    0.249
       102 -11.2904     82.7356     87.0951   4.0393247016e+01   4.9672953684e+01    0.5949515    0.3592771  46.00  0.001636968    1.639    0.390
       103 -10.4277    166.1161     87.9685   1.7997084484e+01   3.0517005736e+01    0.2652715    0.2071758  71.43 0.0005896855    1.400    0.285
       104  -9.9201    124.8347     85.5426   2.6573234872e+01   4.0666167485e+01    0.3350511     0.200353 -11.18 0.0009580802    4.535    0.779
       105 -10.5007    158.2642     84.6809   1.8623109630e+01   3.2917142667e+01    0.2664305    0.2490682  34.45 0.0003903169    1.184    0.156
       106 -10.2148     18.3472     82.5541   6.8115141651e+01   5.9966813283e+01    0.3435772    0.1428224 -43.37  0.001316081    2.520    0.603
       107 -10.2209    120.0155     81.2866   2.6573466619e+01   4.2680517501e+01    0.2810348     0.163802 -73.54 0.0008917926    3.368    0.703
       108 -11.1437      4.4904     77.5118   7.4437557919e+01   6.2126409823e+01    0.3573646    0.2977955  85.95  0.001972535    1.171    0.146
       109 -10.0561    175.0429     77.8575   1.3701127654e+01   3.0220451621e+01    0.2776712    0.1649034 -51.10  0.001258098    1.670    0.401
       110  -9.3748    134.3262    106.3158   2.9959390633e+01   3.4142028066e+01    0.1570606    0.1250689   3.88 0.0003247834    1.671    0.402
       111  -9.7216    140.4003     74.2577   1.9355570351e+01   3.9099622450e+01     0.220516    0.1377079 -49.66 0.0004320183    1.623    0.384
       112 -10.7038      9.4291     73.8165   7.1324527650e+01   6.2861977672e+01     0.310556    0.1863515  20.52 0.0005647257    1.765    0.434
       113 -10.1173    106.4101     71.1863   2.7225575343e+01   4.7980776181e+01    0.4656842    0.2647726 -41.79  0.001888889    1.818    0.450
       114 -10.0572     22.9821     70.0247   6.3228473549e+01   6.2902528799e+01    0.3646339    0.1596461 -13.17  0.001145042    4.235    0.764
       115  -9.5694     49.8301     69.6838   4.9068541656e+01   5.9765840421e+01    0.3011911    0.1418696  22.66  0.001083599    2.632    0.620
       116  -9.8041     13.6853     65.8212   6.7557910459e+01   6.4699537205e+01    0.3106723    0.1474431 -11.38  0.001231869    2.755    0.637
       117  -9.4201    212.9626     64.2751   5.0620369192e+00   2.4066081539e+01    0.1713201    0.1541986 -69.25 0.0004386955    1.114    0.102
       118  -9.5210     99.9780     59.8194   2.5201395126e+01   5.1762145914e+01     0.262921    0.1806609  82.78  0.001078197    2.030    0.507
       119 -10.0313     72.4140     58.2653   3.4647762062e+01   5.8300461792e+01    0.2768716    0.2137037 -71.13            0    1.607    0.378
       120 -11.0716      2.6094     53.9037   7.2032537486e+01   6.8316710991e+01    0.5257658    0.1805169 -55.31  0.002164699    2.307    0.567
       121 -10.3334     23.0712     53.5625   5.8884135386e+01   6.7050980782e+01    0.3255967    0.1100883  29.20  0.001218077    2.801    0.643
       122  -8.8123    128.6727     51.3368   1.4530760959e+01   4.6025120542e+01    0.1627148    0.1121266 -72.00 0.0005446504    1.725    0.420
       123 -11.0939     45.5464     48.8888   4.3839068031e+01   6.5276962044e+01    0.2475618    0.2220696  25.61 0.0003595006    1.096    0.087
       124  -9.4367    212.0000     39.0196   3.5910145279e+02   2.7615954668e+01    0.2072223   0.06379514 -31.37 0.0007956944    2.896    0.655
       125  -9.3628     44.2515     25.1283   3.3105833392e+01   7.0195173911e+01    0.1717631    0.1581577  61.75 0.0006344506    1.289    0.224
       126  -9.5221     13.1713     20.8700   5.3615071240e+01   7.5397855744e+01    0.1844149    0.1331535 -18.91 0.0006108569    1.333    0.250
