#   1 NUMBER                 Running object number                                     
#   2 MAG_AUTO               Kron-like elliptical aperture magnitude                    [mag]
#   3 X_IMAGE                Object position along x                                    [pixel]
#   4 Y_IMAGE                Object position along y                                    [pixel]
#   5 X_WORLD                Barycenter position along world x axis                     [deg]
#   6 Y_WORLD                Barycenter position along world y axis                     [deg]
#   7 A_WORLD                Profile RMS along major axis (world units)                 [deg]
#   8 B_WORLD                Profile RMS along minor axis (world units)                 [deg]
#   9 THETA_WORLD            Position angle (CCW/world-x)                               [deg]
#  10 FWHM_WORLD             FWHM assuming a gaussian core                              [deg]
#  11 ELONGATION             A_IMAGE/B_IMAGE                                           
#  12 ELLIPTICITY            1 - B_IMAGE/A_IMAGE                                       
         1 -16.0733    248.0896     87.0077   5.1858312532e+01   1.2558433263e+01     2.083171    0.8069029 -32.02  0.008184684    2.433    0.589
         2 -14.9200    248.9547     53.4669   4.4020741654e+01   1.7349277084e+01     1.797876    0.2659372 -34.15  0.005080572    5.153    0.806
         3 -11.8931    162.1279     11.8574   4.3738883571e+01   4.3077831682e+01    0.2090896    0.1746163 -78.90 0.0005665744    1.236    0.191
         4 -10.5414     98.5057      8.5302   5.4800780365e+01   5.8647308323e+01    0.1326505    0.1139278  32.34 0.0001789971    1.019    0.019
         5 -11.3517      3.3307      8.5921   9.5260147638e+01   7.3096834464e+01    0.1851809   0.09410687  21.71  0.001130485    2.144    0.534
         6 -11.4792    124.8611      7.3097   4.8418894937e+01   5.2684054618e+01     0.210268    0.1638854  85.27  0.001176733    1.465    0.318
         7 -11.0292     85.5407      7.4943   5.7906410905e+01   6.1501954369e+01     0.130884    0.1094539  24.77 8.883063e-05    1.009    0.009
         8 -11.0702     52.1690      4.6067   6.8132341837e+01   6.7964760953e+01    0.1714905   0.09424642  30.67 0.0004451999    1.637    0.389
         9 -10.9943    113.0319      1.5348   4.8595563070e+01   5.5949136326e+01    0.2027721     0.114099  59.83 0.0008251162    1.557    0.358
        10 -13.6661    166.5659    218.6056   9.5400662235e+01   5.1897664771e+00    0.5142218      0.21951  42.22  0.001870011    2.091    0.522
        11 -16.4122    139.0239    239.8150   1.0399706046e+02   6.1225211903e+00     5.190629      1.69373  37.60   0.01430887    2.601    0.616
        12 -18.8936     71.9660    219.3045   1.1511113982e+02   1.9824127142e+01     10.25174     5.495639  77.44   0.05095319    2.283    0.562
        13 -12.5219    149.4928    195.0884   9.5128483543e+01   1.2432360468e+01    0.3173352    0.2525863  51.86 0.0006774028    1.275    0.216
        14 -13.8574    147.1818    188.2515   9.4443364644e+01   1.4203342165e+01    0.6535305     0.442638 -34.70  0.001209301    1.695    0.410
        15 -12.5999    148.5272    199.0424   9.6014774972e+01   1.1836576654e+01    0.3387244    0.2428458  40.45 0.0007122369    1.272    0.214
        16 -11.0282    140.5101    210.0013   9.9513224697e+01   1.1133910739e+01     0.178565    0.1351108 -53.42 -0.0001626381    1.490    0.329
        17 -14.0715    178.6870    206.6504   9.0907176559e+01   5.1555277175e+00     0.418629    0.3014547  36.70  0.002312143    1.257    0.205
        18 -13.7207    170.2638    203.4259   9.2099000413e+01   7.1882651300e+00    0.4483409    0.2962099 -55.02  0.001319087    1.904    0.475
        19 -11.2317      2.4703    202.2655   1.2743001289e+02   3.0943198346e+01    0.1931295    0.1441534 -36.71  0.001318334    2.206    0.547
        20 -12.9475    161.3932    201.7534   9.3691698504e+01   9.0538365434e+00    0.3345567    0.2330745 -30.92  0.001217331    1.642    0.391
        21 -11.8865    139.1919    193.0883   9.7079246454e+01   1.4659814606e+01     0.208553    0.1869079  10.80 0.0005785029    1.202    0.168
        22 -11.0335      2.6688    193.7284   1.2692889277e+02   3.2702514276e+01   0.09877844   0.07720535 -58.12 0.0006984465    1.589    0.371
        23 -11.0601      9.5524    192.3452   1.2549792290e+02   3.2413386794e+01    0.1113269   0.08556806  77.11 0.0006203008    1.046    0.044
        24 -12.6220      9.3786    187.1192   1.2520026368e+02   3.3550767919e+01    0.4015418    0.1845712  29.83  0.002222403    2.484    0.597
        25 -14.0612    128.6980    185.1081   9.8115671770e+01   1.8163561270e+01    0.7387658    0.4796988  36.28   0.00360213    1.492    0.330
        26 -12.9007    136.8328    184.9990   9.6220119576e+01   1.6739162931e+01    0.3651946    0.2554317 -47.72  0.001837739    1.516    0.340
        27 -13.0654    124.5488    178.6629   9.7972892371e+01   2.0280785221e+01    0.4372202    0.3413839 -64.92   0.00229554    1.378    0.274
        28 -12.3029    128.8355    176.8128   9.6628967731e+01   1.9919603137e+01    0.2383907    0.2074258 -66.88 0.0002420052    1.220    0.180
        29 -13.9085    127.8752    173.2994   9.6219243323e+01   2.0860086359e+01    0.7197909     0.349831  49.60  0.002861834    2.192    0.544
        30  99.0000      2.4711    178.4481   1.2605969760e+02   3.6000004872e+01    0.1927448    0.1291462  73.11 0.0006329794    1.231    0.188
        31 -11.3505      5.8001    177.4261   1.2530071703e+02   3.5962738691e+01    0.1957681    0.1611385  50.61 0.0005335287    1.338    0.253
        32 -13.2263      3.1619    174.0330   1.2563067268e+02   3.6918114353e+01     0.251983     0.248776  16.62  0.002014402    1.444    0.308
        33 -12.2851      4.9622    169.9470   1.2496820994e+02   3.7689231933e+01    0.2805935    0.1756779  36.48  0.001683344    1.771    0.435
        34 -11.0511    155.8765    176.1100   9.0203938574e+01   1.5051746952e+01    0.2218416    0.1953215  67.41 0.0006845547    1.305    0.233
        35 -11.2162    120.2970    249.4429   1.0876795346e+02   7.4011834505e+00    0.4927372     0.253807  66.54  0.002201612    3.244    0.692
        36 -11.2626    116.1978    249.4190   1.0954401033e+02   8.0120421174e+00    0.1708621    0.1417724  77.12 0.0002304018    1.306    0.234
        37 -11.6172      9.4917    179.0971   1.2463953788e+02   3.5293982132e+01    0.2040315    0.1309791 -82.26 0.0008081768    1.250    0.200
        38 -12.1339    119.8208    156.1379   9.4923364273e+01   2.6195123068e+01    0.4244322    0.1915547  33.05  0.001380741    2.517    0.603
        39 -11.7881    120.8178    164.8867   9.6370913003e+01   2.4011829848e+01    0.2451858    0.2012839  53.33 0.0002405262    1.221    0.181
        40 -13.7511    115.7626    162.2024   9.7122777378e+01   2.5527532903e+01    0.5809166    0.5235335  69.39  0.002334564    1.129    0.114
        41 -12.8873    111.6149    157.7907   9.7334116050e+01   2.7280810466e+01    0.3311976     0.302068 -54.07  0.001824818    1.102    0.092
        42 -10.6917    142.7913    160.5838   9.0143843401e+01   2.0853314259e+01    0.2035358    0.1392268  51.21 0.0003607622    1.538    0.350
        43 -10.2086    125.2773    158.3252   9.3985728451e+01   2.4689188780e+01    0.1480268    0.1175331 -16.57 0.0002706143    1.588    0.370
        44 -14.1499    166.3891    212.6038   9.4464962594e+01   6.2461212411e+00     0.600088    0.3680952 -54.42  0.001313669    2.063    0.515
        45 -12.7517    125.2845    149.5469   9.2177032556e+01   2.6699274980e+01    0.6349841    0.3430754  49.22  0.002562623    1.979    0.495
        46 -13.8461    245.7894    139.0603   6.4119334320e+01   4.5620317919e+00    0.4906179    0.1711054 -41.11  0.001841313    2.659    0.624
        47 -13.2165    156.2696    212.9191   9.6628503783e+01   7.9186550513e+00    0.4618202    0.1621691 -41.45  0.001734323    3.446    0.710
        48 -13.3262    109.1486    130.4968   9.2277646480e+01   3.4179568586e+01    0.5524355    0.3961811 -10.65  0.001543829    2.045    0.511
        49 -13.7012    103.7903    128.2612   9.3262266692e+01   3.5678108294e+01    0.4736635    0.3730302  88.91  0.001719769    1.580    0.367
        50 -14.0272     99.5044    128.5044   9.4527784796e+01   3.6370584241e+01    0.5274628    0.3022688  30.03  0.001731072    2.013    0.503
        51 -13.0888     98.4651    133.5177   9.5922462417e+01   3.5340179182e+01     0.299293    0.1483521  37.68 0.0008154114    2.103    0.524
        52 -15.1498    248.6563    115.1484   5.8270867956e+01   7.9414696383e+00     1.202598    0.4066138 -39.06  0.004542502    2.516    0.603
        53 -15.4662    122.7484    220.0716   1.0471753491e+02   1.2166988692e+01      2.95644      1.14089 -44.08   0.01175557    3.504    0.715
        54 -12.6794    101.8366    120.6334   9.2035380518e+01   3.7846804899e+01    0.4197444     0.258484  73.36  0.001486913    3.119    0.679
        55 -18.5255     77.6380    185.0297   1.1002130129e+02   2.6348458096e+01     4.539018     2.954186  46.62   0.02437364    1.455    0.313
        56 -11.1899    106.7439    100.0179   8.5246348875e+01   4.1731590365e+01    0.3180595    0.1972193  65.95  0.001183849    2.710    0.631
        57 -11.4864     19.8114     95.3883   1.1258659299e+02   5.4187370179e+01    0.2113902    0.1466141 -74.15 0.0004442676    1.299    0.230
        58 -10.9038     14.6509     88.7057   1.1316496139e+02   5.6096490202e+01    0.1324765   0.07391003 -41.25 0.0007031676    1.675    0.403
        59 -13.1761     44.3834     82.9091   1.0135197891e+02   5.4995485326e+01     0.483356     0.182524  25.43  0.001957895    3.091    0.676
        60 -11.4098     87.0091     82.2785   8.6255835570e+01   4.9243901962e+01     0.201023    0.1901977   2.48 0.0004133027    1.081    0.075
        61 -12.4798     91.5109    116.0018   9.3957982068e+01   4.0733218111e+01    0.3646596    0.1262291 -47.60  0.001219142    2.698    0.629
        62 -13.3829     35.7595     78.2614   1.0337151420e+02   5.6903205800e+01    0.3118016     0.266732  49.75  0.001945836    1.470    0.320
        63 -14.1877    178.9621    216.5189   9.2535170112e+01   3.4549683116e+00    0.6838769     0.271535  51.34  0.002359616    3.959    0.747
        64 -13.4507    203.3784    239.8546   9.1553046954e+01  -3.9154780096e+00    0.2390898    0.2202158  85.47  0.001623014    1.809    0.447
        65 -12.6368     23.7346     65.9001   1.0492481339e+02   6.0666366271e+01    0.3149268    0.1749288   2.67  0.001632088    2.270    0.560
        66 -11.8593     98.5657     61.0801   7.5498566686e+01   5.1356493075e+01    0.2815812    0.2366563  82.74  0.001391115    1.718    0.418
        67 -12.5877    229.2097     57.7121   4.7309033049e+01   2.1046013557e+01    0.2852409     0.192045 -24.04  0.001438473    1.628    0.386
        68 -11.6221     55.7166     45.8871   8.5325843868e+01   6.1368395707e+01    0.2300944    0.1672012  11.87 0.0008810126    1.402    0.287
        69 -11.0700    127.5145     39.5095   5.9602028606e+01   4.8452470181e+01     0.145527    0.1343088  29.06 9.833459e-05    1.011    0.011
        70 -11.0139     40.4748     36.4761   8.8157849139e+01   6.4994618627e+01    0.1298592    0.1022627 -19.47 0.0002065707    1.027    0.026
        71 -11.3580    239.0116     24.9704   3.8513803725e+01   2.3188148751e+01    0.1535006    0.1299942 -67.29 0.0003252087    1.012    0.012
        72 -11.1583    144.7988     16.4118   4.7950527243e+01   4.6963241734e+01    0.2013163    0.1106739  52.92 0.0005513331    1.610    0.379
        73 -11.3746     10.4049     15.2092   9.4195545546e+01   7.1510933665e+01    0.1522127   0.09594844 -50.47 0.0009481299    1.685    0.407
        74 -10.9899     33.9906     14.0091   8.1204215711e+01   6.9370247436e+01    0.1489398      0.11325 -10.84 0.0004458238    1.019    0.019
        75 -13.0636    157.0205    231.8251   9.9337905410e+01   4.5692986140e+00    0.2674467    0.2506844  22.51 0.0007823533    1.125    0.111
        76 -11.0202    146.6546     12.3087   4.6264460832e+01   4.6901847263e+01    0.1401281    0.0997243 -69.60  0.000704429    1.701    0.412
        77 -13.9481    161.0596    230.2564   9.8301430762e+01   4.1706422830e+00    0.4339105    0.3025774 -44.73  0.001132739    1.683    0.406
        78 -11.7649    144.1407    212.1420   9.9067636767e+01   1.0120503553e+01    0.2475729    0.1800319  29.93 0.0002705344    1.318    0.241
        79 -13.7081    145.4605    205.4592   9.7736050971e+01   1.1145141426e+01    0.5398331    0.4827781  72.53  0.001812272    1.261    0.207
        80 -11.4976    202.2944    224.3546   8.9241522242e+01  -1.5704126825e+00    0.1322195   0.08728647   3.20 0.0006405953    1.689    0.408
        81 -13.0383    160.9958    220.2244   9.6797556012e+01   5.8482910332e+00    0.3198507    0.1728144  41.75  0.001215403    1.632    0.387
