#   1 NUMBER                 Running object number                                     
#   2 MAG_AUTO               Kron-like elliptical aperture magnitude                    [mag]
#   3 X_IMAGE                Object position along x                                    [pixel]
#   4 Y_IMAGE                Object position along y                                    [pixel]
#   5 X_WORLD                Barycenter position along world x axis                     [deg]
#   6 Y_WORLD                Barycenter position along world y axis                     [deg]
#   7 A_WORLD                Profile RMS along major axis (world units)                 [deg]
#   8 B_WORLD                Profile RMS along minor axis (world units)                 [deg]
#   9 THETA_WORLD            Position angle (CCW/world-x)                               [deg]
#  10 FWHM_WORLD             FWHM assuming a gaussian core                              [deg]
#  11 ELONGATION             A_IMAGE/B_IMAGE                                           
#  12 ELLIPTICITY            1 - B_IMAGE/A_IMAGE                                       
         1 -14.1037    115.3926     64.8917   7.5522727535e+01   4.7118359820e+01     2.390536     1.710203  34.35   0.01038367    1.459    0.315
         2 -12.8432    185.3623     40.2809   5.2275713596e+01   3.3654240715e+01     1.328763    0.8339221  54.82   0.00618681    1.551    0.355
         3 -12.8400    193.9804     38.7737   5.0551922065e+01   3.1635378919e+01     2.301828    0.8447645  44.26  0.007336199    3.738    0.732
         4 -11.1622    221.3494     17.5550   4.1618663799e+01   2.7415541394e+01    0.5937366    0.4467848  62.56  0.003397206    1.367    0.269
         5 -10.7666    218.9664     13.4980   4.0837524840e+01   2.8450480272e+01    0.5601359    0.2650601  59.57  0.002578605    2.073    0.518
         6 -10.9147     71.4779     17.6908   7.0884952339e+01   6.3296181173e+01    0.4561509    0.3208052  36.42   0.00151532    1.348    0.258
         7  -9.2119    148.2533      8.1353   4.8020474817e+01   4.6963804224e+01    0.3802978    0.1599177  78.46  0.001369946    2.998    0.666
         8  -9.1870     80.2499      1.5970   6.0397635247e+01   6.3360197884e+01    0.1872101   0.09757028  42.69  0.000950382    1.650    0.394
         9  -8.1506     12.6765      1.2671   8.9533639531e+01   7.3497592479e+01   0.09015394   0.08366802  -9.08 0.0003831449    1.566    0.361
        10  -8.8102     78.7931    165.2613   1.0984089705e+02   3.0949515048e+01    0.1660613    0.1547769 -46.81  0.000390116    1.299    0.230
        11 -13.5901    107.7818    246.4939   1.1355265729e+02   1.0284854048e+01     1.819781    0.6524719  39.69  0.008512879    2.346    0.574
        12 -13.4613     18.2508    212.0893   1.2718867270e+02   2.8214817043e+01     1.057555    0.4903816  85.34  0.005371013    1.894    0.472
        13 -14.0550     72.2577    104.0415   1.0028684379e+02   4.6531531805e+01      2.54993    0.8476511 -54.30  0.008616342    2.635    0.621
        14 -15.7578     78.8225    209.1855   1.1529168653e+02   2.1406887638e+01      3.25824      2.32997 -76.90   0.01721067    1.391    0.281
        15 -15.6089     60.6150    147.3041   1.1172479837e+02   3.7695609287e+01     4.120041     2.565989 -54.52    0.0213902    1.572    0.364
        16 -13.1934     16.2090    166.2611   1.2446073822e+02   3.8062722096e+01     3.087809     1.057972  79.13   0.01070722    4.708    0.788
        17 -16.3274     33.7363     51.6796   9.9887905148e+01   6.2774767863e+01     3.655994     3.341698   9.08   0.01600622    1.268    0.211
        18 -14.8243     41.5018    218.8824   1.2338735527e+02   2.4340635556e+01     1.400076     1.091785  55.57  0.009974713    1.229    0.186
        19  -9.7592     14.8442    250.2951   1.2966793343e+02   2.1535894824e+01    0.3814728    0.1045466  38.57   0.00198814    3.108    0.678
        20 -11.7103      4.5860    248.2756   1.3116342466e+02   2.2915900019e+01    0.4692264    0.2282543  63.50  0.002140476    1.434    0.303
        21  -8.7860     84.7290    159.2572   1.0747653166e+02   3.1450388282e+01    0.1793058    0.1593662 -43.04  0.000580743    1.330    0.248
        22 -13.5243     35.4690     85.7964   1.0819511826e+02   5.5173847513e+01     1.037801    0.7192546 -40.23  0.003954391    1.377    0.274
        23 -13.1292    128.4685    127.3169   8.9849886566e+01   3.1042503605e+01     1.881274    0.8934106 -48.49   0.00631917    2.086    0.521
        24 -10.3784    106.9845    140.7065   9.8430241930e+01   3.2094071965e+01    0.5644432    0.4732209  -3.44  0.002871914    1.584    0.369
        25  -9.5581    111.0521    131.1532   9.5318488268e+01   3.3587743860e+01    0.2988788     0.255593 -25.87  0.001023924    1.363    0.266
        26  -9.1281    106.3554    130.9393   9.6530009421e+01   3.4508131401e+01    0.3372843    0.2874634  62.64  0.001395786    1.214    0.176
        27 -10.9215    100.9788    140.4338   9.9949399038e+01   3.3223994405e+01    0.6375225    0.4511631 -53.69  0.002587164    1.376    0.273
        28 -10.8042    101.2339    134.3248   9.8632034803e+01   3.4626583424e+01    0.7343414    0.4615744  36.64  0.003348635    1.701    0.412
        29 -10.0072     87.6024    142.5494   1.0388278090e+02   3.4952455235e+01    0.2506356    0.2214816 -46.27 0.0002967992    1.231    0.187
        30 -14.6848    105.6387    107.8287   9.1228929816e+01   4.0048135291e+01     2.327429     1.969016  25.42  0.008646674    1.314    0.239
        31 -10.9564    126.6848     83.6259   7.8425844455e+01   4.0974723391e+01    0.9213117    0.5806161  61.32  0.003797794    1.960    0.490
        32 -13.1602    101.2650     81.3923   8.5069576581e+01   4.6752991549e+01      1.21778     1.039677 -24.69  0.003739963    1.180    0.153
        33 -13.5075    103.9230     46.6261   7.2346884506e+01   5.2764232257e+01     3.048703     1.241433  36.55   0.01073153    2.965    0.663
        34 -10.5659     17.7938     88.4500   1.1471178604e+02   5.5983079363e+01    0.2502304    0.2112749  -5.02  0.001539357    1.464    0.317
        35 -12.8245     81.4188     73.6637   8.9018395849e+01   5.1961538605e+01     1.290124      0.86387 -47.90  0.004394849    1.412    0.292
        36  -9.4706    135.9901     75.5203   7.3444062829e+01   4.0434331070e+01    0.3230052    0.2745565 -42.19  0.001220146    1.179    0.152
        37 -11.5704    135.7891     66.0847   7.0456077686e+01   4.2224627153e+01    0.8150437    0.6838917 -25.41  0.002977517    1.219    0.179
        38 -15.7276     48.2381    241.7836   1.2375539388e+02   1.9263031403e+01     1.655703    0.9355057  59.92  0.006642603    1.349    0.259
        39 -12.4483    208.2919     58.9204   5.4037690602e+01   2.5123794433e+01     1.212909     1.131512 -19.53  0.006276983    1.168    0.144
        40 -10.4890    185.3259     52.0073   5.5723030354e+01   3.1992488603e+01    0.3815347    0.2399521 -51.19   0.00162448    1.680    0.405
        41 -12.2605    192.8898     45.5985   5.2657554129e+01   3.0976073451e+01    0.9893162    0.5419571  72.93  0.004143457    1.984    0.496
        42 -13.0824     32.6127    141.2138   1.1809042187e+02   4.2305894897e+01     5.605195    0.2776366 -69.01    0.0102221   13.101    0.924
        43  -8.6590    141.9930     47.4582   6.2729650661e+01   4.3783180345e+01    0.2246389    0.1451361  58.56 0.0004533972    1.531    0.347
        44 -10.2601    172.0076     37.4296   5.3576846574e+01   3.7506976757e+01    0.3451229    0.2232703 -29.71  0.001608975    1.617    0.381
        45 -12.5189    127.8583    230.2876   1.0795909799e+02   9.8628815009e+00    0.6261516    0.2825033 -57.25  0.003044277    2.681    0.627
        46 -11.2052     14.6209     26.5487   9.9892525947e+01   6.9209575692e+01    0.7074816    0.3319388   4.86  0.003634725    2.756    0.637
        47 -10.7495    212.6170     24.3290   4.4251560762e+01   2.8757466842e+01    0.4001427      0.27027  34.15  0.001179926    2.018    0.505
        48 -11.2688    134.9270    230.8613   1.0665800971e+02   8.6114534677e+00    0.2670983    0.1932389 -58.00  0.001639335    1.662    0.398
        49 -12.3115    109.7262    228.0449   1.1121983539e+02   1.3151052476e+01    0.5608367    0.2645817  37.27  0.002755956    1.995    0.499
        50 -14.3988     47.2146    197.5866   1.2058881058e+02   2.7979562564e+01     2.225152     0.675581 -77.56  0.008439522    3.838    0.739
        51 -12.0538      3.3895    112.4214   1.2250997077e+02   5.1343765056e+01     5.141793    0.4325642 -73.36   0.01151039    9.542    0.895
        52  -9.0673     69.3023    175.5564   1.1347182989e+02   2.9950235834e+01    0.1920134    0.1433732 -49.75 0.0004205911    1.589    0.371
