#   1 NUMBER                 Running object number                                     
#   2 MAG_AUTO               Kron-like elliptical aperture magnitude                    [mag]
#   3 X_IMAGE                Object position along x                                    [pixel]
#   4 Y_IMAGE                Object position along y                                    [pixel]
#   5 X_WORLD                Barycenter position along world x axis                     [deg]
#   6 Y_WORLD                Barycenter position along world y axis                     [deg]
#   7 A_WORLD                Profile RMS along major axis (world units)                 [deg]
#   8 B_WORLD                Profile RMS along minor axis (world units)                 [deg]
#   9 THETA_WORLD            Position angle (CCW/world-x)                               [deg]
#  10 FWHM_WORLD             FWHM assuming a gaussian core                              [deg]
#  11 ELONGATION             A_IMAGE/B_IMAGE                                           
#  12 ELLIPTICITY            1 - B_IMAGE/A_IMAGE                                       
         1 -11.9712     52.6466    117.0988   8.4370132972e+01   4.6634116797e+01     1.272525    0.3244882 -70.71  0.003104868    5.933    0.831
         2 -12.9686    218.5235     53.3233   2.7839303118e+01   2.4861398181e+01     1.139934    0.9635457  59.93  0.007460075    1.375    0.273
         3 -13.2088    236.4332     40.2466   2.3202030496e+01   2.2909319086e+01     1.055441    0.7814007  43.00  0.006808088    1.759    0.432
         4 -11.9266      2.5975     36.7749   9.2983728171e+01   7.2013106477e+01    0.6774282    0.2999789 -79.85  0.002911983    2.404    0.584
         5 -10.0696    106.7968     14.7803   3.0697775739e+01   5.6497428902e+01    0.3185508    0.2262291 -57.22 0.0003805678    1.538    0.350
         6 -11.3694      4.0096      3.2022   7.7339525335e+01   7.9512893116e+01    0.4670033    0.3593532 -33.10  0.002952433    1.131    0.116
         7 -10.4678     17.5262      3.3110   6.3181569152e+01   7.7933285711e+01     0.263045    0.2183021 -88.82  0.001503335    2.059    0.514
         8  -9.7405    171.6851    240.5665   7.2589292882e+01   5.8721819422e+00    0.1482294    0.1437061 -77.08  0.001184096    1.823    0.451
         9 -10.2591    140.1934    249.5599   7.9600484476e+01   8.3678581390e+00    0.2064944    0.1569392  42.60  0.001505248    1.497    0.332
        10 -10.6340     80.9410    249.0958   9.1483095694e+01   1.5169082242e+01     0.276173    0.1635331  32.73 0.0009994013    1.241    0.194
        11 -12.0030     39.5342    172.9471   9.5404751455e+01   3.4350948707e+01    0.6079312    0.4181511  -3.52 0.0009861989    1.961    0.490
        12 -14.9091     10.6643    238.1445   1.0561178173e+02   2.3833011371e+01      6.60534      2.22925  15.42    0.0274331    4.274    0.766
        13 -15.3084     21.9778    178.4746   1.0061508292e+02   3.4764371761e+01     8.151225     2.417606  83.03   0.02619934    5.090    0.804
        14 -14.0460     12.3464    191.0525   1.0372250165e+02   3.2817868543e+01     1.399334    0.7123933  54.91  0.004352546    1.633    0.387
        15  -9.7021     70.7521    212.5615   9.0788206610e+01   2.2578311147e+01    0.2231536    0.1049786  26.24 0.0006701041    1.876    0.467
        16 -10.3598     79.1665    207.6015   8.8332336530e+01   2.2514096075e+01    0.2925762    0.2057709  87.22 0.0009222513    1.807    0.446
        17 -11.5657     47.5261    167.1208   9.2614159718e+01   3.4840923130e+01    0.3025654    0.2795253 -27.56  0.000557802    1.288    0.223
        18  -8.2560    110.6952    167.3345   7.5245892327e+01   2.6179615603e+01    0.1393424    0.1041841  63.97 0.0004615495    1.665    0.400
        19  -9.9531     84.4959    164.7224   8.1834039203e+01   3.0670029230e+01    0.3104501     0.136843  43.10  0.001278005    2.107    0.525
        20 -11.6507     74.8190    137.7740   8.0449525426e+01   3.8353296032e+01    0.3970671    0.3085395 -70.10  0.000304128    1.354    0.261
        21 -13.0452     68.2581    143.8231   8.3485952883e+01   3.7825110820e+01     1.454988    0.7713504  63.34  0.003187196    2.608    0.617
        22 -12.9689     45.8846    153.7516   9.1720768817e+01   3.8201208948e+01    0.5910588    0.4184018 -22.46  0.002993405    1.912    0.477
        23  -9.1987     85.4866    152.6205   7.9706224978e+01   3.3257566731e+01    0.2370626    0.1955517  45.21 0.0004644403    1.141    0.123
        24  -9.0788    239.6810    147.3364   4.5875699422e+01   9.1112322001e+00     0.107344   0.08484381 -46.46 0.0004547673    1.704    0.413
        25 -10.1961     87.4141    140.4091   7.7048291340e+01   3.5793081645e+01    0.3143923    0.2744746 -52.36 0.0008190919    1.202    0.168
        26 -11.1146    247.8949    247.6059   6.1001188606e+01  -2.8059088770e+00    0.3401148    0.1836379   9.96  0.002575099    1.396    0.284
        27 -11.3957     56.0912    127.8780   8.4956374760e+01   4.3425343821e+01    0.3736235    0.2958929  56.17  0.001539801    1.251    0.200
        28  -8.8437     91.8678    137.1564   7.5110190049e+01   3.5834360661e+01    0.2269731    0.1761286 -11.74 0.0008994951    1.639    0.390
        29 -10.1970    104.9557    130.0886   6.9834099644e+01   3.5209263480e+01    0.5061533    0.3575018  43.07  0.001688335    1.376    0.273
        30 -12.0856     69.7387    152.3523   8.4300332839e+01   3.5577127151e+01    0.7213702    0.4797339  45.76  0.001778159    1.414    0.293
        31 -10.8636    242.2575    127.6188   4.1660593830e+01   1.1241668231e+01    0.2609894    0.1525939   1.60  0.001374529    2.294    0.564
        32  -9.3982     67.3283    125.6579   8.0745942974e+01   4.2439003718e+01    0.3140169     0.149145 -43.00  0.001176067    2.552    0.608
        33  -9.7288     89.3109    125.3397   7.3523871483e+01   3.9041932914e+01    0.3307154    0.2662851  16.64  0.001109006    1.377    0.274
        34 -10.2269    129.0083    231.0046   7.9762299515e+01   1.2316463537e+01    0.1910614    0.1473472  22.58  0.001319109    1.013    0.013
        35  -9.1798    102.0599    118.1066   6.8005769936e+01   3.8460585030e+01    0.2185985    0.2111901  -3.61 0.0003741612    1.066    0.062
        36 -13.6133      8.7500    207.6233   1.0517177673e+02   2.9688579920e+01     1.259461     1.077577 -18.25  0.005406603    1.594    0.373
        37 -10.1428    244.6145    113.1753   3.8426701541e+01   1.2717857954e+01    0.1740901   0.09333033 -22.13 0.0008016145    1.679    0.404
        38  -9.1160    204.1576    110.8241   4.3457943947e+01   1.9781448452e+01    0.2916271    0.1690572  38.56  0.001474586    1.930    0.482
        39 -10.9100    241.4851     94.5042   3.4858426734e+01   1.5562571593e+01    0.2765586    0.1655689 -12.07  0.001511276    1.885    0.470
        40 -10.0312     53.0524     90.8034   7.8825237800e+01   5.3374556527e+01    0.3386911    0.2030496 -54.11  0.001505348    1.602    0.376
        41  -9.1672     41.5731     92.0945   8.3988752247e+01   5.4531375108e+01    0.2550845    0.2134408  11.89 0.0004997459    1.313    0.238
        42  -9.7998    166.5822     87.2613   4.3985235599e+01   3.1049291987e+01    0.2481865    0.1745181  28.53  0.001183982    1.731    0.422
        43  -8.9711    178.2004    223.1381   6.9057513853e+01   7.3097751967e+00    0.1688949    0.1229591   6.16 0.0004184142    1.126    0.112
        44 -10.7269     60.8887    158.0676   8.7704965895e+01   3.5384134485e+01    0.2710815    0.2568803  35.51 0.0003591898    1.087    0.080
        45  -9.4627    184.5998     77.2645   3.8217838913e+01   2.8702293166e+01    0.2444647    0.1689531 -24.04 0.0004672827    1.452    0.311
        46 -10.8185      6.1353     65.7237   9.6381291966e+01   6.4501583564e+01     0.276775    0.1783819 -67.70  0.001000839    1.363    0.266
        47 -12.6811      4.2803    196.8582   1.0591096012e+02   3.2224511515e+01    0.3289067    0.3176745 -12.98 0.0007832387    1.354    0.261
        48  -8.4860     70.3167    248.3171   9.3629111148e+01   1.6434363951e+01    0.1037809   0.07852241  -1.17 0.0005977011    1.652    0.395
        49 -10.1359      1.9862     61.8733   9.8136587712e+01   6.5686945268e+01    0.2472992    0.1791495 -76.12  0.001166851    1.242    0.195
        50 -10.8868     13.3826     59.9201   9.1217163029e+01   6.5586817861e+01    0.3038042    0.2556539  69.39 0.0005253735    1.296    0.228
        51  -9.7783    114.3088    238.9729   8.3668818536e+01   1.2904326625e+01    0.1601806    0.1301139  23.30 0.0008364482    1.068    0.064
        52 -10.6292     77.5815    216.3198   8.9527854367e+01   2.1079273798e+01    0.3816664    0.1630877  40.81  0.001854258    1.879    0.468
        53  -8.6320    169.6530    249.3203   7.4041238277e+01   5.0392117439e+00    0.1009965   0.07313111  40.85 0.0007049192    1.734    0.423
