#   1 NUMBER                 Running object number                                     
#   2 MAG_AUTO               Kron-like elliptical aperture magnitude                    [mag]
#   3 X_IMAGE                Object position along x                                    [pixel]
#   4 Y_IMAGE                Object position along y                                    [pixel]
#   5 X_WORLD                Barycenter position along world x axis                     [deg]
#   6 Y_WORLD                Barycenter position along world y axis                     [deg]
#   7 A_WORLD                Profile RMS along major axis (world units)                 [deg]
#   8 B_WORLD                Profile RMS along minor axis (world units)                 [deg]
#   9 THETA_WORLD            Position angle (CCW/world-x)                               [deg]
#  10 FWHM_WORLD             FWHM assuming a gaussian core                              [deg]
#  11 ELONGATION             A_IMAGE/B_IMAGE                                           
#  12 ELLIPTICITY            1 - B_IMAGE/A_IMAGE                                       
         1 -13.0165    174.4397     36.5348   2.8999696319e+02   6.3385631345e+00   0.05944082   0.03712607 -50.30   0.00082705    1.562    0.360
         2 -12.6163    209.0225      4.8817   2.8941349920e+02   6.5029803081e+00   0.06191043   0.05288421  11.01  0.006865279    1.247    0.198
         3 -13.5190    183.9445     27.9662   2.8983739109e+02   6.3823159683e+00   0.09249847   0.05174337 -56.42  0.006849803    1.700    0.412
         4 -13.5344    191.8826     15.5309   2.8967252787e+02   6.4797011677e+00   0.06983496   0.04707075 -58.93  0.002189951    1.433    0.302
         5  -8.1207    236.4369      1.4894   2.8908101242e+02   6.3827554275e+00   0.00651771   0.00627414 -48.19  0.000126803    1.026    0.026
         6 -11.0490    177.9698    217.6834   2.9103674990e+02   4.2252170524e+00   0.02408689   0.01123511  21.35  0.002050669    2.424    0.588
         7 -13.1111    170.1052    248.9308   2.9131182246e+02   3.9094264203e+00    0.1121719   0.03610139  20.48   0.00717044    4.388    0.772
         8 -10.7523    135.3800    249.9793   2.9171300989e+02   4.0977497395e+00   0.02885996   0.01194985  33.81  0.002234631    2.317    0.568
         9 -12.5199    147.2027    248.7834   2.9157142418e+02   4.0433558373e+00    0.1086407   0.04596532   8.26  0.006268606    5.860    0.829
        10 -10.1497    121.4031    248.6177   2.9186395718e+02   4.1941166979e+00   0.01403141   0.01192049 -68.44 0.0009995637    1.173    0.148
        11 -13.2610     81.4442    164.9994   2.9182281821e+02   5.3916725861e+00   0.06921262   0.02460105  39.27  0.005001019    2.768    0.639
        12 -14.0568     68.3266    144.9606   2.9185332398e+02   5.6990316162e+00    0.2822385    0.1193856  49.65   0.02171127    3.049    0.672
        13 -13.4780     10.8307    207.5167   2.9287966885e+02   5.3060266485e+00   0.07273789   0.05617854  -7.22  0.004724266    1.519    0.342
        14 -13.0122     47.0192    217.8385   2.9252845373e+02   4.9786123993e+00   0.07971773   0.02495272  43.17  0.005575337    3.536    0.717
        15 -15.3680     62.6453    213.3158   2.9232366642e+02   4.9410242510e+00    0.4802203     0.222271  49.52   0.03968276    2.633    0.620
        16  -9.5181    203.9821    200.5033   2.9063870967e+02   4.2733756902e+00  0.009516853  0.005666529  -8.56 0.0008104952    2.600    0.615
        17  -8.3404    141.5309    198.7977   2.9133916038e+02   4.6540985096e+00  0.009250595  0.006308587 -84.35 0.0009301904    1.745    0.427
        18 -10.0033    182.6364    196.1536   2.9085562753e+02   4.4471189072e+00   0.01095225   0.01052304  39.71 0.0002816523    1.059    0.056
        19  -9.4364     18.6243    196.4518   2.9272537084e+02   5.3892972029e+00     0.018346   0.01092648  28.36  0.001567079    1.696    0.410
        20  -8.4520      7.8385    193.1361   2.9282867930e+02   5.4896097257e+00  0.008765103  0.007370199 -25.18 0.0002600914    1.285    0.222
        21  -8.8053     85.2868    189.9868   2.9192738737e+02   5.0804958538e+00   0.01432838  0.009497156  33.63   0.00100706    1.507    0.337
        22 -11.3425     82.2917    185.5047   2.9193491137e+02   5.1496029644e+00    0.0226878   0.01439146 -37.13  0.001390788    1.758    0.431
        23 -11.2391     85.8545    179.7243   2.9186000020e+02   5.1959321130e+00   0.01949349   0.01341709 -47.08 0.0008631637    1.446    0.309
        24 -16.0562     27.6734    243.8804   2.9290284106e+02   4.7885130622e+00    0.1699878    0.1403066 -35.53   0.01222364    1.264    0.209
        25  -8.0874     92.4455    186.4437   2.9182479595e+02   5.0802147781e+00  0.006484497  0.006294972  80.96 5.598748e-05    1.047    0.045
        26  -9.3670     20.1817    184.4269   2.9263641085e+02   5.5194850402e+00   0.01879054   0.01645961  50.77  0.001455316    1.182    0.154
        27  -9.7106      7.6322    183.8882   2.9277628768e+02   5.5978006578e+00   0.01535908  0.009822057  18.14  0.001073706    1.721    0.419
        28  -8.9990     56.7613    177.9860   2.9218125136e+02   5.3836264298e+00   0.01449942  0.008339811  36.90 0.0008914497    1.729    0.422
        29  -8.8049    167.4409    212.4633   2.9112549985e+02   4.3464127562e+00   0.01146372   0.00645877 -78.54 0.0006939286    2.226    0.551
        30  -9.5373    228.0167    172.8212   2.9020054709e+02   4.4541162261e+00   0.01139989  0.006888302  54.60   0.00108223    1.967    0.492
        31  -9.1436    112.3683    210.9104   2.9174311947e+02   4.6823313043e+00   0.01224677  0.009705838   7.67  0.001193712    1.398    0.284
        32  -9.5729    230.1315    167.2649   2.9014338549e+02   4.5060570605e+00   0.01476774  0.007872777  88.10  0.001103005    3.431    0.708
        33  -8.7702     35.4368    166.3678   2.9235544816e+02   5.6407298179e+00   0.01129739  0.007414935  49.78  0.000907619    1.661    0.398
        34 -11.2447     97.6596    161.5403   2.9161745115e+02   5.3381820221e+00   0.03056865   0.01682063 -41.22  0.001469829    1.992    0.498
        35 -13.7303     12.9877    243.4833   2.9306771715e+02   4.8774587753e+00   0.04141198    0.0294963  35.52  0.001410886    1.409    0.290
        36 -10.7367     65.0825    157.4388   2.9196443624e+02   5.5733957166e+00   0.01994728    0.0130322  58.41  0.001319496    1.828    0.453
        37 -10.5316     27.8667    157.1502   2.9238710734e+02   5.7908919742e+00   0.02124769   0.01622121   3.32  0.002195386    1.505    0.336
        38  -9.3954     23.1244    156.5450   2.9243760431e+02   5.8251521453e+00   0.01178563  0.009250027 -60.21 0.0006562298    1.240    0.193
        39 -10.2454      3.2266    161.7316   2.9269529551e+02   5.8794481911e+00   0.01666822    0.0108939  26.37  0.001188692    1.566    0.361
        40  -9.7493    133.3331    144.0111   2.9110666919e+02   5.3349284553e+00   0.05016625   0.01413852 -71.46  0.002139226    9.620    0.896
        41 -10.0975    108.4270    144.6033   2.9139402281e+02   5.4719146355e+00   0.02703185   0.01194494 -43.69  0.002234996    2.492    0.599
        42 -11.6166     97.0634    145.3962   2.9152827039e+02   5.5283194224e+00   0.01307015   0.01194452 -23.60 0.0004800625    1.141    0.124
        43  -8.9378    127.9172    142.3442   2.9115845955e+02   5.3854895322e+00  0.009914748  0.008583977 -77.25 0.0002541706    1.186    0.157
        44  -8.6893      1.8545    225.5002   2.9308826457e+02   5.1494586635e+00  0.009583017  0.006476902  27.32 0.0009549953    1.506    0.336
        45  -9.6888    115.4097    133.6032   2.9124897635e+02   5.5587858635e+00   0.01362194   0.01055316 -34.77 0.0006414247    1.377    0.274
        46  -9.0625      9.3360    134.3080   2.9246300443e+02   6.1616038503e+00  0.006950913  0.004872675 -27.55 0.0006202394    1.676    0.403
        47  -8.4251    192.5646    132.5400   2.9036374537e+02   5.1248654512e+00  0.006524841  0.006260816 -44.63 0.0001181504    1.034    0.033
        48 -10.2185    103.4308    130.2870   2.9136579793e+02   5.6662819702e+00    0.0138209   0.01040741 -39.90 0.0009289359    1.378    0.275
        49 -13.3280     71.4302    202.8640   2.9216164179e+02   5.0113609472e+00    0.0557135    0.0480074 -51.24  0.004103233    1.136    0.120
        50  -8.7867    160.5111    128.5038   2.9070467931e+02   5.3570447409e+00  0.006525855  0.006332579  81.23 0.0008101194    1.048    0.045
        51  -8.9918    124.9974    127.3023   2.9110218106e+02   5.5762510280e+00  0.008834662  0.008422793  28.29 0.0002959491    1.069    0.064
        52  -9.6960    119.9390    126.6600   2.9115601380e+02   5.6128979099e+00   0.01193913  0.008662887 -48.20 0.0009343149    1.361    0.265
        53 -12.8226     18.9008    214.4067   2.9282847545e+02   5.1799515095e+00   0.05614711   0.02260203  34.22  0.001213977    2.375    0.579
        54 -10.5946    238.6325    124.3952   2.8979099609e+02   4.9519461788e+00   0.01275916   0.01152863  32.03 0.0005977653    1.124    0.110
        55  -9.4024    134.8619    122.4561   2.9096088752e+02   5.5752657035e+00   0.01628402   0.00743444 -66.91  0.001377466    2.314    0.568
        56  -9.3081    110.8217    121.9032   2.9123162873e+02   5.7205408500e+00   0.01035794  0.009263878  29.23 0.0004270501    1.137    0.121
        57  -8.7466     69.7800    116.8328   2.9166952597e+02   6.0159234389e+00  0.009142912  0.007543138  64.36 0.0003770997    1.329    0.247
        58  -9.4138    168.3728    113.9171   2.9052816576e+02   5.4801114910e+00   0.01590736   0.01138981  74.37 0.0009500772    1.728    0.421
        59  -9.6884     23.6745    112.9899   2.9217280543e+02   6.3257553020e+00   0.01372979  0.009564339  26.52 0.0008404158    1.467    0.318
        60  -9.5800     31.4854    107.4898   2.9205096922e+02   6.3444368864e+00   0.01383342   0.01119753 -27.60  0.001038102    1.346    0.257
        61 -10.6721      8.7730    105.1720   2.9229647615e+02   6.5017886464e+00   0.02180316     0.014614 -56.60  0.001840054    1.434    0.303
        62 -10.5165      2.0497    104.9830   2.9237211668e+02   6.5425863229e+00   0.01960446  0.009505502 -54.20  0.001783881    1.941    0.485
        63 -10.4304     66.4728    105.5091   2.9163989290e+02   6.1659006874e+00   0.01616892   0.01237575   1.46  0.001594135    1.510    0.338
        64  -8.1136    151.7252     77.6415   2.9050144698e+02   5.9955477734e+00  0.006976227  0.004737902 -34.29 0.0007005156    1.654    0.395
        65  -8.3320    192.4937     62.4399   2.8994608838e+02   5.9348964270e+00  0.006484848  0.006322741 -40.71  0.000113446    1.024    0.024
        66  -8.0146     23.3440     61.2839   2.9186911679e+02   6.9253390024e+00  0.006832515  0.004908575 -24.96 0.0003368354    1.641    0.391
        67 -10.8695    164.3225     54.2401   2.9021810531e+02   6.1928334471e+00   0.02579649   0.01192474  43.90  0.002228469    2.308    0.567
        68 -10.1923    105.6220    241.3046   2.9200019339e+02   4.3696849096e+00   0.01275697   0.01107816  81.48 0.0003424325    1.242    0.195
        69 -13.9765     54.7840    236.3951   2.9254986861e+02   4.7192482322e+00    0.1069082   0.06922085 -73.60  0.009514784    1.674    0.403
        70  -8.9155    139.4760    241.5105   2.9161617324e+02   4.1720437820e+00  0.006518324  0.006332351 -48.28  6.98814e-05    1.018    0.017
        71 -10.4775    192.7728    195.3513   2.9073554057e+02   4.3977677829e+00    0.0509329   0.02425539  88.50  0.002844197    6.364    0.843
        72  -8.4207     76.5582     51.5133   2.9120313741e+02   6.7317174607e+00   0.01254837  0.005143871  39.28   0.00103319    2.421    0.587
        73  -9.6683    247.5472     48.8617   2.8923818424e+02   5.7719857909e+00   0.01129019   0.01000968  12.01 0.0003779423    1.185    0.156
        74  -9.4455     25.6159     40.7773   2.9172105007e+02   7.1491687082e+00  0.009382914  0.006281701 -77.13 0.0009499149    1.670    0.401
        75  -9.5511    211.8136     37.8584   2.8957907061e+02   6.1064710731e+00  0.009031133  0.007604421  66.47 0.0003769652    1.295    0.228
        76  -8.7499    132.9655     51.3523   2.9055842189e+02   6.4077064145e+00  0.008797741    0.0082234  21.34  0.000372452    1.096    0.087
        77 -10.2750    142.5976     27.7399   2.9030748460e+02   6.6245346420e+00   0.01119026     0.010788 -26.66 0.0003052237    1.053    0.051
        78  -9.1493    164.5347     12.4546   2.8996587944e+02   6.6738045881e+00  0.006496159  0.006310358 -44.25 2.167227e-05    1.023    0.022
