#   1 NUMBER                 Running object number                                     
#   2 MAG_AUTO               Kron-like elliptical aperture magnitude                    [mag]
#   3 X_IMAGE                Object position along x                                    [pixel]
#   4 Y_IMAGE                Object position along y                                    [pixel]
#   5 X_WORLD                Barycenter position along world x axis                     [deg]
#   6 Y_WORLD                Barycenter position along world y axis                     [deg]
#   7 A_WORLD                Profile RMS along major axis (world units)                 [deg]
#   8 B_WORLD                Profile RMS along minor axis (world units)                 [deg]
#   9 THETA_WORLD            Position angle (CCW/world-x)                               [deg]
#  10 FWHM_WORLD             FWHM assuming a gaussian core                              [deg]
#  11 ELONGATION             A_IMAGE/B_IMAGE                                           
#  12 ELLIPTICITY            1 - B_IMAGE/A_IMAGE                                       
         1 -10.8768     30.6097     16.3075   6.7052413109e+01   7.3061641069e+01    0.2688569    0.1925096 -42.97 0.0007710157    1.381    0.276
         2 -11.1936     84.2105      8.3959   3.6131237206e+01   6.3054357593e+01    0.2274645     0.191903  87.64 0.0008635371    1.305    0.234
         3 -10.6268     54.4718     10.8563   4.9021245240e+01   6.9703092142e+01    0.2877497    0.1989362  24.44  0.001453899    1.553    0.356
         4 -10.9201     40.6018     10.8043   5.6814026485e+01   7.2425316566e+01    0.1827109    0.1258935 -47.04 0.0007331087    1.672    0.402
         5 -10.7480    144.1540      9.2186   2.4828123997e+01   4.7207606878e+01     0.363307    0.1638581 -28.06  0.001267054    2.202    0.546
         6 -11.2994     78.6786      8.0364   3.7628703763e+01   6.4476129030e+01     0.272798    0.1976965  63.34 0.0004039948    1.324    0.245
         7 -10.0763    239.8658      5.1710   1.6169094486e+01   2.5610547132e+01    0.1375608    0.1285593 -14.74 0.0003362169    1.307    0.235
         8 -10.6253     88.7323      4.5797   3.2903982436e+01   6.2300576706e+01    0.2000868    0.1310124  78.43 0.0009468365    1.629    0.386
         9 -11.4556    113.2997    228.3238   8.3784399936e+01   1.4697357253e+01    0.2760042    0.2300321 -27.36  0.001490448    1.445    0.308
        10 -11.3145    116.8733    250.5305   8.5232996456e+01   1.0991125162e+01    0.2515377    0.0850094  36.98 0.0004050898    2.190    0.543
        11 -10.8036     93.1470    249.0604   8.9945052430e+01   1.3878597418e+01    0.1560687     0.139195  26.96 0.0004341923    1.216    0.177
        12 -10.4061     84.0671    251.0000   9.1962851424e+01   1.4583591323e+01    0.3293143   0.04761162  28.62  0.001062335    5.035    0.801
        13 -14.9216     65.1262    244.7403   9.5480943603e+01   1.7566075957e+01     1.236923     0.895622  85.48  0.008925012    1.739    0.425
        14 -15.0000     53.1394    225.1564   9.6871287718e+01   2.2114337391e+01     1.334056     1.032866  45.83  0.007621215    1.080    0.074
        15 -15.6848     94.8182    194.3100   8.4260729167e+01   2.2969589292e+01     1.724334     1.342455 -88.77   0.01035335    1.658    0.397
        16 -15.5815     71.9788    209.5795   9.1358448133e+01   2.2904924351e+01      2.64125    0.4990085  35.33  0.009741059    3.245    0.692
        17 -17.3397     68.3769    188.2770   9.0289293624e+01   2.7513306182e+01     4.661467     3.057606  16.48   0.02533365    1.605    0.377
        18 -10.8350    214.9829    226.4772   6.3864758792e+01   2.6301374167e+00    0.1620806    0.1326332  -9.85 0.0004395307    1.393    0.282
        19 -10.5586    184.6864    227.6984   6.9351552810e+01   5.9791421453e+00    0.1158337   0.06941395   3.77 0.0002296999    1.612    0.380
        20 -11.4681    220.3926    231.2329   6.3645367145e+01   1.5266168156e+00    0.2026414    0.1497364  -0.47 0.0004856286    1.145    0.127
        21 -10.0038    138.5085    226.5246   7.8246962624e+01   1.1833247823e+01     0.120207   0.09193862  24.17 5.911624e-05    1.043    0.041
        22 -11.7283    125.7868    222.1841   8.0416929705e+01   1.4096924210e+01    0.3200141    0.2599823 -71.24  0.001445804    1.804    0.446
        23 -16.1072     22.4039    220.2974   1.0353224355e+02   2.5913223917e+01      2.50221     0.919238  46.21   0.01330145    1.969    0.492
        24 -11.1502    159.4639    221.8704   7.3394235652e+01   9.8496661901e+00    0.2384942    0.1497392  14.25 0.0009213766    1.410    0.291
        25 -11.0878    223.3531    220.2454   6.1579772888e+01   2.3880660216e+00    0.1859378     0.138964  18.45 0.0003423232    1.307    0.235
        26 -11.7010    173.4818    220.3391   7.0443192213e+01   8.2906246029e+00    0.2185109    0.2020591   5.05  0.001132561    1.406    0.289
        27 -15.3910     15.8842    239.3821   1.0554019419e+02   2.3087912578e+01    0.8679758    0.5429401  64.39  0.005526901    1.447    0.309
        28  -9.9970    139.8806    218.7595   7.7001880200e+01   1.2812983446e+01    0.2090615    0.1580763  67.82  0.001250933    2.237    0.553
        29 -10.9326    145.0205    215.9806   7.5564838857e+01   1.2562402983e+01    0.2020263    0.1302326  -0.37  0.001153253    1.772    0.436
        30 -11.0845    184.1757    213.8203   6.7484107796e+01   7.8054597996e+00    0.1755028    0.1486645 -18.78 0.0005221134    1.359    0.264
        31 -11.3293    183.5142    210.4686   6.7114353883e+01   8.3315157572e+00    0.2020027    0.1440163  47.18 0.0001145295    2.036    0.509
        32 -11.6553    125.1173    212.4368   7.9391952580e+01   1.5735207264e+01    0.3027891    0.2054753 -35.24  0.001234911    1.747    0.427
        33 -11.4171    121.2457    210.1669   7.9972141191e+01   1.6620171836e+01    0.2265412    0.1454566   9.34  0.001248679    1.712    0.416
        34 -10.9888    103.0254    213.9877   8.4535961720e+01   1.8333670540e+01    0.1853175    0.1469459  28.18 0.0003406344    1.020    0.020
        35 -12.0727    153.6804    210.6870   7.3047086645e+01   1.2210607113e+01    0.3078755    0.2174734  -0.18  0.001762754    1.427    0.299
        36 -11.3570    142.5174    212.0333   7.5570332606e+01   1.3492998152e+01    0.2450199    0.1636211 -16.12  0.001322923    1.762    0.432
        37 -12.2889    138.8056    210.1868   7.6118069040e+01   1.4275792926e+01    0.3957929    0.3318975  -3.00  0.001750198    1.199    0.166
        38 -11.3481    228.8010    207.5315   5.8776318791e+01   3.1850626939e+00    0.2588972    0.1422423 -10.05  0.001615196    1.723    0.420
        39 -10.5474    209.5228    211.4846   6.2580829051e+01   4.9794998232e+00    0.1132803   0.08452477   6.21 9.987081e-05    1.033    0.032
        40 -10.3295    248.0251    206.0184   5.5585963831e+01   1.2277182545e+00    0.1382473    0.1249081  -2.41  0.001141104    1.752    0.429
        41 -10.3079    160.3302    206.6761   7.1110289644e+01   1.1914564427e+01    0.1141922    0.0895273  49.09 0.0007050045    1.700    0.412
        42 -11.2391    124.4815    205.5462   7.8663252139e+01   1.6960422778e+01    0.2980471    0.2035394   5.58   0.00169731    1.613    0.380
        43 -13.4381    146.6840    203.2057   7.3465172050e+01   1.4304549252e+01     0.460573    0.3347861  21.70  0.002874351    1.129    0.114
        44 -10.8940    121.4885    200.1635   7.8642183998e+01   1.8288328699e+01    0.2104374    0.1807924 -31.06  0.001373114    1.332    0.250
        45 -12.9798    124.3825    195.8940   7.7400810155e+01   1.8630465786e+01    0.4901428    0.3564136  26.71  0.002925454    1.149    0.130
        46 -10.3635    212.4193    200.2357   6.0332699396e+01   5.9891511952e+00    0.1412885   0.09954704 -34.11 0.0007377903    1.646    0.392
        47 -12.4477    134.3294    198.7405   7.5536147700e+01   1.6747412868e+01    0.3957417    0.2338178  17.21 0.0005624021    1.718    0.418
        48 -10.8311    225.1082    199.2466   5.8063160877e+01   4.5646095211e+00    0.1858022    0.1425457  32.40 0.0009854706    1.615    0.381
        49 -14.4829      4.6187    221.0588   1.0746912050e+02   2.7218785600e+01     0.782589    0.4255871  78.25   0.00503032    1.800    0.444
        50 -12.5932    191.1068    194.3600   6.3187459400e+01   9.5074977387e+00    0.4756054    0.2599418  22.79  0.002661202    1.656    0.396
        51 -15.9363     33.8278    237.7348   1.0173356793e+02   2.1799383816e+01     2.098265      1.09289   5.83   0.01086085    2.938    0.660
        52 -10.5814    212.3183    193.1295   5.9198791755e+01   6.8848138737e+00     0.205171    0.1415925 -53.92  0.001142675    2.960    0.662
        53 -10.6205    163.8315    193.1345   6.8344148374e+01   1.3469255837e+01    0.1792492    0.1279195   8.04 0.0009053408    1.311    0.237
        54 -16.6141     28.5618    231.8715   1.0262230257e+02   2.3289078823e+01     2.470727    0.8565249  31.29   0.01300521    2.018    0.504
        55 -11.7178    111.6914    192.3817   7.9915139472e+01   2.1038877255e+01    0.2817901     0.248619  62.50 0.0008077102    1.334    0.250
        56 -11.8151    110.5120    188.4549   7.9674778015e+01   2.1935617077e+01    0.3060407    0.2074545  22.87 0.0009641237    1.350    0.259
        57 -10.5996    132.5339    240.0457   8.1013383554e+01   1.0627560842e+01    0.2601621     0.124815  35.60  0.001246722    1.641    0.390
        58 -10.4711      7.6093    189.2491   1.0594581852e+02   3.3219131945e+01    0.4542558    0.3446679 -24.04   0.00294011    1.815    0.449
        59 -11.6794     10.4060    183.7626   1.0505748775e+02   3.4166516901e+01    0.2368878    0.1647617  50.68 0.0003205042    1.167    0.143
        60 -10.4531    234.5006    191.5093   5.5313669990e+01   4.3455152510e+00    0.1134088   0.08209187  -1.18 -0.000139617    1.027    0.027
        61 -12.6312    136.2889    186.9183   7.3363139030e+01   1.8485533240e+01    0.3265313    0.1966683 -46.43  0.001372307    1.894    0.472
        62 -10.7001    173.7004    189.1832   6.5704339343e+01   1.2662443288e+01    0.1794668    0.1391865  24.88  0.001140892    1.156    0.135
        63 -10.8490    123.9879    187.7076   7.6337823817e+01   2.0144147892e+01    0.2334401    0.1646325  28.93 0.0005926676    1.205    0.170
        64 -12.6391    128.5051    184.3974   7.4784260349e+01   2.0081005501e+01    0.3528699    0.2784465 -19.97 0.0008756979    1.399    0.285
        65 -10.5729    248.3349    185.8959   5.2303213670e+01   3.3636238342e+00    0.1984629    0.1276743  14.08 0.0006146015    1.353    0.261
        66 -11.1438    186.1609    185.3133   6.2624370049e+01   1.1458867722e+01    0.2003262    0.1305369  14.33 0.0005858491    1.425    0.298
        67  -9.6922     18.3222    184.2784   1.0304454274e+02   3.3434511908e+01    0.1095334   0.09054732 -28.20  0.000349586    1.584    0.369
        68 -10.3848    109.1728    237.3833   8.5574550926e+01   1.3797420993e+01     0.227431    0.1139365 -37.93   0.00121949    2.795    0.642
        69 -11.5875     23.6395    178.3208   1.0135466189e+02   3.4278740430e+01     0.475497    0.2058058  74.27  0.001720677    2.537    0.606
        70 -10.2681     95.1946    237.8530   8.8583509513e+01   1.5357184806e+01    0.2537255    0.1306683  26.23  0.001452437    1.544    0.352
        71 -10.5252     82.2807    226.0646   9.0391605970e+01   1.8771337213e+01    0.3435923    0.1114835  44.77  0.001499477    2.735    0.634
        72 -11.0183     90.6124    236.7822   8.9472361317e+01   1.6051805104e+01    0.2483721    0.1669078  48.07  0.001549024    1.413    0.293
        73 -12.4604    163.8158    176.9671   6.5684381852e+01   1.6021426447e+01    0.5114047    0.2765243  53.51  0.002152404    3.197    0.687
        74 -12.3460    137.0104    176.9584   7.1627527925e+01   2.0139234734e+01    0.2521724    0.1901811 -42.03  0.000952916    1.475    0.322
        75 -11.6815     88.2100    231.0974   8.9508918788e+01   1.7246049364e+01    0.4406582    0.3097923  50.42  0.002452451    1.395    0.283
        76 -10.5904     33.1353    177.4481   9.8748907127e+01   3.3618683957e+01    0.2176474    0.1829931 -29.53  0.001373799    1.504    0.335
        77 -11.1414     27.3485    173.2852   1.0006135485e+02   3.5069114316e+01    0.4508526    0.2110046  57.49  0.002174228    2.015    0.504
        78 -11.8199     38.4139    176.3476   9.7237941405e+01   3.3354213710e+01    0.2158329    0.2055543  53.03 0.0003324015    1.131    0.116
        79 -14.0298    124.7812    169.2886   7.3298956647e+01   2.3464623137e+01    0.6066168    0.4682822 -20.49  0.003370297    1.464    0.317
        80 -11.9467    137.7160    166.3996   6.9681531701e+01   2.1954974470e+01    0.2900173    0.1951751 -15.77  0.000765324    1.866    0.464
        81 -13.6265    153.5860    167.1707   6.6175906278e+01   1.9264477243e+01     0.591053    0.3450392 -35.50  0.002966447    1.827    0.453
        82 -11.2161    196.4998    170.5261   5.8098430913e+01   1.2093019787e+01     0.226125    0.1022591  26.90  0.001037581    2.352    0.575
        83 -12.1919     99.2562    168.1117   7.9662072407e+01   2.7595397754e+01    0.2907614    0.2637681 -30.55 0.0007601774    1.225    0.184
        84 -12.0923    172.6196    167.4579   6.2166959230e+01   1.6191923133e+01    0.3484696     0.190078 -47.09   0.00157417    2.206    0.547
        85 -13.3554    131.7799    169.1818   7.1576522644e+01   2.2383107998e+01    0.5286679    0.2794108  33.78  0.002482812    1.681    0.405
        86 -10.8289    103.8892    244.9216   8.7375845985e+01   1.3282172150e+01    0.1594522    0.1558174  32.42 0.0006225646    1.333    0.250
        87 -10.2777     32.9406    167.8150   9.8139769496e+01   3.5793378575e+01    0.2143741    0.1802194 -89.95  0.001295366    1.210    0.174
        88 -10.8733    211.0914    237.1617   6.6005776207e+01   1.8932361119e+00    0.1700657    0.1062491   2.95 0.0008237127    1.281    0.220
        89 -10.1463     18.7849    167.1512   1.0208420525e+02   3.7173644392e+01    0.1578902    0.1451666 -34.12  0.001053196    1.334    0.250
        90 -11.1457    205.8237    164.8371   5.5385957018e+01   1.1531247316e+01    0.1948831    0.1422985   1.42 0.0006869035    1.239    0.193
        91 -11.1095    102.4672    234.7366   8.6747814180e+01   1.4996838323e+01    0.2900604    0.1838445   0.73 0.0007846233    2.045    0.511
        92 -11.0615     35.8585    163.0920   9.6947958487e+01   3.6600020496e+01    0.2089728    0.1498502  54.62 0.0004668094    1.256    0.204
        93 -12.2072    171.0455    160.4043   6.1178711002e+01   1.7586983569e+01    0.3632019    0.2429653   9.63  0.001619218    1.646    0.393
        94 -13.0608     96.3400    159.8272   7.9196245831e+01   2.9785660485e+01    0.5519257     0.294947 -51.81  0.002521724    2.030    0.507
        95 -12.1638    103.2200    158.0157   7.7025939765e+01   2.9123137842e+01    0.3164945    0.2231593 -41.61 0.0009376748    1.583    0.368
        96 -12.4081    100.8006    155.3660   7.7253221928e+01   3.0066214229e+01    0.3904031    0.1876537  31.90 0.0006701416    1.914    0.478
        97 -10.3908      2.7007    170.5481   1.0663243055e+02   3.7586819255e+01    0.3184061     0.147157  -5.83  0.001355423    3.633    0.725
        98 -10.5370     82.1315    234.5994   9.1124917804e+01   1.7365512006e+01    0.2089631    0.1679311  42.47  0.001508316    1.137    0.121
        99 -11.1672     24.9155    144.8415   9.8833368924e+01   4.1926227311e+01     0.254183    0.2027888 -60.46 0.0007785155    1.342    0.255
       100 -11.5487     28.0293    160.4245   9.9027795203e+01   3.7943270494e+01    0.2605992    0.2105195  81.92 0.0004219506    1.196    0.164
       101 -13.7573     22.3823    153.1147   1.0020480427e+02   4.0145618143e+01    0.9423918    0.6936977  34.20  0.004102123    1.260    0.206
       102 -11.4977     46.4496    158.7165   9.3454602061e+01   3.6539770694e+01    0.4552937     0.252148  -8.96  0.001823783    3.211    0.689
       103  -9.9385     98.3306    234.1256   8.7579314190e+01   1.5579389832e+01      0.13484    0.1081166  86.80  0.000932919    1.718    0.418
       104 -11.8689    127.0458    156.3225   7.0491964112e+01   2.5629102142e+01    0.2267212     0.211096 -60.01 0.0003479068    1.259    0.206
       105 -12.5696     81.2727    155.8378   8.2848822281e+01   3.2863311590e+01    0.3716933    0.2043714  38.45   0.00120514    1.616    0.381
       106 -12.9533     88.6562    153.5690   8.0381209670e+01   3.2305482224e+01    0.3539094    0.3139394  84.75  0.001857514    1.253    0.202
       107 -10.0774      2.5720    154.3006   1.0613261469e+02   4.1286870306e+01    0.2245059     0.138352 -70.69 0.0007784336    1.654    0.395
       108 -11.3656    212.1894    153.9925   5.2248845413e+01   1.2099325192e+01    0.2086816    0.1653538  21.95 0.0006391733    1.219    0.179
       109 -10.9247    214.1645    233.1831   6.4945666413e+01   1.9888864413e+00    0.1601388    0.1046874   6.00 0.0003662585    1.139    0.122
       110 -13.9482    109.1097    148.1262   7.3714502094e+01   3.0291911467e+01    0.9801472    0.3616153 -47.37   0.00333766    2.904    0.656
       111 -13.7667    102.7455    142.4504   7.4454921097e+01   3.2574857971e+01    0.7597781    0.4329104  47.75  0.002540409    1.811    0.448
       112 -10.9211    181.7356    232.2929   7.0513302135e+01   5.7643729844e+00    0.2446217     0.108526  14.76  0.001185736    2.634    0.620
       113 -10.6278    131.7946    232.1859   8.0297402048e+01   1.1840076417e+01     0.474123     0.133154  25.16  0.001692327    4.005    0.750
       114 -11.7894     60.1931    150.0459   8.8340396340e+01   3.7000851574e+01    0.2873565    0.2536542 -83.14 0.0008607813    1.181    0.153
       115 -12.2596    146.6842    150.1873   6.4561491779e+01   2.3468103183e+01    0.3034133    0.2404504  74.89  0.001554233    1.934    0.483
       116 -12.3918     79.2760    141.1257   8.1182539230e+01   3.6540572006e+01    0.3350812    0.2676731 -89.22   0.00169699    1.431    0.301
       117 -12.5709     80.5119    148.1494   8.1921818961e+01   3.4726118566e+01    0.4016117     0.221407  43.47 0.0007896277    1.700    0.412
       118 -10.4174     34.0392    149.6494   9.6375613124e+01   3.9947668434e+01    0.1854023    0.1549361  33.94 0.0004111853    1.149    0.130
       119 -10.5005    223.9529    148.3041   4.9246486650e+01   1.1128571642e+01    0.1989814    0.1458939 -32.73 0.0007016216    1.352    0.261
       120 -11.3077    154.0295    149.3096   6.2701278871e+01   2.2355905963e+01    0.2018349    0.1638144  28.16 0.0005771352    1.140    0.123
       121 -10.8064    193.6483    228.8633   6.7887760426e+01   4.7828150008e+00    0.1309264   0.09870569 -36.18 0.0005390025    1.757    0.431
       122 -11.4088    128.7851    147.1339   6.8327562100e+01   2.7163433136e+01    0.2053406    0.1884794  51.63 0.0003378533    1.194    0.162
       123 -11.6895     54.7735    145.6298   8.9470002690e+01   3.8712102171e+01    0.3412083    0.1866391  61.59  0.001404185    2.124    0.529
       124 -11.2152     50.8023    143.4052   9.0455175701e+01   3.9713242456e+01    0.2316227    0.1954097 -23.79  0.001301921    1.407    0.289
       125 -10.9788     36.1195    144.5588   9.5258053018e+01   4.0982779832e+01    0.4003303    0.1900881 -48.34  0.001687596    2.463    0.594
       126 -10.6026     57.6037    143.5775   8.8317305769e+01   3.8867227843e+01     0.313183    0.1519303  52.05  0.001294003    2.199    0.545
       127 -11.4760     12.8517    142.8609   1.0250142484e+02   4.3333533914e+01    0.4488527     0.279665  45.24  0.001687781    1.436    0.304
       128 -12.3487    126.2019    151.5788   6.9831778170e+01   2.6714956776e+01    0.3343851    0.2313381  29.93 0.0003801204    1.347    0.258
       129 -11.6218     44.6589    150.3598   9.3158310797e+01   3.8710194244e+01    0.3448004     0.199111 -82.21  0.001661634    1.863    0.463
       130 -10.6698    139.6646    141.2959   6.4449826640e+01   2.6394169242e+01    0.1390695     0.112955  68.68 0.0003843823    1.647    0.393
       131 -10.3854     75.1006    140.1474   8.2317054813e+01   3.7374097336e+01    0.2018528    0.1548184  53.47  0.000377037    1.301    0.232
       132 -12.1681     31.9911    139.4255   9.6102721661e+01   4.2633762191e+01    0.3319396    0.1915863 -49.29  0.001598867    1.940    0.484
       133 -11.7997     38.6116    137.8977   9.3779373874e+01   4.2376144150e+01    0.4493727     0.259885  -7.04  0.001926167    2.600    0.615
       134 -11.6429    159.3101    137.3200   5.9050605716e+01   2.3576434018e+01    0.3017866    0.1866444 -35.23 0.0008877669    1.645    0.392
       135 -10.4444     50.9157    138.1174   8.9765159433e+01   4.0994724941e+01    0.2118735    0.1866573  58.64 0.0002949002    1.070    0.065
       136 -10.9654     54.1439    135.8985   8.8414866336e+01   4.1161826321e+01    0.3520425    0.1794226  39.03  0.001556091    1.786    0.440
       137 -11.8872    133.8172    131.1592   6.3759577253e+01   2.9466624036e+01    0.3113599    0.2182674  24.66 0.0009575856    1.495    0.331
       138 -12.4780    143.8100    132.1944   6.1516378740e+01   2.7393646469e+01     0.400381    0.2877542  -5.18  0.001728148    1.760    0.432
       139 -12.0069     61.4854    134.4020   8.5787367063e+01   4.0615159348e+01    0.5037953    0.2474803  32.11  0.002016656    1.875    0.467
       140 -11.2497     13.0038    133.7260   1.0189984913e+02   4.5564230719e+01     0.360444    0.2159975  51.11  0.001192539    1.535    0.349
       141 -12.9265    103.7807    133.1511   7.2372121160e+01   3.4466131368e+01    0.5109026    0.2602251  35.20  0.002117386    1.848    0.459
       142 -12.8817     96.0452    133.4859   7.4722680319e+01   3.5696403860e+01    0.5882025    0.2944381  19.04  0.001801106    2.973    0.664
       143 -10.7505     76.3625    133.2280   8.0775632811e+01   3.8842709585e+01    0.3618144    0.1475498 -73.43  0.001108547    4.134    0.758
       144 -11.1059     70.8889    133.8097   8.2631360387e+01   3.9489776489e+01    0.2049764    0.1909768   5.50 0.0002821907    1.151    0.131
       145  -9.9097    210.6401    160.6795   5.3779992612e+01   1.1403238877e+01    0.1314054    0.0819245   3.00 0.0004149509    1.769    0.435
       146 -12.2545    138.7137    131.8869   6.2691805456e+01   2.8406847220e+01     0.502419     0.382168  87.60  0.001396464    2.134    0.531
       147 -11.7627     35.6337    131.8796   9.4129262822e+01   4.4171502035e+01    0.2703128    0.1900568  37.71 0.0008582142    1.336    0.251
       148 -13.4792    155.7234    128.7812   5.7988060581e+01   2.5791413377e+01    0.7889416    0.4574902  35.69  0.003627364    1.710    0.415
       149 -11.8166     30.3485    129.8475   9.5724087849e+01   4.5175138076e+01    0.3841528    0.1857551  65.58  0.001598167    2.382    0.580
       150 -10.5434     69.7250    129.9679   8.2374823838e+01   4.0587605178e+01    0.1949441    0.1864648 -86.84 0.0004868107    1.073    0.068
       151 -10.1207     77.9715    229.2737   9.1613745403e+01   1.8718164999e+01    0.1696757    0.1183693  31.11 0.0006079078    1.113    0.102
       152 -11.9350     84.0761    128.3132   7.7429956423e+01   3.8840316650e+01    0.2968299    0.2259262 -71.55  0.001480856    1.466    0.318
       153 -10.8747     15.3733    127.5751   1.0068071949e+02   4.6937996273e+01    0.3347981    0.2207403 -82.64  0.001802869    1.435    0.303
       154 -11.8297     59.2035    127.1828   8.5449371136e+01   4.2695209660e+01    0.3230031    0.2170349 -65.96  0.001579711    1.519    0.342
       155 -11.4171    100.9466    125.8866   7.1724191379e+01   3.6593090875e+01    0.2863185    0.2113828 -72.16  0.001136631    1.661    0.398
       156 -10.8471     10.4555    123.4545   1.0209908324e+02   4.8299364184e+01    0.3000045    0.1853572  40.04  0.001134718    1.525    0.344
       157 -11.0471    189.9079    122.2393   4.9575564664e+01   2.0515635021e+01    0.3082234    0.2371324  83.67  0.001572022    2.240    0.554
       158 -12.4718    101.3484    120.0353   7.0345678529e+01   3.7851416480e+01    0.6927542    0.3071789  51.73  0.002358502    2.921    0.658
       159 -10.4714     48.9200    122.8146   8.8363281708e+01   4.5053593241e+01    0.4431604    0.2266714  77.89 0.0007779314    2.922    0.658
       160 -10.7704     36.8586    120.7227   9.2400227061e+01   4.6883212288e+01    0.3348084    0.2185146  43.45   0.00128511    1.468    0.319
       161 -11.6333     41.9462    120.9254   9.0589426157e+01   4.6309622923e+01    0.5088326    0.3572701 -18.78  0.001924241    1.825    0.452
       162 -12.1006     54.2799    117.0194   8.5543535710e+01   4.5878284981e+01    0.5728375    0.2683992  45.41  0.002304209    2.154    0.536
       163 -10.9808     49.1702    116.1385   8.7262496688e+01   4.6723911289e+01    0.3929227    0.2776104  30.39  0.001076325    1.388    0.279
       164 -10.5017    205.5207    121.8780   4.6792949408e+01   1.7789235666e+01    0.1943002    0.1154785 -31.73 0.0008078661    1.528    0.345
       165 -10.6316      1.8535    121.0006   1.0496350152e+02   4.9398694668e+01    0.1922117     0.173199  74.64 0.0005580253    1.021    0.021
       166 -11.2479     23.4790    117.5767   9.6931965998e+01   4.8881893556e+01    0.5144994     0.224155  88.35  0.002029198    2.619    0.618
       167 -10.7857     31.6116    118.5663   9.4050389196e+01   4.7935100329e+01    0.2775873    0.2402057 -34.08  0.001600107    1.290    0.225
       168 -10.7552    155.2382    117.3931   5.5476232730e+01   2.7978160583e+01       0.1979    0.1352169  52.85 0.0003871883    1.622    0.384
       169 -11.2302    105.3801    114.7842   6.7934808527e+01   3.8300294299e+01    0.2760132    0.2079907  39.08 0.0005945146    1.271    0.213
       170 -11.2031     72.4574    113.2662   7.8361933754e+01   4.4292475048e+01    0.5516204    0.3115919 -12.35   0.00172842    4.174    0.760
       171 -11.4137    191.1566    112.8852   4.7232004338e+01   2.1754264053e+01    0.4409856    0.2537695  13.79 0.0007822936    3.011    0.668
       172 -10.7019     82.4992    113.4815   7.4954413206e+01   4.2644499208e+01    0.2949018     0.148196 -56.46 0.0006708174    2.049    0.512
       173 -11.6608     67.5304    122.4409   8.1811557079e+01   4.2748053057e+01    0.2637067    0.2511514  -7.82 0.0007297908    1.131    0.116
       174 -11.4837     50.4364    107.4530   8.5339966223e+01   4.8796977545e+01    0.3562676    0.2636647 -20.94  0.001439383    1.660    0.398
       175 -11.8669     53.5855    110.7259   8.4724783151e+01   4.7567843943e+01    0.3437745    0.2829392 -66.69 0.0008012087    1.214    0.176
       176 -12.0092     56.2212    106.6709   8.2990301942e+01   4.8261823028e+01     0.423482    0.2248078  54.50  0.001692919    2.252    0.556
       177 -11.0343    242.2598    111.1099   3.9189370337e+01   1.3203540423e+01     0.180096     0.167347  14.56 0.0003206044    1.240    0.193
       178 -10.2069    108.6684    111.6785   6.6214022757e+01   3.8371539040e+01    0.1563835     0.119429  -4.74 0.0007049473    1.698    0.411
       179 -11.3362    153.8205    107.1403   5.3295846168e+01   3.0149870860e+01     0.216167    0.2041519 -80.86 0.0004891393    1.230    0.187
       180 -10.2226    116.9937    103.6957   6.1786279072e+01   3.8464463162e+01    0.2183202    0.1925462  34.01 0.0005288837    1.104    0.094
       181 -12.1484     78.0987     99.7532   7.3365349023e+01   4.6696458947e+01    0.6015598    0.3541957  61.71  0.002325285    2.417    0.586
       182 -11.4789     54.2958     92.7061   8.0903478625e+01   5.2075683520e+01    0.3460893    0.1873827  43.77 0.0008983914    1.892    0.471
       183 -11.6366     59.2887     92.0260   7.8718888736e+01   5.1552819136e+01    0.2916534    0.2812004  65.97 0.0006558242    1.045    0.043
       184 -12.0439     58.1269     99.7073   8.0869225580e+01   4.9775253799e+01    0.4337745    0.3847655 -28.60  0.001604621    1.216    0.178
       185 -10.7232     59.6682     95.7523   7.9410757533e+01   5.0559785637e+01    0.3575855    0.2055909  43.80   0.00121576    1.762    0.432
       186 -11.0288     21.5907     99.5322   9.5677261579e+01   5.3709873205e+01    0.3491266    0.2902705  29.12   0.00201047    1.243    0.196
       187 -10.1363    237.5303     98.5544   3.7144985997e+01   1.5552046357e+01     0.120928   0.09975364 -31.17 4.153379e-05    1.095    0.087
       188  -9.9672    173.3311     98.2945   4.7001987729e+01   2.7640185366e+01    0.1441369    0.1073306  11.81 0.0003605096    1.635    0.388
       189 -10.0258    197.4055     96.2542   4.2265568482e+01   2.3100227057e+01    0.1797433    0.1157746 -40.26 0.0002707073    1.473    0.321
       190 -10.9134    150.0332     95.9945   5.1273665286e+01   3.2995253885e+01    0.2295704    0.1770748   7.70 0.0003808818    1.593    0.372
       191  -9.4462    178.2828    228.7193   7.0676912264e+01   6.6182976934e+00   0.09891986   0.07812469  34.77   0.00017842    1.514    0.339
       192 -10.4043     21.5116     91.4913   9.4682595368e+01   5.5820018032e+01    0.1365125    0.1278861 -87.89 8.204806e-05    1.017    0.017
       193 -10.2553     95.7072     89.4106   6.4517075736e+01   4.5885202339e+01    0.2101598    0.1459031  30.48 0.0006489975    1.519    0.342
       194 -14.0004     53.4012     85.0462   7.9526041788e+01   5.4137965182e+01     1.132337    0.7421754  47.05  0.004918388    1.609    0.378
       195 -11.8719     50.5298     79.4744   7.9419627465e+01   5.5930647966e+01    0.3161873    0.2696407  10.41  0.001021329    1.248    0.199
       196 -11.2486      3.5775     89.0997   1.0226065060e+02   5.7483165305e+01    0.4818417    0.1586072 -66.82  0.001912029    2.523    0.604
       197  -9.7023     11.6694     87.2760   9.8513999739e+01   5.7562819391e+01    0.1398278   0.09101918  54.16 0.0003174658    1.596    0.374
       198  -9.9882    208.4897     86.5198   3.8263717211e+01   2.2353516582e+01    0.1304861    0.1161757 -25.02 1.793578e-06    1.008    0.008
       199 -10.4596     62.6451     83.5311   7.5255467557e+01   5.3168189232e+01    0.2467019      0.14058 -58.62 0.0005518473    1.773    0.436
       200 -10.5481    172.0290     81.9848   4.3001417945e+01   3.0582503689e+01    0.1691948    0.1612321 -26.51  0.000355397    1.006    0.006
       201 -10.9384    212.6646     81.0803   3.6394568327e+01   2.2298260933e+01    0.2895294    0.1636953  40.18  0.001440746    2.099    0.524
       202 -10.6614    207.8285     79.1207   3.6578374788e+01   2.3510087038e+01    0.2271404     0.177084 -19.28 0.0006122065    1.249    0.199
       203 -10.5037    153.0508     80.0964   4.6229016005e+01   3.5150447598e+01    0.2160869    0.2118731  -9.78  0.000346861    1.009    0.009
       204 -12.3417     29.3767     80.0144   8.9277032971e+01   5.8173250753e+01    0.4336322    0.1797855  25.22  0.001742068    2.385    0.581
       205 -10.6282     87.8275     79.1069   6.4231210900e+01   4.9756541630e+01    0.2428178    0.2191101  79.12  0.001252827    1.239    0.193
       206 -10.8291    183.4454     77.7175   3.9883511758e+01   2.8757959942e+01    0.2960752    0.2034939  27.90   0.00145218    1.810    0.448
       207 -11.0607    112.1053     76.0830   5.5338399400e+01   4.5262533542e+01    0.2992593    0.2602119  14.99 0.0006898483    1.271    0.213
       208 -10.9846    115.5440     74.5676   5.3856438670e+01   4.4789449201e+01     0.299015    0.2695585  14.98   0.00101077    1.191    0.161
       209 -11.2566     74.8532     75.6695   6.8074033557e+01   5.2999698211e+01    0.3535934    0.2570342  25.25 0.0008475275    1.480    0.324
       210 -13.0329     32.1596     74.0152   8.6740578205e+01   5.9461980451e+01    0.4351978    0.3331501   2.68  0.002293414    1.443    0.307
       211 -10.8864     50.5193     74.1173   7.8039839861e+01   5.7271136844e+01    0.3269958    0.2204236  15.62 0.0008900866    1.676    0.403
       212 -10.2186    219.8046     72.7900   3.3525194208e+01   2.2027965967e+01    0.1762621    0.1337219 -52.14 0.0005156412    1.347    0.258
       213 -11.7382    100.7440     68.8814   5.6532090166e+01   4.9243692273e+01    0.5044261    0.2000132 -40.22  0.001723824    2.667    0.625
       214 -10.4290    188.5078     66.0167   3.5999414766e+01   2.9363945154e+01    0.3203945    0.1055322 -38.19 0.0009421245    2.662    0.624
       215 -12.9908     31.6468     64.7886   8.4888221130e+01   6.1866091214e+01    0.4352298    0.3891141  60.21  0.002504204    1.215    0.177
       216 -12.8094     25.4745     63.1275   8.7771092494e+01   6.2865141967e+01    0.5551671    0.3497579  -0.34  0.002662376    1.850    0.460
       217 -10.9433    207.9407     62.1396   3.2385313402e+01   2.5762427890e+01    0.2505215    0.1670281   2.73  0.001243871    2.117    0.528
       218 -10.0362    113.8100     62.8855   5.0513815370e+01   4.7426977616e+01    0.2015837    0.1782265 -84.01 0.0003221191    1.281    0.219
       219 -11.1315    197.8833     66.6315   3.4826796555e+01   2.7261126574e+01      0.42185    0.2623078  12.29  0.001489096    2.688    0.628
       220 -10.3517     45.8126     61.1398   7.6582857665e+01   6.1096263917e+01    0.2087693    0.1659725 -24.94 0.0007378557    1.346    0.257
       221 -10.4314    198.1924     59.1775   3.2860463749e+01   2.8198529371e+01    0.1887388    0.1436558 -55.29  0.000487283    1.328    0.247
       222  -9.9847    108.9957     60.0000   5.0915186551e+01   4.9094990412e+01    0.2606917   0.08537231  50.51 0.0008060908    2.968    0.663
       223 -10.6670      3.6605     59.1590   9.9099867626e+01   6.5217038425e+01    0.2500989    0.1849183 -15.02  0.001421707    1.449    0.310
       224 -10.5050    153.7745     57.5995   3.9401919561e+01   3.8646298950e+01    0.2366697    0.1961243 -20.55 0.0007352713    1.289    0.224
       225 -10.6147    224.8784     57.1430   2.9266997425e+01   2.3012429437e+01    0.2127217    0.1528775  83.96  0.001265689    1.697    0.411
       226 -10.4302    192.7229     56.9867   3.3004632134e+01   2.9677665173e+01    0.2443675    0.1268839 -69.18 0.0008981723    3.455    0.711
       227 -11.7999     51.7815     56.1051   7.1951127459e+01   6.1426931915e+01    0.6137941    0.2800415  50.87  0.002152515    3.101    0.678
       228 -11.3038    177.7662     64.8276   3.7328138844e+01   3.1927394298e+01    0.2942953    0.2177052 -25.98 0.0007075201    1.355    0.262
       229  -9.8336     93.6554     51.6928   5.2731819943e+01   5.4202045093e+01    0.1578404    0.1185028  15.02 0.0007043194    1.695    0.410
       230 -10.9113    173.8135     50.4391   3.3861762828e+01   3.4874463408e+01    0.3537381    0.1247926  59.04  0.001314886    2.761    0.638
       231  -9.7885    152.7209     50.6848   3.7439028477e+01   3.9938041489e+01    0.1436473    0.1123278  21.25  0.000216325    1.571    0.364
       232 -11.4286     45.6245     49.8036   7.2900472920e+01   6.3797410754e+01     0.261473    0.2204611  49.93 0.0003126965    1.313    0.239
       233 -10.4102     30.6280     50.5338   8.1553793942e+01   6.5505456712e+01     0.268795    0.1356666  23.23 0.0008190111    2.040    0.510
       234 -10.6745     18.5205     48.5667   8.8280767494e+01   6.7083613097e+01    0.3838011    0.1495836 -45.93  0.001173289    2.365    0.577
       235 -10.4114      1.5839     47.2166   9.8616931957e+01   6.8312337835e+01    0.1928571    0.1003623 -61.73 0.0005990738    1.622    0.383
       236 -11.4430    195.7900     44.4023   2.9262931167e+01   3.0613635600e+01    0.4000972    0.2259341 -85.07  0.001380745    2.466    0.594
       237 -10.1136    122.4911     41.5718   4.0615183875e+01   4.8894193095e+01    0.1487077    0.1415908  71.33 0.0008061181    1.021    0.020
       238 -11.3584     34.8955     39.9148   7.5338140843e+01   6.7509344520e+01    0.5126666    0.2457243  18.35  0.002067378    2.497    0.600
       239 -12.0277     55.4002     37.1863   6.2608154717e+01   6.4937299929e+01    0.4832782    0.3343931  26.70  0.001219247    1.509    0.337
       240 -11.0337      9.9395     37.0566   9.0967747974e+01   7.0469423431e+01    0.2545991    0.1801272   6.25 0.0008561328    1.483    0.326
       241 -10.0719    169.6630     36.3350   3.0280711284e+01   3.7710565036e+01    0.1524473   0.09649748 -61.84 0.0007051865    1.746    0.427
       242 -11.5796     31.8458     32.3191   7.4178925729e+01   6.9588909486e+01    0.4050095    0.2353665 -46.64  0.001956945    1.623    0.384
       243 -10.6519    106.7825     32.2585   4.0914574111e+01   5.4263635190e+01    0.2584442    0.1927843 -43.57  0.000928222    1.414    0.293
       244 -10.7449     44.1778     33.2542   6.6939422854e+01   6.7637977986e+01    0.2391924    0.1779638   1.43  0.001212297    1.545    0.353
       245 -11.2711     77.5398     30.7971   4.9681743329e+01   6.1567874461e+01    0.2657681     0.192959 -85.51  0.001173019    2.172    0.540
       246 -10.1418     38.5917     29.2003   6.8413801310e+01   6.9330327646e+01    0.1946001    0.1218139 -37.86 0.0006364569    1.591    0.372
       247 -10.2411    232.2434     30.9485   2.2479620956e+01   2.4552292415e+01    0.1663758    0.1309359 -37.88 0.0002852347    1.077    0.071
       248 -10.9266    119.0465     25.6867   3.5289392216e+01   5.1996254077e+01    0.2612768    0.2162477  -4.68 0.0007070768    1.396    0.284
       249 -11.4589     84.4713     23.8189   4.3833115974e+01   6.1023177447e+01    0.4780372    0.3251986 -72.82  0.002075362    2.254    0.556
       250  -9.5815    177.7059     23.7379   2.5527725706e+01   3.7230093212e+01    0.1268768   0.09992632  38.38 0.0006903113    1.503    0.334
       251 -10.1210    250.1948     22.3767   1.9381124573e+01   2.2076345848e+01    0.1445748   0.09565163 -76.55 0.0006104463    1.625    0.384
       252  -9.8951     69.4486     21.4573   4.8267431246e+01   6.4876323469e+01    0.1437952    0.1323984  28.18 0.0001457441    1.016    0.016
       253 -10.1812     54.8699     21.6228   5.5112008211e+01   6.7930743551e+01     0.192086    0.1291885  53.68 0.0003218771    1.643    0.391
       254  -9.6785    134.7008     18.6469   2.9620760616e+01   4.8718855836e+01    0.1491615    0.1041193  33.19 0.0007036637    1.696    0.410
       255 -10.5823    238.1174    248.6740   6.3229273045e+01  -1.9877756330e+00     0.152064    0.1080695 -10.76 0.0006763535    1.341    0.254
       256 -10.9633    215.5935     15.6010   2.0009651863e+01   2.9491461044e+01    0.2071867    0.1758947 -48.39 0.0002642175    1.029    0.029
       257  -9.9395     83.2968    246.0191   9.1756184867e+01   1.5424603540e+01    0.1563276    0.1100722  33.80 0.0006586177    1.045    0.043
       258 -11.7524    179.6847    244.6552   7.2476140993e+01   4.5236758501e+00    0.2036349    0.1426767  16.49 0.0004128852    1.033    0.032
       259  -9.8721    198.3685    242.8453   6.8931002666e+01   2.6555992341e+00     0.144739   0.09782206  20.06 0.0004945011    1.168    0.144
       260 -10.7729    213.5004     10.4878   1.8883374157e+01   3.0429242187e+01     0.212328    0.1042427 -82.86  0.001034407    2.288    0.563
       261 -10.6350     82.9057    241.6098   9.1505708265e+01   1.6154550099e+01    0.2782601    0.1244038  45.42  0.001526644    1.941    0.485
       262 -12.2101    116.1649    240.1160   8.4378729094e+01   1.2563083006e+01    0.2109825    0.1947704  19.66 0.0004408211    1.254    0.203
       263 -11.5623    114.0086    233.0069   8.4117126533e+01   1.3886168226e+01    0.2374557    0.1800969  63.08 0.0007488734    1.767    0.434
