#   1 NUMBER                 Running object number                                     
#   2 MAG_AUTO               Kron-like elliptical aperture magnitude                    [mag]
#   3 X_IMAGE                Object position along x                                    [pixel]
#   4 Y_IMAGE                Object position along y                                    [pixel]
#   5 X_WORLD                Barycenter position along world x axis                     [deg]
#   6 Y_WORLD                Barycenter position along world y axis                     [deg]
#   7 A_WORLD                Profile RMS along major axis (world units)                 [deg]
#   8 B_WORLD                Profile RMS along minor axis (world units)                 [deg]
#   9 THETA_WORLD            Position angle (CCW/world-x)                               [deg]
#  10 FWHM_WORLD             FWHM assuming a gaussian core                              [deg]
#  11 ELONGATION             A_IMAGE/B_IMAGE                                           
#  12 ELLIPTICITY            1 - B_IMAGE/A_IMAGE                                       
         1 -13.8856     65.6809    142.0333   1.3265630577e+02   3.9008280248e+01     2.624006     1.163632 -89.32  0.003764502    5.235    0.809
         2 -13.9446    188.2622     21.6352   7.0611848500e+01   3.5641064684e+01     2.053463     1.215969   3.45  0.007652782    2.657    0.624
         3 -14.1657    195.1537     16.2158   6.8127757633e+01   3.4427901404e+01     1.923054     1.679291  -7.42   0.00793566    1.341    0.254
         4 -11.0942     32.6526      4.4409   1.0534444065e+02   7.1216811239e+01    0.4076054   0.09216502 -41.36  0.001506064    4.299    0.767
         5 -13.8002    200.6801      9.1010   6.5457621945e+01   3.3734354093e+01     1.602875     0.713843  52.50  0.001504523    2.271    0.560
         6 -11.8222     72.8536    195.2451   1.3764881860e+02   2.6532115514e+01    0.3964962    0.2798696 -63.31  0.001926379    1.552    0.356
         7 -11.0876    248.7795    249.4655   1.1253271331e+02  -9.9561648804e+00    0.2503775    0.1733961  34.58  0.001822168    1.276    0.216
         8 -12.0420    140.7014    250.0607   1.3082650120e+02   6.7028993943e+00    0.4563591    0.1652693  41.55  0.002226328    2.164    0.538
         9 -12.8907    126.1950    245.0303   1.3281649759e+02   9.7085523021e+00    0.5822349    0.4836695  78.10  0.004322452    1.275    0.216
        10 -11.1399    120.0279    238.5609   1.3323115968e+02   1.1663905376e+01    0.2821495    0.1696485 -77.15  0.001579574    2.192    0.544
        11 -12.5034     64.5849    243.8939   1.4328025841e+02   1.8753637355e+01    0.6835888    0.2769496  34.31  0.003340958    3.245    0.692
        12 -12.8340     66.9442    248.6826   1.4321969517e+02   1.7664279788e+01    0.7748466    0.4294321  40.25  0.003511819    1.756    0.430
        13 -13.2691    106.8032    248.0577   1.3647313792e+02   1.2199099299e+01     1.048017    0.3250192  45.26  0.005006337    2.369    0.578
        14 -12.6321     80.0458    247.2576   1.4094527642e+02   1.6145559919e+01    0.9290252    0.2478885  52.38  0.004174121    2.973    0.664
        15 -12.4304     81.6320    242.5776   1.4031190607e+02   1.6687176160e+01    0.7958232    0.2723798  60.35  0.003481365    3.316    0.698
        16 -12.0017     98.0573    249.3707   1.3808036470e+02   1.3276269470e+01    0.5929487    0.2652666  53.55  0.003390506    1.737    0.424
        17 -10.8309    101.5088    246.5069   1.3724139900e+02   1.3220754083e+01    0.2290101    0.1458568  73.85 0.0007580158    1.572    0.364
        18 -16.4900     11.2445    238.0323   1.5151820792e+02   2.5864997601e+01     16.98213     1.748606 -78.53   0.03411026    9.448    0.894
        19  -9.7054     68.2380    197.3940   1.3878743851e+02   2.6736663230e+01    0.2621554    0.1374693  59.50  0.001098621    1.698    0.411
        20 -11.7857     77.3266    188.2771   1.3598406759e+02   2.7310427915e+01    0.2864912     0.237197 -54.05 0.0005651778    1.540    0.351
        21  -9.0545    113.3404    193.3144   1.2912900917e+02   2.0686544730e+01    0.1203327    0.1043523   4.97 0.0007047472    1.702    0.412
        22  -9.5390    124.9193    185.6819   1.2561423223e+02   2.0172950466e+01    0.3145658    0.1611796  28.63  0.001237877    3.034    0.670
        23  -8.7195     95.6140    180.3287   1.3112407411e+02   2.6191256205e+01    0.1458302   0.08653653  69.65 0.0004037259    1.871    0.466
        24 -11.1864     85.5347    176.2595   1.3277875936e+02   2.8603786449e+01    0.2361486    0.2067452  84.35 0.0003853204    1.086    0.079
        25 -13.3609     73.3658    173.7215   1.3512708852e+02   3.0917891516e+01    0.4375231    0.2733063 -46.23  0.001610356    2.167    0.538
        26 -11.1050    123.9930    175.0000   1.2414625668e+02   2.2462196944e+01    0.3283361    0.1495922  43.33  0.001406204    2.015    0.504
        27 -13.0904     89.8822    166.4256   1.3046047047e+02   3.0041069124e+01     2.254589    0.6610293  52.71  0.003313323    4.363    0.771
        28 -11.4585    174.6750    221.9191   1.2116596628e+02   5.1157223696e+00    0.3231748    0.1567166  35.81  0.001586669    1.892    0.471
        29 -10.2471    103.1336    150.8382   1.2487379207e+02   3.1291505974e+01    0.2806483    0.2343365  71.35 0.0007755695    1.132    0.117
        30  -9.4445    105.4790    147.0178   1.2362569124e+02   3.1733339977e+01    0.3581842     0.224677 -34.44  0.001571839    2.372    0.578
        31 -10.1323    134.4043    148.6418   1.1703415351e+02   2.5961530261e+01    0.3784782    0.1414551 -55.93  0.001274857    3.175    0.685
        32 -13.3308     31.6206    140.2112   1.4084485279e+02   4.3327684960e+01      0.61138    0.2834848 -70.55  0.003197225    1.773    0.436
        33 -10.1861    112.7815    136.4204   1.1978759168e+02   3.2782429773e+01    0.3236619    0.2685804   9.04  0.001038648    1.654    0.395
        34 -12.1617     92.1256    150.3280   1.2744552101e+02   3.3234519828e+01    0.2655153    0.2509926 -53.90 0.0005585822    1.248    0.199
        35 -10.7414    100.4932    133.5782   1.2232863601e+02   3.5622529327e+01    0.2647281    0.2329395 -30.38 0.0008068095    1.393    0.282
        36 -11.6439     55.1353    144.2026   1.3558068134e+02   3.9856763892e+01    0.3389611    0.2039638 -59.51  0.001850495    1.568    0.362
        37  -8.7928    192.1483    144.1850   1.0345920983e+02   1.4592531422e+01      0.18915    0.1731499 -82.19 0.0004152502    1.277    0.217
        38 -12.1589     44.2870    130.2939   1.3642256776e+02   4.4285279798e+01      0.42374    0.1722926 -69.79   0.00191815    2.154    0.536
        39 -13.8183     10.8283    206.9877   1.5018677907e+02   3.1447886051e+01    0.8640572    0.6062208  47.67   0.00342174    1.464    0.317
        40 -11.7686     50.1542    130.2026   1.3487932312e+02   4.3652133142e+01    0.3332743    0.2444084 -78.66 0.0009514043    1.178    0.151
        41  -9.4830    109.0389    123.5285   1.1802095615e+02   3.6368705254e+01    0.2022189    0.1879043 -73.48 0.0003408947    1.032    0.031
        42 -13.0888     49.9564    229.1082   1.4474363673e+02   2.3127379732e+01    0.4570501    0.3278145 -80.90 0.0008648121    1.412    0.292
        43  -9.5130    118.1741    128.8514   1.1683871498e+02   3.3449816145e+01    0.1995131    0.1785132 -21.05 0.0008348929    1.354    0.261
        44 -15.5470     58.5676    216.2464   1.4228762025e+02   2.4383724866e+01     6.841067     1.552727  44.55   0.02304569    3.154    0.683
        45 -11.1016    168.3131    113.4848   1.0112568316e+02   2.5834494664e+01    0.4207876    0.3345706 -82.21  0.001192097    1.578    0.366
        46  -9.7116     59.3230    112.3279   1.2940627925e+02   4.6696222208e+01      0.13361   0.09489598 -37.00 0.0004647393    1.692    0.409
        47 -12.6076     47.0560    148.6680   1.3810764467e+02   3.9798871485e+01    0.5478372    0.2983671 -82.01  0.002873742    1.727    0.421
        48 -11.9753     33.4600    205.6547   1.4609282643e+02   2.9379378498e+01    0.3566582    0.1942917  83.01  0.001320085    1.564    0.361
        49 -10.8772    193.0102    194.9345   1.1339589637e+02   5.8646381713e+00    0.7792367    0.3983048 -63.32  0.002271965    7.152    0.860
        50 -11.6261     94.7882    240.2484   1.3784689111e+02   1.5201987541e+01    0.2767971    0.1845289 -64.12  0.001629128    1.798    0.444
