#   1 NUMBER                 Running object number                                     
#   2 MAG_AUTO               Kron-like elliptical aperture magnitude                    [mag]
#   3 X_IMAGE                Object position along x                                    [pixel]
#   4 Y_IMAGE                Object position along y                                    [pixel]
#   5 X_WORLD                Barycenter position along world x axis                     [deg]
#   6 Y_WORLD                Barycenter position along world y axis                     [deg]
#   7 A_WORLD                Profile RMS along major axis (world units)                 [deg]
#   8 B_WORLD                Profile RMS along minor axis (world units)                 [deg]
#   9 THETA_WORLD            Position angle (CCW/world-x)                               [deg]
#  10 FWHM_WORLD             FWHM assuming a gaussian core                              [deg]
#  11 ELONGATION             A_IMAGE/B_IMAGE                                           
#  12 ELLIPTICITY            1 - B_IMAGE/A_IMAGE                                       
         1 -13.7578      4.5809     13.3466   1.1734365507e+02   7.0331699567e+01     2.533459     0.483727 -43.12   0.01119175    3.497    0.714
         2 -13.7256    206.5398      9.7849   6.3282944457e+01   3.2584685806e+01     2.657317     1.441527  21.45  0.001397612    4.947    0.798
         3 -14.1788    201.4384     16.9411   6.5607784305e+01   3.3037930683e+01     2.129619     1.354211  40.35  0.008859328    2.000    0.500
         4 -11.1115     68.2210    234.7866   1.4079015321e+02   1.7955281270e+01    0.2748478    0.2186362  75.69  0.001914749    1.069    0.064
         5 -10.5271    249.8631    249.5590   1.0932932682e+02  -1.3988148107e+01      0.20787    0.1470179  18.33  0.001397769    1.149    0.130
         6 -11.5882    139.8796    250.0632   1.2938372369e+02   3.9075709901e+00     0.471226    0.1673229  44.42   0.00206831    2.284    0.562
         7 -10.5574    126.5071    250.2976   1.3186432229e+02   6.1041372644e+00    0.2364604   0.09276392  43.73  0.001088006    2.102    0.524
         8 -12.7844     99.4636    246.8590   1.3638126116e+02   1.1060663413e+01    0.5318903    0.3933589  62.33  0.002986155    1.072    0.067
         9 -11.6054    105.2903    246.0318   1.3524234407e+02   1.0291423397e+01    0.2748033     0.186679  86.03 0.0009630189    1.559    0.359
        10 -16.0823      9.7493    220.8062   1.4978932649e+02   2.7736151759e+01     9.476159     4.874874 -83.28   0.05949591    1.525    0.344
        11 -11.4888     31.8386    206.9189   1.4493318564e+02   2.8202502022e+01    0.3420842    0.1561215  61.00  0.001142031    2.047    0.511
        12 -13.6200     44.0979    228.6295   1.4451456778e+02   2.2346447432e+01    0.7477469    0.4005425  60.07  0.001721944    1.555    0.357
        13 -10.5219    194.0239    197.0282   1.1037773968e+02   3.2150713761e+00    0.4250837    0.1925484 -59.46  0.001272624    5.117    0.805
        14 -11.4324     67.6304    195.3649   1.3677234720e+02   2.6178983056e+01    0.3704486    0.2445574 -47.96  0.001562649    1.951    0.487
        15 -14.8656     49.6639    219.2623   1.4273155351e+02   2.3519572926e+01     1.849378     1.451511  53.29  0.008864944    1.330    0.248
        16  -9.0576    113.9047    193.0335   1.2661194424e+02   1.9352946022e+01    0.2301487    0.1549002  17.18 0.0008993902    2.609    0.617
        17 -11.6159     72.7730    188.1365   1.3479602563e+02   2.7050204332e+01    0.2896747    0.2237892 -56.86 0.0007642953    1.423    0.297
        18  -9.3243    125.4063    185.4082   1.2284345704e+02   1.8927147705e+01     0.281012    0.1330601  29.50 0.0009568402    3.434    0.709
        19 -10.7695     81.7279    175.9462   1.3113804620e+02   2.8488132879e+01    0.2507416    0.2107796 -70.27  0.000405526    1.144    0.126
        20 -13.1028     69.1066    173.6378   1.3365334414e+02   3.0859163731e+01    0.4976124    0.2763297 -45.46   0.00148548    2.283    0.562
        21 -12.0746     88.5787    167.0776   1.2817899925e+02   2.9473066565e+01     0.761867    0.5282902  61.51  0.003948068    1.476    0.322
        22 -13.0222     67.9171    145.2716   1.2955623154e+02   3.7651767032e+01     1.310826    0.7089541 -89.50  0.005187432    2.919    0.657
        23 -12.3567     58.2103    132.7215   1.2987201364e+02   4.1865631400e+01     1.796366    0.5739927 -71.73  0.004053894    8.314    0.880
        24 -10.1449    100.7124    150.8276   1.2235796765e+02   3.1269227005e+01    0.2914635    0.2664144 -57.26 0.0008231591    1.124    0.110
        25 -12.1839    126.7535    244.1134   1.3107719242e+02   7.1224788867e+00    0.3834333    0.1865563  41.63  0.001918802    1.811    0.448
        26 -11.9979     89.4637    150.2135   1.2503697182e+02   3.3285907885e+01    0.2796684    0.2499089 -44.29 0.0005660727    1.248    0.199
        27 -10.6924    144.2459    243.2913   1.2769893076e+02   4.2883057263e+00    0.1933494    0.1734809  81.51 0.0003885625    1.195    0.163
        28  -9.6428    162.6466    247.3101   1.2479557342e+02   4.6154029742e-01    0.1283556    0.0878901  65.58  0.000704401    1.724    0.420
        29  -9.6395    134.3677    148.2459   1.1357275429e+02   2.5515058981e+01    0.2209413    0.1414045 -60.39 0.0008594568    1.667    0.400
        30  -8.7570    192.3478    144.2063   9.9567889695e+01   1.3774425335e+01    0.2083273    0.1395803 -50.67 0.0004068775    1.554    0.356
        31 -10.1994    149.0205    230.2347   1.2497643905e+02   5.7023024950e+00    0.1858685   0.09624875  43.51 0.0008901563    1.663    0.399
        32  -9.8100    111.2708    136.3650   1.1671604824e+02   3.2764411984e+01    0.3165964    0.2408089 -20.32  0.001480356    1.810    0.447
        33 -10.4498     98.7261    133.6446   1.1937247416e+02   3.5645987903e+01    0.2732038    0.2330508 -27.76  0.001063172    1.376    0.273
        34 -11.0369     50.1605    130.0493   1.3152691924e+02   4.3447153325e+01    0.2429867    0.1858355  46.44  0.000655961    1.473    0.321
        35  -9.6916     44.3094    130.3308   1.3311257130e+02   4.4030111343e+01    0.1313696   0.08650362 -41.78 0.0003633201    1.667    0.400
        36 -12.1917     19.4965    124.5767   1.3868663142e+02   4.7663119246e+01    0.3279007    0.1836267  51.81  0.001834032    2.148    0.534
        37  -9.5900    107.9857    123.4376   1.1463826077e+02   3.6360995398e+01    0.2113344    0.1906143 -56.19 0.0001864175    1.052    0.049
        38 -11.0001    168.0432    113.2471   9.7221553605e+01   2.5743296201e+01    0.3473329    0.2983838 -82.64 0.0005634207    1.301    0.231
        39 -10.0152    161.3247    227.3249   1.2213427506e+02   3.9991357873e+00    0.1300327     0.100983  11.58 0.0007048575    1.689    0.408
        40 -10.6226    120.4811    239.0482   1.3163198983e+02   9.0680091368e+00    0.1733666    0.1223473 -63.77 0.0009644776    1.592    0.372
        41 -12.6785     81.2998    248.6330   1.3976584609e+02   1.3489586474e+01    0.6482091    0.3378555  41.07  0.003626935    1.877    0.467
        42 -10.8334     66.6087    249.4376   1.4235532243e+02   1.5436133605e+01    0.2637935     0.135262  72.82  0.001000573    1.927    0.481
