#   1 NUMBER                 Running object number                                     
#   2 MAG_AUTO               Kron-like elliptical aperture magnitude                    [mag]
#   3 X_IMAGE                Object position along x                                    [pixel]
#   4 Y_IMAGE                Object position along y                                    [pixel]
#   5 X_WORLD                Barycenter position along world x axis                     [deg]
#   6 Y_WORLD                Barycenter position along world y axis                     [deg]
#   7 A_WORLD                Profile RMS along major axis (world units)                 [deg]
#   8 B_WORLD                Profile RMS along minor axis (world units)                 [deg]
#   9 THETA_WORLD            Position angle (CCW/world-x)                               [deg]
#  10 FWHM_WORLD             FWHM assuming a gaussian core                              [deg]
#  11 ELONGATION             A_IMAGE/B_IMAGE                                           
#  12 ELLIPTICITY            1 - B_IMAGE/A_IMAGE                                       
         1 -14.2773      3.1727     90.5398   1.3658637411e+02   5.6633568298e+01      3.32671    0.2153167 -65.59   0.00851887    7.813    0.872
         2 -15.0417      5.4636    139.7253   1.4267741617e+02   4.5611214946e+01     5.158763     1.250231 -76.38   0.01765668    4.282    0.766
         3 -13.4390    199.0093     29.2266   6.7156114781e+01   3.2296185370e+01     1.383111     1.007829  67.00  0.006083001    1.253    0.202
         4 -13.6497    216.3802      9.3284   6.0496601798e+01   3.0463524291e+01    0.9164341    0.7952381  74.49   0.00229357    1.210    0.173
         5 -11.2731      2.4575      5.4542   1.1333321827e+02   7.1941920971e+01    0.3878684    0.1104811 -44.37  0.001954377    3.051    0.672
         6 -10.7600     81.6843    249.0390   1.3808620106e+02   1.2889637425e+01    0.2413293    0.1321652  62.55   0.00134365    1.607    0.378
         7 -12.5906    246.1595    248.3801   1.0733331641e+02  -1.3762949285e+01    0.7270371    0.5582874  -6.82  0.005056357    1.191    0.160
         8 -12.9370    235.2431    249.4236   1.0943473214e+02  -1.2303179332e+01     1.244717    0.3074395  42.00  0.004698864    3.807    0.737
         9 -13.0093      9.1001    208.0545   1.4783842156e+02   3.0257944275e+01    0.8109022    0.6805445 -53.81  0.005491685    1.728    0.421
        10 -13.3919     33.9683    246.4820   1.4615188677e+02   1.9828589033e+01     1.409766    0.7284665  41.29  0.008580901    1.967    0.492
        11 -13.8741      9.3927    241.7626   1.4984948170e+02   2.3503189364e+01     1.768991     1.063553  89.13   0.01261463    1.268    0.211
        12 -14.6417     32.5480    228.1244   1.4509535919e+02   2.3596221350e+01      0.97812    0.8738571 -66.98  0.007355635    1.585    0.369
        13 -11.1956    139.1835    246.3581   1.2702378500e+02   4.0726063400e+00    0.2719299    0.1892691 -62.07  0.001591802    1.700    0.412
        14 -10.9347    122.3363    250.0015   1.3068137427e+02   6.2802953192e+00    0.3143971     0.108653  42.68  0.001332828    2.412    0.585
        15  -9.2744     82.3157    243.3433   1.3742073031e+02   1.3870371640e+01    0.1047674   0.09891587 -23.10 0.0003766735    1.712    0.416
        16 -12.9964     44.4002    214.7861   1.4182705851e+02   2.4919419872e+01      0.87591    0.5069554  69.48  0.003744466    1.537    0.349
        17 -10.3514     66.3435    250.1427   1.4091027371e+02   1.4902909483e+01    0.1905641    0.1393627  50.54 0.0007257606    1.309    0.236
        18 -11.6086    124.1506    232.2182   1.2810434149e+02   9.2299303142e+00    0.4140138    0.1287699  44.37  0.001579796    2.715    0.632
        19 -11.9354    106.7544    230.9750   1.3139372880e+02   1.2413113303e+01    0.5265921    0.1509963  50.30  0.001879356    3.295    0.696
        20 -11.8357     88.0783    226.8953   1.3458994445e+02   1.6231974581e+01    0.6905482    0.1512077  51.81  0.001999257    5.332    0.812
        21 -11.4444     57.8310    212.6949   1.3902273429e+02   2.3621794785e+01     0.471695     0.186059  57.00  0.002076908    2.540    0.606
        22  -8.7663    152.5200    213.0895   1.1947131962e+02   7.8015436756e+00    0.1811057    0.1392992 -54.22 0.0003567185    1.434    0.303
        23 -10.8734     55.6129    205.7950   1.3875695829e+02   2.5413808384e+01    0.2450422    0.1983613  58.60  0.001590657    1.220    0.180
        24 -11.8785     56.8457    199.0961   1.3778774786e+02   2.6729301377e+01    0.3000069    0.2347774  89.26 0.0005202107    1.060    0.057
        25 -11.4931     39.4740    198.5099   1.4127581255e+02   2.9042669633e+01    0.7827007    0.2796981  69.59  0.002337747    6.079    0.835
        26 -11.1599      6.7859    192.7180   1.4717778725e+02   3.3725744943e+01    0.2515259    0.1516104  68.13  0.001228008    1.431    0.301
        27 -12.1286     63.6115    190.4759   1.3535166863e+02   2.7756365048e+01    0.2753164    0.2386971 -81.46 0.0003509132    1.148    0.129
        28 -11.2531    198.0853    247.7527   1.1597716455e+02  -6.2182440007e+00    0.3091969    0.1967449 -18.93  0.001671681    2.098    0.523
        29 -10.6507     95.5696    152.7439   1.2195108264e+02   3.1773438001e+01     0.419625    0.3005868 -43.96 0.0008928585    1.526    0.345
        30  -9.5038     98.9088    148.3191   1.2024081723e+02   3.2261328459e+01    0.2371292    0.1905393 -71.32 0.0003419945    1.201    0.167
        31 -11.9843     84.0756    151.5824   1.2466121745e+02   3.3932602213e+01    0.3122399    0.2451964 -50.26 0.0004082135    1.303    0.233
        32 -12.1785     67.3586    143.4919   1.2753579713e+02   3.8348438897e+01     0.654662    0.4264784  65.15  0.002786306    1.808    0.447
        33 -10.0633    108.4508    137.4791   1.1550309140e+02   3.3132191028e+01    0.4867525    0.3239221 -15.90  0.001512237    2.814    0.645
        34 -10.6201     95.1213    134.7503   1.1844673305e+02   3.6160653034e+01    0.2440042     0.231853 -33.55 0.0003576343    1.165    0.142
        35  -8.5473    114.3193    130.2953   1.1234075228e+02   3.3710252968e+01    0.1496242      0.12241 -11.38 0.0003107436    1.611    0.379
        36 -13.2037     60.8956    175.5608   1.3404961765e+02   3.1578153812e+01    0.5275217    0.2756926 -47.77  0.001711503    2.313    0.568
        37  -9.0847    105.7943    124.0127   1.1315178442e+02   3.6790185396e+01    0.1974767    0.1801445 -57.03  0.000233645    1.045    0.043
        38  -8.9692     68.1468    114.6939   1.2165056055e+02   4.5063755397e+01    0.1790979    0.1695661 -50.28 0.0006349776    1.074    0.069
        39 -10.8541     74.6542    177.3616   1.3113356196e+02   2.9217056500e+01    0.2471964    0.2076951  87.33 0.0003087249    1.035    0.034
        40  -8.6603     64.8441     80.5787   1.1420485368e+02   5.2987982554e+01    0.1599451    0.1257786  46.01  0.000361954    1.508    0.337
        41 -10.5219    158.9921     77.0165   8.7047604916e+01   3.5012032821e+01    0.2366446    0.2284265  75.97 0.0004623904    1.001    0.001
        42 -12.2822     12.0193    121.3652   1.3875172240e+02   4.9297211459e+01    0.5557259    0.2678362  46.57  0.002934512    2.521    0.603
        43 -11.5593    172.0274    248.1737   1.2097745911e+02  -1.8805115395e+00    0.3676966     0.236094  58.54  0.001989193    1.766    0.434
        44 -12.1220     82.8677    168.0968   1.2778423657e+02   3.0162909823e+01    0.7161429    0.7015314 -16.98  0.003469684    1.296    0.228
        45 -11.9635    156.2233    249.6037   1.2419592544e+02   6.0252472122e-01    0.8742075    0.1145546  40.36  0.002019155    7.923    0.874
        46 -11.5842     99.4021    248.3113   1.3477560494e+02   1.0304958015e+01    0.3595828    0.2710206  19.72  0.002072433    2.162    0.538
