#   1 NUMBER                 Running object number                                     
#   2 MAG_AUTO               Kron-like elliptical aperture magnitude                    [mag]
#   3 X_IMAGE                Object position along x                                    [pixel]
#   4 Y_IMAGE                Object position along y                                    [pixel]
#   5 X_WORLD                Barycenter position along world x axis                     [deg]
#   6 Y_WORLD                Barycenter position along world y axis                     [deg]
#   7 A_WORLD                Profile RMS along major axis (world units)                 [deg]
#   8 B_WORLD                Profile RMS along minor axis (world units)                 [deg]
#   9 THETA_WORLD            Position angle (CCW/world-x)                               [deg]
#  10 FWHM_WORLD             FWHM assuming a gaussian core                              [deg]
#  11 ELONGATION             A_IMAGE/B_IMAGE                                           
#  12 ELLIPTICITY            1 - B_IMAGE/A_IMAGE                                       
         1 -12.9055    239.3428     22.7867   3.1707238236e+01   2.4644032943e+01    0.7351463    0.2880675 -53.44  0.002684359    2.222    0.550
         2 -11.4310    249.0425     23.5140   3.1119022278e+01   2.2672007151e+01    0.4647795    0.1190648 -46.20  0.001926571    2.864    0.651
         3 -11.0861     30.5555     21.0444   7.6840791662e+01   6.8781063789e+01    0.3439215    0.2943488 -47.05      0.00232    1.738    0.425
         4 -11.8205    111.4457     19.0855   4.7707174653e+01   5.4024095367e+01    0.3371017    0.2713878  68.02 0.0008333509    1.233    0.189
         5 -11.2414    248.5878     17.9405   3.0096345839e+01   2.3407832648e+01    0.3548357    0.2264215  50.41  0.002182911    2.257    0.557
         6 -11.5221    244.1413     15.9876   3.0035357846e+01   2.4486503921e+01    0.2770385    0.2349209  18.55   0.00192043    2.016    0.504
         7 -11.5074    249.0880     10.5657   2.8685593098e+01   2.4139851827e+01    0.3075656     0.205694 -58.53  0.002137663    1.175    0.149
         8 -11.5594     55.9694     16.0855   6.3114775566e+01   6.5635405963e+01    0.4238528     0.218554 -25.89  0.002230673    2.008    0.502
         9 -10.4540     59.0042     11.6783   5.9929561194e+01   6.5586537459e+01     0.267953     0.170187 -28.94 0.0009470913    1.718    0.418
        10 -10.6755    101.3063     15.8058   4.8871565359e+01   5.6623548735e+01    0.2628046    0.1979246  25.21 0.0004265057    1.348    0.258
        11 -11.8011    227.1530     14.2168   3.0936056590e+01   2.8080134979e+01    0.2782143    0.2259966  -0.70  0.001824288    1.997    0.499
        12 -12.0846    182.9426     13.0892   3.4725298989e+01   3.7860689370e+01    0.5645347    0.3021127  65.38  0.001645555    1.654    0.396
        13 -10.4610     24.5153     13.5417   7.6428787709e+01   7.0562675714e+01    0.2892605    0.1561624 -31.10  0.001689737    1.707    0.414
        14 -10.7968    206.3164     13.6881   3.2562222218e+01   3.2556803651e+01    0.2258758    0.1596408 -70.92  0.001362001    1.245    0.197
        15 -12.2468    122.6592     11.0239   4.2670918973e+01   5.2204140724e+01    0.4363338    0.2571891  53.40  0.002343816    1.435    0.303
        16 -11.1420    209.7055      8.6706   3.1172485795e+01   3.2347333840e+01     0.247419    0.2258836  69.86    0.0011237    1.311    0.237
        17 -11.4403    212.6129      5.7701   3.0317427704e+01   3.2020133328e+01    0.4399786    0.2591328 -27.41   0.00256637    2.043    0.511
        18 -10.4554     47.7792      8.5782   6.2905139927e+01   6.7840054707e+01     0.247164    0.1919057  -6.52  0.001067846    1.215    0.177
        19 -10.4871    217.1113      8.3479   3.0507380347e+01   3.0801215878e+01    0.2390446    0.1482394 -47.48  0.001480954    1.466    0.318
        20 -12.1404     14.2254      7.5871   7.9198959506e+01   7.2517161255e+01    0.3855969    0.2684938  30.73  0.001675304    1.673    0.402
        21 -10.2321    238.1451      7.3973   2.8800965481e+01   2.6603781695e+01    0.2426544    0.1016798 -50.53  0.001321932    1.948    0.487
        22 -10.1807     78.7039      8.1486   5.1838556407e+01   6.2145936671e+01    0.2195448    0.1574522  59.64  0.001311791    1.433    0.302
        23 -12.3273      4.9723      5.4842   8.3738386904e+01   7.3691288129e+01    0.4853022    0.2508436 -29.32 0.0003717091    1.610    0.379
        24 -10.5243    127.7688      4.6882   3.9719133002e+01   5.1552262065e+01    0.2296486    0.2126898 -50.65 0.0008487472    1.243    0.195
        25  -9.4378    108.3406      6.6624   4.3967529971e+01   5.5864953459e+01    0.1258375   0.09320882 -73.13 0.0007050479    1.763    0.433
        26 -10.4239     20.2120     15.3438   7.9620213822e+01   7.0802593498e+01    0.2627003    0.1960988  -1.33 0.0008236627    1.056    0.053
        27  -9.4975     40.7808      5.2422   6.4275206004e+01   6.9313689520e+01    0.1569663    0.1078752  10.53 0.0002480795    1.263    0.208
        28 -11.6040     90.7169      2.6280   4.6388653711e+01   6.0083528909e+01    0.2634222    0.2144582  51.57  0.000442205    1.076    0.070
        29 -11.3888    155.0291     15.8181   3.8897042867e+01   4.4118151338e+01    0.5012932    0.2644662  -9.24  0.002104109    3.057    0.673
        30  -9.5882    102.2256      1.6234   4.3413194431e+01   5.7635586116e+01    0.1780845   0.09230666  53.39 0.0002836391    1.538    0.350
        31  -9.1623     24.6722      1.2703   7.0034977125e+01   7.2063702284e+01   0.09582485   0.08586874  25.56 0.0006978047    1.580    0.367
        32 -10.3087     80.0765    103.3797   8.4912242029e+01   4.5926050208e+01    0.3743867    0.2430312   3.20 0.0007439053    2.235    0.553
        33 -10.2798     21.7877    141.9749   1.1137344199e+02   4.3248672700e+01    0.1948309    0.1891036  76.03 0.0003190353    1.155    0.134
        34 -10.0919      8.8333    103.1839   1.1012965186e+02   5.3791188283e+01    0.1876929    0.1603746 -85.52 0.0007633895    1.220    0.180
        35 -10.0167     53.6768     97.9054   9.2762486795e+01   5.1026918945e+01    0.2081028     0.166769 -51.69 0.0007825237    1.158    0.137
        36  -9.5021    147.8931     96.1460   6.3292638234e+01   3.3828571019e+01    0.2006635     0.178721  10.88 0.0002734687    1.250    0.200
        37  -9.7706     69.0089     96.0245   8.6764880133e+01   4.9361747486e+01    0.2288585    0.1634787 -22.26 0.0005173725    1.555    0.357
        38 -10.1323     16.4346     95.5708   1.0608505111e+02   5.5147678282e+01    0.1976084    0.1924295 -54.59 0.0005994753    1.171    0.146
        39 -10.1399    116.5615     93.4370   7.0712818214e+01   4.1254300154e+01    0.2548986    0.2277309  55.16  0.001318654    1.189    0.159
        40 -10.4158     74.4395     91.3020   8.3548356613e+01   4.9592638818e+01    0.2987895    0.1278633 -44.34  0.001135191    2.220    0.550
        41 -10.5881     34.7181     89.6149   9.7882628189e+01   5.5069009335e+01    0.3438765    0.1829908  18.10  0.001620246    2.120    0.528
        42 -11.1191    121.1630     86.9837   6.7533071097e+01   4.1582512458e+01    0.5192388    0.3793403  31.13  0.001276679    1.462    0.316
        43  -9.1161    139.2820     86.7037   6.2727768176e+01   3.7611294224e+01    0.1480607    0.1199754 -79.79 0.0002233045    1.540    0.351
        44  -9.4949    131.5145     86.1129   6.4512666277e+01   3.9474299377e+01    0.2196586    0.1494714 -40.08 0.0006023974    1.483    0.326
        45 -10.4566     28.8832     85.3503   9.9164553168e+01   5.6592248935e+01    0.2304097    0.2129807 -32.64 0.0007139669    1.102    0.093
        46 -11.6444     80.0290     80.9775   7.8542892928e+01   5.0893223810e+01    0.3524353    0.2502147 -51.52            0    1.497    0.332
        47 -10.8216    112.7093     81.5477   6.8290531788e+01   4.4459656516e+01     0.259987    0.2541083 -67.58 0.0005414483    1.120    0.107
        48 -10.8077     54.3451     80.7237   8.7933929472e+01   5.4857176936e+01    0.2725436    0.2045843 -56.18  0.001344462    1.393    0.282
        49 -10.8396    104.3673     78.8180   6.9921836272e+01   4.6726102423e+01    0.3155546    0.2505083 -71.07  0.001033082    1.691    0.409
        50  -9.5021     95.4684     84.4497   7.4438214995e+01   4.7361777815e+01    0.1471798    0.1419871  -2.16 0.0001208355    1.043    0.041
        51 -11.5715     76.0218     83.1405   8.0608291946e+01   5.1114343333e+01     0.286884     0.276855   3.93 0.0003148077    1.100    0.091
        52 -11.7767     77.1468     75.1393   7.7733458476e+01   5.2583085479e+01    0.5893705    0.2970991  29.23  0.002344663    2.190    0.543
        53  -9.7926     98.7922     76.3853   7.0880057154e+01   4.8322893281e+01    0.2038379     0.134859  31.64 0.0003001312    1.566    0.362
        54  -9.9266      4.6779     75.6826   1.0685129867e+02   6.0455094228e+01    0.2201066    0.1317047 -51.18 0.0005749056    1.299    0.230
        55 -10.2832      1.9666     73.2328   1.0748409015e+02   6.1135408511e+01    0.2009573    0.1710803 -11.66 0.0004465383    1.271    0.213
        56  -9.2398     93.2656     81.6772   7.4300721602e+01   4.8349044098e+01    0.1399725    0.1196516 -82.57 0.0002437451    1.562    0.360
        57  -9.8940    103.9716     72.7187   6.8116158282e+01   4.7968074262e+01    0.1990689    0.1803239  33.23  0.000230385    1.074    0.069
        58  -8.9362     25.2242     73.6878   9.7805497475e+01   5.9535710085e+01    0.1144222      0.09748 -82.56 0.0001435043    1.483    0.326
        59 -12.0837    137.0760     69.3316   5.8163604912e+01   4.1253120316e+01    0.4312257    0.2962444  50.58 0.0005184578    1.404    0.288
        60 -10.1981     63.4773     70.7710   8.1383656175e+01   5.5664080423e+01    0.2529732    0.1931481  25.26 0.0009716105    1.313    0.238
        61 -10.5555     99.4459     64.4594   6.6799056230e+01   5.0393443876e+01    0.2441855    0.1782183 -33.56  0.000519048    1.398    0.285
        62 -10.9383     97.2902     69.4142   6.9108394660e+01   4.9939145752e+01     0.265512    0.2547557 -35.96 0.0004959502    1.134    0.118
        63 -10.3958    101.1763     67.9957   6.7437027696e+01   4.9408997001e+01    0.3017435     0.207679 -60.36 0.0009949836    2.001    0.500
        64 -10.0065     33.9233     69.9143   9.3107264734e+01   5.9558129653e+01    0.2180379    0.1483673 -28.48   0.00086506    1.359    0.264
        65  -9.3320     17.5971     70.5315   1.0025324896e+02   6.0820696419e+01    0.1300269     0.102671 -40.15  0.000146968    1.030    0.029
        66 -10.9799    155.7636     68.6721   5.3858424384e+01   3.6985440475e+01    0.3124252    0.2248798 -65.57  0.001016021    1.657    0.397
        67 -10.5713    121.0906     66.1748   6.1181404394e+01   4.5438664762e+01    0.2446936    0.2099787 -39.82  0.001311429    1.216    0.177
        68  -9.7984     90.5180     67.0214   7.0496413079e+01   5.1711580422e+01    0.2976621    0.1719449   9.25  0.001035944    3.389    0.705
        69  -9.3324     39.9971     67.0207   8.9683093556e+01   5.9525150670e+01    0.1606578    0.1380792 -16.98 0.0004098246    1.047    0.045
        70 -10.7648    110.4088     64.7114   6.3636604366e+01   4.8040517028e+01     0.358063     0.304528 -75.82  0.001656235    1.510    0.338
        71 -10.6784     71.1863     65.3448   7.6690099349e+01   5.5505715699e+01    0.4400685     0.216847 -35.57  0.001385008    2.072    0.517
        72 -10.1612      3.4351     64.7659   1.0505725935e+02   6.2930679003e+01    0.2301654     0.188429  72.20  0.001132415    1.680    0.405
        73 -10.1377    202.2001     64.4300   4.4812197537e+01   2.6922471877e+01    0.1902759    0.1258201  79.86 0.0009549106    1.673    0.402
        74 -10.0150     44.9562     64.0110   8.6651937611e+01   5.9561075267e+01    0.2259656    0.1439188 -17.06  0.001130947    1.719    0.418
        75  -9.0945     16.6725     63.2887   9.8799567209e+01   6.2450049584e+01    0.1121854   0.09723807  62.62 0.0007013732    1.615    0.381
        76 -11.2485     59.7869     59.0154   7.8895081940e+01   5.8505749994e+01    0.2572543    0.2115367 -24.77 0.0003535793    1.118    0.105
        77 -11.1382      3.9822     59.5276   1.0358524473e+02   6.4026152346e+01    0.2169065    0.1710221 -37.50 0.0003099504    1.034    0.033
        78 -10.4171    103.5401     58.7348   6.3641308065e+01   5.0516161229e+01    0.2941664    0.1894092  50.28  0.000248328    1.542    0.352
        79  -9.5746     50.8709     59.5145   8.2692509841e+01   5.9686176674e+01    0.1804568    0.1260107  24.88 0.0003051029    1.432    0.302
        80 -11.1590     95.7714     56.9552   6.5387537792e+01   5.2424774909e+01    0.3475979    0.2223002 -17.41  0.001595414    1.919    0.479
        81 -10.0213    111.5230     55.2627   6.0203259337e+01   4.9351154927e+01    0.3222343    0.2312961  80.67  0.001487919    2.080    0.519
        82 -10.2817    200.9355     55.3326   4.2806310780e+01   2.8548760053e+01    0.1884672    0.1651543  85.53 0.0006250196    1.093    0.085
        83  -9.3968     69.2241     55.4166   7.3965945957e+01   5.7651399451e+01    0.1852698    0.1260944  45.69 0.0009398416    1.647    0.393
        84  -9.9348    134.8958     53.8352   5.3935690884e+01   4.4234847051e+01    0.1985462      0.16934 -82.87  0.001073517    1.341    0.254
        85 -10.0456    162.3716     52.9362   4.8163331799e+01   3.7846909553e+01    0.2539802    0.1871278  36.36  0.001298788    1.585    0.369
        86  -9.4318    145.2933     53.2973   5.1538448656e+01   4.1859528979e+01    0.1404584    0.1072882  26.73            0    1.563    0.360
        87 -10.8478    202.8424     50.6194   4.1432688761e+01   2.8790773378e+01    0.3145961    0.1531777 -32.06  0.001423941    2.203    0.546
        88  -9.2413     44.5265     52.5093   8.2957963482e+01   6.1842118874e+01    0.1339749     0.110931 -13.66 6.321931e-05    1.027    0.026
        89 -10.0294     81.3484     50.2154   6.7706354417e+01   5.6359235553e+01    0.2400102    0.1713658 -42.75 0.0008036332    1.554    0.356
        90 -10.1645    212.2486     49.9185   4.0108518352e+01   2.6820356126e+01    0.2086352     0.159457 -79.79 0.0005113108    1.251    0.200
        91  -9.7184    116.3375     50.7064   5.7401012251e+01   4.8974949055e+01    0.1392566     0.112023 -84.71 0.0002901015    1.647    0.393
        92  -9.9217    105.5868     49.8612   6.0015916085e+01   5.1478141854e+01    0.2921776    0.1888408  66.55  0.001334242    2.008    0.502
        93  -9.5376     55.2438     50.0046   7.7500341796e+01   6.0814693858e+01    0.1902892    0.1537669 -19.20 0.0004788287    1.117    0.105
        94 -11.0825     58.8617     47.6349   7.5137718920e+01   6.0672229221e+01    0.2637241    0.2046782 -11.28 0.0003659807    1.207    0.171
        95 -10.3475     84.8859     47.4219   6.5485493325e+01   5.6121126228e+01     0.406945    0.1722669 -28.26  0.001561691    2.863    0.651
        96  -9.6923     49.6224     48.9660   7.9474906542e+01   6.1804726182e+01    0.1871697    0.1501035 -20.10 0.0005747484    1.105    0.095
        97  -9.9284     95.4605     48.5425   6.2523721116e+01   5.3823668057e+01    0.1391355    0.1268907  23.68 0.0003327578    1.018    0.018
        98 -11.0990     27.6993     48.0598   8.9050740111e+01   6.4580958239e+01    0.3705195    0.1853473  10.48  0.001777806    2.308    0.567
        99  -9.7397     17.5263     50.5138   9.4715941185e+01   6.5006313858e+01    0.2031761    0.1070878  -0.25 0.0008760524    2.153    0.536
       100  -9.3049     45.9839     47.0511   8.0335141207e+01   6.2638487681e+01    0.1545495    0.1291155 -11.43 0.0003130396    1.016    0.015
       101 -10.7853    136.7611     46.7288   5.1323862291e+01   4.4818893009e+01     0.241999    0.2135202  63.08 0.0004582829    1.074    0.069
       102 -10.7578    235.4333     42.7568   3.6079805444e+01   2.2939285200e+01    0.2664182    0.2247254 -19.96  0.001525471    1.585    0.369
       103 -10.1501    166.8340     43.1992   4.4714930629e+01   3.8133249971e+01    0.2327522    0.2059055  84.72 0.0006819186    1.052    0.050
       104 -10.4346    108.2395     43.3766   5.7037238306e+01   5.1836707836e+01    0.2904051    0.2210077  58.06 0.0009871302    1.326    0.246
       105  -9.5687     40.8333     43.5936   8.1325271217e+01   6.3913044237e+01    0.1656051    0.1137171  34.03 0.0009386666    1.586    0.369
       106 -11.2660    243.7594     41.6416   3.5085645176e+01   2.1438578656e+01    0.2930249    0.1744454  80.61  0.001254414    1.736    0.424
       107  -9.9240     56.7742     41.7644   7.3725354781e+01   6.1964448208e+01    0.1790964    0.1506004  19.39 0.0003173274    1.132    0.116
       108  -9.7888     60.2117     41.0024   7.2033986848e+01   6.1538483946e+01    0.1635761    0.1548892   1.13  0.001051921    1.244    0.196
       109  -9.0758     10.6979     42.7248   9.5609402210e+01   6.7023476421e+01     0.125127   0.07113817 -27.12 0.0001698066    1.539    0.350
       110 -10.4032    141.0261     43.4812   4.9443197777e+01   4.4251080177e+01     0.210999    0.1283763  59.47 0.0003641568    1.522    0.343
       111 -11.1683    229.1927     37.5556   3.5589613348e+01   2.4882637476e+01    0.3303306    0.1825868 -65.99  0.001752567    1.816    0.449
       112  -9.9686    181.9036     38.3280   4.1184128220e+01   3.5215486324e+01    0.2101836    0.1649117 -56.59 0.0003569692    1.241    0.194
       113  -9.7420     80.5592     38.5192   6.3575359566e+01   5.8278110794e+01    0.1339389    0.1191218  18.21 4.995528e-05    1.034    0.033
       114  -9.1410    148.7182     37.6879   4.6236860595e+01   4.3169161883e+01    0.1345901    0.1007155  31.59 0.0003496282    1.570    0.363
       115 -10.1036     48.1634     36.6601   7.5325835347e+01   6.4068993636e+01    0.1833557    0.1540524  36.70 0.0005179372    1.422    0.297
       116  -9.4590     22.7908     37.8027   8.7759577841e+01   6.6935525178e+01    0.2609962   0.09197661  17.16  0.001034654    3.533    0.717
       117 -10.4596    193.9100     34.7182   3.8738773258e+01   3.2903415762e+01    0.3021376     0.228631 -82.75  0.001785976    1.246    0.198
       118  -9.6273    127.9368     36.5315   4.9982110053e+01   4.8242127316e+01    0.2170315    0.1239797  57.35 0.0007851526    1.582    0.368
       119  -9.6910    215.8235     35.3877   3.6446489194e+01   2.7968262292e+01     0.167953    0.1061221  62.10 0.0007632751    1.622    0.383
       120 -12.2080    239.6992     32.8414   3.3676575338e+01   2.3357530919e+01    0.5105652    0.2695126 -82.72  0.002700026    2.101    0.524
       121 -11.8151    237.6135     27.1317   3.2707328668e+01   2.4470985279e+01    0.3338866    0.2352605  49.46   0.00141631    1.932    0.482
       122  -9.6118    216.3100    222.6511   7.6324115251e+01  -3.6553285367e+00    0.1095675    0.1050829  87.00 0.0007044835    1.712    0.416
       123  -9.2153    120.4981     32.4907   5.0288417306e+01   5.0468595387e+01    0.1350593    0.1233906  58.81 -0.0002171469    1.060    0.056
       124 -10.0194    151.2941     31.0996   4.3855454496e+01   4.3354808462e+01    0.2043213    0.1717429  14.02  0.001187258    1.467    0.318
       125 -10.3116    116.0612     30.9075   5.0765458735e+01   5.1677746921e+01    0.2060131    0.1775959  39.28 0.0004662985    1.080    0.074
       126 -10.1691     78.8843     30.9619   6.1170134273e+01   5.9624380589e+01    0.2011171    0.1722607  19.17 0.0005194846    1.022    0.022
       127 -10.1621     43.0000     30.4520   7.5041043072e+01   6.5757499478e+01    0.2617195   0.06573898 -40.13 0.0009335462    3.925    0.745
       128 -10.0102    108.9397     29.4990   5.1977854561e+01   5.3458374671e+01    0.3808368    0.1202645  56.52  0.001236455    2.839    0.648
       129 -10.5611     47.3963     28.3994   7.2195238622e+01   6.5423898414e+01    0.2164993    0.1931623  13.17 0.0008187995    1.231    0.188
       130 -10.7137     15.3102     28.8277   8.8183343360e+01   6.9173971977e+01    0.2598392     0.176054   2.03 0.0007779636    1.343    0.255
       131  -9.0564     60.7221     28.2876   6.6620674987e+01   6.3304032946e+01    0.1072393    0.1042931  86.73 0.0002322552    1.517    0.341
       132 -11.3551     59.2418    209.5835   1.0936069019e+02   2.2672305104e+01     0.611226    0.3021473  49.48  0.002877276    1.913    0.477
       133 -10.6960    184.0285     26.3257   3.7876769778e+01   3.6176691192e+01    0.2898227    0.1894332  63.12  0.001138801    1.430    0.301
       134 -10.1453     81.6786     27.0726   5.8708187752e+01   5.9558448052e+01    0.2199165    0.1895226  74.27  0.001323542    1.548    0.354
       135  -9.6328      2.1611     27.1940   9.4831292000e+01   7.0436802953e+01    0.1423479    0.1264473 -33.68 0.0007110315    1.322    0.244
       136 -10.0202    206.5214     26.0215   3.5303604287e+01   3.1131188288e+01    0.1801463    0.1154134 -37.83 0.0009431189    1.577    0.366
       137  -9.6595    121.7009     25.9470   4.7832309237e+01   5.0942762311e+01    0.1781725    0.1688805  51.73 0.0005167582    1.069    0.065
       138  -9.0381     91.2992     26.6532   5.5629615328e+01   5.7633353631e+01    0.1242393    0.1041094 -72.53 0.0002784765    1.681    0.405
       139  -9.3239     34.8937     25.8591   7.6856996652e+01   6.7530248264e+01    0.1511904    0.1332489  10.71 0.0004616753    1.280    0.219
       140 -11.6855    227.5923     23.1058   3.2721554651e+01   2.6981048592e+01    0.4108721    0.1803902  64.77  0.002115222    2.221    0.550
       141 -10.1604    164.0112     22.4400   3.9468761686e+01   4.1302457749e+01    0.2251312    0.1856899  16.04  0.001143376    1.585    0.369
       142 -12.5326     68.1570    217.8796   1.0818626311e+02   1.9658990854e+01    0.7857212    0.5522066  65.25  0.003210664    1.397    0.284
       143  -9.8487    141.9508     21.6582   4.2626609454e+01   4.6631229853e+01    0.1934253    0.1487128  64.42 0.0005540134    1.143    0.125
       144  -9.7715      1.6135     21.7665   9.3082502609e+01   7.1409880358e+01     0.149467   0.09821551 -52.99 0.0009558601    1.665    0.400
       145 -11.9241     76.1918    219.3231   1.0650651431e+02   1.8263299837e+01    0.5572967    0.4567429 -84.52  0.002321174    1.239    0.193
       146  -9.4131    155.3098    214.6776   8.7619938815e+01   7.0561487710e+00    0.1340295    0.1085093  66.00 0.0003832949    1.649    0.394
       147 -11.4989    236.2487    207.6990   6.9959742725e+01  -4.0509841091e+00    0.3556118    0.2220634  15.40   0.00199384    1.649    0.394
       148 -10.9999    130.5687    205.8546   9.1850477254e+01   1.2914571166e+01    0.4757217    0.1800638  35.09  0.001768054    2.483    0.597
       149 -11.0142    149.8683     18.5850   4.0445960495e+01   4.5065478566e+01    0.2935007    0.2257944  73.61 0.0006916802    1.158    0.137
       150  -9.6031    119.7614     18.9599   4.5888363932e+01   5.2127136033e+01    0.1715948    0.1609168  36.03  0.000484989    1.105    0.095
       151  -9.2513     69.2907     19.6671   5.9763393048e+01   6.2829489781e+01    0.1120135    0.1021842 -71.56 0.0007020856    1.631    0.387
       152 -10.4086    216.5284    192.5077   7.0745679332e+01   1.2984127632e+00    0.1356241    0.1148823 -11.53 0.0001110296    1.003    0.003
       153  -9.8140    216.3307    187.6607   6.9844401156e+01   2.1747304521e+00    0.1248631    0.1101119 -76.80 0.0007051787    1.741    0.426
       154 -11.2447    249.5290    183.0607   6.3069247938e+01  -1.9742295819e+00    0.3884751     0.151696 -36.80  0.001750329    2.166    0.538
       155 -11.5875    237.0169    179.7438   6.4540541308e+01   3.6798051395e-01    0.3343393    0.2226704  52.68  0.001762139    2.216    0.549
       156 -12.6832    216.4524    157.0028   6.3595612555e+01   7.6964435648e+00    0.6546078    0.3620431 -49.24  0.002964783    1.917    0.478
       157 -14.9338    218.4813    133.6091   5.8203083612e+01   1.1644133257e+01     3.062124     1.559695  41.42    0.0135893    2.245    0.554
       158 -10.1802     10.4597     15.5454   8.5241105690e+01   7.1735894853e+01    0.1971856    0.1510412 -14.65  0.000549164    1.062    0.059
       159  -9.9553     28.4355    141.4409   1.0933710937e+02   4.2816181941e+01    0.1993629    0.1477053  76.91 4.762044e-05    1.431    0.301
       160 -11.1215     29.3366    137.9586   1.0858584237e+02   4.3619887795e+01     0.214065    0.2121838 -56.48 0.0003266503    1.148    0.129
       161  -9.2433    116.3297     13.2654   4.4648083464e+01   5.3466122151e+01    0.1344766   0.08278529  40.20 0.0002259855    1.575    0.365
       162  -9.3959     84.9857     14.0000   5.2444687809e+01   6.0307218625e+01    0.2091599   0.06370356  55.35 0.0007937631    2.883    0.653
       163 -10.1535     16.0160    128.9207   1.1144062794e+02   4.6976227203e+01     0.198582    0.1637709 -71.62 0.0004028111    1.036    0.035
       164  -9.8827     11.8327    128.9131   1.1273063607e+02   4.7268381176e+01    0.1993622    0.1461331 -54.98 0.0002437428    1.215    0.177
       165  -9.2501     93.4971     10.5094   4.8784956860e+01   5.8825366004e+01    0.1261777    0.1095554  47.02 0.0008096706    1.069    0.064
       166 -10.4186     24.0825    125.5506   1.0842548402e+02   4.7206616049e+01    0.2240055    0.1686385 -86.04 0.0004546513    1.327    0.247
       167 -10.2989     12.9858    125.0452   1.1187648297e+02   4.8155283338e+01    0.1961424    0.1383479  74.15 0.0003487242    1.570    0.363
       168  -9.1464     31.2196    123.9895   1.0587665655e+02   4.6989769616e+01    0.1817636   0.09954521 -65.96 0.0003615317    1.595    0.373
       169 -14.3686    220.5796    115.4485   5.3840223239e+01   1.4531122885e+01     2.262433     1.492401  31.96   0.01084796    1.993    0.498
       170  -9.4206     98.2107    117.5888   8.2751960541e+01   3.9445488295e+01    0.2164861    0.1488261  21.74  0.000941487    1.694    0.410
       171  -9.8447     26.6046    116.2253   1.0612227642e+02   4.9336369373e+01    0.1987793    0.1649278  -2.89 0.0008080059    1.384    0.278
       172  -9.8702     77.4304     16.2616   5.5629625884e+01   6.1620530375e+01    0.1599034    0.1166528 -34.45 0.0009403792    1.610    0.379
       173  -9.5333     11.2790    114.9971   1.1105267111e+02   5.0757836719e+01    0.1881752    0.1418948 -62.88 0.0005429862    1.091    0.083
       174  -9.3562     50.2817    111.6635   9.7131944070e+01   4.8108832542e+01    0.1396942    0.1090663  78.46 0.0003300451    1.620    0.383
       175  -9.9715      1.8939    111.1741   1.1363366875e+02   5.2227194386e+01    0.1761299    0.1524464 -87.26 0.0003801491    1.175    0.149
       176  -9.7854    100.4648    109.2768   7.9916271486e+01   4.0977933044e+01    0.2371102    0.2279351 -15.45  0.001123552    1.013    0.013
       177  -9.3393     28.5143    109.5592   1.0430219989e+02   5.0829176765e+01    0.1360466    0.1173132 -53.84 7.465581e-05    1.007    0.007
       178 -10.2873      6.1126    108.4015   1.1184491365e+02   5.2678611225e+01    0.2505296    0.1586529 -75.62 0.0007493449    1.407    0.289
       179  -9.3451     88.2031    105.6050   8.2819873727e+01   4.4039564034e+01    0.1933922      0.14459  19.86 0.0001373978    1.477    0.323
