#   1 NUMBER                 Running object number                                     
#   2 MAG_AUTO               Kron-like elliptical aperture magnitude                    [mag]
#   3 X_IMAGE                Object position along x                                    [pixel]
#   4 Y_IMAGE                Object position along y                                    [pixel]
#   5 X_WORLD                Barycenter position along world x axis                     [deg]
#   6 Y_WORLD                Barycenter position along world y axis                     [deg]
#   7 A_WORLD                Profile RMS along major axis (world units)                 [deg]
#   8 B_WORLD                Profile RMS along minor axis (world units)                 [deg]
#   9 THETA_WORLD            Position angle (CCW/world-x)                               [deg]
#  10 FWHM_WORLD             FWHM assuming a gaussian core                              [deg]
#  11 ELONGATION             A_IMAGE/B_IMAGE                                           
#  12 ELLIPTICITY            1 - B_IMAGE/A_IMAGE                                       
         1 -16.5283    241.3015     62.5361   3.6908296453e+01   1.9400075402e+01       1.9642    0.9488671 -50.54   0.01032623    1.707    0.414
         2 -19.5228    238.1426    103.7122   4.5621391879e+01   1.3486316832e+01     7.534245     6.257378 -84.80   0.03834012    1.328    0.247
         3 -11.8220    113.6199     29.3280   4.7283455363e+01   5.2233297857e+01    0.6153888    0.4989647 -38.32  0.001878755    1.383    0.277
         4 -10.0137    166.7301     22.0946   3.6175651838e+01   4.0647229687e+01    0.5553794    0.2775509  49.35  0.001464608    2.212    0.548
         5 -10.7572    152.3096     18.7181   3.7194654457e+01   4.4356578133e+01     0.585502    0.3047198  78.38  0.000276601    1.890    0.471
         6 -10.2202    154.2462     14.0051   3.5652703741e+01   4.4376535832e+01    0.2431774    0.2269597 -51.25  0.001223496    1.227    0.185
         7  -9.1095    167.9566     11.7663   3.3407234756e+01   4.1433063417e+01    0.2254823    0.1796045 -34.65 0.0003650564    1.452    0.311
         8 -10.4746    148.7823      7.0943   3.4481655281e+01   4.6286139105e+01    0.3102266    0.2225484  71.43 0.0006656096    1.168    0.144
         9  -9.8726    152.4088      5.7564   3.3668068358e+01   4.5566352816e+01    0.2295981    0.1858066 -11.37  0.001022843    1.627    0.385
        10  -8.2492    180.0343      4.8646   3.0492924795e+01   3.9368990256e+01    0.1511328    0.1274579 -83.72 0.0003868917    1.068    0.064
        11  -9.1292     50.9592      4.6531   5.5463298238e+01   6.7609325584e+01    0.1671482    0.1291658  32.38  0.001132671    1.062    0.058
        12  -8.0542    169.6805    208.9954   7.9798484350e+01   5.2866302498e+00    0.1940291    0.1707231 -20.82 0.0004784748    1.089    0.082
        13 -14.1293    232.9617    243.8795   7.3238733972e+01  -9.3736956575e+00     4.299665     1.364334  31.75   0.01936079    3.082    0.676
        14 -10.3632    248.1652    227.3691   6.7813880501e+01  -8.7243117023e+00    0.3190207     0.284812  13.68 0.0004401901    1.460    0.315
        15  -7.4088    245.4848    208.5747   6.4978076911e+01  -5.5562611738e+00    0.1245014   0.09551898 -16.22 0.0001382205    1.038    0.037
        16  -9.0906    187.2991    207.1726   7.5695274449e+01   2.8487686902e+00    0.3311163    0.2329455   3.20  0.001165341    1.568    0.362
        17  -8.1507    182.9402    206.2385   7.6439823318e+01   3.7091081986e+00    0.2378056    0.1965772  47.03   0.00133285    1.450    0.310
        18  -9.4194    123.9881    205.9875   8.9881329614e+01   1.3427586785e+01    0.2042784     0.194068  31.04 -0.007547014    1.007    0.007
        19  -9.0946    234.1299    200.9085   6.5537556517e+01  -2.8569908790e+00     0.351071    0.2913184  36.99   0.00114616    1.523    0.344
        20  -8.5544    178.0965    202.4600   7.6777032402e+01   5.2158744599e+00    0.4984168    0.2297142  50.38  0.001813612    3.316    0.698
        21  -8.6739    165.3248    202.0553   7.9505810554e+01   7.3903591013e+00    0.2955336    0.2167468 -67.74 0.0007313348    1.903    0.474
        22  -7.7106    142.3081    203.3157   8.5032980331e+01   1.0972749720e+01    0.1483943     0.110461 -10.71 0.0002356019    1.630    0.387
        23  -9.5684    212.7637    199.9089   6.9257702114e+01   3.1852189687e-01     0.418829    0.3169315  28.00 0.0005480861    1.377    0.274
        24  -8.6652    208.5325    199.5714   7.0007191301e+01   1.0065238767e+00     0.197392    0.1509365 -22.48 0.0007959367    1.167    0.143
        25  -9.9718    186.3085    201.5443   7.4861509719e+01   4.0753809746e+00    0.2946147    0.2470034  46.30 0.0006095137    1.424    0.298
        26 -15.0308    246.5100    137.1294   5.1226075733e+01   6.3295803141e+00     1.005271    0.6352144 -45.05  0.005632804    1.314    0.239
        27 -16.2531    234.1893    148.8005   5.5426491370e+01   6.2446367918e+00     3.625739     1.350812  38.00    0.0141574    3.598    0.722
        28 -17.3632    198.1447    121.1770   5.5596877728e+01   1.7964799618e+01     3.143512     2.731711 -66.74    0.0176083    1.188    0.158
        29  -7.6084    159.0015    247.9848   8.8463865680e+01  -3.3581816832e-01    0.1517361    0.1310102  12.76 0.0003599068    1.024    0.023
        30  -8.7015      1.5952    226.6711   1.2064975098e+02   2.4578499156e+01    0.2274473   0.09249508 -74.43  0.001140608    2.171    0.539
        31  -8.4613    238.1366    184.9714   6.1869559930e+01  -7.1915413983e-01    0.4310858    0.3489507  38.55   0.00272521    1.526    0.345
        32  -9.2184    234.1792    188.0047   6.3119137157e+01  -6.8351894404e-01    0.1839411    0.1615075 -20.35 0.0004887903    1.120    0.107
        33  -8.6825    245.2635    184.5054   6.0599390486e+01  -1.6202263097e+00    0.1374412    0.1212848  16.41 0.0004029973    1.298    0.230
        34  -9.7408    123.2095    183.1953   8.6097584065e+01   1.8827702421e+01     0.374081    0.2699554 -79.56  0.001675683    1.829    0.453
        35  -8.4523    179.2299    191.9856   7.4551168813e+01   7.1135820456e+00    0.2058725    0.1872689 -52.86 0.0005920231    1.259    0.206
        36  -8.7214    249.1185    177.3921   5.8641339377e+01  -9.5427961642e-01    0.1486317    0.1351264  10.09 0.0004797095    1.274    0.215
        37  -9.8775    121.8026    176.0061   8.5101938389e+01   2.0797210594e+01    0.3189051    0.2421035 -53.23  0.001231259    1.321    0.243
        38  -9.5158    242.4534    175.7934   5.9406216364e+01   2.4254128165e-01    0.2576962    0.2203423  72.06  0.001249116    1.838    0.456
        39  -8.9101    243.8533    169.8078   5.8031546639e+01   1.0697052467e+00    0.4812756     0.247447 -21.88  0.002111745    2.583    0.613
        40  -9.3059    250.8246    172.3456   5.7420024145e+01  -3.4254245110e-01     0.164153    0.0855291 -37.33 0.0001703192    1.549    0.355
        41  -9.2383    247.7516    170.4082   5.7530417618e+01   4.1240462958e-01    0.1843392    0.1380525 -34.04 0.0002181047    1.079    0.073
        42  -9.1637    114.7910    173.9663   8.6551018835e+01   2.2531791373e+01    0.2859772    0.1901468  49.51  0.000599834    1.600    0.375
        43  -8.4204    145.2568    165.6692   7.7061401029e+01   1.8927941230e+01    0.2324709    0.1942653  57.36 0.0006709811    1.342    0.255
        44  -7.9994    188.8194    154.9209   6.4917079764e+01   1.3008236032e+01    0.1960809    0.1714055 -28.69  0.001063394    1.073    0.068
        45  -8.1848    153.1511    199.1516   8.1747344789e+01   1.0038127904e+01    0.1951723    0.1784291 -86.58  0.001073304    1.345    0.256
        46  -8.1197    165.5384    197.4565   7.8605885317e+01   8.2993766403e+00    0.2734203    0.1976992   0.57 0.0007912655    1.640    0.390
        47  -8.9808    104.2414    145.4896   8.3644090444e+01   3.1520546890e+01    0.2971147    0.2737807 -55.83 0.0006134785    1.061    0.058
        48  -9.6100     65.9883    143.9734   9.4851017396e+01   3.8101024395e+01    0.3027164    0.2423567  81.36  0.001504873    1.416    0.294
        49  -8.5002      5.9844    142.1302   1.1312878977e+02   4.4736456905e+01    0.2010871    0.1661417 -76.45 0.0004902751    1.015    0.015
        50  -7.6669     46.6959    138.6877   9.9979912910e+01   4.1961276211e+01    0.1507087    0.1020731 -36.36  0.000207218    1.615    0.381
        51  -9.9229    106.2316    135.7336   8.0862781545e+01   3.3588280689e+01    0.5980119    0.3896934  64.47  0.001244669    2.159    0.537
        52  -8.1588     52.4988    135.4640   9.7533756301e+01   4.2110264274e+01    0.1467745    0.1356375 -68.27 6.627298e-05    1.034    0.033
        53  -8.7838     79.2443    127.7488   8.7273445267e+01   4.0297665261e+01    0.2160782    0.1741732 -28.06 0.0009957305    1.339    0.253
        54  -9.5341    169.5049    196.5096   7.7542559723e+01   7.8270223669e+00    0.3776795    0.3128824 -70.28  0.001452142    1.589    0.371
        55  -8.9149    172.4959    194.4645   7.6493644370e+01   7.7423110914e+00     0.243523     0.223917  -6.03 5.024823e-05    1.010    0.010
        56 -10.3587     10.1394    119.5380   1.0898286010e+02   5.0220149286e+01    0.6904901    0.1624632 -45.70  0.002243252    3.981    0.749
        57 -10.1820     83.2450    120.2226   8.4216697357e+01   4.1522475055e+01    0.3666891    0.2808633 -13.97  0.001708797    1.586    0.370
        58  -8.5986     41.4772    119.4896   9.8176563634e+01   4.7521071419e+01    0.1435314    0.1294313 -56.52 3.569809e-05    1.021    0.021
        59 -17.2851    243.0271     80.0456   4.0221123698e+01   1.6439915269e+01     1.475125     1.037631 -72.40  0.008926431    1.431    0.301
        60  -9.9970    106.8447    118.4411   7.6451009211e+01   3.7659510002e+01    0.3160063    0.2640803 -38.24 0.0008114731    1.190    0.160
        61  -7.9872    100.4285    100.2070   7.3490902147e+01   4.3091783883e+01    0.2990656    0.1436735 -42.06  0.001126713    2.097    0.523
        62  -8.3661    236.7822    195.7786   6.4128295374e+01  -2.3586854216e+00    0.2918166    0.1351119 -41.09  0.001411316    1.891    0.471
        63 -10.2877    109.1456     91.1661   6.8271724940e+01   4.3261730755e+01    0.5070547    0.2544366 -47.01 0.0002511611    2.036    0.509
        64 -10.5838    106.1375     86.9715   6.7917300548e+01   4.4744353783e+01    0.5232223    0.2967446 -39.19  0.002212472    1.804    0.446
        65  -8.7467    192.6857    200.1212   7.3271557332e+01   3.3376148659e+00    0.2231852    0.1686408 -47.16  0.001008232    1.420    0.296
        66  -9.3100     44.2825     94.8921   9.1683303891e+01   5.3264092597e+01     0.239249    0.2172291   1.65 0.0003196218    1.139    0.122
        67  -9.2406    244.9522    194.3064   6.2474343190e+01  -3.1998847041e+00    0.2810518     0.179966   1.55  0.001551425    1.853    0.460
        68  -8.1083    229.0133    193.3782   6.5037902207e+01  -8.7973120407e-01    0.1966763    0.1402007 -40.46 0.0005448709    1.327    0.247
        69  -8.7405     84.6142     71.3457   6.9825696780e+01   5.2085359410e+01    0.3057898    0.2353823  28.43 0.0007504765    1.286    0.222
        70  -9.1309    111.0972     69.7672   6.1196278257e+01   4.6945864391e+01    0.2808538    0.2203301 -26.72  0.001021415    1.372    0.271
        71  -9.5115    101.2719     67.8718   6.3410507011e+01   4.9383962901e+01    0.4639603    0.2110461 -32.65  0.001771311    2.549    0.608
        72  -8.4812    208.4441    193.7634   6.8923280125e+01   2.0764966327e+00    0.2116052    0.1219392 -44.60 0.0007123594    1.685    0.407
        73  -8.1274     68.7962     47.1428   6.6884053083e+01   5.9185630311e+01    0.1857737    0.1738757  14.46 0.0003976973    1.133    0.117
        74  -9.6187    132.5656     41.9817   4.7315477232e+01   4.6299571844e+01    0.2542329    0.1930878  70.34 0.0007195923    1.274    0.215
        75  -9.3381    117.8409     42.1713   5.0569784744e+01   4.9689036509e+01    0.2645887    0.1670583  41.34 0.0006022428    1.580    0.367
        76  -9.8328    121.0236     38.0379   4.8511267511e+01   4.9491563304e+01     0.265954    0.2464906  44.14 0.0009863812    1.070    0.066
        77 -10.9048    123.7566     32.3095   4.6093797997e+01   4.9556184590e+01    0.4721753     0.310274 -25.46  0.001206791    1.761    0.432
        78 -10.8151    245.4661     36.0386   3.1401972945e+01   2.2240281016e+01    0.2551354    0.1611554  65.09  0.001084259    1.771    0.435
        79  -8.4350     17.6526    226.2997   1.1729427112e+02   2.3132872606e+01    0.1345726   0.07119521  60.81 0.0007037129    1.684    0.406
        80  -8.0108     78.7269     30.6257   5.7077650654e+01   5.9607225663e+01    0.1715219    0.1153778  55.61 0.0002361166    1.540    0.351
        81  -8.0757    164.9321    224.0000   8.3430436739e+01   3.1319475314e+00     0.224862   0.07208839  34.52 0.0007998223    2.924    0.658
        82  -7.6227    175.4582    222.5253   8.0912205489e+01   1.8011180482e+00    0.1369734    0.1179076   0.71 7.150825e-05    1.036    0.035
        83 -10.8384     13.8183    216.7772   1.1749006212e+02   2.5660280140e+01    0.2532643    0.2151726  85.42 0.0004803468    1.102    0.093
        84  -8.8497    235.2077     19.0112   2.8950153261e+01   2.6277453066e+01    0.1556683    0.1083351 -63.53 -0.000430966    1.120    0.107
        85  -8.9892    148.2834    193.6649   8.1876596967e+01   1.2056259968e+01    0.2959044    0.1864702 -40.46 0.0007047013    1.618    0.382
        86  -9.0836    103.6712     18.2744   4.5707774604e+01   5.5645810155e+01    0.2389721    0.1456731  69.67 0.0009657827    1.684    0.406
        87  -9.0543    215.1388     16.7549   3.0033351716e+01   3.0564423143e+01    0.2045399    0.1476238 -77.99  0.001261217    1.128    0.113
        88  -9.3294    135.0175    193.7071   8.5074314344e+01   1.4338068323e+01    0.2674269    0.2168059  86.87  0.001321398    1.610    0.379
        89  -9.3896    141.2408    192.3625   8.3317932809e+01   1.3564632908e+01    0.3753098    0.2429174  86.69   0.00134817    3.361    0.702
        90  -9.1861    162.6575    187.4578   7.7350124363e+01   1.0896082458e+01    0.4904005    0.2499518 -26.05  0.001135268    3.117    0.679
        91  -8.9463    185.9393    216.6234   7.7678148432e+01   1.3017742047e+00    0.2885224    0.2422443 -69.30  0.001205276    1.748    0.428
        92  -8.0043    213.6606     10.2973   2.8830447747e+01   3.1575514987e+01    0.1252719   0.06782933 -68.42 0.0005330936    1.659    0.397
        93  -8.2373    198.0303     10.5220   3.0147321022e+01   3.4857770831e+01    0.1718308   0.09978375  77.38 0.0004935163    1.501    0.334
        94  -8.7668    175.0571    212.3924   7.9234920667e+01   3.7712718494e+00    0.2240228    0.1950057 -41.86 0.0003656135    1.246    0.197
        95  -7.9650    238.3070    212.5455   6.6917440338e+01  -5.2883564185e+00    0.1632239    0.1047208  11.50 0.0009351289    1.634    0.388
        96  -7.9166    241.4560    209.4903   6.5827002035e+01  -5.1996442373e+00    0.1258858   0.09741703 -17.11 1.463428e-05    1.020    0.020
