#   1 NUMBER                 Running object number                                     
#   2 MAG_AUTO               Kron-like elliptical aperture magnitude                    [mag]
#   3 X_IMAGE                Object position along x                                    [pixel]
#   4 Y_IMAGE                Object position along y                                    [pixel]
#   5 X_WORLD                Barycenter position along world x axis                     [deg]
#   6 Y_WORLD                Barycenter position along world y axis                     [deg]
#   7 A_WORLD                Profile RMS along major axis (world units)                 [deg]
#   8 B_WORLD                Profile RMS along minor axis (world units)                 [deg]
#   9 THETA_WORLD            Position angle (CCW/world-x)                               [deg]
#  10 FWHM_WORLD             FWHM assuming a gaussian core                              [deg]
#  11 ELONGATION             A_IMAGE/B_IMAGE                                           
#  12 ELLIPTICITY            1 - B_IMAGE/A_IMAGE                                       
         1 -13.2336    196.7668     42.2584   4.3547295192e+01   3.0971169260e+01     1.054259     0.948943 -72.66  0.003278616    1.020    0.020
         2 -13.8956    205.4828     33.4846   4.0290060097e+01   3.0076876222e+01     1.687727     1.188688   1.39  0.001286516    2.329    0.571
         3 -13.0706    230.0273      6.9875   3.2001430524e+01   2.7683742685e+01    0.8520579    0.6735845 -77.92  0.004710374    1.044    0.042
         4 -13.0644     47.5635      4.7606   6.4680293692e+01   6.8378394763e+01     1.223875    0.3977675  41.89   0.00548997    2.680    0.627
         5 -11.7900    104.2532    209.7417   1.0247311754e+02   1.6489570732e+01    0.9035199     0.202946 -55.07  0.002878131    4.372    0.771
         6 -11.2815    139.9983    249.4446   1.0012104735e+02   3.4064314741e+00    0.4026223    0.2957824  44.44   0.00250275    1.208    0.172
         7 -11.2978    139.7625    242.3932   9.9247684394e+01   4.6306394339e+00    0.4978307    0.2249669 -58.46  0.002254086    2.977    0.664
         8 -15.8255     58.4560    184.8537   1.0998837132e+02   2.8730800956e+01     21.75439     9.976565 -79.83   0.08942164    2.555    0.609
         9  -8.8249    168.7220    233.6087   9.2057646319e+01   1.5945965519e+00    0.2147598    0.1392519  40.69 0.0004383381    1.422    0.297
        10 -11.5147     61.8561    199.2484   1.1085594219e+02   2.4945821006e+01    0.3826116    0.2318576 -63.06 0.0008408088    1.623    0.384
        11 -16.5221     50.3451    200.9364   1.1364331743e+02   2.6010624651e+01     21.56824     7.909936 -88.19   0.06264079    5.909    0.831
        12 -11.1824    121.2321    196.6924   9.6611457385e+01   1.6525140007e+01     0.461364    0.2524383 -67.88 0.0008214985    2.414    0.586
        13 -16.1824      2.0240    225.0417   1.2523619471e+02   2.5904617442e+01     5.496119          nan -72.30   0.01421395    9.978    0.900
        14  -9.2505    126.2954    190.6429   9.4416671851e+01   1.6972646721e+01    0.1476741    0.1107186  75.74 0.0007032696    1.697    0.411
        15 -10.1570    147.5312    186.8905   8.8774121776e+01   1.3997055635e+01    0.4119787    0.2060177 -52.80   0.00138427    2.184    0.542
        16  -9.5836     89.5962    211.6246   1.0602427900e+02   1.8322187462e+01     0.235774    0.1954313  67.36 0.0005957363    1.128    0.113
        17 -10.2554    120.0348    186.2860   9.5168645595e+01   1.9021872640e+01    0.2056128    0.1810113  45.80 0.0002182168    1.088    0.081
        18  -9.0878     80.9349    184.3402   1.0442945978e+02   2.5766414503e+01    0.2641549    0.1823613  77.46   0.00130821    1.637    0.389
        19 -10.1916     99.3772    181.0398   9.9358268931e+01   2.3692757006e+01     0.266093    0.2324452  39.14 0.0006898316    1.154    0.134
        20 -10.3239    142.3744    209.4086   9.3845688125e+01   1.0300671801e+01    0.2499389    0.2251923 -32.50  0.001482681    1.202    0.168
        21  -9.0806     93.4261    179.3012   1.0056617372e+02   2.5054193386e+01    0.1928055    0.1351279 -76.01 0.0007028879    1.543    0.352
        22 -10.2233    187.2454    175.6661   7.7752091059e+01   8.9357004105e+00    0.3537174      0.32681 -63.17  0.001154608    1.306    0.234
        23 -17.6168      9.7217    246.2237   1.2487852482e+02   2.1028735738e+01     5.360744     2.357242  25.89   0.02268158    3.210    0.688
        24  -9.1745    148.4555    174.9490   8.6270909725e+01   1.6376199207e+01    0.2625478    0.2176466 -71.84 0.0005943728    1.438    0.304
        25  -9.3860    146.3327    171.6647   8.6119278131e+01   1.7491858501e+01    0.2171015    0.1578808 -67.80 0.0009081314    1.714    0.417
        26 -13.4150     43.5687    129.9697   1.0623407067e+02   4.4067857005e+01     1.645843     1.131725  26.58  0.008751154    1.670    0.401
        27 -12.9916     54.9490    146.6499   1.0562109591e+02   3.8561370692e+01     3.120917     1.307044 -38.96   0.01049235    3.808    0.737
        28  -8.7459     77.5319    174.9421   1.0391343065e+02   2.8509410221e+01    0.2143699    0.1331199 -66.39 0.0006843033    1.568    0.362
        29 -11.6498     72.1901    171.5260   1.0477492416e+02   3.0102012846e+01    0.4177772     0.330107 -24.98  0.001842937    1.680    0.405
        30  -8.6074    193.4997    170.5145   7.5379747760e+01   8.7684902082e+00    0.1457797    0.1324181  -7.38 0.0008104601    1.017    0.017
        31  -9.9705    240.7528    169.5572   6.6298400746e+01   7.1974660747e-01    0.1656497    0.1292208  49.35 0.0009521041    1.649    0.393
        32  -9.2773    185.2518    168.0432   7.6583165076e+01   1.0798518454e+01    0.2144479    0.1868613 -29.27 0.0009478841    1.105    0.095
        33 -12.4004    112.4500    197.4059   9.8783757843e+01   1.7836796788e+01    0.5881349     0.480589  30.58  0.003252439    1.248    0.199
        34 -13.6192     44.2883    111.7969   1.0269340476e+02   4.8514085217e+01     2.072685     1.286991  54.99  0.009932284    2.059    0.514
        35 -11.6106    111.2574    204.0103   1.0005764688e+02   1.6598331963e+01    0.4173344    0.3145327 -89.54  0.001163987    1.579    0.367
        36 -13.1135     72.7355    153.5044   1.0177473650e+02   3.4481871603e+01    0.7388314    0.5191569 -57.90   0.00109014    1.335    0.251
        37  -8.6847    135.7260    165.2636   8.7397107110e+01   2.0931630297e+01    0.3174989    0.1195384  45.68  0.001056987    2.765    0.638
        38 -14.5783     68.6615    144.0526   1.0127549851e+02   3.7425632724e+01       5.2363     2.163311  59.42  0.003532013    6.064    0.835
        39 -11.4543     76.0121    166.9809   1.0309049838e+02   3.0669721542e+01    0.3966525    0.3427188 -24.78 0.0007770509    1.422    0.297
        40 -11.1162    192.9793    195.1295   8.0418408016e+01   4.2815906776e+00    0.9579678    0.5057902 -61.25  0.003246355    4.459    0.776
        41 -11.4806     91.1740    151.7047   9.6360088456e+01   3.2117470299e+01    0.7233606    0.5483626 -10.95  0.003406799    1.834    0.455
        42 -10.8483    133.8407    145.5986   8.3662406016e+01   2.5814596524e+01     1.223372    0.3193149 -54.16  0.002898749    5.404    0.815
        43  -9.0427    111.4378    149.7039   9.0442248907e+01   2.9115212677e+01    0.3801227    0.2171804  67.78  0.001285153    3.196    0.687
        44 -10.3177    104.0574    137.9431   8.9945835993e+01   3.3301350739e+01    0.6074032     0.348447 -27.10  0.002169618    2.827    0.646
        45 -10.2003    105.9283    130.8705   8.7818595710e+01   3.4677435082e+01     0.370944    0.3323349 -68.82  0.001211524    1.144    0.126
        46 -11.5567     91.6018    137.6017   9.3411201479e+01   3.5539154624e+01    0.2945276     0.264174 -36.58  0.001566262    1.156    0.135
        47 -10.1468    135.7464    129.1757   7.9301358816e+01   2.9203469421e+01    0.3854529    0.1318725 -44.94  0.001196809    2.874    0.652
        48 -10.1605    112.7826    128.9830   8.5442033341e+01   3.3845592528e+01     0.383523    0.3100229  -5.66 0.0009112763    1.538    0.350
        49 -10.8502    118.8734    123.1724   8.2327948455e+01   3.4027943721e+01    0.6741445    0.4229737 -10.62  0.002293995    3.187    0.686
        50  -8.9145    160.9886    128.0140   7.2812755640e+01   2.4079042520e+01    0.2875992    0.1681819 -63.92  0.001026016    2.608    0.617
        51 -10.2879     99.9841    124.9433   8.8140401516e+01   3.7188779384e+01    0.3161124     0.261508 -12.46  0.001086095    1.432    0.302
        52  -9.5474    174.6057    149.5105   7.4824685894e+01   1.6660828616e+01    0.3007425    0.2469346   7.71 0.0007979898    1.374    0.272
        53  -9.3053    108.5317    118.1936   8.4000609819e+01   3.7213131019e+01    0.2457374    0.2152517  38.75 0.0003767599    1.180    0.152
        54  -9.9496    231.3996    113.7099   5.5786798868e+01   1.1981776126e+01    0.2649966    0.2539829 -80.93 0.0007856314    1.165    0.142
        55  -8.5370    167.6372    112.3171   6.7319368928e+01   2.5891323719e+01    0.1617096    0.1238926 -82.75 0.0007041403    1.767    0.434
        56 -11.2341    118.5001    109.4818   7.8882622431e+01   3.7245318594e+01     0.458754    0.2949097 -60.06  0.001908472    1.825    0.452
        57 -10.8988    115.0922    109.0588   7.9732717821e+01   3.8032943813e+01     0.473482    0.2838302 -28.17   0.00162294    2.154    0.536
        58  -9.4300    205.5239    110.0614   5.9224179695e+01   1.7942255446e+01    0.2592835    0.2055945  29.90 0.0006580013    1.479    0.324
        59 -10.1177     27.5049    107.9505   1.0753673314e+02   5.1069800690e+01    0.2367098    0.1793977  49.35  0.001069719    1.554    0.356
        60  -9.1636    133.9580    100.6612   7.2260166006e+01   3.5878563920e+01     0.324521    0.1940338 -66.03  0.001155511    2.686    0.628
        61  -8.6484    129.0204     96.4952   7.2381824934e+01   3.7838789483e+01    0.2330721    0.1541317  47.24 0.0005112017    1.541    0.351
        62 -12.2412     83.8789    159.2144   9.9715208186e+01   3.1411846998e+01     1.220266    0.7968286  79.19  0.001321276    2.048    0.512
        63 -11.2596     53.8880     93.7594   9.5359785402e+01   5.1744534053e+01     0.585988    0.3820029  62.87  0.002656815    2.376    0.579
        64  -8.4240    157.4878     89.5023   6.3411917548e+01   3.2741786710e+01    0.1561335    0.1455188 -73.59 0.0008078357    1.120    0.107
        65 -10.9920    107.5759    203.7570   1.0086952465e+02   1.7245943323e+01    0.3667806    0.2349044 -77.99  0.001121202    1.969    0.492
        66  -8.3450    157.5128     82.5422   6.1433942772e+01   3.4037422814e+01    0.1490801    0.1490512  42.50 9.216659e-05    1.021    0.020
        67  -9.3703     60.3931     68.0262   8.5591668838e+01   5.6537529981e+01    0.2021261    0.1904836  26.02 0.0005793794    1.214    0.177
        68 -12.9135    185.2155     51.3304   4.7561205493e+01   3.2462334816e+01    0.9421778    0.8387887 -18.94 0.0009307694    1.294    0.227
        69 -11.7546    156.6048    223.4558   9.2997862789e+01   5.2848707975e+00    0.4536197    0.2850209 -31.48  0.002305452    1.912    0.477
        70 -10.3429     28.2810     35.4333   8.7672496946e+01   6.6658138162e+01    0.1900398    0.1503044 -59.46  0.001178919    1.767    0.434
        71  -8.7962     74.6756     55.2993   7.5903571622e+01   5.6711868591e+01    0.1276736    0.1136848  88.15 0.0003743014    1.631    0.387
        72  -8.6040     38.2247    216.2139   1.1761780067e+02   2.4065397444e+01    0.1616855    0.1079254  64.97 0.0003281098    1.288    0.224
        73  -9.6352    198.1816     23.7026   3.8709509636e+01   3.2955140329e+01    0.2180761    0.1643773  17.87 0.0006911773    1.995    0.499
        74  -9.3425    189.6915     15.0236   3.7468579923e+01   3.5911298172e+01    0.1773099    0.1576368 -67.83 0.0005688469    1.096    0.087
        75 -10.2105    148.0312    215.4819   9.3577145298e+01   8.1729130220e+00    0.3235685      0.12606  31.94  0.001212583    2.701    0.630
