#   1 NUMBER                 Running object number                                     
#   2 MAG_AUTO               Kron-like elliptical aperture magnitude                    [mag]
#   3 X_IMAGE                Object position along x                                    [pixel]
#   4 Y_IMAGE                Object position along y                                    [pixel]
#   5 X_WORLD                Barycenter position along world x axis                     [deg]
#   6 Y_WORLD                Barycenter position along world y axis                     [deg]
#   7 A_WORLD                Profile RMS along major axis (world units)                 [deg]
#   8 B_WORLD                Profile RMS along minor axis (world units)                 [deg]
#   9 THETA_WORLD            Position angle (CCW/world-x)                               [deg]
#  10 FWHM_WORLD             FWHM assuming a gaussian core                              [deg]
#  11 ELONGATION             A_IMAGE/B_IMAGE                                           
#  12 ELLIPTICITY            1 - B_IMAGE/A_IMAGE                                       
         1 -12.7465    139.7754     23.9199   7.1772522200e+01   4.7008313320e+01     1.108728    0.9725625  56.52   0.00699556    1.018    0.018
         2 -12.9363    128.5097     12.8053   7.0494448423e+01   5.0692902518e+01     1.580308     0.749221  77.23  0.006495087    2.979    0.664
         3 -12.5840     60.3536     45.0794   1.0059770726e+02   5.9990946451e+01    0.9323042    0.4480159 -38.89  0.004649515    2.010    0.503
         4 -11.9584    105.8687     32.8670   8.2148083837e+01   5.3513734667e+01    0.9665849    0.4898536  13.39  0.003240689    4.723    0.788
         5 -11.8292    106.0043     19.9784   7.7681314483e+01   5.4913853339e+01    0.4196208    0.2313501 -17.62 0.0004527847    2.135    0.532
         6 -12.3021    124.2889     26.8390   7.5792404720e+01   5.0226427096e+01    0.6971337    0.5882804 -10.66  0.002055699    1.328    0.247
         7  -8.6048      6.7589     16.9873   1.1217405611e+02   7.0030134600e+01      0.39646    0.1763735   1.52  0.002066958    2.935    0.659
         8 -11.7897     26.3667     27.5506   1.0743671444e+02   6.6783633378e+01    0.4453648    0.3771671  12.92  0.002749382    1.343    0.256
         9 -12.4151     18.9632     22.8691   1.0886216466e+02   6.8169535756e+01    0.4809536    0.3763826 -13.59  0.001801712    1.092    0.085
        10 -12.5424     15.8069     14.9868   1.0711404107e+02   6.9541648705e+01    0.6748922    0.3157516 -13.19  0.002411289    2.668    0.625
        11 -11.1538     14.0089      9.6907   1.0570285278e+02   7.0391817111e+01    0.3116654    0.1810877  28.62  0.001991569    1.825    0.452
        12 -11.6553    182.4840     25.1896   6.5307401302e+01   3.6708881224e+01    0.5931584    0.3033486  47.02  0.002561452    2.200    0.546
        13 -11.7806    177.8571     21.8587   6.5097030963e+01   3.8194113737e+01    0.8016189    0.4788863  -7.60  0.003714974    2.874    0.652
        14 -11.8046    154.3014     24.5716   6.9391745124e+01   4.3521676156e+01    0.6430984    0.4900846  10.47  0.003617849    1.743    0.426
        15  -9.4666     94.2763     12.4074   7.7904649734e+01   5.8040934087e+01    0.2414383    0.1485096  76.70  0.001173785    2.664    0.625
        16  -8.0639     87.8093      7.4607   7.7748990597e+01   5.9750158546e+01    0.5685816    0.2398775  47.03  0.002673964    1.904    0.475
        17 -11.8597     90.4415     20.1555   8.1753574222e+01   5.8037672947e+01    0.4885543    0.4169208  -2.75  0.002216464    1.189    0.159
        18 -11.5310     86.1956     13.7925   8.0560246040e+01   5.9488446951e+01    0.5233619     0.319978  13.22  0.002226241    1.860    0.462
        19 -10.8175    222.9875     21.3458   5.9727616043e+01   2.7718994430e+01    0.4819276    0.2294011 -72.35  0.002168157    2.476    0.596
        20 -10.7060     42.3330      3.4447   9.0674088251e+01   6.7769824737e+01    0.5152916    0.2361989  -4.37  0.002395282    3.311    0.698
        21  -9.9224     31.9906     12.1661   9.8725028052e+01   6.8180220125e+01    0.1847546    0.1567627  30.43 0.0005781552    1.580    0.367
        22 -10.5085     36.4477      9.4905   9.5700442588e+01   6.7933280241e+01    0.3273349    0.1575912  46.47  0.001722643    2.932    0.659
        23 -11.7523     36.3789     19.2778   9.9902972590e+01   6.6785572003e+01    0.5670076    0.3491117 -28.42  0.002710633    1.480    0.325
        24 -12.4756     47.4885     12.9373   9.2833131190e+01   6.6063529619e+01    0.7616198    0.3208386  39.93  0.004043123    2.214    0.548
        25 -12.5185     69.5167     18.3474   8.7318061742e+01   6.2039718389e+01    0.6330262    0.3860724  43.57  0.003749344    1.522    0.343
        26 -12.3051    236.8158     16.3040   5.7419864310e+01   2.5277140650e+01    0.5913403    0.4358287  53.45  0.003560074    1.737    0.424
        27 -11.4664    245.3502     15.6047   5.6570064162e+01   2.3541265743e+01    0.3719628     0.295018  83.14  0.002560088    1.215    0.177
        28 -10.4477    206.9424     18.1438   6.0682493593e+01   3.1753987055e+01    0.3584321    0.1665331 -49.24  0.001744027    2.098    0.523
        29 -11.7815     22.9416     10.9633   1.0214706082e+02   6.9345298799e+01     0.485427    0.2782668   3.52  0.002491473    1.707    0.414
        30 -11.1359    165.4729     17.2430   6.5641409821e+01   4.1645280558e+01    0.3813961    0.2255455  44.89  0.001230071    1.809    0.447
        31 -11.8163    186.4338      9.2372   6.0905752339e+01   3.7498098686e+01    0.6107024    0.2913494 -73.22  0.002606798    2.847    0.649
        32 -12.0339    192.4172      7.5081   5.9829070836e+01   3.6273053339e+01     0.716101    0.4305617  44.17  0.003827707    2.089    0.521
        33 -11.0152    223.8799     12.8967   5.7877589574e+01   2.8508870909e+01     0.523627    0.2843778 -67.44  0.001981481    1.776    0.437
        34 -11.8117    109.3336      2.2490   7.0863771679e+01   5.5783838896e+01     1.439962    0.2420395  61.32  0.004411105    5.035    0.801
        35 -12.1966    104.8459     12.6454   7.5415464754e+01   5.5860680560e+01    0.4497839    0.3244977 -10.61  0.002098036    1.555    0.357
        36 -11.0879     65.9654     10.4813   8.5313618121e+01   6.3442211824e+01    0.4175663    0.1715017  43.56  0.002123898    2.076    0.518
        37 -10.6311     62.9853      6.1025   8.4479775475e+01   6.4350675924e+01    0.2829717    0.1676722   6.26  0.001049364    1.801    0.445
        38 -11.7334    211.5593     10.2109   5.8469298600e+01   3.1578992638e+01    0.3729903    0.3123755   6.55  0.001424024    1.879    0.468
        39 -10.2249    157.6515     10.8186   6.5052772082e+01   4.4133183915e+01    0.2889765    0.1472033 -40.57  0.001450432    2.164    0.538
        40 -10.0651      4.5997     10.2501   1.1047333835e+02   7.1120046440e+01     0.276304    0.1157238 -19.29  0.001439251    2.742    0.635
        41  -9.4511      5.2662      5.5201   1.0811094014e+02   7.1679821908e+01    0.2171885   0.09247495 -37.68  0.001226091    2.014    0.504
        42 -11.7194    238.2516      6.6360   5.5413598026e+01   2.6084053891e+01    0.3723516    0.1853767 -86.87  0.001974846    1.903    0.474
        43 -12.0413    246.3672      7.2861   5.4916111722e+01   2.4299628388e+01    0.4465365    0.3094302 -88.00  0.001966235    1.168    0.144
        44 -11.0697    241.1429      4.1451   5.4716619312e+01   2.5747799215e+01     0.263898    0.1638367  82.62  0.001171494    1.358    0.264
        45 -10.0306    168.8138      9.9940   6.3276579037e+01   4.1577708174e+01    0.2887339     0.136272  53.62   0.00139549    1.925    0.480
        46 -10.3345    152.9618      7.0660   6.4712557678e+01   4.5577840604e+01     0.280897    0.1491787  57.70  0.001466213    1.561    0.359
        47 -11.0882     76.9737      5.4636   7.9947256646e+01   6.1961789209e+01    0.3928982    0.3186134 -14.39  0.002001701    1.339    0.253
        48 -10.0709      1.2669      7.2064   1.1084032851e+02   7.1774624017e+01    0.1263599   0.07329097 -38.62  0.000301629    1.576    0.365
        49  -9.1458    202.5041      6.4397   5.8536049246e+01   3.4047474710e+01    0.1872567     0.118047 -36.97 0.0009484949    1.751    0.429
        50 -11.3583    204.4653      2.2366   5.7422088063e+01   3.4023545628e+01     0.447019    0.2115971  78.12  0.001168078    1.825    0.452
        51 -10.5464    162.9936      4.5704   6.2637771635e+01   4.3451011720e+01    0.3969862    0.1856372 -24.70  0.001938753    2.621    0.618
        52 -11.3111    218.9921      2.7264   5.6215523442e+01   3.0702970963e+01     0.308552    0.2290369 -80.37  0.001672937    1.087    0.080
        53 -11.8392    224.2224      1.7421   5.5576561000e+01   2.9650686551e+01    0.7142006    0.2867759 -85.64  0.003034162    2.996    0.666
        54 -10.6564    173.8606      4.5357   6.1247402390e+01   4.0904000369e+01    0.4353632    0.1806719  73.28  0.001978679    2.128    0.530
        55 -10.7333    142.1187      3.9769   6.5488677197e+01   4.8358651203e+01    0.3359008    0.2235099  71.54  0.001958645    1.324    0.244
        56 -13.8843    117.1105     41.6650   8.2252108018e+01   5.0015500764e+01     1.660185    0.9513502  45.63  0.007271565    1.586    0.369
        57 -10.1027     29.8157      3.3488   9.5724958410e+01   6.9422327578e+01    0.2157349    0.1336211 -41.73  0.001356754    2.400    0.583
        58 -11.2271    157.7657      2.7424   6.2856389285e+01   4.4833728738e+01    0.3123547    0.2482195  88.73  0.001184001    1.190    0.159
        59 -12.0870    133.9923      2.5924   6.6394422509e+01   5.0327310715e+01    0.3377914    0.2231844  64.59 0.0004461792    1.266    0.210
        60 -11.5249      2.8405      1.8247   1.0767818277e+02   7.2335176777e+01    0.3531426    0.1466129  16.14  0.002073721    2.473    0.596
        61 -10.0931    183.0023      1.8716   5.9536291625e+01   3.9011734958e+01    0.2008773    0.1389828 -76.01  0.001198875    1.399    0.285
        62  -9.5353     14.2213      1.7819   1.0205309832e+02   7.1318060119e+01    0.2516768    0.1031316  10.38  0.001080857    4.249    0.765
        63 -10.4194     72.4207      2.7469   8.0184994853e+01   6.3011872729e+01    0.2493958    0.1572415   6.28 0.0009909057    1.649    0.393
        64  -9.7016      1.9951    125.7461   1.3931880300e+02   4.9098611274e+01    0.2325035    0.1266582 -83.07  0.001274341    1.719    0.418
        65 -11.0301     55.3650    123.2265   1.2374806533e+02   4.4829548529e+01    0.5178347    0.3420062  13.88  0.002126629    2.009    0.502
        66 -11.8090    104.8094    121.4313   1.0901101888e+02   3.7566954759e+01    0.4969003    0.4822353  64.53  0.001667223    1.067    0.063
        67  -9.9614      4.2571    121.3435   1.3812739499e+02   4.9958251542e+01    0.2654499    0.1435167  75.90  0.001329521    2.490    0.598
        68  -9.6507    204.3193    121.3252   8.5525380158e+01   1.5798802693e+01    0.1503877    0.1215546   3.22 0.0005488589    1.677    0.404
        69 -10.7875     45.6722    120.4238   1.2605838842e+02   4.6622527241e+01    0.2717615    0.2151409  71.07  0.001370339    1.499    0.333
        70  -9.6058    148.3974    119.7730   9.7163504615e+01   2.8882462897e+01    0.2233801    0.1490946 -34.95 0.0005717822    1.637    0.389
        71  -9.7161     72.8691    119.8387   1.1785664292e+02   4.3272858164e+01    0.2142806    0.1809202 -28.54 0.0005124802    1.268    0.212
        72 -10.9736     34.4764    118.9875   1.2910286709e+02   4.8114409222e+01    0.2270224    0.1748978 -21.94 0.0008438898    1.537    0.349
        73  -9.0522      7.2745    119.3189   1.3700810182e+02   5.0224520634e+01    0.1241826   0.07083223 -48.26  0.000530712    1.570    0.363
        74  -9.1916     81.4984    117.4836   1.1476565114e+02   4.2510297786e+01    0.1455448    0.1339343 -45.09 0.0008102459    1.033    0.032
        75  -9.7023    114.0151    115.9804   1.0509585901e+02   3.7042538906e+01    0.2299424    0.1857763  -9.43 0.0003648485    1.553    0.356
        76 -12.7748     33.9040     93.9473   1.2424851446e+02   5.3830215556e+01     1.615357     1.143458 -29.58  0.009572089    1.422    0.297
        77 -12.6672     39.8717     85.7113   1.2029908255e+02   5.5009131615e+01     1.762294    0.3789077  24.96  0.005202719    6.527    0.847
        78 -12.2682      7.2268     88.7363   1.3200243134e+02   5.6989046017e+01    0.4545044    0.3916444 -45.71  0.001065931    1.119    0.106
        79 -11.5646     28.6859    113.0238   1.2974885432e+02   5.0027701053e+01    0.4050481     0.257959  18.63  0.002048547    1.941    0.485
        80 -11.2362     21.3112    114.4583   1.3220398792e+02   5.0317819632e+01    0.2959518    0.2201307  -8.77  0.001025278    1.701    0.412
        81 -12.7081     25.6983    107.4476   1.2963224319e+02   5.1555379851e+01      1.05051    0.5347096 -22.13   0.00467457    3.062    0.673
        82 -12.1003     18.8078    106.1583   1.3151769029e+02   5.2394512666e+01    0.3054663    0.1918101 -48.74 0.0002685923    1.339    0.253
        83 -11.9712     18.9482     95.8622   1.2954792580e+02   5.4666553356e+01    0.3041616    0.2196548 -52.66 0.0004055463    1.104    0.094
        84 -11.2652     23.3129     94.9429   1.2794451402e+02   5.4531042457e+01    0.2877659    0.1943832 -55.73 0.0004797074    1.201    0.167
        85 -10.6244    108.1766    112.7117   1.0587898128e+02   3.8918045459e+01    0.3828539    0.2778051 -89.20  0.001663565    2.039    0.509
        86 -11.1669    101.9643    109.6622   1.0685342539e+02   4.0775092845e+01    0.4874249    0.4268638   3.64  0.002574436    1.287    0.223
        87 -10.7853     67.0971    111.9515   1.1779547635e+02   4.5931357909e+01    0.4691091    0.2716339 -57.94  0.001842879    1.625    0.385
        88 -11.6866      2.4544    112.1126   1.3734450937e+02   5.2150418786e+01    0.4142065    0.2890742 -78.83   0.00190884    1.293    0.226
        89 -10.7333      5.6858    108.6770   1.3589056115e+02   5.2724641462e+01    0.1894237    0.1506225 -61.21 0.0006236385    1.025    0.025
        90 -11.9846      4.2512    105.0382   1.3575124373e+02   5.3619774234e+01    0.3608997    0.2952859   3.58  0.001899957    1.534    0.348
        91  -9.3498    126.9436    113.7714   1.0104558712e+02   3.4887111584e+01    0.2044289    0.1288535  43.44 0.0007164222    1.615    0.381
        92 -12.4485     18.4423     90.2855   1.2859367465e+02   5.5912502889e+01    0.3890033    0.2376535 -53.92 0.0004266384    1.289    0.224
        93 -11.4968    170.7514    110.0908   8.9547917347e+01   2.5787411674e+01    0.5621821    0.4415686  33.72   0.00177395    1.454    0.312
        94 -10.0024     48.9014    112.1531   1.2341639504e+02   4.8186898849e+01     0.202233    0.1769929 -88.10  0.001138851    1.267    0.211
        95 -10.9179    249.8004    109.4467   7.5364226864e+01   8.3948734674e+00    0.4228757     0.213488 -53.02  0.001876398    1.953    0.488
        96 -11.1873     78.6389    108.1290   1.1336294012e+02   4.5104913459e+01    0.4776348    0.3483475  25.73  0.001704082    1.539    0.350
        97  -9.7945    120.2315    109.0222   1.0159038139e+02   3.7330531448e+01    0.2068627    0.1256516 -45.68 0.0005802868    1.617    0.382
        98 -10.9282    157.3918    106.3478   9.1563643595e+01   2.9673218727e+01    0.4322284    0.3269369  -5.28  0.001502175    1.910    0.476
        99 -10.7926    181.5646    102.9724   8.5472661298e+01   2.4665089817e+01    0.6358084    0.4142954 -73.51  0.002569814    2.170    0.539
       100 -10.6300    143.6421    106.0955   9.4765432886e+01   3.2880152457e+01    0.3138093    0.2867449  48.26  0.001193032    1.099    0.090
       101 -11.8501    145.3934    100.8153   9.2921511851e+01   3.3572632277e+01    0.5495459    0.4022244 -27.45  0.002507617    1.577    0.366
       102 -11.0241    246.3345    103.8360   7.4656947746e+01   1.0072308734e+01    0.2604301    0.1781899 -86.92  0.001290125    1.882    0.469
       103 -10.7474     51.9995     98.5319   1.1938509772e+02   5.0904239222e+01    0.5918409    0.1309267 -49.55  0.001940515    3.539    0.717
       104  -9.7527     57.6029    102.7841   1.1860176333e+02   4.9272591818e+01    0.1954611    0.1221976 -64.74 0.0009488414    1.700    0.412
       105 -10.7631     48.1049    103.0999   1.2169402178e+02   5.0338511192e+01    0.2397174     0.189723 -34.38 0.0003911937    1.221    0.181
       106 -10.4994    194.6120    101.6346   8.2600772762e+01   2.1854120010e+01    0.3026788    0.2589613 -69.21  0.001301592    1.168    0.144
       107  -9.1562     82.2804    102.6790   1.1087102554e+02   4.5745722622e+01    0.1384411    0.1130707 -88.82 0.0005782339    1.585    0.369
       108 -10.5698     67.5103     99.5182   1.1465801219e+02   4.8674036978e+01    0.3151776    0.2560355 -82.92   0.00171762    1.555    0.357
       109 -11.0189     68.4349     95.7698   1.1340093610e+02   4.9360384962e+01    0.4878219    0.3260561 -11.62  0.002302299    2.038    0.509
       110 -10.0710    236.5089     99.9835   7.5237667160e+01   1.2779306834e+01    0.2239957    0.1266015 -41.76  0.001037874    1.605    0.377
       111  -9.8095     96.1130    100.0819   1.0601887003e+02   4.3947825417e+01    0.2111426    0.1852486  -9.70 0.0002927763    1.222    0.182
       112  -8.8994     78.6079    100.7038   1.1148683574e+02   4.6763622818e+01    0.1489088    0.1067595 -13.06 0.0007009074    1.790    0.441
       113 -10.5359     57.4183     98.0522   1.1751891642e+02   5.0345468367e+01    0.2353937    0.2097185 -82.74  0.000817206    1.316    0.240
       114 -10.2241    209.9869     97.7872   7.8927464043e+01   1.9015498876e+01    0.2895957    0.2556012 -22.77  0.001267616    1.321    0.243
       115  -9.7330    190.6021     96.7811   8.2149673732e+01   2.3716572744e+01    0.2203673    0.1340986 -51.26 0.0009457912    1.654    0.395
       116  -9.6404     78.0590     97.0891   1.1070683122e+02   4.7636079415e+01    0.1801722    0.1663168 -85.07 0.0004220787    1.264    0.209
       117 -11.2527     81.2076     92.6647   1.0852529935e+02   4.8079148629e+01    0.6530001    0.4114748  45.36  0.003141389    1.768    0.434
       118 -11.2095     89.3095     90.2919   1.0535497489e+02   4.7215795056e+01    0.4384044    0.2952169 -37.86  0.001219402    1.445    0.308
       119  -9.6119     92.8066     85.7735   1.0299082465e+02   4.7516413938e+01    0.2425491    0.1911824  22.60 0.0006085395    1.349    0.259
       120  -9.3767    183.7944     96.3798   8.3356089309e+01   2.5406413599e+01    0.2082709    0.1399729  46.14 0.0006034656    1.570    0.363
       121 -11.0917     86.0589    104.2932   1.1014231540e+02   4.4770382609e+01    0.3038414    0.2801152  24.94 0.0009091431    1.144    0.126
       122 -10.2956     42.4162     95.2707   1.2174266657e+02   5.2694246525e+01    0.2585492    0.2363653 -30.36   0.00169274    1.098    0.089
       123 -10.9690    117.2651     93.1233   9.8041809166e+01   4.1295515881e+01    0.7421832    0.4937847  19.05  0.003144996    2.109    0.526
       124 -11.0136    122.5807     93.7980   9.6792610988e+01   4.0043634956e+01    0.4211926    0.2236125 -51.89  0.001175556    2.086    0.521
       125 -10.8558    126.3570     93.1314   9.5602737480e+01   3.9368676491e+01    0.5734189    0.4058463 -68.80  0.002534674    1.893    0.472
       126  -9.8907    138.2165     93.2579   9.2607070003e+01   3.6721085818e+01    0.4026302    0.2252848  28.48  0.001283683    2.727    0.633
       127 -11.2290    102.3794     90.3676   1.0146800331e+02   4.4819039967e+01    0.5522264    0.4728903 -22.27  0.001757752    1.196    0.164
       128 -11.3366    236.3710     92.0339   7.3504201674e+01   1.4200661819e+01      0.41407    0.2863044 -86.87  0.001848195    1.719    0.418
       129  -9.4469    160.5158     93.5185   8.7450399988e+01   3.1496036946e+01    0.1537171    0.1469967 -88.94 0.0002253126    1.025    0.025
       130 -10.8935    152.6021     92.0239   8.8828230219e+01   3.3649056821e+01    0.3979915    0.3142846  48.03  0.001523386    1.259    0.206
       131 -10.7761    183.9619     86.5575   8.0814823813e+01   2.7188206717e+01    0.6077194    0.2458904 -44.74   0.00220347    2.438    0.590
       132 -10.0617    220.6360     88.6817   7.5073559380e+01   1.8233390227e+01    0.1402427    0.1145879  18.40 3.632248e-05    1.774    0.436
       133 -10.1310    211.9601     87.5110   7.6162931683e+01   2.0412850715e+01    0.3028455      0.22734   9.98 0.0009240335    2.232    0.552
       134 -11.1680    113.4832     84.5458   9.6613220056e+01   4.3774538023e+01    0.5768323    0.2916844 -37.03  0.002115512    2.065    0.516
       135 -11.3401    108.7245     80.9724   9.6892160625e+01   4.5424784928e+01    0.3503542    0.3221723 -31.94   0.00119893    1.081    0.075
       136 -11.3089     79.6917     82.9966   1.0626613666e+02   5.0308846087e+01    0.6046876    0.5283323  81.25  0.003003753    1.527    0.345
       137 -11.5506     66.6049     81.8940   1.1021305024e+02   5.2522734120e+01     0.446429    0.3090326  25.89  0.002399436    1.547    0.354
       138 -11.4247     73.1559     77.5616   1.0678348750e+02   5.2410912600e+01    0.6215875    0.4388913  -6.87  0.003190745    1.712    0.416
       139 -10.8217    165.4591     83.0739   8.3573500398e+01   3.2269296019e+01    0.4078593     0.332294 -64.12    0.0017002    1.299    0.230
       140 -11.4280    143.4236     83.6670   8.8646355964e+01   3.7370479268e+01    0.4368095    0.3380273 -24.09   0.00155904    1.476    0.322
       141 -10.6309    119.7333     85.1042   9.5065642352e+01   4.2364071425e+01    0.3690368    0.1885776  40.17  0.001484359    2.029    0.507
       142 -10.6897    127.4656     83.4513   9.2541463264e+01   4.1012248398e+01    0.3150232    0.2113052  29.55  0.001403755    1.761    0.432
       143 -12.4680     10.0189     96.7819   1.3258287800e+02   5.5081988388e+01    0.9333104    0.6536073 -82.41  0.005809268    1.548    0.354
       144 -11.7301     52.9388     76.6167   1.1335810340e+02   5.5397304791e+01    0.6785944     0.313394 -51.68  0.003116588    2.045    0.511
       145 -11.0317     58.6585     78.2828   1.1186060579e+02   5.4336529762e+01    0.3033689     0.233147  36.51 0.0008335992    1.458    0.314
       146 -12.1554    242.3324     76.9347   6.9416253586e+01   1.5472634930e+01    0.7402661    0.3259859  68.85  0.003073267    2.704    0.630
       147 -11.2591    230.4865     73.4986   7.0214556029e+01   1.8600947334e+01    0.6534404    0.3103327 -70.26  0.002185722    3.940    0.746
       148 -12.0456     13.8426     74.4483   1.2673246470e+02   5.9542944189e+01    0.4237304    0.3379299 -36.95  0.002097913    1.076    0.071
       149 -11.2618     14.4080     66.9998   1.2473785168e+02   6.0988249967e+01    0.7236339    0.3582344 -71.93  0.003325058    3.114    0.679
       150 -12.0151      1.9989     71.3978   1.3031079797e+02   6.0869273345e+01    0.7159528    0.1316375 -58.51  0.002839755    3.322    0.699
       151 -11.7204      5.8930     62.5011   1.2683502969e+02   6.2404531352e+01    0.4068956    0.2481828 -46.67  0.002359292    1.237    0.191
       152 -11.9257     12.0452     62.2237   1.2442062781e+02   6.2073941940e+01    0.3563983    0.2895901  13.38  0.000801461    1.428    0.300
       153 -11.1052     94.0608     76.1061   9.9724827622e+01   4.9160877794e+01    0.5122938    0.3756453  37.76  0.001617688    1.370    0.270
       154 -12.4291     75.0838     50.4780   9.7413774739e+01   5.6869135597e+01    0.9599034    0.7473003 -36.96  0.005756004    1.337    0.252
       155 -11.8870     85.4751     73.7380   1.0165258553e+02   5.1131067970e+01    0.6722507    0.5284674  57.73  0.003631411    1.600    0.375
       156 -11.6088     78.7887     67.3496   1.0179403223e+02   5.3426364608e+01    0.5728827    0.4429489 -69.41    0.0030239    1.931    0.482
       157  -9.3660    134.4596     77.4784   8.9033577827e+01   4.0553683393e+01    0.1465591    0.1424943  73.16 5.430961e-05    1.050    0.047
       158 -10.3822    184.1815     60.8790   7.4156769255e+01   3.1460657497e+01    0.2641971    0.2330074 -56.17  0.001041127    1.138    0.121
       159 -12.6779    186.0650     69.7159   7.6107406569e+01   2.9592402721e+01     0.983821    0.6409315 -56.69   0.00367299    1.619    0.382
       160 -10.8529    192.5939     65.7772   7.4005994918e+01   2.8655293083e+01    0.4331055    0.2855455 -85.51  0.001720402    1.844    0.458
       161 -10.2661     66.5425     72.8496   1.0757580180e+02   5.4305337800e+01    0.4329161    0.2171682 -44.85  0.002023396    1.856    0.461
       162 -11.3456     33.2073     71.6762   1.1901624021e+02   5.8528908120e+01      0.47832    0.2455588  23.32  0.002520871    2.182    0.542
       163 -10.4960     38.4620     73.4987   1.1761086659e+02   5.7649896147e+01    0.2802338    0.1883242  12.81  0.001184327    1.657    0.397
       164 -11.3185     41.4923     71.0074   1.1582541080e+02   5.7821723291e+01    0.4395064     0.265452 -51.26  0.002427168    1.530    0.346
       165 -11.3817    162.2229     70.5174   8.0811772509e+01   3.5236136634e+01     0.455954    0.3523025 -88.78  0.001899526    1.499    0.333
       166 -12.0774    122.5158     68.4720   8.9358997778e+01   4.4784428869e+01    0.5763068    0.4292447  51.70  0.001957485    1.323    0.244
       167  -9.5047     60.7621     72.6616   1.0949434971e+02   5.5154080207e+01    0.1705503    0.1179855  39.18  0.000483658    1.624    0.384
       168 -10.6739     21.1735     71.7894   1.2343702791e+02   5.9545015544e+01     0.215285    0.1960184  14.46 0.0004936942    1.316    0.240
       169 -10.7037    200.1065     69.7856   7.3788285019e+01   2.6208400648e+01    0.3043999    0.1898758  77.16  0.001224874    1.779    0.438
       170 -12.3697    219.4317     66.2938   7.0093489282e+01   2.2250785184e+01    0.7962114    0.3513519  60.85  0.002711999    2.241    0.554
       171 -10.8939    209.2961     67.6936   7.1871260707e+01   2.4376178652e+01    0.4997643    0.2377807  44.89   0.00196373    2.751    0.637
       172 -10.8926    172.1183     68.0820   7.8207987556e+01   3.3243433320e+01    0.3797961     0.326048 -62.80  0.001492096    1.177    0.151
       173 -10.8241    128.6544     64.0645   8.6463908606e+01   4.4161136892e+01     0.439534    0.1824002 -48.19  0.001573661    2.995    0.666
       174 -10.2564    104.1002     76.6808   9.6924622688e+01   4.7147455986e+01    0.3630276    0.2429607 -31.62  0.001753748    1.550    0.355
       175  -9.4127    197.4919     74.5071   7.5375472245e+01   2.6049514733e+01    0.1451893    0.1341791 -83.33 0.0008104726    1.025    0.024
       176  -9.7169     25.9078     65.2991   1.1997996594e+02   6.0429733365e+01    0.1615344    0.1272566 -32.47 0.0004409981    1.032    0.031
       177  -9.5245     21.2477     64.9329   1.2163590231e+02   6.0883735984e+01    0.1697491    0.1246459 -36.65 0.0008842686    1.088    0.081
       178 -10.3515    204.7749     63.5744   7.1559937415e+01   2.6095786864e+01    0.2717311    0.2169071  31.96 0.0009345971    1.693    0.409
       179 -10.1261    198.3700     63.3723   7.2487075264e+01   2.7651017371e+01    0.3064798     0.195552 -57.33  0.001468375    1.606    0.377
       180 -10.4364     98.1348     62.7670   9.4309539640e+01   5.0761092593e+01    0.3503476    0.2489429   3.07  0.001738527    1.758    0.431
       181 -11.1908     91.5422     62.5017   9.6204018160e+01   5.2045835224e+01    0.3685126    0.3371051 -45.63  0.001245235    1.240    0.194
       182 -11.0646     91.0739     57.9508   9.4854757268e+01   5.2884890322e+01    0.3314738    0.2749458  32.93  0.001121443    1.161    0.139
       183 -10.8384     87.6026     56.9611   9.5595466577e+01   5.3678274989e+01    0.4234198    0.2151295 -37.16  0.001307766    1.969    0.492
       184 -10.7526     58.3041     62.0793   1.0708102202e+02   5.7450075161e+01    0.3717242    0.2830397 -65.06  0.002087872    1.901    0.474
       185 -11.3821    159.2832     61.6752   7.8946451709e+01   3.7377765163e+01     0.785966    0.5376382   8.92   0.00338558    2.441    0.590
       186 -10.7951    157.4767     56.5345   7.7860199315e+01   3.8602398197e+01    0.3273219    0.2242315  44.02 0.0008670199    1.497    0.332
       187 -11.6140    155.6276     51.8755   7.6903898431e+01   3.9733925053e+01    0.6115679    0.4862598 -62.45  0.002723233    1.384    0.277
       188 -10.6899    105.0913     61.4329   9.1869634955e+01   4.9613315841e+01    0.4271512     0.269601 -31.64  0.002089384    1.645    0.392
       189 -10.1726     84.4163     62.2944   9.8356180326e+01   5.3357173482e+01     0.257487    0.1249506 -36.34  0.001137101    2.053    0.513
       190 -12.0590    119.2381     58.4004   8.7081841462e+01   4.7140264202e+01     1.100855    0.5949919  52.73  0.004592136    1.812    0.448
       191 -10.4910    142.7576    249.4174   1.2346523511e+02   2.2357400703e+00    0.1892248    0.1108797  33.40 0.0009564504    1.672    0.402
       192 -10.1768    145.6508     16.3500   6.8495072035e+01   4.6416976533e+01    0.2602508    0.1967635 -75.29  0.001507479    1.526    0.345
       193  -9.9689    199.5072    244.5189   1.1149463315e+02  -6.4569968798e+00     0.127655    0.1090805  22.86 3.798052e-05    1.022    0.021
       194 -11.6613     40.0564     55.9855   1.1184643355e+02   6.0773358871e+01    0.5630445     0.444849  38.02  0.003648508    1.590    0.371
       195 -11.9677     46.1387     48.8449   1.0717315754e+02   6.1291503699e+01    0.5985392    0.4162857 -39.69  0.002931743    1.367    0.269
       196 -11.9983     41.7387     45.4908   1.0770926883e+02   6.2364792220e+01    0.3147121    0.2398746  29.24 0.0003543897    1.451    0.311
       197 -11.4761     51.2701     61.5425   1.0943727631e+02   5.8463965803e+01    0.4021821    0.3276673 -49.09  0.001424765    1.358    0.264
       198 -11.5144     46.3774     58.2225   1.1018187228e+02   5.9654839313e+01    0.4001711    0.2708957 -37.82  0.001520701    1.299    0.230
       199  -9.8973    248.8406     59.3836   6.4955487668e+01   1.6859415999e+01    0.2699887    0.1387205 -58.36   0.00130069    1.858    0.462
       200  -9.4702    146.9460     60.5289   8.1183242540e+01   4.0504310077e+01    0.2249895    0.1352891  55.62 0.0009294378    1.566    0.362
       201 -11.0019     26.6428     47.6944   1.1444146361e+02   6.3570134634e+01    0.4074705     0.209656  -9.64  0.001005918    2.621    0.618
       202 -11.0845     21.2576     47.5052   1.1656484165e+02   6.4076444006e+01     0.722971    0.2592227 -48.21  0.003535938    2.302    0.566
       203  -9.7014     25.5755     59.9014   1.1858969065e+02   6.1479716519e+01    0.7376352    0.3595986  45.19  0.003439273    3.519    0.716
       204 -10.9954     29.4378     52.4770   1.1485078845e+02   6.2477558565e+01    0.3857006    0.1817755  28.07  0.001453235    2.289    0.563
       205 -11.6448    219.2749     57.1122   6.8018400534e+01   2.3709224897e+01    0.4828764    0.2842825  84.76  0.001889926    1.913    0.477
       206 -11.3330    136.5505     55.7761   8.2078121937e+01   4.3662149783e+01     0.655668    0.5474874 -11.34  0.003599081    1.370    0.270
       207 -10.5500    145.2849     52.1678   7.9089139305e+01   4.2155354320e+01    0.3585161    0.2640336  38.25  0.001850114    1.420    0.296
       208 -11.6449    146.0549     46.1976   7.7171587877e+01   4.2815364675e+01    0.5842162    0.3704794 -18.35  0.002091078    2.035    0.509
       209 -11.1525    127.7455    242.8093   1.2558629346e+02   5.9766827233e+00     0.332757    0.1613838 -68.31  0.001412536    2.997    0.666
       210 -10.9880     60.8677     36.5966   9.7319457273e+01   6.1161592767e+01    0.2774971    0.1777325 -30.28 0.0009563565    1.495    0.331
       211 -10.3811     66.9621     54.9231   1.0168785336e+02   5.7439574047e+01    0.2513334    0.1778868 -40.97 0.0007748614    1.432    0.302
       212  -9.4979      1.7372     56.3760   1.2692386152e+02   6.3802988990e+01    0.1375502   0.09077121 -14.37 0.0005538465    1.524    0.344
       213  -9.5312    187.4949     55.3205   7.2189149959e+01   3.1503491350e+01    0.2529456    0.1222536  62.27  0.001069311    1.951    0.487
       214 -11.4095     93.5696     41.2921   8.8439551736e+01   5.4898179105e+01    0.5539553    0.2548254  46.05   0.00213023    2.016    0.504
       215 -10.7792    249.0627     52.7398   6.3572816906e+01   1.7802614323e+01    0.4286096    0.2074679 -70.88  0.001843272    2.650    0.623
       216 -10.1060    244.5946     50.7999   6.3650300366e+01   1.9031367088e+01    0.2577145    0.1778935 -59.45  0.001175027    1.245    0.197
       217 -11.1660    240.1134     50.3320   6.4038662727e+01   2.0062061995e+01    0.3898276    0.3261886 -48.31  0.002145212    1.250    0.200
       218 -11.0755    207.9149     53.1566   6.8627601765e+01   2.6942147115e+01    0.6980948    0.2031266  63.74  0.002391519    3.349    0.701
       219 -11.3165    202.1372     47.2711   6.8025684799e+01   2.9159275021e+01    0.5371352    0.3227906 -36.27  0.002669798    1.768    0.435
       220 -10.7967    194.6191     46.4549   6.8888134332e+01   3.1068819547e+01    0.5776099    0.2793374  85.64  0.002108856    3.180    0.686
       221  -9.6713    197.3570     43.6946   6.7826095295e+01   3.0797096035e+01    0.2809373    0.1663358 -81.38  0.001229351    2.050    0.512
       222 -10.9505     25.5701     55.2243   1.1721643961e+02   6.2339167706e+01     0.339445    0.1966704 -25.06   0.00129909    1.658    0.397
       223  -8.6575    220.3245     50.2898   6.6342806940e+01   2.4479356451e+01    0.1247424    0.1035158  39.78 0.0004989642    1.611    0.379
       224 -11.4363    176.6511     37.3439   6.9263098029e+01   3.6628448696e+01    0.4271604    0.3218577 -18.37  0.002195913    1.705    0.414
       225 -11.5472    170.9104     33.7351   6.9207007431e+01   3.8469962708e+01    0.4857979    0.1911191  54.26  0.002000948    2.272    0.560
       226 -11.7618    173.7649     47.5388   7.2416158223e+01   3.5961005076e+01    0.7740195    0.3595875  65.36  0.003227338    2.087    0.521
       227 -10.6914    176.8296     43.2985   7.0792753586e+01   3.5800351223e+01    0.3525124    0.2551561  76.51  0.001406651    1.318    0.241
       228 -10.2146     52.0014     48.0368   1.0469056038e+02   6.0681012920e+01    0.2515758    0.1539699 -28.38  0.000953891    1.515    0.340
       229  -9.9660      2.3731     48.8720   1.2470339448e+02   6.5151013515e+01      0.17323    0.1375801  11.68  0.001082086    1.468    0.319
       230  -9.6296     91.0229     48.2619   9.1604147324e+01   5.4394197120e+01    0.1973465     0.155701  76.63  0.001053681    1.951    0.487
       231 -10.1148     14.1962     46.0861   1.1902335107e+02   6.4879570548e+01    0.2517338   0.08022761 -38.23   0.00115129    2.640    0.621
       232 -10.5254    162.1762     43.7256   7.3388290549e+01   3.9292569076e+01    0.4355453    0.1739507  61.13  0.001714034    2.295    0.564
       233 -11.7123    155.9127     41.8728   7.4006948983e+01   4.1046993968e+01    0.3957737    0.3506703  81.33  0.001005924    1.096    0.088
       234 -11.0021    153.2879     35.9405   7.2798736522e+01   4.2433727362e+01    0.2659312    0.2393359  50.22 0.0003710843    1.103    0.094
       235 -10.3175    139.3747     43.7681   7.7832349525e+01   4.4712724109e+01    0.3022248    0.1591593  49.99   0.00137352    1.722    0.419
       236 -11.2871     34.1126     42.2317   1.0959200392e+02   6.3739804067e+01    0.4727844    0.2957329 -20.12  0.002698271    1.487    0.328
       237  -9.9473      3.1447     44.6387   1.2319545605e+02   6.5861953462e+01    0.1906917   0.09149218  -3.92 0.0006602296    2.479    0.597
       238  -9.8291     26.4579     43.5031   1.1313610570e+02   6.4294943398e+01    0.1182448    0.0910482 -21.92 1.377717e-05    1.021    0.020
       239 -10.4024    188.9986     41.5511   6.8487131594e+01   3.3093633189e+01    0.3398522     0.179088 -35.98 0.0005539953    2.011    0.503
       240  -9.9521     18.0856     41.9397   1.1608833541e+02   6.5287089467e+01     0.243587    0.1259781   1.75  0.001331851    2.309    0.567
       241 -10.9043     69.8837     32.5941   9.2694078500e+01   6.0285102930e+01    0.4438231    0.2508819  39.11 0.0009886938    1.655    0.396
       242 -11.2937     81.3194     39.4795   9.1508138025e+01   5.7411525590e+01    0.4987103    0.3334154  51.41  0.002051303    1.686    0.407
       243 -11.1559     77.7794     34.3215   9.0753475800e+01   5.8722095540e+01    0.4078901    0.2279388  37.37  0.001067135    1.648    0.393
       244 -11.0510     82.1357     31.3908   8.8310782229e+01   5.8318926900e+01    0.4281383    0.3214455  58.95  0.002517977    1.677    0.404
       245 -10.2563    231.3529     38.7627   6.2552790931e+01   2.3612677454e+01    0.3178332    0.1726032 -44.23  0.001580286    1.713    0.416
       246 -10.5320    226.2680     36.9238   6.2709439841e+01   2.4997016970e+01    0.4621489     0.220214  74.10   0.00166506    2.047    0.511
       247  -8.9793    184.6631     39.3224   6.8561748497e+01   3.4435335615e+01      0.14566   0.09564415 -73.80 0.0007050639    1.713    0.416
       248 -10.5465    133.4482     37.3236   7.7123300891e+01   4.6917395632e+01    0.3992922    0.2903155 -73.02  0.002055764    1.854    0.461
       249 -11.0525     22.1574     36.5549   1.1254557660e+02   6.5818898622e+01    0.3346498     0.215414  37.04  0.001476956    2.067    0.516
       250 -11.2861    205.6029     37.1807   6.5186753112e+01   2.9721049076e+01     0.452866    0.2574501  71.60  0.001859297    1.625    0.385
       251 -11.0466    198.7299     35.3519   6.5634305385e+01   3.1584105933e+01      0.37483    0.3010634  71.12  0.001573246    1.151    0.131
       252 -11.3729      4.2325     35.9967   1.2010723022e+02   6.7276021304e+01    0.2462113    0.1839295 -28.01 0.0004022436    1.024    0.023
       253 -10.1916      6.6532     30.7251   1.1728891967e+02   6.7974400901e+01    0.2591026    0.1313259   5.05  0.001557281    2.135    0.532
       254  -9.9696    245.5582    239.2091   1.0197983152e+02  -1.2669424393e+01     0.153339    0.1473874 -88.62 0.0005552472    1.728    0.421
       255 -10.2013    150.3364    237.3357   1.2021015102e+02   3.1064168826e+00     0.133228    0.1028986   4.96 0.0007051865    1.746    0.427
       256 -11.7759    115.6301     24.5740   7.6977629725e+01   5.2381468594e+01     0.540979     0.195017  47.72  0.002125713    2.355    0.575
       257 -11.5857    110.1736     23.3871   7.7850560874e+01   5.3680867910e+01    0.3936899     0.246217  54.48  0.001537031    1.431    0.301
       258  -9.8331    248.7206     33.3535   5.9725832943e+01   2.0587856455e+01    0.2417719    0.1184468 -50.73  0.001258184    1.751    0.429
       259 -11.4328    159.5916     30.1749   7.0074323857e+01   4.1622117955e+01    0.5489773    0.3055556 -42.17  0.002107438    1.940    0.485
       260 -10.9663    163.9687     27.6751   6.8674904924e+01   4.0863882153e+01    0.4941515      0.28712 -31.62 0.0007325776    1.936    0.484
       261 -10.5040    239.8834     32.4990   6.0387270388e+01   2.2583757874e+01    0.3730035    0.1672528  66.52  0.001830697    2.107    0.525
       262 -10.3061    211.5089     31.1230   6.3087776690e+01   2.9127791587e+01    0.3601233    0.2298295 -45.13  0.001984746    1.544    0.352
       263 -10.9846    189.1362     29.2720   6.5425929822e+01   3.4633105777e+01     0.485184    0.3066573 -34.43  0.002579169    1.754    0.430
       264  -9.2673    216.6267     32.1311   6.2730560860e+01   2.7818421543e+01     0.157667    0.1246871 -25.48 0.0004180685    1.649    0.394
       265 -10.4601    182.4138     32.0868   6.7055148584e+01   3.5900113780e+01    0.2573254    0.1773852  75.89 0.0005605152    1.323    0.244
       266 -10.8885     56.1274     30.9037   9.6876007041e+01   6.2640784817e+01    0.2479133    0.1880312  27.32 0.0003019439    1.252    0.201
       267 -12.1924     48.4984     30.4680   9.9566242644e+01   6.3766556093e+01    0.7553169    0.2757658  33.37  0.003486913    2.717    0.632
       268 -10.1722    218.0257     39.0916   6.4115482902e+01   2.6577716553e+01    0.2087712    0.1741382 -85.05 0.0008565037    1.023    0.022
       269 -11.2478    197.8826     28.8087   6.4187146062e+01   3.2609857342e+01    0.4217667    0.2704151  58.29  0.002216744    1.512    0.339
       270 -10.8175    199.4156     24.7801   6.3052481040e+01   3.2735302027e+01    0.2749562    0.2110657  52.55 0.0009852544    1.447    0.309
       271  -9.7138     15.1852    233.8257   1.4628041359e+02   2.3811686531e+01    0.1454206    0.1173723 -79.61  0.001071736    1.351    0.260
       272 -10.4291    197.4938    232.0019   1.0979905830e+02  -4.1265298689e+00    0.1807164      0.10772 -16.18 0.0008096413    2.464    0.594
       273 -10.5431    242.5097    231.5097   1.0117260787e+02  -1.1148721724e+01    0.2134921    0.1086002  46.12  0.001039762    2.453    0.592
       274  -9.5682     23.4897    231.5273   1.4465469149e+02   2.3371305178e+01    0.1187758   0.08681616  77.67 0.0008099396    1.012    0.012
       275  -9.5897      9.4505    227.4418   1.4687212376e+02   2.5717944798e+01    0.1144426   0.08308423  80.64 5.671993e-05    1.017    0.017
       276  -9.9011    234.5188    222.5311   1.0101397820e+02  -8.6150036018e+00    0.1279156     0.108478   1.47 1.594714e-06    1.001    0.001
       277 -10.4622      4.2750    204.9234   1.4630461211e+02   3.0981956975e+01    0.2179928    0.1216592 -66.87  0.001329159    1.629    0.386
       278  -9.8620    238.3257    204.3234   9.6908133281e+01  -6.3224287320e+00    0.1369456   0.09324768  -1.91  0.000445158    1.688    0.408
       279  -9.7080     99.5172     30.4797   8.2991527917e+01   5.5097746501e+01    0.2318472    0.1604237  57.77 0.0009424713    1.521    0.342
       280  -9.8307     98.2370     26.9479   8.2090418689e+01   5.5762681053e+01    0.2241427    0.1745966 -26.41  0.001367694    1.394    0.283
       281 -10.8687    229.6926     27.3354   6.0321875753e+01   2.5482339303e+01    0.3197231    0.1959151 -52.56  0.001135906    1.478    0.323
       282 -10.0489    245.4933    200.9936   9.4976584621e+01  -6.9191343638e+00     0.164188    0.1099332 -58.21 0.0006159375    2.314    0.568
       283 -10.1242     59.9582     24.4510   9.2976525641e+01   6.2889739995e+01    0.3586409    0.1749185 -38.20  0.001870252    2.272    0.560
       284 -10.2751    250.5371     25.3006   5.7999292632e+01   2.1256540231e+01    0.2197055    0.1074291 -39.48 0.0005952414    1.992    0.498
       285 -11.4464    214.2931     24.0960   6.1214183129e+01   2.9359314000e+01     0.347384    0.3154652  77.07  0.001411831    1.232    0.188
       286 -10.2512    233.9527    197.1681   9.6324775046e+01  -4.4141166499e+00    0.2416888    0.1831513 -32.83 0.0009000407    1.241    0.194
       287  -9.2844     17.2794    192.3277   1.4274860511e+02   3.2529941669e+01    0.1148989    0.0799092 -56.66 0.0003632887    1.597    0.374
       288 -10.1960     80.8366     19.2750   8.4167483878e+01   5.9942217127e+01    0.3495111     0.119788  48.28  0.001521679    2.543    0.607
       289  -9.9631    169.2664    191.4916   1.0830747566e+02   8.6171901985e+00    0.2758562    0.1411399  37.58 0.0006402205    1.972    0.493
       290 -12.3560      4.7981    184.5219   1.4465472202e+02   3.5439075939e+01    0.5920284    0.3936517  77.92  0.003839416    1.279    0.218
       291  -9.1594     57.3914    175.1758   1.3187150343e+02   3.1981623966e+01    0.1846329    0.1156198 -80.10 0.0004555068    1.536    0.349
       292  -9.8785    247.6061    173.8055   8.9221441802e+01  -2.6878256946e+00    0.2764695    0.1495224  14.11 0.0009569194    4.213    0.763
       293 -10.1640     39.5166    173.5001   1.3589216426e+02   3.4565089311e+01    0.1315571    0.1089552 -81.84 -3.817312e-05    1.031    0.030
       294 -10.5370     35.5686    170.2569   1.3642489843e+02   3.5775242701e+01     0.262524    0.1116144 -74.09  0.001150298    2.150    0.535
       295 -11.0395     46.9344     18.8224   9.5509083095e+01   6.5469022205e+01    0.2937296    0.2109051  12.61  0.001227954    1.177    0.150
       296  -9.2836    198.0118    167.9751   9.7339181705e+01   7.6976472838e+00    0.1801818    0.1691523 -32.57 0.0004676029    1.037    0.035
       297 -12.0245     10.0476    165.9002   1.4184467228e+02   3.9244810813e+01    0.5307773    0.3301306 -61.92  0.002935149    1.421    0.296
       298  -9.7178    246.1044     22.1697   5.7772819893e+01   2.2580115259e+01    0.1730967    0.1485515 -85.70 0.0006592865    1.194    0.162
       299 -11.7331     13.1011    157.1724   1.4022750133e+02   4.1019330421e+01    0.4583358    0.3165446  62.27  0.001310328    1.506    0.336
       300 -10.3706     18.8001    165.3250   1.3978037835e+02   3.8614305411e+01    0.2342671    0.2137561 -62.65  0.001200035    1.276    0.216
       301  -9.8275    188.7849    164.2085   9.8449239307e+01   1.0365455952e+01    0.2100436    0.1791175  -6.16 0.0008358947    1.339    0.253
       302 -10.0048    205.0257    163.0784   9.4862856715e+01   7.2625306916e+00    0.2236619    0.2133483 -13.28 0.0005780242    1.035    0.033
       303 -10.4074     27.9689    163.2900   1.3738850687e+02   3.8222070953e+01    0.1801719    0.1514133 -84.63 0.0007248805    1.049    0.046
       304  -9.5965     79.6452    160.3336   1.2400591968e+02   3.2439099358e+01    0.1554049    0.1047555  75.00 3.132857e-05    1.791    0.442
       305 -10.2470    191.8960     16.3473   6.1960597380e+01   3.5468191182e+01    0.2227549    0.1986539 -15.88  0.001446992    1.484    0.326
       306 -10.5538    186.4430     15.0844   6.2310165349e+01   3.6890610044e+01    0.2718917    0.1941965  69.57 0.0008196796    1.206    0.171
       307 -10.7694    104.5023    153.9049   1.1633330392e+02   2.9863104472e+01    0.3479641    0.2235276 -70.73  0.001506603    1.763    0.433
       308 -10.4035     31.6866    154.4609   1.3536528500e+02   3.9956623718e+01    0.3499653    0.2237959  54.44  0.001576824    1.698    0.411
       309 -10.1277    115.7597     16.7646   7.4359043089e+01   5.3147999073e+01    0.2030461    0.1854108  -5.84  0.000997044    1.217    0.178
       310 -11.0119     30.7219    149.3804   1.3492532093e+02   4.1268145508e+01    0.3418709    0.2231515 -83.22 0.0008526601    1.426    0.299
       311 -11.1845     47.1115    146.2421   1.3018167272e+02   4.0275030346e+01    0.4859968    0.2979616 -74.44    0.0021496    1.537    0.349
       312 -10.0564     48.1621    151.8582   1.3078291009e+02   3.8789101904e+01    0.2608427    0.2077118 -25.60 0.0009958433    1.642    0.391
       313  -9.7169     44.4597    150.5594   1.3154870726e+02   3.9531941389e+01    0.2420601    0.2014812 -79.08 0.0005383781    1.050    0.047
       314  -9.3896     41.6860    148.6531   1.3198523906e+02   4.0302811421e+01    0.1904405    0.1409735  24.53 0.0006565967    1.674    0.403
       315 -12.0545     13.1564    139.7495   1.3816455322e+02   4.5088037723e+01    0.5314712     0.307703  74.18  0.002817879    2.040    0.510
       316 -12.2641     23.2980    148.9674   1.3675642216e+02   4.2066601956e+01    0.5483878     0.315849 -28.32  0.002655754    2.772    0.639
       317 -10.8513     16.0658    148.0186   1.3845134770e+02   4.2917610420e+01     0.362639    0.1952764  40.58  0.001510943    2.081    0.519
       318 -12.4566      5.0852    147.0905   1.4104785050e+02   4.3986742890e+01    0.6560347    0.3417337 -57.64  0.003583214    1.628    0.386
       319 -11.3930      2.9669    141.8671   1.4098992362e+02   4.5341187598e+01    0.3509532    0.3246111  14.18  0.002502901    1.443    0.307
       320 -11.6964      3.9713    136.5259   1.4012347413e+02   4.6502074702e+01     0.245262    0.1825864 -66.10 0.0003790498    1.094    0.086
       321 -11.3661     62.4630    149.7737   1.2667888015e+02   3.7500481717e+01     0.457874    0.3820081  63.71  0.002463659    1.254    0.202
       322  -9.8315    239.9583    146.5428   8.4843312432e+01   3.5788483370e+00    0.1953902    0.1402977  47.97 0.0008666849    1.556    0.357
       323  -9.0625    108.6756    146.2542   1.1364588526e+02   3.0953321015e+01    0.1518346    0.1159155  74.18 0.0006932413    1.546    0.353
       324 -11.1928    249.7408    143.8360   8.2664860684e+01   2.2551122243e+00    0.6641228    0.2227041 -42.99   0.00247595    2.614    0.617
       325 -10.8587     33.1931    144.3193   1.3357085401e+02   4.2235188624e+01    0.2714461    0.2262209  89.68 0.0008343838    1.144    0.126
       326  -9.9574    133.7659    139.4032   1.0560139793e+02   2.7617616033e+01    0.2830275    0.1983847 -28.70  0.001205329    1.783    0.439
       327 -12.4435     22.8263    135.4553   1.3504478198e+02   4.5304984119e+01    0.8431837    0.3708851  43.69  0.004011141    2.626    0.619
       328 -10.6420     47.2411    135.0115   1.2827909845e+02   4.2974324672e+01    0.3749136    0.1725871 -46.90   0.00163608    2.140    0.533
       329 -10.9204     72.1428    133.7461   1.2102991241e+02   4.0059542509e+01    0.4381944     0.271612   7.55  0.001807259    2.781    0.640
       330 -12.0395     29.7959    132.8754   1.3276571524e+02   4.5289844032e+01    0.4723298    0.3198931 -79.57 0.0003881937    1.394    0.283
       331 -10.9767     10.5255    127.3695   1.3723330548e+02   4.8157869331e+01    0.4721057    0.1193774 -56.19  0.001839944    2.750    0.636
       332 -10.1697     92.4996    128.9382   1.1423946327e+02   3.8001804520e+01    0.2823877    0.2055452  57.03  0.001249952    1.557    0.358
       333 -11.3020    242.9437    127.9695   8.0367120759e+01   6.4166861688e+00    0.2843984    0.2315014 -76.87  0.001311091    1.417    0.294
       334 -11.7468    240.7640    122.5497   7.9536638203e+01   7.8362671603e+00    0.6387765    0.4314646 -43.94  0.001972345    1.313    0.238
       335 -10.0491    187.3249    128.3250   9.0545230562e+01   1.8202840947e+01    0.1564268    0.1251119   3.17 0.0007048685    1.690    0.408
       336  -9.7074     78.5383    128.4981   1.1811099415e+02   4.0369046465e+01     0.145312    0.1329301 -57.29 4.479516e-05    1.014    0.013
       337 -10.5534    223.8367    125.5826   8.2992792672e+01   1.0737805436e+01    0.4024594     0.177162 -53.49  0.001445426    2.676    0.626
       338 -10.5404     82.2734    134.8600   1.1840822846e+02   3.8258112507e+01    0.3960443    0.2617428   2.49  0.001639647    2.615    0.618
       339 -10.4912     18.5368    124.6783   1.3463665960e+02   4.8180392301e+01    0.2916401    0.1457583 -54.10 0.0006385008    1.638    0.389
