#   1 NUMBER                 Running object number                                     
#   2 MAG_AUTO               Kron-like elliptical aperture magnitude                    [mag]
#   3 X_IMAGE                Object position along x                                    [pixel]
#   4 Y_IMAGE                Object position along y                                    [pixel]
#   5 X_WORLD                Barycenter position along world x axis                     [deg]
#   6 Y_WORLD                Barycenter position along world y axis                     [deg]
#   7 A_WORLD                Profile RMS along major axis (world units)                 [deg]
#   8 B_WORLD                Profile RMS along minor axis (world units)                 [deg]
#   9 THETA_WORLD            Position angle (CCW/world-x)                               [deg]
#  10 FWHM_WORLD             FWHM assuming a gaussian core                              [deg]
#  11 ELONGATION             A_IMAGE/B_IMAGE                                           
#  12 ELLIPTICITY            1 - B_IMAGE/A_IMAGE                                       
         1 -15.3347     13.6181    122.8489   1.2837718857e+02   4.8097861781e+01     1.979155     1.453024 -65.19  0.009204482    1.186    0.156
         2 -13.8713    131.2429     34.3167   6.9047581415e+01   4.8220347472e+01     1.827017     1.113838  62.96  0.007121859    1.740    0.425
         3 -11.5288     60.3444      5.6747   7.7376176131e+01   6.6559529157e+01    0.5481815    0.4218884   1.94   0.00349924    1.109    0.098
         4 -11.2145      2.2235     29.9587   1.1525007651e+02   6.9175269644e+01    0.5927649    0.2218884 -63.58   0.00252494    2.554    0.608
         5 -12.6941      9.0961     26.3145   1.1064129556e+02   6.9471473026e+01    0.7643766    0.6032807 -79.47  0.005166914    1.822    0.451
         6 -13.9741      7.6524      7.5455   1.0373066394e+02   7.2890106073e+01     1.902655     1.346477  37.72   0.01294042    2.089    0.521
         7 -12.9763     44.9070      8.1791   8.5008715862e+01   6.8689663194e+01      1.11284    0.5561857  36.31   0.00556898    2.018    0.505
         8 -12.1943     31.7874      4.2875   8.9084083255e+01   7.0970673464e+01    0.4684197    0.4455357 -32.84  0.003004999    1.625    0.384
         9 -12.5922    151.4388     15.0606   5.8249364693e+01   4.5446372629e+01     1.029498    0.4564574  66.51   0.00420546    2.157    0.536
        10 -13.1731    138.7120      4.8256   5.6780883745e+01   4.9607593740e+01     1.287308    0.7831546 -89.65  0.005934119    2.109    0.526
        11 -13.4549    136.7385     16.6740   6.1441198565e+01   4.8968491413e+01    0.8675253    0.7432619  34.74  0.004081294    1.120    0.107
        12 -11.9453    207.8683     19.5406   5.2014704124e+01   3.0674801376e+01    0.3548354    0.2624145  19.29  0.001122192    1.789    0.441
        13 -12.4135    250.0000      9.5038   4.5764550190e+01   2.1957520608e+01    0.9046398     0.306661 -22.61  0.003475955    3.609    0.723
        14 -12.5721     27.8073      8.5731   9.3337268573e+01   7.0833969866e+01    0.7531272    0.6095798 -63.53   0.00476087    2.291    0.563
        15 -12.7562    215.1243     10.3218   4.8844588125e+01   2.9886385278e+01    0.6275946    0.5373215 -62.52  0.003876383    1.075    0.070
        16 -11.0254     96.6422      2.5918   6.4571195298e+01   5.9726907169e+01    0.4783296    0.2347059  62.36  0.002198303    2.130    0.531
        17 -13.1338    127.0651     12.8690   6.1930161402e+01   5.1726643673e+01    0.9557656    0.8387849  27.80  0.004497738    1.087    0.080
        18 -14.4367     12.3686    142.5597   1.3066918336e+02   4.3720808689e+01      1.25629    0.7951785  63.77   0.00790212    1.529    0.346
        19 -13.6934    123.2903    247.0651   1.1825093899e+02   9.3376787177e+00     2.728642    0.5550851  39.83   0.01001573    3.919    0.745
        20 -14.2458    110.1498    227.9647   1.1861959361e+02   1.4335612563e+01     2.779511     1.213219  39.93   0.01410932    1.943    0.485
        21 -15.3081     80.0377    195.6543   1.2100189442e+02   2.4704814645e+01     2.589164     1.629334  48.58   0.01502951    1.410    0.291
        22 -13.2809     44.5254    212.5366   1.2960599286e+02   2.5870052685e+01    0.7904623    0.5183775  46.09  0.002654182    1.387    0.279
        23 -14.6668     68.7921    221.0638   1.2574750682e+02   2.1323506154e+01     1.458673    0.9745477  30.89  0.009193125    1.776    0.437
        24 -15.3740     56.4898    197.5999   1.2604212618e+02   2.7387003627e+01     1.942775     1.144374  61.12   0.00825912    1.528    0.346
        25 -16.3413     64.3025    244.0310   1.2836242142e+02   1.7873783548e+01     3.432655      1.24144  38.90   0.01812217    2.370    0.578
        26 -14.1941     10.1302    208.9283   1.3564536263e+02   3.0088236820e+01    0.8356043    0.4566071  62.65  0.004044045    1.434    0.303
        27 -14.7852      3.1382    219.0397   1.3732225667e+02   2.8841676412e+01    0.9027734    0.3533655 -83.23  0.004985033    2.175    0.540
        28 -14.4847     27.6374    248.3485   1.3467717225e+02   2.1351709147e+01    0.6619525    0.3159736  41.00  0.003851501    1.821    0.451
        29 -16.4247      5.7205    241.6673   1.3782456326e+02   2.4642979914e+01     1.635748     1.100245 -57.87  0.009140817    2.220    0.550
        30 -14.4822     16.1702    247.7515   1.3644938685e+02   2.2621569529e+01    0.4201457    0.3166886  70.04  0.002454578    1.144    0.126
        31 -14.1561    155.9790    195.3682   1.0505954605e+02   1.2529564776e+01     1.848422    0.9871258 -53.89  0.007201823    2.278    0.561
        32 -13.9526     15.2280    157.3391   1.3128117041e+02   4.0215596888e+01    0.8576032    0.5613473  30.68  0.004204967    1.823    0.451
        33 -12.6303    147.5735    205.7129   1.0839231835e+02   1.2186734398e+01    0.6844819    0.5645074  89.03  0.002816951    1.528    0.346
        34 -12.7582     93.5459    143.2011   1.1026302337e+02   3.4051897493e+01     1.121411    0.6704604 -40.72  0.002155578    1.988    0.497
        35 -14.2443     78.2984    135.1524   1.1277682097e+02   3.8229996808e+01     2.190493     1.282669  67.29  0.009587327    2.351    0.575
        36 -13.9278     86.8215    175.6989   1.1704190626e+02   2.7875787909e+01     1.410021      1.08391  52.16  0.008389709    1.212    0.175
        37 -13.8465     66.4609    142.8619   1.1716339973e+02   3.8071405898e+01     3.211622     1.293366  61.15  0.009568106    5.436    0.816
        38 -14.0466     87.2886    157.1124   1.1419326081e+02   3.1876843852e+01     1.923014    0.9116243  58.27  0.007458158    2.752    0.637
        39 -13.5397     48.2151    149.0723   1.2264107675e+02   3.8858825288e+01     1.365804     1.024766  61.21  0.006384588    1.306    0.234
        40 -12.4433     32.0336    144.2244   1.2605467351e+02   4.1649580833e+01     1.009811    0.6699705 -86.05  0.005984956    1.322    0.243
        41 -11.0014     46.2473    164.0676   1.2487729739e+02   3.5700544079e+01    0.5747132     0.220959  56.12  0.002414694    3.005    0.667
        42 -10.3377     41.1295    163.2234   1.2596021634e+02   3.6448499073e+01     0.352503    0.1908149  72.93  0.001377405    1.994    0.499
        43 -11.0243    107.2412    171.5812   1.1177844163e+02   2.5572841743e+01    0.4340646    0.2603001  43.46  0.002160743    1.575    0.365
        44 -12.7768     72.3909    163.1426   1.1865833514e+02   3.2665423398e+01    0.8006333    0.6143336   5.00   0.00442224    1.997    0.499
        45 -11.3457    115.1124    142.1633   1.0460762711e+02   3.0615096025e+01     0.477032    0.2761955 -68.87  0.001968119    2.270    0.559
        46 -12.4113    106.2381    135.0023   1.0540177263e+02   3.3794178201e+01    0.8324292    0.4880783 -41.62  0.003695281    1.872    0.466
        47 -12.4678     73.4944    113.1662   1.0983876938e+02   4.4058413265e+01     1.032326    0.7349766  31.99  0.005448138    1.576    0.365
        48 -12.5246     55.3328     98.4236   1.1220023697e+02   4.9875811582e+01     1.144772    0.6618162  82.32  0.004522271    3.310    0.698
        49 -10.6733     73.4635     90.8164   1.0463194856e+02   4.9212166150e+01    0.3702964    0.2726671 -44.56  0.001937613    1.247    0.198
        50 -15.0775      9.1028    173.8516   1.3380862871e+02   3.7186082754e+01     1.396054     1.056793  74.64  0.009194836    1.080    0.074
        51 -11.4887     57.8644     86.7589   1.0868588972e+02   5.2246306626e+01     0.661111    0.3807598 -63.75  0.003176291    1.743    0.426
        52 -11.9112     62.7507     81.0674   1.0558327044e+02   5.2893293243e+01    0.8688958    0.5303121 -70.59   0.00399849    2.112    0.526
        53 -11.7729    126.8817     88.8861   8.8349567888e+01   3.9862276059e+01    0.3373441    0.2453779  14.41  0.001495924    1.813    0.448
        54 -10.9539    121.0826     88.1701   8.9698887335e+01   4.1237701419e+01     0.288425    0.1861772  35.73  0.001268126    1.676    0.403
        55 -11.8266     32.0766     76.4649   1.1513195579e+02   5.7315944987e+01    0.7542759    0.4795311 -87.09  0.003890194    2.111    0.526
        56 -12.6082     16.4023     78.1891   1.2103244769e+02   5.8141329205e+01    0.7998744    0.5749257 -19.50  0.005071898    1.654    0.396
        57 -11.5330     23.4551     75.7160   1.1804641823e+02   5.8192900721e+01    0.4367947    0.4105828   3.38  0.002211052    1.279    0.218
        58 -10.5904     44.0511     82.1735   1.1225541890e+02   5.4871990169e+01    0.2669163    0.2218806  19.06  0.001427959    1.406    0.289
        59 -12.0302     46.0223     68.7696   1.0813212073e+02   5.7632542759e+01      0.80779    0.4339151 -34.28  0.003874634    1.985    0.496
        60  -9.8200      1.4895     80.4958   1.2653029838e+02   5.8485058853e+01    0.2534586   0.09132792 -70.56  0.001203197    2.139    0.532
        61 -12.5779     66.3052     68.7408   1.0081987567e+02   5.5070012302e+01     1.194115    0.6939483 -52.00  0.005796853    1.616    0.381
        62 -12.4395    116.2178     65.4452   8.3900144259e+01   4.6707939728e+01    0.8175873    0.6303193 -40.40  0.004112431    1.283    0.221
        63 -10.8350     87.4773     64.4715   9.2261981250e+01   5.2547950807e+01    0.4398396    0.3181533  74.21  0.002011253    2.330    0.571
        64 -10.8378     32.1354     62.2530   1.1159685140e+02   6.0434708064e+01    0.4188837    0.2240203 -45.09  0.001624107    1.552    0.356
        65 -11.1173      7.7090     60.1747   1.2062571913e+02   6.2650079769e+01    0.4679449    0.2966237 -44.53   0.00221301    1.324    0.245
        66 -11.1021      2.0505     57.6767   1.2232174631e+02   6.3478120601e+01    0.5401299    0.1929539 -66.58  0.002598301    2.195    0.544
        67 -12.5304    134.6530     52.7827   7.4788198337e+01   4.4701542120e+01     0.731545    0.3776054 -21.18  0.002781349    2.417    0.586
        68 -11.4812     68.6057     49.6424   9.3568668905e+01   5.8524568695e+01    0.4941238    0.3152347 -32.40   0.00254783    1.457    0.314
        69 -10.5330     20.0896     53.4917   1.1404586258e+02   6.3285903432e+01    0.4056725    0.1991976 -60.75  0.002124996    1.750    0.428
        70 -11.0542      6.3096     45.0627   1.1764675324e+02   6.5925210452e+01    0.3335835    0.2095521 -18.81  0.002102507    1.730    0.422
        71 -11.0208      1.6043     40.6349   1.1857444458e+02   6.7075424569e+01    0.6250148    0.1542515 -66.97  0.002213932    4.432    0.774
        72 -13.2878    179.5141    194.7798   1.0021954472e+02   8.4526194368e+00     0.612235    0.4960923  58.65  0.002979667    1.456    0.313
        73 -11.6482    138.7576    197.4165   1.0893493462e+02   1.5155464165e+01    0.5463577    0.4408262 -88.50  0.002537683    1.519    0.342
        74 -13.8738    147.3893    223.3726   1.1094467374e+02   9.2960782816e+00     1.350218     1.058459  15.50  0.007722008    1.486    0.327
        75 -11.5746    107.8147    204.7724   1.1635025021e+02   1.8836279774e+01    0.7350804    0.4580687  29.20  0.003917621    1.859    0.462
        76 -12.6893     94.0258    210.5462   1.1982178398e+02   1.9818492627e+01    0.9196011    0.6651379  39.61  0.004775106    1.335    0.251
        77 -11.0609     85.9672    213.7403   1.2175833991e+02   2.0370937292e+01    0.2735187    0.2170712  61.78  0.001173741    1.043    0.041
        78 -10.0143    127.7942    206.0026   1.1243690813e+02   1.5431193575e+01    0.2386147    0.1665139  45.17  0.001379803    1.243    0.195
        79 -11.5208    200.1301     28.7181   5.5449182625e+01   3.1544493635e+01    0.2753074     0.182907  16.97  0.001261266    2.162    0.538
        80 -11.1167    191.9657     34.0552   5.8057912503e+01   3.2948075807e+01    0.2230522    0.2157124  72.88  0.001213876    1.044    0.042
        81 -11.6913     20.6722     22.4146   1.0335118144e+02   6.9296720471e+01    0.4202662    0.2559962  -8.55  0.002497466    1.783    0.439
        82 -11.7977     22.8285    195.4558   1.3251722004e+02   3.1512049296e+01    0.7343001    0.2002107  47.72  0.003482035    2.889    0.654
        83  -9.9766    114.9330    194.4748   1.1349781332e+02   1.9677871874e+01    0.3826953    0.1575521 -47.14  0.001611375    2.916    0.657
        84 -13.5366     25.2754     97.7809   1.2157076558e+02   5.3010390396e+01     2.021542    0.8869113  42.22  0.009737762    2.673    0.626
        85 -12.2709      3.4744    192.6682   1.3601221048e+02   3.3822981394e+01    0.4910578    0.2875841  41.24  0.002792023    1.699    0.411
        86 -12.6948      2.6248    152.8370   1.3374491445e+02   4.2178704371e+01    0.9430992    0.2976962 -76.10  0.004478822    2.461    0.594
        87 -13.2250      4.6368    106.2351   1.2896466686e+02   5.2487772976e+01     1.261237    0.5070852 -77.93   0.00616251    2.098    0.523
        88 -13.8912     33.2058    119.4144   1.2257528914e+02   4.7283730812e+01     1.409564    0.8488504 -83.68  0.005591939    1.620    0.383
        89 -14.0428    170.8720    200.1375   1.0284629428e+02   9.1018834572e+00    0.9589605    0.7421573 -38.74   0.00570383    1.451    0.311
