#   1 NUMBER                 Running object number                                     
#   2 MAG_AUTO               Kron-like elliptical aperture magnitude                    [mag]
#   3 X_IMAGE                Object position along x                                    [pixel]
#   4 Y_IMAGE                Object position along y                                    [pixel]
#   5 X_WORLD                Barycenter position along world x axis                     [deg]
#   6 Y_WORLD                Barycenter position along world y axis                     [deg]
#   7 A_WORLD                Profile RMS along major axis (world units)                 [deg]
#   8 B_WORLD                Profile RMS along minor axis (world units)                 [deg]
#   9 THETA_WORLD            Position angle (CCW/world-x)                               [deg]
#  10 FWHM_WORLD             FWHM assuming a gaussian core                              [deg]
#  11 ELONGATION             A_IMAGE/B_IMAGE                                           
#  12 ELLIPTICITY            1 - B_IMAGE/A_IMAGE                                       
         1 -13.6040    245.2610    113.7987   4.5654964979e+01   1.0615650721e+01      2.41383    0.6515055 -43.05  0.009015232    2.947    0.661
         2 -11.2684    236.3414     29.1942   2.9892695600e+01   2.4837692669e+01    0.4817382    0.2916448 -36.04  0.002310226    1.755    0.430
         3 -11.5323    238.0089     21.5580   2.8330003066e+01   2.5431228924e+01       0.3247    0.2740515 -41.99  0.001372179    1.437    0.304
         4 -11.8675    236.5954     16.4623   2.7483814960e+01   2.6286102677e+01    0.6191715    0.2244495  83.62  0.002908775    3.050    0.672
         5 -11.3221     57.5107     15.1721   5.7353350853e+01   6.5329207579e+01       1.3093    0.5631092  23.74  0.005070074    3.583    0.721
         6 -12.2541     46.0061      9.2478   5.9174825501e+01   6.7957097465e+01    0.2929948    0.2025202  23.85 0.0003356208    1.181    0.153
         7 -11.8894     34.7326     20.4103   6.9644768511e+01   6.8416901603e+01     1.312817    0.6308031  -2.05  0.004820108    4.428    0.774
         8 -11.8171     28.1257     18.5855   7.2118411918e+01   6.9555630158e+01     0.628713    0.3428126   0.63  0.003217136    2.202    0.546
         9 -12.2116     23.9587     12.0448   7.1133646168e+01   7.0940899607e+01    0.3527206    0.2368719  11.18 0.0003792575    1.219    0.180
        10 -12.3263     16.1255     13.5191   7.6253649659e+01   7.1685357305e+01    0.2423811    0.1737978  -0.43  0.000272639    1.070    0.066
        11 -11.1245    222.2012     19.2285   2.9077286240e+01   2.8790044448e+01      0.41747    0.1789168 -27.33  0.001939446    3.341    0.701
        12  -9.9123    212.2473     22.5276   3.0574573296e+01   3.0444901268e+01    0.2145806    0.1505967 -18.66  0.001255376    2.138    0.532
        13 -12.3706    112.0219     18.9425   4.3345296813e+01   5.3560226411e+01    0.4744149    0.3496364  23.53  0.002763332    1.549    0.355
        14 -10.8619     10.3663     15.1212   8.0436719288e+01   7.2058031751e+01      0.33196    0.2098234 -32.39  0.001145376    1.437    0.304
        15 -10.8761    153.8893      2.9144   3.1922302428e+01   4.5310618273e+01     0.396788    0.2320925  50.61  0.001588303    1.743    0.426
        16 -11.1137    155.2814      9.9343   3.3595708393e+01   4.4370633448e+01    0.5523977    0.3000064  73.96  0.002959957    1.586    0.369
        17 -11.5620    150.6864     18.4154   3.6485913431e+01   4.4619108609e+01    0.3721251    0.3340343 -58.35  0.001962982    1.202    0.168
        18 -11.1796    155.5552     14.6451   3.4805833938e+01   4.3860684413e+01    0.3553983    0.2490646  70.50 0.0008886838    1.214    0.176
        19 -11.9265    127.9765      5.0412   3.6008176371e+01   5.1114064779e+01    0.4226956    0.2565888  72.40  0.001081068    1.422    0.297
        20 -12.3726    122.1899     11.4668   3.8949426213e+01   5.1911650582e+01    0.6556139     0.398684  26.22 0.0009395567    2.156    0.536
        21  -9.9729    116.9474      8.9117   3.9068862131e+01   5.3337787104e+01    0.2594782    0.1839213 -78.69 0.0008899487    1.700    0.412
        22 -11.2075    100.3081     16.1623   4.4971536068e+01   5.6467715507e+01    0.5050688    0.2180673  43.60  0.002305503    2.108    0.526
        23 -10.9645     76.7142     14.9010   5.0746987457e+01   6.1639150733e+01    0.3522892    0.3104059  69.63  0.002321649    1.381    0.276
        24  -9.6944     74.3276     10.6700   4.9722407127e+01   6.2517473353e+01    0.1644578    0.1227142 -41.76 0.0008498806    1.749    0.428
        25 -12.1009    194.1643      4.2458   2.8263867711e+01   3.6209121147e+01     1.599971    0.4896497  55.10  0.006656144    3.704    0.730
        26 -11.1836    247.0677     12.7411   2.6125978133e+01   2.4745885920e+01    0.2057521    0.1634543 -72.48 0.0002895911    1.132    0.117
        27 -10.2374    144.2377     12.3428   3.5721284392e+01   4.6708553187e+01    0.3809288    0.2362102 -53.65  0.002115271    1.787    0.440
        28 -10.9545     93.0857     10.7782   4.4714423461e+01   5.8543513303e+01    0.4330716    0.2204688  57.33  0.001239841    1.626    0.385
        29 -11.9263     89.6619      3.4837   4.2783769460e+01   5.9876560650e+01    0.4911915    0.3190274  57.48  0.002936728    1.267    0.211
        30 -11.3764    216.7653      6.1953   2.6921344875e+01   3.1297744874e+01    0.3534631    0.2900938 -24.85  0.001197439    1.699    0.411
        31 -11.2435    209.2411      9.9395   2.8235830346e+01   3.2451519964e+01    0.4035597    0.3267555  86.83  0.002913603    1.154    0.133
        32 -10.2983     34.3686      8.9787   6.4272711713e+01   6.9847376238e+01    0.2896392    0.1847226   9.62  0.001143922    1.443    0.307
        33 -10.3885    211.7136      5.9901   2.7247979637e+01   3.2348329936e+01    0.2147704    0.1504954 -81.82 0.0006224982    1.146    0.127
        34  -9.5763    101.3294      8.3244   4.1948196339e+01   5.6927008799e+01    0.2585348    0.0931567  56.91  0.001144329    2.122    0.529
        35 -11.0763      2.6843      4.3630   7.9897328677e+01   7.4276180787e+01    0.4678544    0.2942653 -54.12  0.002670464    3.092    0.677
        36 -10.8980      8.5219      8.2696   7.8183906438e+01   7.3195212589e+01     0.375405    0.2048678 -24.76  0.001497062    1.603    0.376
        37 -11.0296     15.9168      4.2640   7.1605463289e+01   7.2888153653e+01    0.5415387    0.2844024  16.27  0.003161249    1.745    0.427
        38 -10.2612     10.3484      1.7106   7.3561294970e+01   7.3836919490e+01    0.2840856    0.1596831  31.85  0.001658038    1.769    0.435
        39  -9.0722    238.7979      7.8905   2.5773523151e+01   2.6813546989e+01    0.1306723    0.0757649 -40.26 0.0005154954    1.682    0.405
        40 -11.3240    167.7419      5.0891   3.0935181136e+01   4.1964994345e+01    0.4639851    0.3829587 -59.99  0.003197338    1.230    0.187
        41  -8.9535    137.6154      8.5157   3.5586657048e+01   4.8590878001e+01    0.1224481    0.1046646  77.77 -4.762443e-05    1.042    0.041
        42 -10.2000    176.2173     12.1950   3.1755703377e+01   3.9378344046e+01    0.2738347    0.1753864 -85.68 0.0003737216    1.449    0.310
        43 -10.1118     77.8527      6.5338   4.6999642633e+01   6.2147039289e+01    0.2709847    0.1911672  49.48 0.0008675121    1.163    0.140
        44  -9.1646    104.3342      9.6739   4.1785970140e+01   5.6141732281e+01    0.1885076    0.1497445 -61.87  0.001163866    1.567    0.362
        45 -10.6822    105.9002      3.5263   3.9342076578e+01   5.6278735719e+01    0.6057224    0.3471263 -84.05    0.0028772    2.668    0.625
        46  -9.0866     99.0351      4.2492   4.0983270213e+01   5.7760146828e+01    0.1841933    0.1322099  43.49 0.0002277007    1.226    0.184
        47  -9.2503     40.8914      5.1864   5.9370264615e+01   6.9211918014e+01    0.1627768    0.1297723  30.64 0.0003065307    1.192    0.161
        48  -9.5671     23.0882      4.3401   6.7615292865e+01   7.1966623605e+01    0.1760801    0.1244666  -0.94 0.0004591738    1.169    0.144
        49  -9.1967     25.8336      1.3452   6.4550302269e+01   7.1907079959e+01    0.1697894   0.08194901  29.78 0.0009477325    1.734    0.423
        50 -10.5142    245.9118      1.8396   2.4289681816e+01   2.6133386673e+01    0.2272589    0.1272577  82.45  0.001097506    1.598    0.374
        51 -12.4666    187.0998     13.6868   3.0993470691e+01   3.6803781959e+01     0.280029    0.2111827 -83.36 0.0003581354    1.118    0.106
        52  -9.8056    136.4164      1.6120   3.3771860785e+01   4.9437814327e+01    0.4066148    0.1137149  67.13   0.00163615    2.758    0.637
        53  -9.0000    119.8509      1.8978   3.6328068164e+01   5.3228414915e+01    0.1636798    0.1308429 -85.55 0.0005398221    1.312    0.238
        54 -11.7532    182.5910     12.2807   3.1118591352e+01   3.7945085020e+01    0.3255972    0.2724142  28.00  0.001470487    1.708    0.414
        55 -10.9044     36.5697    172.4800   1.0779384318e+02   3.3881604757e+01    0.2558903    0.2257209 -72.35  0.000236129    1.054    0.051
        56  -9.3370     84.0458    250.6081   1.0481834199e+02   9.4875946699e+00    0.1894395    0.1094116  33.89 0.0003010937    1.516    0.340
        57 -10.2909     15.6347    250.0433   1.1913130161e+02   1.7733099320e+01    0.2557541    0.1687042  38.93 0.0006385808    1.411    0.291
        58  -9.6726      2.0506    249.9941   1.2174164706e+02   1.9058125321e+01    0.1686084    0.1345614  69.01 0.0003420355    1.068    0.064
        59 -10.4340     68.1850    171.2915   9.8638886936e+01   3.0372179598e+01    0.4128765    0.2431425  16.57 0.0007823022    2.139    0.532
        60  -9.5447     87.9501    171.3359   9.2984127004e+01   2.7454551446e+01    0.2154256    0.1934083  29.82 0.0005061513    1.142    0.124
        61  -9.1710    118.4818    170.0225   8.4223188412e+01   2.2659995907e+01     0.230281    0.1533098 -52.59 0.0003489574    1.498    0.332
        62 -11.6881     54.4412    168.6890   1.0220614483e+02   3.2848272027e+01    0.4020603    0.2836875  45.24  0.001991759    1.460    0.315
        63  -8.3893     20.3295    170.3168   1.1203538337e+02   3.5996084143e+01    0.1397891   0.09171018 -43.85 0.0007046298    1.681    0.405
        64  -9.8865     40.5745    168.2998   1.0613931985e+02   3.4552335867e+01    0.2988802    0.1412173  40.69  0.001262489    2.148    0.534
        65  -8.9640    147.9309    167.4918   7.6030754240e+01   1.7864698053e+01    0.2175381    0.1526533  37.34 0.0003278534    1.447    0.309
        66 -10.2559     29.1950    163.9102   1.0884356429e+02   3.6859294498e+01    0.3023958     0.132584  51.67  0.001189394    2.667    0.625
        67  -8.8089     73.3199    162.6688   9.5708111934e+01   3.1918827329e+01    0.1596166    0.1144155  69.51 0.0007048632    1.693    0.409
        68  -9.5823     10.3178    163.3273   1.1408125359e+02   3.8608754936e+01    0.1387842   0.08631029 -47.01 0.0007046004    1.679    0.404
        69  -9.2540      3.7997    160.3916   1.1559602357e+02   3.9824831191e+01    0.1688294    0.1231055 -12.56 0.0009513426    1.794    0.442
        70  -9.8307    113.7994    159.0668   8.3267681079e+01   2.6226243093e+01    0.2520461     0.227182   1.88 0.0002508107    1.175    0.149
        71 -10.1855     11.1417    155.7086   1.1308888447e+02   4.0514975004e+01    0.2055431    0.1499982  52.89 0.0007301922    1.456    0.313
        72 -12.2213    244.4665    128.4947   4.8703714095e+01   8.2273967138e+00    0.6391593     0.601024 -54.88  0.003818571    1.177    0.151
        73 -10.1970     80.6532    152.2708   9.1587572794e+01   3.3565468132e+01    0.2623253    0.2476432 -21.20 0.0002623945    1.098    0.090
        74 -10.7585    106.1383    244.1177   9.9129981859e+01   7.7190609925e+00    0.3074922    0.2750081  62.94 0.0009179757    1.186    0.157
        75  -8.6141      1.3360    153.7273   1.1567196021e+02   4.1689168864e+01    0.1317232   0.08613756  63.19 0.0002635312    1.601    0.375
        76 -10.2672     16.5632    150.1199   1.1089254069e+02   4.1561776934e+01     0.299615    0.1930816  22.66  0.001553685    1.783    0.439
        77 -10.3824    125.3170    147.4005   7.7513566918e+01   2.6962705070e+01    0.2708353    0.2600161 -73.06 0.0003103655    1.109    0.098
        78  -9.8724     31.0044    147.0446   1.0610730147e+02   4.1138271195e+01    0.2118117    0.1893392 -70.46 0.0003421213    1.013    0.012
        79 -10.3624     36.5694    144.0376   1.0392212133e+02   4.1395331288e+01    0.5391192    0.1401059 -69.00  0.001576863    3.897    0.743
        80 -10.4606     11.7124    145.1344   1.1176672101e+02   4.3219949879e+01    0.2370556    0.2043566 -65.35            0    1.058    0.055
        81 -10.5072      2.0323    143.9826   1.1452964053e+02   4.4145787319e+01    0.3043008    0.1782233 -72.13   0.00105832    1.396    0.283
        82  -8.7292    120.2475    143.6701   7.8062924870e+01   2.8849956630e+01    0.1551491    0.1269597 -86.92 0.0002241176    1.546    0.353
        83 -10.9104     20.6339    141.5486   1.0858440416e+02   4.3487112937e+01    0.3932379    0.1713764  41.57  0.001377424    2.543    0.607
        84 -11.3005     28.8026    140.1094   1.0580194964e+02   4.3172832990e+01    0.4522446    0.3245401 -69.05  0.001329964    1.235    0.191
        85 -12.3843    214.4372    133.2438   5.4374799895e+01   1.2533989319e+01    0.8400144    0.4800195 -56.72  0.003748396    2.035    0.509
        86 -10.9855    211.9006    124.8700   5.2986018606e+01   1.4582807340e+01    0.8315004    0.3065245 -33.29  0.002750979    3.419    0.708
        87 -13.6659    223.1844    115.9813   4.9244756083e+01   1.4117898684e+01     2.214744      1.16741 -41.21   0.01054416    1.634    0.388
        88  -9.8915     37.4330    137.6167   1.0263041694e+02   4.3008818084e+01    0.2619157    0.2086097 -47.24 0.0008627411    1.183    0.155
        89  -9.3560     47.0062    136.4541   9.9293709315e+01   4.2289088603e+01    0.2388573    0.1786054 -61.57 0.0005331745    1.215    0.177
        90  -8.8517     41.3383    136.2641   1.0112574799e+02   4.2962334692e+01    0.1478469    0.1020182 -31.93 0.0004350824    1.590    0.371
        91 -10.5380    145.3204    135.0128   6.9315672914e+01   2.5893346908e+01    0.2620526    0.2273779  37.73 0.0002536851    1.186    0.157
        92 -10.0723     54.1742    134.2836   9.6521702856e+01   4.2010446783e+01    0.3187254    0.1997651 -72.50  0.001404847    1.708    0.414
        93 -11.9132     15.4639    131.2494   1.0884861305e+02   4.6567246543e+01    0.6751831    0.2712008 -57.40  0.002293996    1.973    0.493
        94  -9.4222     11.8302    128.8355   1.0970901606e+02   4.7441873340e+01    0.2035719    0.1573485 -52.45 0.0003726941    1.154    0.134
        95 -10.2185    232.8645    117.0546   4.8032013301e+01   1.2185366394e+01    0.2159358    0.2067732 -82.23 0.0004757686    1.189    0.159
        96 -11.1964     23.8637    126.8040   1.0540503563e+02   4.7083186476e+01    0.5680748    0.3034548 -64.07   0.00265047    1.587    0.370
        97  -9.7067     52.2893    125.9999   9.5525052753e+01   4.4410157381e+01    0.2450062    0.2169008  21.65 0.0005744735    1.217    0.179
        98 -10.6171     48.5587    126.5051   9.6906648455e+01   4.4723377327e+01     0.305811     0.247805 -68.86 0.0005737144    1.216    0.177
        99 -11.0943     45.6383    124.8465   9.7588016756e+01   4.5489239844e+01    0.4560513    0.2603964 -55.02  0.001692346    1.538    0.350
       100  -8.7212     37.6467    125.7417   1.0051577558e+02   4.6106952040e+01     0.147861   0.09933104 -30.59 0.0002758181    1.610    0.379
       101 -10.3890     32.2715    123.0761   1.0189751142e+02   4.7320185795e+01    0.4152577    0.1963597 -36.38  0.001539073    2.379    0.580
       102  -9.7983      1.5606    123.8601   1.1243736735e+02   4.9324690515e+01    0.2192651    0.1246473 -56.77  0.000554766    1.432    0.302
       103 -10.5665     93.9953    123.0185   8.0940741647e+01   3.8851023833e+01    0.2310764    0.2205494 -25.87 -0.005334738    1.010    0.010
       104 -10.7065     11.0254    122.2620   1.0907379028e+02   4.9186007517e+01    0.4010734    0.2193745  22.72  0.001745375    2.085    0.520
       105 -10.1614      1.8994    116.1826   1.1134833899e+02   5.1252481397e+01    0.2202833    0.1609651 -86.50 0.0003193364    1.353    0.261
       106 -11.1930      7.1413    117.7688   1.0976656011e+02   5.0567812080e+01    0.5018159    0.2935376  56.08  0.001695221    2.179    0.541
       107 -10.9923      2.4248    111.8715   1.1058057058e+02   5.2310104971e+01    0.3426912    0.2297469  41.68   0.00114518    1.795    0.443
       108  -9.8455     68.5396    121.4957   8.8972669937e+01   4.3389036825e+01    0.1531595    0.1425603 -39.42 1.644578e-05    1.003    0.003
       109  -9.5427     83.0528    119.2753   8.3557037931e+01   4.1670631709e+01    0.2192551    0.2025933  15.93 0.0008584192    1.106    0.096
       110 -10.0995     69.3159    117.6452   8.7804908665e+01   4.4247731754e+01    0.3094515    0.2132555 -87.72  0.001286675    2.198    0.545
       111 -10.4491     66.3235    116.6753   8.8611596298e+01   4.4930024985e+01     0.266563    0.1787514  59.80  0.001067723    2.060    0.515
       112 -10.1669     58.2983    118.2435   9.1781139644e+01   4.5643539633e+01    0.3029066    0.1968012  39.16  0.001392655    1.673    0.402
       113 -10.5218     45.7914    117.4819   9.6049087798e+01   4.7372631576e+01    0.2917134    0.2067224 -44.85 0.0008645631    1.286    0.222
       114 -10.2329     35.2070    115.7808   9.9503816083e+01   4.8921307179e+01    0.2951528    0.1971388 -25.30 0.0002109279    1.646    0.392
       115  -9.8798     38.5259    115.4223   9.8236047798e+01   4.8682013329e+01    0.3494309    0.1661158 -43.39  0.001447483    1.986    0.496
       116  -9.6846     28.0047    116.5032   1.0222612065e+02   4.9397087987e+01    0.3327124    0.1397171  20.12  0.001114286    2.674    0.626
       117 -11.1006     45.2692    110.4517   9.4730328669e+01   4.9215027778e+01    0.6061538    0.2287271 -47.98  0.002268433    2.315    0.568
       118  -9.4449     62.4714    112.4983   8.8971931320e+01   4.6522983009e+01    0.1512777    0.1387648 -35.31 9.340711e-05    1.003    0.003
       119 -10.5538     34.7019    108.3953   9.8205173261e+01   5.0842102240e+01    0.4870999    0.1390328 -57.24  0.001436536    2.743    0.635
       120 -11.0095     22.0492    108.5722   1.0294862825e+02   5.1897764843e+01    0.3500209    0.2500511  85.25    0.0018082    1.727    0.421
       121  -9.4228    119.5630    108.0034   6.9273932671e+01   3.7391272633e+01    0.2487106    0.1987613  41.61 0.0007442643    1.261    0.207
       122 -10.5783     16.6568    107.8990   1.0482348002e+02   5.2461598838e+01    0.3802498    0.2191385 -39.99  0.001892719    1.606    0.377
       123  -8.9294      6.4528    108.5362   1.0865876896e+02   5.2933838686e+01    0.1340761    0.1104846 -58.08 0.0001916068    1.009    0.009
       124 -11.3985     66.1171    105.2102   8.5852204054e+01   4.7786840139e+01    0.4012732    0.3100946   1.88   0.00198577    1.431    0.301
       125 -12.4585    233.0019    139.9833   5.2742138389e+01   8.0680249578e+00    0.8724099    0.4111287  27.75  0.003100249    4.535    0.780
       126  -8.6718    131.7035    105.6938   6.5317137657e+01   3.5304425401e+01    0.1560412    0.1239224  -0.98            0    1.587    0.370
       127  -9.3300     88.0417    105.5097   7.8319538148e+01   4.4124754444e+01    0.2204061    0.1518711  34.40 0.0003083055    1.476    0.322
       128 -10.0934     82.6862     99.1329   7.8362961480e+01   4.6542882522e+01    0.2514969     0.204351  44.38 0.0006390421    1.329    0.248
       129 -10.8508     76.1808    104.1389   8.1995897997e+01   4.6477625430e+01    0.2752586    0.2666291 -77.49 0.0003032032    1.171    0.146
       130 -11.3010     80.8382    103.0718   8.0091131809e+01   4.5951780522e+01    0.3470863    0.2933167 -17.30            0    1.207    0.171
       131 -10.8185     57.2279    103.8300   8.8747994413e+01   4.9373904992e+01    0.3714406    0.2869236  62.34  0.001052818    1.723    0.420
       132 -10.3719     52.5795    100.8244   8.9731596154e+01   5.0709078470e+01    0.3673511    0.2184333 -39.64 0.0003816903    1.599    0.374
       133  -8.7447      1.1984    104.9354   1.1002519234e+02   5.4097131581e+01    0.1717026   0.08793338 -70.19  0.000373868    1.652    0.395
       134  -9.4824    117.8010    103.2164   6.8457360979e+01   3.8811661666e+01    0.2108926    0.1803206  -5.13 0.0003594693    1.306    0.234
       135  -9.1418      9.2191    102.8225   1.0672441609e+02   5.4198957487e+01    0.1938031    0.1298606 -39.73 0.0008157269    1.346    0.257
       136 -11.8316     45.0219    100.8908   9.2621557808e+01   5.1608264951e+01    0.4687159    0.3932109 -32.86  0.002199482    1.086    0.079
       137 -11.1023     34.1969     97.9123   9.6116110850e+01   5.3480779034e+01    0.3872734    0.2296858 -52.27  0.001438622    1.452    0.311
       138  -9.0337    106.8430     97.8299   7.0163684159e+01   4.2247167293e+01    0.1994305    0.1820074  82.46  0.001017747    1.290    0.225
       139 -10.5112     70.4944     96.6207   8.1963716811e+01   4.9145948613e+01    0.3583813    0.3107785  70.43  0.001390479    1.489    0.328
       140 -10.8439     61.2987     97.0331   8.5464710840e+01   5.0432743059e+01    0.3331522    0.2727382  76.84  0.001646551    1.701    0.412
       141  -9.0824    115.5260     97.5126   6.7502772316e+01   4.0514959202e+01    0.2948668     0.227521  11.78 0.0008106395    1.576    0.365
       142 -10.5353    116.6518     93.6563   6.6071702326e+01   4.1082875820e+01    0.2653378    0.2506091 -72.72 0.0004371422    1.164    0.141
       143 -14.1692    244.7476    140.6602   5.1087917370e+01   6.0640422642e+00      1.72342    0.6962706 -41.50  0.007701454    2.002    0.500
       144 -10.7343     51.5229     95.2115   8.8695878893e+01   5.2182497608e+01    0.2551958    0.1971205  18.61 0.0009314909    1.346    0.257
       145  -9.8616     16.1327     95.0220   1.0262980525e+02   5.5675296976e+01     0.199892    0.1725803 -48.86 0.0004842449    1.048    0.046
       146 -11.5819    101.6563     97.9464   7.1795236815e+01   4.3263513346e+01    0.2709819    0.2531164  -0.50 0.0002277086    1.054    0.051
       147 -10.0630     29.9703     93.1329   9.6694495927e+01   5.5030871855e+01    0.2378412    0.1724662 -41.62  0.000319409    1.190    0.160
       148  -9.3356      5.0712     93.7504   1.0675886561e+02   5.6642129932e+01    0.1768635    0.1482107 -38.79  0.000459006    1.102    0.092
       149  -8.7248    112.2767     93.6317   6.7328945102e+01   4.2014644969e+01     0.154085    0.1235108 -80.69 0.0007007818    1.680    0.405
       150 -11.1706    126.4418     91.4079   6.2724463656e+01   3.9413413220e+01    0.2823848    0.2667399  35.90 0.0002690709    1.048    0.045
       151  -9.7984     96.8855     95.1598   7.2500411725e+01   4.4806663304e+01    0.2351564    0.2197915   9.26  0.001091958    1.041    0.040
       152  -9.3877     63.8157     90.8209   8.2796792795e+01   5.1495797359e+01     0.187915    0.1753538  72.26 0.0003987614    1.338    0.253
       153 -10.4795     56.7186     90.2092   8.5333186277e+01   5.2654586578e+01    0.3678111    0.2497234 -68.99  0.001693219    1.943    0.485
       154 -12.1083     34.8577     89.7936   9.3919328423e+01   5.5355442540e+01    0.3252024    0.2721376 -61.65 0.0003489995    1.257    0.204
       155 -10.7468     27.6778     85.0246   9.5700662674e+01   5.7147285827e+01    0.4263159    0.2045564  35.95  0.001298702    2.426    0.588
       156 -10.0571    139.0691     87.1080   5.8296107526e+01   3.7421299952e+01    0.2351127    0.2104626 -44.94 0.0002857367    1.127    0.113
       157  -9.5964    124.1726     84.8829   6.1434509017e+01   4.1194740428e+01    0.2745489    0.2097071 -15.05 0.0009366413    1.592    0.372
       158  -9.6988    120.8106     87.6028   6.3142947269e+01   4.1405944592e+01    0.3178846    0.2535137  74.21 0.0009534475    1.557    0.358
       159 -10.9194    115.9888     85.0076   6.3716718445e+01   4.2965274425e+01    0.2912417    0.2520475 -70.07  0.001489045    1.361    0.265
       160  -9.1633     13.0880     88.1762   1.0247424024e+02   5.7517100438e+01    0.1580298    0.1482216  80.42  0.001012333    1.309    0.236
       161 -10.3962    131.1259     85.9649   5.9938490247e+01   3.9433997476e+01    0.2382038    0.2122764  49.31 0.0003307075    1.106    0.096
       162 -10.2338    102.8077     85.1116   6.7639098236e+01   4.5726836359e+01    0.2996719    0.2205027 -42.33 0.0006228184    1.381    0.276
       163 -11.2594     76.5311     82.1721   7.5516015558e+01   5.1325696635e+01    0.5133818    0.4106902  12.86   0.00234168    1.271    0.213
       164 -10.5331     71.0217     82.1943   7.7537255185e+01   5.2252423557e+01    0.2407407    0.2039129 -41.05  0.001296181    1.184    0.156
       165 -11.0351     83.4551     74.7271   7.0699718179e+01   5.1581318290e+01    0.3568961    0.2830954 -22.50  0.000448918    1.278    0.217
       166  -9.5437     73.0286     77.0486   7.5179604092e+01   5.2982758997e+01    0.2208364    0.1985603 -14.27 0.0005311366    1.036    0.035
       167 -11.3231     76.9598     74.7087   7.2991296555e+01   5.2767712372e+01    0.3865856    0.3634569 -48.88 0.0004812572    1.230    0.187
       168 -11.1071     86.8585     86.9538   7.3370453855e+01   4.8468398129e+01    0.4191742    0.3533851 -62.56  0.001325247    1.414    0.293
       169  -9.2408     13.6784     83.5448   1.0124581737e+02   5.8567986097e+01    0.2453673    0.1252752   2.93  0.001157344    2.266    0.559
       170  -9.5143     54.0088     81.2288   8.3810052450e+01   5.5031204359e+01    0.2692274    0.1709473 -28.18 0.0009701959    1.621    0.383
       171  -8.4290    143.6671     81.6756   5.5685281258e+01   3.7379990703e+01    0.1523052     0.117749  14.79 0.0007050823    1.708    0.415
       172  -8.9166    109.2085     80.4266   6.4279616876e+01   4.5309255790e+01    0.2308355    0.1457856  43.84 0.0005003088    1.541    0.351
       173 -10.2980    104.7966     80.0032   6.5462296110e+01   4.6321865351e+01    0.2879754    0.2731199 -61.31  0.001584668    1.179    0.152
       174 -10.0537     91.9094     80.4579   6.9672832379e+01   4.8839510353e+01    0.2750621     0.210635 -30.10 0.0005794634    1.328    0.247
       175  -9.5034    121.3037     77.8221   6.0097424557e+01   4.3160051058e+01    0.3170265    0.2118774  65.41  0.001292567    1.841    0.457
       176  -8.9283      3.2755     78.2985   1.0456910062e+02   6.0372963348e+01    0.2114206    0.1364968 -44.60 0.0002943942    1.232    0.188
       177  -9.9428      4.5265     75.5220   1.0344379923e+02   6.0944771409e+01    0.2453344    0.1630356 -47.99  0.000957203    1.187    0.158
       178 -10.2218     60.4428     76.3497   7.9758994517e+01   5.5146995501e+01    0.3385929     0.226156   0.79 0.0008827834    1.786    0.440
       179 -10.8721     48.8229     75.2235   8.4109185158e+01   5.7016750954e+01    0.4115885    0.2936166  43.87  0.001735086    1.715    0.417
       180 -10.8102     45.8314     71.8542   8.4321106674e+01   5.8111226572e+01    0.2979843    0.2196311 -31.26 0.0003312176    1.226    0.184
       181 -10.0558    140.0098     72.7086   5.3966308298e+01   3.9805673751e+01    0.2139873    0.2070308  75.16 0.0005130157    1.016    0.016
       182 -11.2914    136.9673     69.5309   5.3737911117e+01   4.1048507536e+01    0.3596976    0.2707412 -42.64  0.000304242    1.375    0.273
       183 -10.7491    104.1635     73.3015   6.3547817552e+01   4.7716241829e+01    0.3839987    0.3137335  85.76  0.001268021    1.679    0.404
       184 -10.8539    101.9972     68.9955   6.2815731883e+01   4.8950301231e+01    0.4213617    0.2644214 -24.39  0.001877534    1.893    0.472
       185 -10.9693     17.3929     71.1352   9.6656997952e+01   6.1123918483e+01    0.4053057    0.2159971 -39.91  0.001517228    1.570    0.363
       186  -9.8862     57.0591     72.4463   7.9865028676e+01   5.6454147933e+01    0.2743351    0.1748013 -30.13 0.0006417686    1.562    0.360
       187  -8.7023     38.3146     72.3042   8.7682282019e+01   5.8915972078e+01    0.1445783   0.09130698 -22.23 0.0003990484    1.620    0.383
       188 -11.3089     30.7615     53.7821   8.5156465798e+01   6.3494651111e+01    0.4721678    0.3617546  80.93  0.002165851    2.743    0.635
       189 -10.2437     33.1815     71.9573   8.9822954133e+01   5.9544316778e+01    0.2332382    0.2035349 -28.11  0.000423844    1.067    0.063
       190 -10.8951     35.1431     66.9961   8.7459076640e+01   6.0384412891e+01    0.4686555    0.2111253 -53.56  0.001181089    2.189    0.543
       191 -11.1758     32.7815     62.2619   8.7034183980e+01   6.1609756869e+01    0.3930387    0.2481454  26.67  0.002109922    1.640    0.390
       192  -8.8032    128.9536     70.9704   5.6070637453e+01   4.2649409158e+01    0.1683211    0.1641538 -31.43 0.0003185541    1.068    0.064
       193  -9.6497     97.2091     69.9448   6.4597414776e+01   4.9777078110e+01    0.3016388    0.1681582 -38.94  0.001004636    1.853    0.460
       194  -9.6421     63.5360     69.6977   7.6391841835e+01   5.6015838647e+01    0.2546175    0.2423347 -64.02 0.0009563495    1.339    0.253
       195  -9.7858     89.7049     67.4010   6.6169505202e+01   5.1751089774e+01    0.4186667    0.2106094 -54.68  0.001451374    3.026    0.670
       196 -10.6811     90.2803     61.7285   6.4064196748e+01   5.2631196693e+01    0.4329378    0.3248284 -82.31    0.0013251    2.335    0.572
       197  -8.9959    154.6855     67.2872   4.9326045033e+01   3.7289963899e+01    0.1443226    0.1079106 -78.99 0.0002202775    1.585    0.369
       198 -11.7712    110.7892     65.4759   5.9126570875e+01   4.7666159075e+01     0.382464    0.3140098 -67.62  0.001986256    1.528    0.346
       199 -12.1969     70.7062     63.9269   7.1681386799e+01   5.5921407062e+01    0.3949477    0.3345875  34.29 0.0004210018    1.207    0.172
       200 -10.0247     77.3694     66.0879   6.9974963555e+01   5.4338630569e+01    0.2857664    0.2110908  43.45  0.000610348    1.404    0.288
       201  -9.9626     47.6434     66.5480   8.1851725492e+01   5.8962656835e+01    0.2915591    0.2207212   3.86  0.001394883    1.283    0.221
       202 -10.5379     42.6444     64.2709   8.3264775513e+01   6.0062055188e+01    0.3787782    0.2716661   7.67  0.001256923    1.374    0.272
       203  -9.8936      2.6317     66.8818   1.0236539430e+02   6.2968467964e+01    0.2970867    0.1990437  73.83  0.001555843    2.475    0.596
       204 -10.5300     59.5893     65.7157   7.6620293125e+01   5.7409323752e+01    0.4336758    0.2524644  15.90  0.001058278    2.030    0.507
       205  -9.1645     26.5060     65.9654   9.1057308372e+01   6.1474263745e+01    0.1937808   0.08108064 -35.47 0.0005083585    2.313    0.568
       206 -10.0674    194.4512     63.3460   4.1663582443e+01   2.8843678475e+01    0.3507377    0.2510442  -8.26   0.00119084    2.314    0.568
       207  -9.8730     83.1596     63.1989   6.6949388910e+01   5.3775645889e+01    0.2216781    0.1954972 -21.97 0.0003994142    1.137    0.120
       208 -11.0915    147.0980     61.6370   4.9265111176e+01   3.9958958061e+01    0.2434931    0.2109878 -65.58 0.0003623998    1.203    0.168
       209 -12.8514    150.7755     57.6546   4.7411442246e+01   3.9702747249e+01    0.3296044    0.3122749  22.41 0.0004415945    1.198    0.165
       210  -9.5523    116.0003     60.9683   5.6272023834e+01   4.7250522969e+01    0.2225549    0.2015566  55.52  0.001062808    1.090    0.083
       211 -10.0273    100.8613     59.8932   6.0153210239e+01   5.0743692893e+01    0.2339723    0.1872795  11.36  0.001229455    1.370    0.270
       212  -9.3508    219.1637     58.8399   3.7516357119e+01   2.4286493245e+01    0.1520725    0.1494717 -61.62 0.0003963647    1.307    0.235
       213 -11.7147     60.2896     57.2465   7.3375614472e+01   5.8870874041e+01    0.5809696    0.2719941  39.32  0.002540913    2.130    0.531
       214  -8.8277      4.4701     59.4568   9.9663697802e+01   6.4472503382e+01    0.1278348     0.097972 -35.14 0.0001192728    1.020    0.019
       215 -10.4522      8.9103     56.3271   9.6633811498e+01   6.4863214583e+01    0.4231006    0.2013547 -27.66 0.0008429952    1.982    0.495
       216 -10.0267    161.0062     56.4749   4.5202681936e+01   3.7479721875e+01    0.2516467    0.2298833 -59.73 0.0006977207    1.102    0.093
       217  -9.5834    162.3221     53.2840   4.4118929861e+01   3.7635808885e+01    0.2007061    0.1905847  51.62 0.0006183524    1.159    0.137
       218 -10.2523     95.2621     57.0140   6.0870640210e+01   5.2391480868e+01    0.3302286    0.2071566  40.52  0.001105182    1.489    0.328
       219 -11.6816     79.3972     55.3481   6.5498537754e+01   5.5834080539e+01    0.5615566      0.39978  18.12  0.001399201    1.480    0.324
       220 -11.1887     85.1433     48.6228   6.1122734537e+01   5.5771240458e+01     0.424778    0.3888693  -5.96  0.001304295    1.112    0.101
       221  -9.7561    246.0396     55.7428   3.4132208224e+01   1.9534047011e+01    0.1894931    0.1340928 -52.50 0.0002494526    1.146    0.127
       222 -10.1140    200.7400     54.8606   3.8854630403e+01   2.8724787375e+01    0.2411376     0.215835 -69.77 0.0008554928    1.074    0.069
       223 -10.6394    175.9853     55.3933   4.2450503104e+01   3.4168632886e+01    0.3959773    0.2517017 -63.54  0.001232018    1.726    0.421
       224  -9.1661     26.7567     56.0625   8.7837938804e+01   6.3466564888e+01     0.180301    0.1442235 -20.93 0.0005647109    1.024    0.023
       225  -9.3190    185.1568     54.8224   4.0945251370e+01   3.2168640786e+01    0.2029695    0.1575009 -66.51 0.0007498705    1.230    0.187
       226  -9.7411     44.8185     54.5233   7.8944925349e+01   6.1648950093e+01     0.222227    0.2106745  68.88 0.0008364968    1.549    0.354
       227 -10.7208    128.0946     53.4862   5.0949431669e+01   4.5632344695e+01    0.3523767    0.2433796  58.24  0.000883988    1.366    0.268
       228 -10.0407    126.7531     50.0058   5.0176634496e+01   4.6445926621e+01    0.2622253    0.1934355  55.12 0.0007353141    1.245    0.197
       229  -9.8179     35.0726     51.3695   8.2265424006e+01   6.3460665034e+01    0.2103555    0.1731447 -37.71 0.0003808443    1.267    0.211
       230  -9.8900     17.9922     48.8362   8.9744926404e+01   6.5677803112e+01    0.4002272    0.2852442 -28.03  0.001269871    1.145    0.126
       231 -10.6735     33.1625     44.7042   8.0712201662e+01   6.4886219742e+01    0.5782131    0.2658896 -26.09  0.002505999    2.554    0.608
       232  -9.9103     26.7631     47.6350   8.4929326452e+01   6.5072171855e+01    0.2614614     0.192788  26.43 0.0008686231    1.466    0.318
       233  -9.4384      1.6599     51.6847   9.8965391496e+01   6.6234000104e+01    0.2544167    0.1200627 -34.28  0.001005415    1.739    0.425
       234 -10.2525      5.4433     48.7906   9.6179209531e+01   6.6603138949e+01    0.4274953    0.1799709 -48.85  0.001472597    1.850    0.459
       235 -10.3803     63.7291     49.0040   6.8962403164e+01   5.9705976169e+01     0.301889    0.2628264 -82.37 0.0007864428    1.851    0.460
       236  -9.1132     60.4022     45.5356   6.8954347652e+01   6.0824993525e+01    0.1964685    0.1528563  17.54 0.0001436334    1.151    0.131
       237 -10.4000    211.8078     49.6767   3.6380392360e+01   2.7100452455e+01    0.2477832    0.1824533 -78.87 0.0007209193    1.260    0.206
       238 -10.0602    201.6764     50.1073   3.7659127139e+01   2.9192632781e+01     0.231613    0.1730273  67.13 0.0007527741    1.340    0.254
       239 -11.6305    137.1916     47.0930   4.7045788347e+01   4.4410781029e+01    0.3368762    0.2668099 -61.86 0.0006997071    1.404    0.288
       240  -9.1496     73.0743     50.3286   6.5925186248e+01   5.7832757242e+01    0.1894235    0.1575584  27.56 0.0002348302    1.097    0.089
       241  -9.3867     55.2780     49.8041   7.2686575420e+01   6.0957236793e+01    0.2454461    0.1596789 -17.73  0.001192419    1.631    0.387
       242 -10.0824    246.4066     47.9328   3.2613940634e+01   2.0537909506e+01    0.2247829     0.177103 -20.85  0.001464614    1.881    0.468
       243 -10.4795    121.7222     48.3701   5.0824655213e+01   4.7840178231e+01    0.2521179    0.2301465  78.14 0.0002733377    1.148    0.129
       244  -8.8936    111.4670     49.5133   5.3732767918e+01   5.0012623186e+01    0.1392349    0.1287412  47.70 8.188992e-05    1.038    0.036
       245  -9.6735     73.3424     45.6654   6.4080177866e+01   5.8507411176e+01    0.2447337    0.1599606 -29.28  0.000744125    1.591    0.372
       246 -10.0830     90.5256     44.0528   5.7756154720e+01   5.5335968953e+01    0.2876547    0.1842091  26.54 0.0009414259    1.699    0.411
       247 -10.2052     91.0536     40.0947   5.6156443815e+01   5.5769517677e+01    0.2469873    0.2035324   0.85            0    1.279    0.218
       248  -9.6086     80.4080     44.3815   6.1133761610e+01   5.7341174113e+01    0.2862417    0.1806801  21.89  0.001142166    1.781    0.439
       249  -8.6281     67.2974     45.2796   6.6166601359e+01   5.9671179042e+01    0.1358047   0.09468969   9.51 0.0001842553    1.538    0.350
       250 -11.7699    163.2097     42.3286   4.1056819463e+01   3.8926808357e+01    0.3211006    0.2440978 -89.61 0.0003290379    1.312    0.238
       251 -10.4135     54.3015     36.9406   6.8028732357e+01   6.3144550569e+01    0.2205037    0.1727322  17.25 0.0004987014    1.097    0.088
       252 -12.1541     57.1504     41.6531   6.8750771318e+01   6.1970311984e+01    0.4313246    0.2832374  18.77 0.0003999268    1.496    0.332
       253 -11.0609     62.7528     37.6226   6.4900451181e+01   6.1611882625e+01    0.3294377    0.2852198  -0.02 0.0006701887    1.092    0.084
       254  -9.8106     40.6234     43.9578   7.6890774788e+01   6.4072068238e+01    0.3389792    0.1701493  24.51  0.001633117    1.965    0.491
       255  -9.3957    141.0774     43.1981   4.5128567135e+01   4.4017454804e+01    0.1999123    0.1680153  48.58 0.0003520435    1.174    0.148
       256 -11.5237     17.9120     40.8824   8.6982095211e+01   6.7163867319e+01    0.3419755    0.2474411 -48.55 0.0009309337    1.502    0.334
       257  -8.5507    204.6757     41.3259   3.5348876388e+01   2.9731939931e+01    0.1354427    0.0808812 -68.32 0.0007048832    1.691    0.409
       258 -10.4484    108.7408     43.2756   5.2351280077e+01   5.1492657664e+01    0.3024479    0.2156998  62.51 0.0009519501    1.431    0.301
       259  -8.7476     97.5825     41.4487   5.4737908108e+01   5.4195627967e+01    0.1347109    0.1224455  38.41 0.0002330201    1.044    0.042
       260  -9.4827     28.3028     40.9812   8.1676460519e+01   6.6094230294e+01    0.2208578    0.1437577  -7.56 0.0008155624    1.471    0.320
       261  -9.6200    230.7604     39.5736   3.2377657815e+01   2.4613410937e+01    0.2089262    0.1394132 -47.08 0.0007054109    1.330    0.248
       262  -9.1637    135.3474     39.6465   4.5184660966e+01   4.5823877572e+01    0.2023749    0.1491008 -77.62 0.0004797242    1.630    0.387
       263 -10.6542     71.2979     37.4209   6.1630272494e+01   6.0081950100e+01    0.5929383    0.3012342  16.65  0.002171034    3.609    0.723
       264  -9.3008     44.0266     39.5656   7.3583824988e+01   6.4319546624e+01    0.1894398    0.1485133 -19.65 0.0005067144    1.177    0.150
       265 -11.1867    140.2279     37.8426   4.3717111105e+01   4.4900829103e+01    0.2320309    0.2163009  85.96 0.0002351423    1.067    0.062
       266  -9.5525     76.1156     38.8208   6.0483665419e+01   5.8967864846e+01    0.1843381    0.1760069  14.36  0.001172849    1.183    0.155
       267  -8.7300    148.6478     38.2513   4.2330577750e+01   4.2865323535e+01    0.1354975   0.09613909 -83.31 0.0005109059    1.596    0.373
       268 -10.4081    127.3530     37.1870   4.6047098831e+01   4.8004439748e+01     0.357776    0.1949948  55.05  0.001436761    1.609    0.379
       269 -10.6704     82.9405     35.9682   5.7127565218e+01   5.7992713733e+01    0.4711401    0.2610532 -52.96  0.002005401    3.055    0.673
       270 -10.3036     23.8453     50.8098   8.7486759238e+01   6.4768414526e+01    0.2466159    0.1757738 -15.84 0.0003249928    1.227    0.185
       271  -9.7159      2.5133     38.0467   9.4327213518e+01   6.8848549458e+01    0.2130669    0.1404378  -9.15  0.001344575    1.343    0.255
       272 -10.3239    192.9780     36.2759   3.5537037092e+01   3.2921158448e+01     0.389574    0.2288886  81.93  0.002068228    1.686    0.407
       273  -9.5476      7.4043     37.3478   9.1371597594e+01   6.8655024780e+01    0.2122879    0.1287972  11.95 0.0006722862    1.600    0.375
       274  -9.5612    241.0899     36.4636   3.0891574166e+01   2.3029241495e+01     0.158084    0.1015057  79.70 0.0004181153    1.527    0.345
       275  -8.8235    207.4446     36.5822   3.4014022063e+01   2.9753501585e+01    0.1239565    0.1013285 -75.89 8.754978e-05    1.014    0.014
       276  -9.4005    161.8749     35.9095   3.9560663108e+01   4.0050246662e+01    0.2513205    0.1844847  85.01 0.0007064203    1.317    0.241
       277  -8.8999     28.5291     36.4790   7.9779169259e+01   6.6828971031e+01    0.1287529   0.09963252  -8.18 2.354834e-05    1.043    0.041
       278 -10.9196    246.4538     32.5542   2.9740823981e+01   2.2521900432e+01    0.3408728    0.1642543 -50.51  0.001588484    1.641    0.390
       279 -10.4558    169.9137     33.7149   3.7834037461e+01   3.8451203262e+01    0.2363462    0.1978792 -40.45 0.0005345413    1.307    0.235
       280  -8.4693    152.6643     35.7136   4.0948527009e+01   4.2232591731e+01    0.1335607   0.09452929  40.01 0.0006820685    1.628    0.386
       281  -9.6519    115.1441     34.1923   4.7750187655e+01   5.1193773043e+01    0.3809833     0.112789 -38.78  0.001366213    3.639    0.725
       282 -10.4199    107.0463     34.8193   4.9897836228e+01   5.2955684759e+01     0.210526    0.1859926  45.59 0.0003191063    1.004    0.004
       283 -11.5975     40.3001     33.1840   7.2660079720e+01   6.5834537169e+01    0.3027757    0.2133575  22.99  0.001823772    1.266    0.210
       284 -11.1289     47.1804     27.9271   6.7266843783e+01   6.5556633257e+01    0.3723848    0.3124482 -38.86  0.002395914    1.555    0.357
       285  -9.6115     97.1297     33.2145   5.1918095404e+01   5.5344363312e+01    0.1922508    0.1554195  37.82 0.0002377451    1.101    0.092
       286  -9.5487      4.4137    245.9999   1.2110385988e+02   1.9654695027e+01    0.2600726    0.1337338  38.57  0.001534104    1.717    0.418
       287 -10.4257     29.7091    244.5156   1.1596360073e+02   1.7412357686e+01    0.2423372    0.1745933  64.24 0.0009517457    1.165    0.142
       288  -9.6991    166.3597    243.6982   8.5612539870e+01  -9.2343052488e-01    0.2475001    0.1412753  38.57 0.0008135044    1.728    0.421
       289  -9.2424     53.4623     32.4983   6.6534371412e+01   6.3917484075e+01    0.2624185    0.1130952  39.24  0.001196593    2.116    0.528
       290 -10.0606    124.0414     30.5251   4.4634272795e+01   4.9565816618e+01    0.2435939    0.2141535 -21.25 -2.777397e-05    1.305    0.233
       291 -10.3878    121.5433     25.7696   4.3625576253e+01   5.0671158188e+01    0.3535067    0.2540707 -61.11  0.001950158    1.705    0.413
       292  -9.1932    110.1891     29.6169   4.7361430126e+01   5.2856151887e+01    0.1767354    0.1676407  68.37   0.00112809    1.122    0.109
       293  -9.0696    159.6714    242.6834   8.6909235905e+01   2.1027935322e-01     0.138356   0.09341758  -4.26 0.0007045801    1.679    0.404
       294 -10.3039     42.5358    241.4588   1.1303988954e+02   1.6626027495e+01    0.3318103    0.2436797  51.67  0.001543474    1.160    0.138
       295 -10.7944     46.5162     19.4701   6.3768518462e+01   6.6742434785e+01    0.5505469    0.2466185  52.27  0.001429308    3.400    0.706
       296 -11.2691     34.7241     27.7232   7.2970251174e+01   6.7409254970e+01    0.4818748    0.2790796 -10.73  0.002502853    1.916    0.478
       297  -9.1575      4.8445    238.8445   1.2066549411e+02   2.1111202765e+01    0.1677372    0.1060727  62.41 0.0005062564    1.287    0.223
       298  -9.2181     52.0304    238.5324   1.1073168571e+02   1.6131520851e+01    0.1855661    0.1152757  33.06 0.0003970882    1.531    0.347
       299  -9.0879     98.7849    237.1761   9.9957676926e+01   1.0194553797e+01    0.1699503    0.1517097 -14.96 0.0003274039    1.292    0.226
       300  -9.4887    215.9245     29.0173   3.1587019545e+01   2.8918556995e+01    0.1862864    0.1480731 -72.79 0.0005758256    1.012    0.011
       301  -9.8411    179.8515     28.7549   3.5319915571e+01   3.6768079523e+01    0.2484062    0.1467276  67.21 0.0006906791    1.528    0.346
       302 -11.3770     80.2507     27.3082   5.4629686041e+01   5.9604347012e+01    0.5624478    0.2741993  41.06  0.002682961    1.802    0.445
       303 -10.0161     66.5410     25.8160   5.8632159417e+01   6.2467937663e+01    0.1806635    0.1233468 -25.18 0.0004140535    1.566    0.362
       304 -10.9639     15.9535     28.1150   8.3012146368e+01   6.9529283863e+01    0.5070506    0.2305094   6.98  0.002347061    2.679    0.627
       305 -11.9635    119.2310    230.9534   9.4354917166e+01   8.4853076989e+00    0.4214631     0.313429 -55.38 0.0004451655    1.492    0.330
       306  -8.7379    172.3112     28.6690   3.6240917727e+01   3.8496311966e+01    0.1352072   0.08570702 -69.92 0.0007042966    1.672    0.402
       307 -10.1093    154.8134     27.0739   3.8246066840e+01   4.2735859307e+01    0.2459401    0.1599763  15.52  0.001178421    2.635    0.621
       308 -10.2110    158.5656     22.8553   3.6577873378e+01   4.2321807536e+01    0.2324462    0.1775595  67.95 0.0003058939    1.156    0.135
       309 -11.1060     73.3536     25.6287   5.6191847298e+01   6.1179432841e+01    0.2886505    0.2337918  12.83    0.0011828    1.170    0.146
       310 -10.1805    207.0080     25.5238   3.1681327778e+01   3.1194115799e+01    0.2070613    0.1608507 -47.78 0.0003473549    1.289    0.224
       311  -9.6662    183.2975     25.2803   3.4084813297e+01   3.6392135564e+01    0.1941942    0.1502227 -40.36  0.000599521    1.394    0.283
       312 -10.1002    224.9840     23.2982   2.9657072675e+01   2.7763784436e+01    0.1975303    0.1754844 -59.68  0.000619986    1.272    0.214
       313  -9.0914    166.4992    234.5080   8.4125441771e+01   6.9903677351e-01    0.1374772    0.1151971   4.66 -4.887574e-05    1.045    0.043
       314 -10.5555    164.5072     22.1386   3.5595408412e+01   4.1021544558e+01    0.3367064    0.2577136  37.45  0.002016366    1.638    0.390
       315  -9.9506     99.1266     23.3053   4.7823242631e+01   5.6022596123e+01    0.3123022     0.189714  44.18  0.001659507    1.439    0.305
       316  -9.9250      1.5050     22.5051   8.9124636200e+01   7.1649719948e+01    0.2250924    0.1446221 -47.49 0.0009509229    1.606    0.377
       317  -9.4073      2.4919     19.4767   8.7240985523e+01   7.2070105410e+01    0.2134945    0.1187447 -25.75 0.0007114516    1.465    0.318
       318  -9.5134     26.0000    232.0137   1.1589042191e+02   2.0505936077e+01    0.1887323    0.1188651  64.68 0.0005407049    1.414    0.293
       319 -11.6479    140.5438    227.1245   8.8801079458e+01   6.0196082462e+00    0.2757507    0.2397108  21.14 0.0003027314    1.037    0.035
       320  -9.4615    248.8519     22.4896   2.7742459502e+01   2.3301565925e+01    0.1505011   0.09367528  83.14 0.0009994794    1.514    0.340
       321  -9.2824     92.7779     22.6357   4.9214705031e+01   5.7481963947e+01     0.186844    0.1132534  63.81 0.0009482969    1.713    0.416
       322  -9.0996      5.4047     16.1746   8.3964428108e+01   7.2351688562e+01    0.1558634     0.117529   2.82 0.0003442518    1.178    0.151
       323 -10.2147      7.7433     20.4891   8.4479464187e+01   7.1488712981e+01    0.3696928    0.1662899 -35.81  0.002021191    1.884    0.469
       324 -10.3939     19.4910    228.0281   1.1701519930e+02   2.2057053705e+01    0.2760063    0.1495814 -66.77  0.001044863    1.809    0.447
       325  -9.5387    142.8281     21.6201   3.8560702111e+01   4.6130302034e+01    0.1869406    0.1103124  77.14 0.0009472649    1.654    0.395
       326 -10.3415     23.5848    224.0068   1.1584929711e+02   2.2548853972e+01    0.2746083    0.2158135  10.48  4.02572e-05    1.692    0.409
       327  -9.4783      7.7972    225.1187   1.1931706225e+02   2.3825298036e+01    0.2550548    0.1055968  75.64  0.001145037    2.545    0.607
       328  -8.8533    160.9709    225.0634   8.3798917138e+01   3.2944980740e+00    0.1626022    0.1447841  -2.23 0.0004081498    1.044    0.042
       329  -9.5225    122.0124    224.9756   9.2828513201e+01   9.3161662335e+00    0.2167472    0.2026291  26.99 0.0007172418    1.031    0.030
       330 -10.9865    132.1199     29.4072   4.2705646957e+01   4.7804537466e+01    0.2602685    0.2301422 -13.82  0.001619674    1.334    0.250
       331  -9.3685     98.3889    225.2089   9.8517875836e+01   1.2823432542e+01    0.1788731    0.1340643 -77.83 0.0003704103    1.554    0.356
       332 -10.7734    107.9899    220.2001   9.5504344054e+01   1.2495613203e+01    0.4080914    0.2254326  45.18  0.000843971    1.778    0.438
       333 -10.7150     76.5315    219.7841   1.0311468079e+02   1.7163566703e+01    0.7656778    0.4291109  17.67  0.003333399    2.308    0.567
       334  -9.0207     69.0000     18.9675   5.4899646320e+01   6.2768210189e+01    0.1554482    0.1512322 -30.52 0.0005402644    1.350    0.259
       335  -9.9293     65.9029     18.6482   5.5828605861e+01   6.3398513344e+01     0.220455    0.1874447  12.44 0.0005014449    1.112    0.100
       336 -10.2189    179.4288     22.2103   3.3795559945e+01   3.7605753638e+01    0.2440865    0.2174752 -86.96 0.0007879863    1.095    0.087
       337 -11.1821     72.9255    213.8011   1.0327556621e+02   1.9052843897e+01    0.7951502    0.5829434  19.55  0.004169041    1.534    0.348
       338 -10.1561    193.5646     16.8719   3.1080802659e+01   3.5051868197e+01    0.2113854    0.1612197  84.82 0.0003383708    1.123    0.110
       339  -9.5586      2.9993    216.7322   1.1985014313e+02   2.6142464853e+01    0.1710173    0.1409579  65.95 0.0006005309    1.090    0.083
       340  -9.4088     99.7848    215.6185   9.6862374496e+01   1.4767299065e+01    0.1881634    0.1797384 -46.25 0.0006272869    1.119    0.107
       341  -9.0702     91.0570    214.5489   9.8876239706e+01   1.6310307504e+01    0.2247552    0.1299125  34.88  0.001031295    1.612    0.379
       342 -10.3017    148.9870    210.7702   8.4118221831e+01   8.0539241170e+00    0.2356023    0.2056644 -49.14 0.0003474673    1.258    0.205
       343  -9.3833    209.0167    210.0230   7.0919685495e+01  -1.0378580965e+00    0.2026874    0.1682099 -12.34  0.000360263    1.015    0.015
       344  -8.8380    132.5506     13.5343   3.7837629877e+01   4.9321624019e+01    0.1271791    0.1074351  67.74  4.26202e-05    1.008    0.008
       345  -9.0976    201.4460     12.5447   2.9421970753e+01   3.3816040823e+01    0.1187381   0.09392943 -79.73 5.307293e-05    1.006    0.006
       346  -9.3574      2.6961    210.0228   1.1952156544e+02   2.7711837601e+01    0.1723964    0.1320242  87.83 0.0003441122    1.091    0.083
       347  -8.9280    115.2871    207.3459   9.1751943732e+01   1.4256520359e+01      0.14924      0.11094 -19.43 0.0002791236    1.652    0.395
       348 -10.7498     90.1510    204.6353   9.7716778064e+01   1.8781724123e+01    0.4839731    0.3040973 -81.26  0.001598165    2.034    0.508
       349 -11.0251    118.5201    216.0383   9.2317330266e+01   1.1790689745e+01     0.482897    0.3265978 -65.43  0.002340346    1.746    0.427
       350  -9.6391     73.8765    205.0816   1.0194144156e+02   2.1010777612e+01    0.2755356    0.2025327  14.00   0.00138494    1.623    0.384
       351 -11.2507     11.4418    202.3311   1.1703898618e+02   2.8775260466e+01    0.2862556    0.2209964  70.27  0.001447518    1.130    0.115
       352 -10.2487    167.0394    198.0548   7.7606260310e+01   7.7498237785e+00    0.2176034    0.1941766  -5.72 0.0003176762    1.024    0.023
       353  -8.7017    135.5237    198.4792   8.5196697904e+01   1.2953302510e+01    0.1494413    0.1394568   3.14 -2.929418e-05    1.026    0.025
       354 -10.0340     57.7480    196.6022   1.0502650557e+02   2.5238505820e+01    0.2481223    0.2081369  66.38 0.0004038881    1.147    0.128
       355  -9.8396    103.4291    194.3869   9.2689643098e+01   1.9208971853e+01     0.283248    0.2178771  -4.12 0.0008342147    1.620    0.383
       356  -8.7542     93.5138    194.9894   9.5394930419e+01   2.0614968975e+01    0.2208099    0.1111465 -38.44 0.0008105203    2.604    0.616
       357  -8.6909    164.6646    189.3165   7.6467744732e+01   9.9922232568e+00    0.1438051    0.1206145  75.82   0.00070479    1.695    0.410
       358  -8.6546    132.5376    188.4413   8.4104397459e+01   1.5762912405e+01    0.1516309    0.1433608   0.85 0.0001254137    1.023    0.022
       359  -9.4311     63.0232    188.3160   1.0256709781e+02   2.6654076148e+01    0.1962564    0.1798372  40.76 0.0005823105    1.121    0.108
       360 -11.9224    249.2278    183.7851   5.8740343533e+01  -2.0071158557e+00    0.4834838    0.2231419 -44.39  0.002353722    1.966    0.491
       361  -9.1644      1.0000    184.4506   1.1824414365e+02   3.3974235430e+01    0.2707466   0.06168145 -76.97 0.0009061887    3.708    0.730
       362  -9.8259     28.4098    183.7958   1.1125540045e+02   3.1786853022e+01    0.2229199    0.2030797 -51.79 0.0003946437    1.220    0.180
       363  -9.5443     53.4700    183.5017   1.0451738475e+02   2.9100228668e+01    0.1419723    0.1320577 -83.25 0.0003002421    1.029    0.028
       364 -11.6990    235.7571    179.4322   6.0155003016e+01   5.7338262130e-01    0.3729207    0.2847405  68.08  0.002012285    2.403    0.584
       365  -8.7871     38.6767    180.2865   1.0814014638e+02   3.1631251502e+01    0.1453099   0.09557077  63.53  0.000292671    1.602    0.376
       366  -9.5799    110.7748    179.1345   8.8065820125e+01   2.1744168730e+01    0.2249464    0.2072903  83.48 0.0004586057    1.185    0.156
       367  -8.7221      9.4391    179.5538   1.1576601349e+02   3.4545979563e+01    0.1307183    0.1098508 -86.26  0.000108065    1.020    0.019
       368  -8.7156    138.4388    178.5777   8.0699163630e+01   1.7024856260e+01    0.1535576    0.1447215  -6.09 9.320564e-05    1.027    0.027
       369  -9.1349     24.1518    178.5681   1.1184819044e+02   3.3529204713e+01    0.1674433    0.1320482  -4.89 0.0005429707    1.652    0.395
       370  -9.6324    100.9688    176.0387   9.0176694356e+01   2.4159661304e+01    0.2183173    0.2119822 -28.40 -0.002661949    1.043    0.041
       371  -9.0205    104.4703    174.0083   8.8833851665e+01   2.4089514432e+01    0.2257707    0.1516462 -56.42 0.0003203292    1.490    0.329
