#   1 NUMBER                 Running object number                                     
#   2 MAG_AUTO               Kron-like elliptical aperture magnitude                    [mag]
#   3 X_IMAGE                Object position along x                                    [pixel]
#   4 Y_IMAGE                Object position along y                                    [pixel]
#   5 X_WORLD                Barycenter position along world x axis                     [deg]
#   6 Y_WORLD                Barycenter position along world y axis                     [deg]
#   7 A_WORLD                Profile RMS along major axis (world units)                 [deg]
#   8 B_WORLD                Profile RMS along minor axis (world units)                 [deg]
#   9 THETA_WORLD            Position angle (CCW/world-x)                               [deg]
#  10 FWHM_WORLD             FWHM assuming a gaussian core                              [deg]
#  11 ELONGATION             A_IMAGE/B_IMAGE                                           
#  12 ELLIPTICITY            1 - B_IMAGE/A_IMAGE                                       
         1 -11.7829    222.4206     34.6165   3.1909857183e+01   2.6922213763e+01    0.9313188    0.6739985  38.87  0.005565315    2.195    0.544
         2 -11.2135    240.5013     18.6077   2.7358367844e+01   2.5295064870e+01    0.6294799    0.4302658 -67.57  0.002948172    1.136    0.120
         3  -7.9355    161.0837     17.7045   3.4738086535e+01   4.2358804751e+01    0.1744233    0.1375106  73.03 0.0003522151    1.092    0.084
         4 -11.5808     23.3300    227.1625   1.1605504215e+02   2.2037733142e+01     1.307108    0.6061096  50.74  0.005367143    1.889    0.471
         5 -12.2462     39.8172    248.8794   1.1406281837e+02   1.5597048527e+01     2.899561    0.5145727  32.28   0.01007447    4.207    0.762
         6 -11.9649      4.2488    248.2299   1.2114428855e+02   1.9400386566e+01     1.111024    0.8215439   4.17  0.007246252    2.112    0.527
         7 -11.2633      1.7784    231.0154   1.2080541719e+02   2.3229304318e+01    0.2968938    0.1758799 -85.53 0.0008107045    1.488    0.328
         8 -12.4194      2.7203    222.5080   1.2017267049e+02   2.5008824728e+01    0.7868621    0.5634149  51.63  0.005180247    1.244    0.196
         9 -12.2944      3.5107    238.4473   1.2082458755e+02   2.1491143623e+01    0.5845022    0.3782835 -86.48  0.002308994    1.381    0.276
        10 -11.6663     13.3104    244.3868   1.1918484500e+02   1.9326290244e+01    0.5877891     0.254585  70.63  0.002104649    2.299    0.565
        11 -11.5872     11.8689    239.0884   1.1918721045e+02   2.0576238844e+01    0.6974609    0.2402295  48.12  0.001905077    2.309    0.567
        12 -11.6128      8.0444    232.2755   1.1959532268e+02   2.2392977894e+01    0.5657615    0.2734806 -87.90  0.002653484    1.913    0.477
        13 -11.2524     13.1665    230.7762   1.1845097687e+02   2.2238789013e+01    0.5390348    0.3225218  45.59  0.003183136    1.455    0.313
        14  -7.6569    249.6914    248.6610   6.9810730256e+01  -1.1763014643e+01    0.1226272   0.06738263  -9.98 0.0007043474    1.685    0.406
        15  -7.5769    178.4624    246.2354   8.3200185106e+01  -2.7946790718e+00     0.152541    0.1262687 -50.12 0.0006243904    1.599    0.375
        16  -9.3585     70.3288    246.3092   1.0728608682e+02   1.2421227991e+01    0.3637736    0.1866062  40.82   0.00146478    1.636    0.389
        17  -9.6270     72.4082    242.8263   1.0648442111e+02   1.2874069814e+01    0.5207368    0.2227623  22.29  0.002057605    3.040    0.671
        18  -9.2611    199.9554    241.2297   7.7944730959e+01  -4.8583681980e+00    0.2217542    0.1745555 -23.06 0.0002919725    1.219    0.180
        19  -8.2844     92.8240    241.2283   1.0167957799e+02   1.0441279620e+01    0.2073109    0.1892825 -33.66  0.000357043    1.276    0.216
        20  -7.9514    167.0267    240.8261   8.4805979098e+01  -2.6577278850e-01    0.1901222    0.1677447  33.59 0.0005252923    1.280    0.219
        21  -9.6234     56.6863    240.2949   1.0975248503e+02   1.5405441157e+01    0.3159307    0.2203329  61.02 0.0007934623    1.326    0.246
        22 -11.9066     10.9399    208.3606   1.1753647813e+02   2.7517065097e+01     1.363424    0.6392972  81.16  0.006465444    2.162    0.537
        23  -8.2025     37.4585    238.8653   1.1383456481e+02   1.7968522197e+01    0.1750441     0.112784 -80.04 0.0006331439    1.538    0.350
        24  -8.0822     63.7523    235.9285   1.0776310699e+02   1.5460071243e+01    0.3364429    0.1368293 -58.49  0.001479805    2.569    0.611
        25  -9.7206     49.8619    236.1212   1.1090386261e+02   1.7130019924e+01    0.3338785    0.2850609  59.63  0.002168743    1.010    0.010
        26  -8.2726    168.1489    236.1171   8.3814290520e+01   4.0986530154e-01    0.2010621    0.1569622  -1.17 0.0002995955    1.202    0.168
        27  -7.1910     74.6216    236.6918   1.0535717994e+02   1.3881397826e+01    0.1301315    0.1009233 -14.47 0.0007027168    1.785    0.440
        28  -9.4761     99.2595    234.4238   9.9370177269e+01   1.0947314120e+01    0.3414039    0.2001567  16.99  0.001555969    2.082    0.520
        29 -10.1014     35.5086    233.2479   1.1383737473e+02   1.9403498036e+01    0.4350587    0.2717856  38.58  0.001638813    1.455    0.313
        30  -9.0619     83.2626    232.2579   1.0286542771e+02   1.3667670179e+01    0.2560503    0.2035154 -28.04  0.001437642    1.595    0.373
        31  -7.4642     57.5050    233.5278   1.0895471574e+02   1.6767564769e+01    0.1304164    0.1122114  58.71 0.0001394079    1.006    0.006
        32  -7.5864    168.7704    231.5735   8.2941091002e+01   1.1415375458e+00    0.1805557    0.1164585  37.83 0.0008176566    1.549    0.355
        33  -9.6756    112.8270    230.9933   9.5723293517e+01   9.6791802226e+00    0.3343195    0.1820155  41.65  0.001556142    1.687    0.407
        34  -8.9952     90.5721    229.9208   1.0086410737e+02   1.3152513157e+01    0.2242404    0.1762807  22.62 0.0005196584    1.298    0.229
        35  -9.5279    136.2988    224.6316   8.9236667068e+01   7.4199780351e+00    0.3533674    0.2301802 -37.23 0.0006170408    1.678    0.404
        36  -9.3275     36.0354    226.9851   1.1323764400e+02   2.0735395889e+01    0.2504915    0.1860558 -51.07  0.001029219    1.611    0.379
        37  -9.2439     37.9212    223.5236   1.1253221088e+02   2.1309588416e+01    0.4990842    0.1484606  30.59  0.001949214    3.070    0.674
        38  -9.5419    111.2137    224.3666   9.5187590767e+01   1.1328450577e+01    0.3212399    0.1920707  26.86   0.00113579    1.628    0.386
        39  -8.6224     55.2108    225.3385   1.0870723404e+02   1.8875662666e+01    0.2084843    0.1731735  81.40 0.0006795876    1.148    0.129
        40  -8.2583     61.5421    222.9205   1.0697613485e+02   1.8634907023e+01    0.3324423    0.2052701  65.68  0.001659222    1.740    0.425
        41 -10.1191     30.6580    218.3661   1.1377322556e+02   2.3277142412e+01    0.3826108    0.3527859 -29.34  0.002530276    1.400    0.286
        42  -7.5828     35.8053    219.2054   1.1265926640e+02   2.2532029786e+01    0.1613304    0.1437445 -59.42 0.0004927188    1.289    0.224
        43  -7.6194     88.5108    218.4474   9.9921870625e+01   1.6000488048e+01    0.1389324    0.1281839  44.96 5.473382e-05    1.013    0.013
        44  -7.6443     55.9137    216.8807   1.0769956617e+02   2.0734798300e+01    0.1867347    0.1359195  58.56            0    1.293    0.227
        45 -10.4066     29.8347    211.0170   1.1337050351e+02   2.5079580862e+01    0.8517571    0.5193694   4.89  0.004131199    2.538    0.606
        46  -8.4929     47.4742    199.5624   1.0796881649e+02   2.5909654661e+01    0.4482175    0.2677771  -0.91  0.001449185    2.845    0.649
        47 -10.3528     17.6333    172.6183   1.1302687210e+02   3.5711648376e+01    0.5786287      0.34647  73.60  0.002888907    1.742    0.426
        48  -8.7322     23.1794    177.3549   1.1200271963e+02   3.4021368135e+01    0.2562032    0.1822569  79.69 0.0002655404    1.353    0.261
        49  -9.8152     27.4630    181.6375   1.1129174921e+02   3.2533879197e+01    0.4225099      0.29906   5.74  0.002147407    1.838    0.456
        50 -10.6350     22.0922    204.6470   1.1468273168e+02   2.7367517508e+01    0.3636619    0.3537231 -45.29 0.0007173307    1.271    0.213
        51 -12.3978     31.8347    195.5237   1.1151599933e+02   2.8620113757e+01     1.228528     1.163083 -33.33   0.00787359    1.272    0.214
        52  -7.3054     75.6829    212.6586   1.0236944361e+02   1.9146606513e+01    0.1404489    0.1063812 -26.62 0.0007048804    1.711    0.416
        53  -8.6032    159.3558    210.9325   8.1553386798e+01   6.5710060108e+00    0.2479808    0.1912378  19.22 0.0003489588    1.224    0.183
        54  -7.0127     95.5914    211.7173   9.7251800963e+01   1.6509460682e+01    0.1474907    0.1092233 -10.15 0.0003908788    1.797    0.444
        55  -8.4083     64.4561    208.4257   1.0467138648e+02   2.1654746324e+01    0.2363428    0.2165373 -11.22 0.0003860203    1.302    0.232
        56  -7.2667    118.4084    208.4729   9.1030361294e+01   1.3719928980e+01    0.1431516    0.1361173  23.00 0.0001063084    1.016    0.016
        57  -7.5550     95.7482    207.9870   9.6681161507e+01   1.7354823187e+01     0.172457    0.1237389 -60.57 0.0003550161    1.464    0.317
        58  -8.5478     46.8227    207.0335   1.0891121100e+02   2.4164328786e+01    0.3695428    0.2239674 -28.10  0.001369039    2.684    0.627
        59  -7.8302    158.7594    206.9632   8.0984702638e+01   7.4788783619e+00    0.1775377    0.1189459 -43.28 0.0003751682    1.519    0.342
        60  -7.6790     76.6966    204.8157   1.0111597794e+02   2.0875061463e+01    0.1948365    0.1279563 -76.21 0.0006486152    1.666    0.400
        61  -8.3011     79.0491    198.7818   9.9693066184e+01   2.2011624181e+01    0.3974599    0.2050882 -68.04  0.001183213    2.087    0.521
        62  -8.3069    113.6419    199.9418   9.0855830909e+01   1.6445683261e+01     0.298889    0.2044286  17.10  0.001171575    1.646    0.392
        63  -7.5378    109.1422    198.2110   9.1733837139e+01   1.7577674230e+01    0.1984928    0.1655899  59.09 0.0003078067    1.293    0.227
        64  -8.2284     88.4786    197.2736   9.6997571011e+01   2.1008273842e+01    0.3077126    0.1799333  15.72  0.001073542    2.229    0.551
        65  -8.1298     82.8378    197.2887   9.8486594680e+01   2.1834053911e+01    0.1965296    0.1788575  32.78 0.0003988284    1.100    0.091
        66  -8.0068     84.6132    211.4035   9.9971157812e+01   1.8188527203e+01    0.2622553    0.1796736 -22.79  0.001211224    2.079    0.519
        67  -8.1414     57.5154    193.3735   1.0465516646e+02   2.6236694862e+01    0.2732837    0.1330909 -67.36 0.0001051537    1.998    0.499
        68  -8.0817     71.7955    191.7355   1.0064018351e+02   2.4773614091e+01    0.1972117    0.1919976   4.90 0.0003843736    1.124    0.110
        69  -9.4066     20.5708    189.0053   1.1375768977e+02   3.1326191420e+01    0.2946246    0.1803998 -48.76 0.0006590381    1.814    0.449
        70  -8.4946     16.0814    188.9852   1.1488005679e+02   3.1731016434e+01    0.2047195    0.1363097 -47.88 0.0007667858    1.694    0.410
        71  -8.1126    120.9265    188.2375   8.6946202043e+01   1.7999230942e+01    0.2144386    0.1964191  49.37 0.0003329296    1.133    0.117
        72  -8.0490     64.8220    188.8293   1.0212024081e+02   2.6444532647e+01     0.204859    0.1903665 -49.38 0.0004314524    1.146    0.128
        73  -7.1632    137.3222    187.6649   8.2624321019e+01   1.5309005983e+01    0.1531762    0.1212288  72.12 0.0007050414    1.708    0.415
        74  -6.9969     80.6718    187.7291   9.7661329219e+01   2.4525864813e+01    0.1454767    0.1139449 -19.72 0.0002172865    1.582    0.368
        75  -8.0853    169.3575    184.2643   7.4214804810e+01   1.0447375282e+01    0.2280668    0.1836845  18.74 0.0003932069    1.236    0.191
        76  -8.4397     11.2153    183.4252   1.1564553503e+02   3.3518297994e+01    0.2344688    0.1702183  89.55 0.0008114358    1.199    0.166
        77  -9.5134      7.2343    180.9884   1.1645469470e+02   3.4437708664e+01    0.2797535    0.2312818 -27.46 0.0003132697    1.535    0.348
        78  -7.9268     80.8379    179.4067   9.6322949624e+01   2.6614624374e+01    0.2492663    0.1929602 -48.23 0.0001077882    1.316    0.240
        79  -9.8038     52.6255    178.4097   1.0407820721e+02   3.0651846412e+01    0.4628899    0.2809312 -32.94  0.001777764    2.196    0.545
        80  -8.7974     36.8233    178.9754   1.0849949604e+02   3.2278810288e+01    0.3642869     0.208525 -33.16  0.001005149    2.431    0.589
        81  -7.7297     78.2465    181.9954   9.7452590304e+01   2.6330824003e+01    0.2026251    0.1848995 -56.09 0.0002172044    1.103    0.094
        82  -7.5211    116.7851    177.9676   8.6147233887e+01   2.1183203973e+01    0.2004133    0.1246754 -52.66 0.0003714437    1.621    0.383
        83  -7.3291     86.5516    178.4483   9.4566416671e+01   2.6003961563e+01    0.1501502    0.1427641 -28.03 0.0001155738    1.105    0.095
        84  -8.3261     64.2632    176.9631   1.0061290516e+02   2.9559915559e+01    0.2364048    0.2003433  38.33 0.0007335523    1.198    0.165
        85  -7.0558     76.6845    176.2635   9.6990980443e+01   2.8026973831e+01    0.1511666    0.1097577  62.15 0.0001786642    1.544    0.352
        86  -7.2529     14.6646    175.2862   1.1406397272e+02   3.5279200208e+01    0.1381485   0.08597232  62.32 0.0002809184    1.627    0.385
        87  -8.4270      1.7706    174.3186   1.1732752778e+02   3.6495711559e+01    0.2332384    0.1377348 -82.41 0.0008224917    1.438    0.305
        88  -9.5423     59.2882    172.3725   1.0135939070e+02   3.1398468740e+01    0.3699965    0.2385314 -48.19 0.0008061517    1.582    0.368
        89  -9.1241    175.2680    172.3878   7.0443392615e+01   1.1920022586e+01    0.2953901    0.2537252   8.04 0.0006635961    1.169    0.144
        90  -9.8132     23.2344    170.7857   1.1132342107e+02   3.5698261171e+01    0.3348622    0.2326789  33.03   0.00104938    1.539    0.350
        91  -7.7215     43.1193    168.8438   1.0551065762e+02   3.4234597293e+01    0.1837707    0.1583021 -36.00 0.0002775234    1.286    0.222
        92  -8.6157     41.1627    165.7826   1.0567446830e+02   3.5248225446e+01    0.5589575    0.2394863 -33.62  0.001760444    4.303    0.768
        93 -10.1524     26.5438    163.8969   1.0964696881e+02   3.7184168979e+01    0.3886425     0.240699 -64.15 2.901497e-05    1.423    0.297
        94  -7.3724     88.6953    165.2962   9.1656347389e+01   2.9051660503e+01    0.1559458    0.1180993  68.31 0.0001684048    1.583    0.368
        95  -8.9303     70.4650    163.0916   9.6637136061e+01   3.2342567296e+01    0.2651616    0.2360057  41.28  0.000380796    1.152    0.132
        96  -7.7677     95.7081    163.3091   8.9245420086e+01   2.8433146737e+01    0.1563097    0.1210269  71.99 0.0002204627    1.583    0.368
        97  -7.5867     92.3114    163.6943   9.0305534887e+01   2.8887932003e+01    0.1581902    0.1196428  69.18 0.0002311629    1.616    0.381
        98  -8.9011     57.8444    159.1280   9.9768913503e+01   3.5064437316e+01    0.5224692    0.2879059 -35.50  0.002097433    2.290    0.563
        99  -8.9382     32.9941    162.7641   1.0765746237e+02   3.6873962387e+01    0.2423057    0.1789088 -66.01 0.0003429774    1.216    0.177
       100  -9.9018     13.3402    160.5354   1.1302524403e+02   3.9150498970e+01    0.4189323    0.2308434 -38.95 0.0009625221    2.135    0.532
       101  -9.0010    168.0058    158.1326   6.9046200288e+01   1.6337163601e+01    0.2360696    0.2076626 -36.88 0.0002834479    1.087    0.080
       102  -9.7739     78.4723    156.4997   9.3068346542e+01   3.2915188010e+01    0.6238182    0.4286332 -16.23  0.001751869    1.980    0.495
       103  -7.6316    122.3754    157.5194   8.0496952483e+01   2.5199201642e+01    0.1555956    0.1508651 -51.94 0.0002556448    1.060    0.056
       104  -9.1101     14.1424    150.9677   1.1179242141e+02   4.1561537243e+01    0.3773103    0.2791107  59.62  0.001897259    1.436    0.304
       105  -8.7664     21.9924    149.8453   1.0932158039e+02   4.1243822774e+01    0.5891659    0.2510623 -43.35  0.002373333    2.564    0.610
       106  -9.6683     23.1699    156.7625   1.0979760420e+02   3.9339256800e+01    0.4081852    0.2927382  14.92  0.001799957    1.649    0.394
       107  -8.6413     20.0702    153.9857   1.1038553980e+02   4.0320191051e+01     0.187457    0.1690619  84.35 0.0004979824    1.092    0.084
       108  -8.0962    117.0610    154.4133   8.1308350528e+01   2.6948435977e+01    0.2328835    0.2112967 -47.41 0.0004060843    1.094    0.086
       109  -7.5578      9.1542    155.3219   1.1369116231e+02   4.0794609218e+01     0.174043    0.1104203  36.96 0.0004605368    1.709    0.415
       110  -7.1323    128.4089    153.4812   7.7966775929e+01   2.5047728170e+01    0.1561946    0.1532851 -55.15 6.580697e-05    1.065    0.061
       111  -8.3829     50.8640    150.8116   1.0057699776e+02   3.8116250054e+01    0.2596332    0.2065797 -14.44 0.0006553554    1.481    0.325
       112 -10.5156     68.9428    145.0012   9.3857303667e+01   3.7322158172e+01    0.7769733    0.5265605  66.23  0.003135919    1.936    0.483
       113  -7.9952     97.5542    141.6497   8.4226516678e+01   3.3669154612e+01    0.3516439    0.1555723 -55.69   0.00122806    2.283    0.562
       114  -7.8761     93.6643    142.6695   8.5639367978e+01   3.4078761043e+01    0.1676732    0.1207382 -19.90 0.0007052119    1.731    0.422
       115  -8.8893     81.6782    141.6999   8.9163196124e+01   3.6289953517e+01    0.2759518    0.2558583 -78.68  0.000508862    1.134    0.118
       116  -7.3586     16.0285    142.0156   1.1018798608e+02   4.3747123962e+01    0.1685333    0.1365819 -70.46 0.0004371565    1.059    0.056
       117  -9.7537    242.2889    143.9358   5.1858288407e+01   5.9779512479e+00    0.3091363    0.2118229 -53.66  0.001725239    1.516    0.340
       118  -9.7884     28.7178    132.9904   1.0488523966e+02   4.5089490455e+01    0.3200964    0.2379322 -57.88 0.0008544648    1.174    0.149
       119  -9.1762      9.9241    132.6929   1.1096845244e+02   4.6574680850e+01    0.3056915    0.1882057 -78.72 0.0008105821    1.474    0.322
       120  -7.6643    107.0179    132.4528   7.9240022547e+01   3.4261236759e+01    0.2206146    0.1417427   7.06 0.0004404071    2.406    0.584
       121  -8.6369    250.5233    125.5737   4.7035355826e+01   7.8377770884e+00     0.245997   0.09382222 -48.73  0.001032307    2.432    0.589
       122  -8.8315     65.9345    124.9004   9.0732758694e+01   4.2980137543e+01    0.2235415    0.2099379 -53.73 0.0004270079    1.053    0.050
       123  -7.5436      1.4817    125.4886   1.1282709296e+02   4.8897558671e+01     0.132865    0.1092737 -66.43 -1.268615e-05    1.002    0.002
       124  -6.8957     21.7068    122.2831   1.0559814773e+02   4.8440157360e+01    0.1316093    0.1005712  68.12 0.0001842411    1.536    0.349
       125  -8.2189      6.0019    118.8295   1.1049485960e+02   5.0346842543e+01    0.2152904    0.1058154 -55.37 0.0008018148    1.633    0.388
       126  -9.1205    247.9177    116.8562   4.5664530338e+01   9.7281137737e+00    0.1944034    0.1640495 -22.36  0.001246277    1.313    0.238
       127  -8.5894     33.0867    115.6025   1.0042010362e+02   4.9198069398e+01    0.2532194    0.1784015 -52.70 0.0003225152    1.233    0.189
       128  -8.4283     14.6940    115.7612   1.0703703365e+02   5.0603711451e+01    0.2298323    0.1691806 -47.01 0.0003722031    1.202    0.168
       129  -8.0465     59.3096    110.6820   8.9822734748e+01   4.7480441542e+01    0.2683251    0.1768446 -66.82 0.0007131629    1.690    0.408
       130  -7.3615     71.9954    116.2672   8.6661335927e+01   4.4278609573e+01    0.1794249    0.1335233  28.15 0.0003252187    1.392    0.282
       131  -8.2723     13.2368    107.1742   1.0619779552e+02   5.2858637281e+01    0.1747252    0.1519247  78.68  0.001057279    1.323    0.244
       132  -8.1397     92.9875    105.0444   7.6636034649e+01   4.3441364926e+01    0.2276007    0.2101021  -7.88  0.001187485    1.062    0.058
       133  -9.7751     80.7408    102.0847   7.9969100037e+01   4.6296091851e+01    0.2521696    0.2321758  14.33 0.0002284897    1.078    0.073
       134  -8.8513     58.5772    102.3578   8.8055086729e+01   4.9615374883e+01    0.2398192    0.2255555  -9.67 0.0003119104    1.063    0.059
       135  -7.2916     16.5484     98.5064   1.0341683370e+02   5.4788139367e+01    0.1343463    0.1157065 -52.47 0.0001034805    1.050    0.047
       136  -7.5475    100.4889     97.4868   7.2086706842e+01   4.3708522383e+01    0.1539662    0.1476197  -0.19  0.000424188    1.009    0.009
       137  -8.0861     42.0545     92.2789   9.1904031869e+01   5.4047369198e+01    0.1917112    0.1687131  -6.48 0.0003621351    1.121    0.108
       138  -7.4632     52.4843     89.5098   8.7022220035e+01   5.3443662912e+01    0.1433173    0.1310558 -24.94 3.958806e-05    1.046    0.044
       139  -7.2423     41.3206     87.2623   9.0914914759e+01   5.5298279521e+01    0.1438789   0.09557349 -22.84 0.0003341699    1.552    0.356
       140  -7.1735     56.2200     84.3791   8.4097768504e+01   5.4102288662e+01    0.1498609   0.09578321 -29.30 0.0004444106    1.601    0.375
       141  -8.5205      5.5113     81.8286   1.0469335675e+02   5.9410128127e+01    0.2962976    0.1220568  32.09  0.001318641    2.894    0.654
       142  -8.0507     38.9826     77.6356   8.9274617324e+01   5.7727116147e+01    0.1850902    0.1589774  -1.66 0.0004230153    1.127    0.112
       143  -8.9322     18.4147     74.4485   9.7434539897e+01   6.0310286999e+01    0.3483744        0.233  57.77 0.0007689212    2.371    0.578
       144  -8.4366      6.4739     68.2462   1.0135386135e+02   6.2439102782e+01    0.2052437    0.1594364  -9.36 0.0006508994    1.277    0.217
       145  -7.2533    146.5779     55.5549   4.7547192448e+01   4.1104671418e+01    0.1387955    0.1292729  72.75 0.0001496316    1.009    0.009
       146  -7.7680    220.4409     49.4554   3.5171800138e+01   2.5381052232e+01    0.1240769    0.1030309 -69.29 9.433878e-05    1.012    0.012
       147  -7.5091     23.4516     49.0262   8.7567621629e+01   6.5179020724e+01    0.1780325    0.1084836 -43.17 0.0003132335    1.464    0.317
       148 -10.2828    210.9309     42.3590   3.4679925341e+01   2.8304778596e+01    0.3601961    0.2779179  47.97  0.002167132    1.663    0.399
       149  -7.8714    120.3683    249.1820   9.6392596609e+01   4.9483387480e+00    0.1634603    0.1278009 -76.79 0.0004240844    1.680    0.405
       150  -7.5065     14.2031     25.9154   8.3746182896e+01   7.0099685848e+01    0.1649411    0.1075213 -12.61  0.000401591    1.290    0.225
       151 -11.4457      2.5142    209.0976   1.1946617137e+02   2.8064918687e+01      1.07835    0.4142179 -86.98  0.004840027    2.458    0.593
       152  -7.4798     44.0305     22.5059   6.6685352716e+01   6.6887974561e+01    0.1791359      0.10636  34.72 0.0004751657    1.500    0.333
