#   1 NUMBER                 Running object number                                     
#   2 MAG_AUTO               Kron-like elliptical aperture magnitude                    [mag]
#   3 X_IMAGE                Object position along x                                    [pixel]
#   4 Y_IMAGE                Object position along y                                    [pixel]
#   5 X_WORLD                Barycenter position along world x axis                     [deg]
#   6 Y_WORLD                Barycenter position along world y axis                     [deg]
#   7 A_WORLD                Profile RMS along major axis (world units)                 [deg]
#   8 B_WORLD                Profile RMS along minor axis (world units)                 [deg]
#   9 THETA_WORLD            Position angle (CCW/world-x)                               [deg]
#  10 FWHM_WORLD             FWHM assuming a gaussian core                              [deg]
#  11 ELONGATION             A_IMAGE/B_IMAGE                                           
#  12 ELLIPTICITY            1 - B_IMAGE/A_IMAGE                                       
         1 -16.2243    247.0832    157.8295   5.9950317809e+01   2.1828157832e+00     15.00427     1.032443 -41.18    0.0282262   11.866    0.916
         2 -14.0748    249.1483     95.5729   4.7047680505e+01   1.2198096589e+01     4.689275     0.359208 -38.25  0.007945145   14.739    0.932
         3 -10.4504     44.1118     54.7636   8.5285158705e+01   6.1336216148e+01    0.4123923    0.1754496 -54.92  0.001704856    2.815    0.645
         4 -10.6593      4.8172     39.7770   9.8791682885e+01   6.7816472728e+01    0.4597964    0.1485766 -63.00  0.001829918    3.786    0.736
         5 -10.9263     54.1114     53.3591   8.0646728397e+01   6.0258248208e+01    0.3994432    0.1703414 -56.31  0.001435667    3.853    0.740
         6  -9.9941     40.8115     14.2367   7.0548009607e+01   6.8221810925e+01    0.1654146    0.1135086  11.03 0.0003215007    1.331    0.249
         7 -11.3980    163.6521    225.8375   8.8533843067e+01   3.5963322883e+00    0.4485251    0.2711571  31.17  0.001892043    1.503    0.335
         8 -10.8512    126.0535    220.7953   9.5987825332e+01   1.0574077184e+01    0.2104101    0.1975739 -85.20 0.0005590523    1.179    0.152
         9  -9.8437    204.5383    217.4949   7.8805346930e+01  -1.2936867042e+00    0.1293585    0.1107617   2.11 0.0001490376    1.014    0.014
        10 -10.5444     99.4793    225.5867   1.0258068212e+02   1.3721144662e+01    0.2405067    0.2220936  33.05  0.001053958    1.147    0.128
        11 -10.5155    185.7375    213.7121   8.1913002785e+01   2.2469867808e+00    0.2512964     0.178597 -48.52  0.001001914    1.609    0.378
        12 -11.3019    217.5718    209.5242   7.4909873123e+01  -1.9259104579e+00    0.3439825    0.1158614 -41.09  0.001387889    2.886    0.653
        13 -11.3355    165.1991    249.1964   9.1695860371e+01  -6.0157465223e-01    0.1696244    0.1392975  47.70  0.001080542    1.360    0.265
        14 -10.8798     96.6950    187.5807   9.8023789064e+01   2.2564893515e+01    0.3691731    0.1262374  37.69  0.001307162    2.703    0.630
        15 -10.1023     67.3456    195.6658   1.0641477915e+02   2.4988389923e+01    0.1501936   0.09188011  65.42 0.0007049479    1.767    0.434
        16 -10.4643     17.1992    185.1408   1.1741070614e+02   3.3206254148e+01    0.1793925    0.1501108 -69.82 0.0005129066    1.228    0.185
        17 -11.2132    224.5415    183.2438   6.8739764566e+01   1.4033256682e+00    0.2430302    0.1180201 -43.83  0.001013108    2.009    0.502
        18 -10.1234    203.6150    183.3145   7.2703244754e+01   4.7977682059e+00    0.2644606    0.1251864 -45.04  0.001133942    2.115    0.527
        19 -10.1528    173.6552    181.9755   7.8657721930e+01   1.0298481038e+01    0.3240713    0.1326874 -45.59  0.001227073    2.458    0.593
        20  -9.8568    211.4878    182.4801   7.1017140132e+01   3.6369369163e+00    0.1371693    0.1197554 -11.20 0.0008100546    1.029    0.029
        21  -9.5691    218.4667    175.9752   6.8434019158e+01   3.6463225136e+00    0.1801345    0.1142627 -60.32   0.00077095    2.429    0.588
        22 -10.4947     78.1118    176.4324   1.0110146131e+02   2.8089303619e+01    0.3547431   0.09647972  41.85  0.001138301    3.389    0.705
        23 -10.0089    182.7001    174.8372   7.5298742826e+01   1.0086975774e+01    0.2883579     0.120628 -38.41   0.00107368    2.496    0.599
        24  -9.8261    122.6251    170.3178   8.8479799292e+01   2.2214864558e+01     0.160842    0.1153188  70.76 0.0001650313    1.803    0.445
        25 -10.0751    205.9585    169.0155   6.9402866557e+01   7.0408184942e+00    0.2128465    0.1743107 -74.34  0.001125331    1.721    0.419
        26  -9.9711    176.6779    170.5033   7.5714745092e+01   1.2069411019e+01    0.2573023    0.1315605 -44.56  0.001065611    1.933    0.483
        27  -9.9797    192.2938    164.2011   7.1126909320e+01   1.0427275995e+01    0.2972215    0.1188181 -37.01  0.001070173    2.636    0.621
        28 -10.5473     80.3351    164.4746   9.8632828378e+01   3.0709865858e+01    0.3455321    0.2010883  76.19  0.001326676    2.652    0.623
        29 -11.1921    212.9830    162.2617   6.6691179538e+01   7.0614622674e+00    0.5069746     0.202684 -48.00  0.001926409    2.667    0.625
        30  -9.9794     70.3223    163.6601   1.0124239178e+02   3.2371114047e+01    0.1539685    0.1038086  70.27 0.0007050637    1.721    0.419
        31 -10.4788    205.5023    161.4755   6.7943971791e+01   8.5390666664e+00     0.296703    0.1303866 -42.15  0.001200883    2.131    0.531
        32 -10.0210    105.9966    158.4905   9.0576953162e+01   2.8001771448e+01    0.2273135    0.1181551  56.95 0.0008105572    2.590    0.614
        33 -10.1913    196.4311    156.7448   6.8727844554e+01   1.1116327570e+01    0.2797265    0.1324844 -47.16  0.001124651    2.111    0.526
        34  -9.8953    218.4221    155.7710   6.4357678384e+01   7.2968136379e+00    0.1984989    0.1206832 -31.40 0.0006027511    1.598    0.374
        35 -10.8401     50.1566    155.5137   1.0563086595e+02   3.7040814416e+01    0.3434596    0.1443426  60.88  0.001090754    4.130    0.758
        36 -10.6101     82.2793    155.0027   9.6473109993e+01   3.2777606073e+01    0.3282433    0.1608701  56.25    0.0011854    2.747    0.636
        37  -9.9200    204.5190    154.0713   6.6581633974e+01   1.0125097215e+01    0.2211642    0.1314087 -40.38  0.001024266    1.567    0.362
        38 -10.4626     68.2391    154.1117   1.0029329745e+02   3.5061809581e+01     0.296451    0.1683915  58.62  0.001244026    2.143    0.533
        39 -11.0513    189.5100    148.9439   6.8446708121e+01   1.3983323305e+01    0.4944313    0.2231987 -49.27  0.001467801    2.318    0.569
        40  -9.7062     99.3230    151.6621   9.1075810263e+01   3.0829835232e+01    0.1594855    0.1165263  75.05  0.000705086    1.717    0.418
        41 -10.2577    199.6142    147.1957   6.6055028286e+01   1.2372911544e+01    0.3614496     0.130896 -40.22  0.001280471    2.636    0.621
        42 -10.5503     40.2230    148.2541   1.0743318292e+02   3.9993283440e+01    0.2894044    0.1299153  50.40  0.001181654    2.560    0.609
        43 -10.0134     78.6509    147.3286   9.6118237647e+01   3.5257695336e+01    0.1581622    0.1102733  70.54 0.0007048913    1.762    0.432
        44 -11.4555     56.3745    145.8403   1.0236758895e+02   3.8726831360e+01    0.4863145    0.2673964  65.93  0.001952172    2.570    0.611
        45 -10.3484    149.4311    145.4627   7.6613911025e+01   2.2769751487e+01    0.3547332     0.243291  84.89  0.001380207    2.501    0.600
        46 -11.0662    107.5437    145.4100   8.7522680109e+01   3.0911930607e+01    0.4437077    0.2715715  74.87  0.001573867    2.952    0.661
        47 -10.5851    125.3150    143.4224   8.2274366126e+01   2.8046312149e+01    0.3573562    0.2367168  88.99  0.001337756    2.624    0.619
        48 -10.7588     88.6534    144.3356   9.2653131179e+01   3.4432592461e+01    0.2470915    0.1784746  73.25  0.001121178    1.730    0.422
        49 -10.8229    196.7863    142.9358   6.5676469109e+01   1.3751129294e+01    0.2662929    0.2141434  40.72 0.0007073187    1.319    0.242
        50 -10.1127    230.6088    142.1937   5.9438182813e+01   7.5989713348e+00    0.2915536    0.1189904 -38.06  0.001193213    2.204    0.546
        51  -9.9674    229.6847    138.3466   5.8787005668e+01   8.4447192855e+00    0.2694402    0.1159688 -44.51 0.0008497182    2.103    0.525
        52 -12.1009    159.9650    238.2669   9.1196430712e+01   1.9917902042e+00    0.2972772    0.1950377 -42.47  0.001518598    1.708    0.415
        53 -10.6250     23.5168    138.3233   1.1097073473e+02   4.4094589383e+01    0.3693503    0.1743179  73.11  0.001421215    3.200    0.687
        54 -10.3662    197.5136    136.0655   6.4013200146e+01   1.4950331212e+01    0.3826957    0.1353584 -42.76  0.001337214    2.641    0.621
        55  -9.8422    219.5881    136.2130   6.0027427675e+01   1.0666720750e+01     0.206359    0.1222927 -31.70 0.0009579117    1.689    0.408
        56 -10.2567     39.1894    136.2023   1.0598085570e+02   4.3141688386e+01    0.1948471    0.1525118  75.09 0.0008829154    1.357    0.263
        57 -11.9617    226.1938    206.7902   7.2825361676e+01  -2.7393587194e+00    0.2806859    0.1381579 -41.57  0.001380461    2.006    0.501
        58 -10.3521    113.0050    133.5114   8.3394361229e+01   3.2769316076e+01    0.2263711    0.1283117  60.53 0.0008103282    2.544    0.607
        59 -11.6793     84.0131    131.9840   9.1497234284e+01   3.8257338271e+01    0.4937524    0.3178982  68.66  0.001618996    2.229    0.551
        60 -10.3658    198.4790    203.4756   7.7515844490e+01   2.0198779327e+00    0.2686189    0.1264146 -42.59  0.001200373    2.135    0.532
        61 -10.6560    132.5147    132.0163   7.7774653222e+01   2.9265337248e+01    0.3199243    0.1958622  76.32  0.001040245    3.423    0.708
        62 -11.6802     99.5757    128.4422   8.6081023004e+01   3.6473906085e+01    0.5182679    0.3370741 -85.36  0.002004862    2.486    0.598
        63 -10.8312     73.9544    130.0157   9.4155966655e+01   4.0306650327e+01    0.2481123    0.1774116  71.71  0.001142294    1.782    0.439
        64 -10.7456    185.7389    203.4512   8.0104066082e+01   4.0877602376e+00    0.3095284    0.1759635 -46.12  0.001480146    1.863    0.463
        65 -10.0656     12.6809    129.3531   1.1307722285e+02   4.7167501339e+01    0.1352485   0.08638937  69.40 0.0007046973    1.747    0.427
        66 -11.1954    118.6712    125.8662   8.0026862551e+01   3.3474792250e+01    0.4745058    0.2880433  70.50  0.001658298    2.955    0.662
        67 -11.3445     60.0691    124.9557   9.7493998435e+01   4.3518376796e+01    0.5093817    0.2753142  69.30  0.001757799    3.601    0.722
        68 -11.5964     44.2357    123.0492   1.0222113704e+02   4.5904801194e+01    0.6784481    0.3619227  82.51  0.002470416    3.405    0.706
        69 -10.7377    164.2694    200.9763   8.4249076285e+01   8.1655192043e+00    0.4128896    0.1993952 -46.63  0.001768184    2.166    0.538
        70 -11.1287     28.9809    123.0691   1.0713317320e+02   4.7419510717e+01    0.5449232     0.254707  79.35  0.001781012    4.472    0.776
        71 -10.7213    142.0483    119.6463   7.2329202213e+01   3.0047489163e+01    0.4379945     0.252212 -65.32  0.001577584    2.604    0.616
        72 -10.8191     71.5402    120.5331   9.2911524514e+01   4.3015321144e+01    0.3335975    0.2148691  72.12   0.00137609    2.380    0.580
        73 -10.7878    131.2212    119.1234   7.4978545360e+01   3.2458270435e+01    0.3115806    0.2099265  71.38  0.001247678    2.159    0.537
        74 -10.4066    211.5280    201.0358   7.4518024217e+01   3.9248260812e-01    0.1966844    0.1209922 -38.89   0.00102523    1.577    0.366
        75 -11.6589    109.3804    114.7340   7.9914881795e+01   3.7884885573e+01    0.4339305     0.287118 -76.73  0.001718604    2.308    0.567
        76 -12.1785     79.5749    112.9034   8.8595068875e+01   4.3633419971e+01    0.6494709    0.4115334  85.85  0.002424932    2.988    0.665
        77 -12.0857     93.3209    113.0742   8.4306038754e+01   4.1267188036e+01    0.4690425    0.3394011  79.96  0.001645681    2.017    0.504
        78 -11.7738     67.0681    111.3291   9.2313446203e+01   4.5911743314e+01    0.3778234    0.2611717  78.28  0.001680274    2.141    0.533
        79 -10.4807     14.0112    110.0544   1.1003978320e+02   5.1795335835e+01    0.3386537    0.1633371 -85.07  0.001474614    2.455    0.593
        80 -10.1306    133.3351    109.6603   7.2004854987e+01   3.4095165215e+01     0.161835     0.124246 -89.14 0.0007051297    1.754    0.430
        81 -12.3595     46.0956    102.8534   9.7600422450e+01   5.0648930541e+01     0.761099    0.4234884  68.85  0.002777715    3.708    0.730
        82 -10.7276    140.0891    104.8945   6.9029317850e+01   3.3640950058e+01    0.3420452    0.2372335 -86.72  0.001366461    2.306    0.566
        83 -11.4273     22.7803    102.1386   1.0571893891e+02   5.3059918770e+01    0.6173295    0.3145972  71.80    0.0023085    3.877    0.742
        84 -10.5675    150.6342    103.7979   6.6183286861e+01   3.1523804620e+01    0.3423941    0.1849351 -63.47  0.001158653    2.998    0.666
        85 -11.0493    128.6836    102.3491   7.1288274099e+01   3.6665477930e+01    0.2477225    0.1911985 -89.73  0.001114592    1.742    0.426
        86 -12.8131    110.7307     99.9873   7.5641199018e+01   4.0929056216e+01    0.8384584    0.4682786  67.23  0.002693109    3.679    0.728
        87 -11.3953     82.3991    100.2034   8.4493414550e+01   4.6148495912e+01    0.3613811    0.2543779 -89.78  0.001543514    2.289    0.563
        88 -11.6898     95.4565     97.6206   7.9606859326e+01   4.4416599641e+01    0.3550533    0.2638584  64.41   0.00140031    1.716    0.417
        89 -12.4282     64.4705     96.4955   8.9617176421e+01   4.9792892008e+01    0.5653398    0.3726311  73.93  0.002360726    2.673    0.626
        90 -10.0620     89.0483    199.5399   1.0164042403e+02   2.0972206190e+01    0.2067373   0.09690598  54.20 0.0006027016    2.428    0.588
        91 -10.4469    138.7983     92.2078   6.5918187086e+01   3.6521319380e+01    0.2618812    0.1705056 -83.75 0.0009553971    2.828    0.646
        92 -11.9174    125.0775     91.4218   6.9233738639e+01   3.9719098006e+01    0.4410044    0.3057012  80.45  0.001816859    2.243    0.554
        93 -10.9929     34.8547     89.5243   9.8737898876e+01   5.4973180745e+01    0.4337578     0.196069 -73.39  0.001613816    3.266    0.694
        94 -12.3171    224.8855    192.6668   7.0467777927e+01  -2.4329827808e-01    0.4315212     0.236885 -54.81   0.00190014    2.818    0.645
        95 -12.6113     87.6597     87.6624   7.9303024667e+01   4.8011613284e+01    0.5527465    0.3462761  66.41  0.002158796    2.782    0.641
        96 -11.7852     49.1757     84.8891   9.2184134881e+01   5.4459397712e+01    0.5111468    0.3432705  76.04  0.002271737    2.682    0.627
        97 -10.7337    119.5967     80.8138   6.7647145232e+01   4.3013274279e+01    0.2176234    0.1391598 -53.03 0.0009498408    1.750    0.429
        98 -11.3920     74.7804     80.4933   8.1573203685e+01   5.1748613004e+01     0.340523    0.2049761 -66.70  0.001394092    2.547    0.607
        99 -10.7993     24.1935     80.0452   1.0070825813e+02   5.8090494697e+01    0.3785926     0.199889 -76.02  0.001691484    2.517    0.603
       100 -11.1078    128.2589     75.8712   6.3886588352e+01   4.2024777830e+01    0.3402752    0.2197759 -76.33   0.00130196    2.758    0.637
       101 -12.1098     82.9467     73.4475   7.6596709203e+01   5.1784177323e+01    0.4203407    0.3049866 -84.31   0.00181384    2.446    0.591
       102 -10.9389    106.3924     72.2019   6.8770495560e+01   4.7462425440e+01    0.2104155    0.1362662 -51.55 0.0006630266    1.737    0.424
       103 -11.2641     95.1449     71.4830   7.1975500012e+01   4.9874684587e+01    0.2994824    0.1942078 -58.55  0.001337936    1.998    0.499
       104 -12.2784    105.2195     83.7491   7.2639485154e+01   4.5459180648e+01    0.4947085    0.3510059  89.38  0.002065437    2.421    0.587
       105 -11.5995     51.2924     68.5920   8.6758464398e+01   5.7691533727e+01    0.5655403     0.258215 -61.86  0.002117798    3.318    0.699
       106 -12.4820     62.2765     73.4005   8.3982419039e+01   5.5174578270e+01    0.9442495    0.1538323 -46.94  0.002510571    5.306    0.812
       107 -10.6012    122.1732     66.7772   6.2701081304e+01   4.5017322566e+01    0.2465385     0.161801 -81.03 0.0009504116    2.831    0.647
       108 -10.7858    110.2696     63.9802   6.5047418455e+01   4.8120182387e+01    0.2979985    0.1902466  75.53   0.00118461    2.688    0.628
       109 -10.6962     37.0232     63.7645   9.1144891224e+01   6.0385042863e+01    0.2331191    0.1678612 -65.28  0.001290213    1.680    0.405
       110 -10.4914    100.6651     60.3495   6.6658425553e+01   5.0774267778e+01    0.1434175    0.1148999 -84.42 0.0007047275    1.780    0.438
       111 -11.3950     73.2659     59.1081   7.5292551249e+01   5.6198719426e+01    0.3792307    0.2386719 -53.32  0.001820672    1.934    0.483
       112 -10.1545    138.6693     66.3405   5.8524782231e+01   4.1311538091e+01    0.1528355    0.1136341 -78.19 0.0007051574    1.744    0.427
       113 -11.4248    154.5246    240.4594   9.2646667031e+01   2.4444924173e+00    0.2403255    0.1282812 -48.77  0.001207195    2.157    0.536
       114 -11.3602     63.0726     53.5393   7.7162880841e+01   5.8876836443e+01    0.5329427    0.1534329 -45.16  0.001851965    3.535    0.717
       115  -9.9861    172.7682    195.7384   8.1450387960e+01   7.7288925687e+00    0.1823998    0.1648921  61.84   0.00091521    1.325    0.246
       116 -10.8712     92.3911     50.4315   6.5813884782e+01   5.4102649697e+01     0.333592    0.1247148 -42.44  0.001251112    2.900    0.655
       117 -10.5126     81.6327     46.8033   6.8013054468e+01   5.6778066803e+01    0.1856531    0.1243866 -44.52 0.0007296801    1.673    0.402
       118 -10.2170     45.0000     44.0103   8.1111871152e+01   6.3173903418e+01    0.2071368   0.06721128 -45.18 0.0008074804    2.978    0.664
       119 -10.3375     16.6373     42.4755   9.3750484505e+01   6.6476295439e+01    0.3489538   0.08427187 -51.56  0.001374116    3.247    0.692
       120 -12.7654    229.0030    228.5062   7.6097596357e+01  -6.4316182114e+00    0.3698113    0.2902215  49.93  0.002315657    1.951    0.488
       121  -9.9026    215.4724    193.5118   7.2370624276e+01   1.0637879527e+00    0.2240158    0.1198244 -49.73  0.001024323    2.228    0.551
       122 -10.1193     45.2360     49.5538   8.3012835505e+01   6.2159914705e+01    0.1881397    0.1210804  26.30 0.0005153952    1.550    0.355
       123  -9.7667    209.4533    194.5117   7.3706027461e+01   1.8405892359e+00    0.1342914    0.1171252  -7.74 0.0001343501    1.006    0.006
       124 -13.4888    230.2140    186.1042   6.8270535635e+01   4.4002286257e-02    0.8578315    0.3289919 -41.04  0.003657226    2.398    0.583
       125 -10.6711     30.8037     50.0899   8.9576476912e+01   6.3739075619e+01    0.4599766    0.1686985 -58.07  0.001746998    3.630    0.725
       126 -10.8301     27.7611     29.3418   8.3422750090e+01   6.7717329386e+01    0.3599643    0.1182769 -32.70  0.001376486    3.656    0.726
       127  -9.8810    205.6964    190.5591   7.3688713973e+01   3.1433256706e+00    0.2374882    0.1157681 -41.44  0.001061867    1.984    0.496
       128 -10.0113    159.2832    231.6528   9.0354168210e+01   3.2473880595e+00    0.1246108    0.1007443  66.40 0.0003125487    1.646    0.393
       129 -10.7461     12.8639     28.3172   9.0684069247e+01   6.9318390285e+01    0.3597918   0.08004814 -53.66  0.001218136    5.176    0.807
       130  -9.6463    172.8301    191.2188   8.0600163347e+01   8.6034062078e+00    0.2335711    0.1623138  80.00 0.0009579597    2.893    0.654
