#   1 NUMBER                 Running object number                                     
#   2 MAG_AUTO               Kron-like elliptical aperture magnitude                    [mag]
#   3 X_IMAGE                Object position along x                                    [pixel]
#   4 Y_IMAGE                Object position along y                                    [pixel]
#   5 X_WORLD                Barycenter position along world x axis                     [deg]
#   6 Y_WORLD                Barycenter position along world y axis                     [deg]
#   7 A_WORLD                Profile RMS along major axis (world units)                 [deg]
#   8 B_WORLD                Profile RMS along minor axis (world units)                 [deg]
#   9 THETA_WORLD            Position angle (CCW/world-x)                               [deg]
#  10 FWHM_WORLD             FWHM assuming a gaussian core                              [deg]
#  11 ELONGATION             A_IMAGE/B_IMAGE                                           
#  12 ELLIPTICITY            1 - B_IMAGE/A_IMAGE                                       
         1 -13.9690      4.4485    176.1425   1.4825697730e+02   3.7798710222e+01      2.67251    0.3824595 -72.86  0.009945613    4.489    0.777
         2 -15.0837     10.0999    152.1361   1.4538506013e+02   4.2473771899e+01     10.28397     3.892883  68.44   0.04599784    3.081    0.675
         3 -13.5589    192.9324     28.6517   7.0416001771e+01   3.3702073878e+01      1.43615      1.34288 -49.10  0.006740008    1.089    0.082
         4 -13.7416    207.7133      9.1330   6.3216214621e+01   3.2129441031e+01     1.457017     1.038789  42.63  0.007767494    1.667    0.400
         5 -12.4728      3.1362      8.3319   1.1975675249e+02   7.3433800370e+01     1.047135    0.2051006 -48.97  0.004446945    3.397    0.706
         6 -11.0933    197.7839    243.9752   1.1870019199e+02  -2.0757536010e+00    0.2539075     0.188633 -61.95   0.00162833    2.208    0.547
         7 -11.0750    248.7666    249.0252   1.1102046782e+02  -1.0168583586e+01    0.3616065    0.1946412  27.62  0.002322228    1.485    0.327
         8 -11.2375    139.0550    250.2041   1.2967811081e+02   6.3642273647e+00    0.2814256     0.179487  49.03  0.001823007    1.218    0.179
         9  -9.8172    121.6582    250.1839   1.3269045371e+02   9.0391435138e+00    0.1681331    0.1145891  54.47 0.0009163644    1.151    0.131
        10 -10.4674    110.9005    250.5244   1.3457699987e+02   1.0599764533e+01    0.3134373   0.08830371  42.15  0.001377171    2.790    0.642
        11 -11.5909     99.9748    248.7545   1.3628802742e+02   1.2477841198e+01    0.3375031    0.2793504  37.01    0.0024958    1.461    0.316
        12  -9.8330     29.4184    249.8900   1.4794348162e+02   2.1364423039e+01    0.2436393    0.1029069  60.10  0.001550376    1.725    0.420
        13 -10.9881     34.5224    245.0530   1.4689374421e+02   2.1605695761e+01    0.4025983    0.2431013 -72.24  0.002479109    1.785    0.440
        14 -10.0720      3.1652    249.1854   1.5188248072e+02   2.4214558500e+01    0.2380774    0.1672983  30.88  0.001869087    2.207    0.547
        15  -8.8593     22.8648    245.6588   1.4875717407e+02   2.2790375105e+01    0.1463767   0.06201332  50.95 0.0009416501    1.702    0.412
        16  -9.6568    180.6667    244.3267   1.2170601312e+02   5.8788136759e-01    0.1136393   0.08242799  62.54 0.0006099312    1.715    0.417
        17  -9.6342      5.6867    241.1142   1.5120509900e+02   2.5326676185e+01    0.1586503    0.1139152  56.72 0.0004094838    1.314    0.239
        18  -9.4402     12.5444    240.4691   1.5012561803e+02   2.4753844305e+01     0.189457    0.0817579  40.16    0.0011166    2.174    0.540
        19  -9.0168     70.6767    239.3101   1.4052981825e+02   1.8128055354e+01    0.1195247    0.0631239  65.28   0.00070377    1.652    0.395
        20  -9.8127    183.2354    238.6019   1.2047799830e+02   9.2954699525e-01    0.1688967   0.09189997  34.86 0.0005586774    1.579    0.367
        21  -9.3863    233.6888    237.3102   1.1166142310e+02  -6.7993317152e+00   0.09875876   0.08650751  51.39 0.0002757323    1.625    0.385
        22 -12.4157     56.4821    225.9734   1.4198724726e+02   2.2342682419e+01     1.754725     1.201435 -51.74  0.009094852    2.196    0.545
        23 -13.2912      9.8862    206.6212   1.4896749006e+02   3.1191643164e+01     5.119502          nan  39.10  0.008231338   12.035    0.917
        24 -10.5703    126.7545    250.0073   1.3179058011e+02   8.2898816292e+00    0.2261676    0.1124309  51.82  0.001149618    1.639    0.390
        25  -9.9302      7.5253    226.0033   1.5029235085e+02   2.7802083125e+01     0.153783    0.1203349  39.68 0.0007053958    1.704    0.413
        26  -8.8405     94.6015    216.8315   1.3414142173e+02   1.8754639430e+01    0.1590696    0.1027541 -88.58  0.000471661    1.668    0.400
        27  -9.8581     81.9833    248.9985   1.3936540588e+02   1.4977032010e+01    0.1909189   0.09838155  64.21  0.001139279    1.747    0.428
        28  -8.9315    152.5213    212.9712   1.2249308733e+02   9.9461533634e+00    0.1594557    0.1282032 -53.90   0.00032864    1.456    0.313
        29 -11.6633     63.7191    199.0707   1.3833585174e+02   2.6592518058e+01    0.2864935     0.222427 -54.12  0.000694376    1.683    0.406
        30 -10.5609      9.2556    195.4155   1.4847453705e+02   3.3446277144e+01    0.4094163   0.08224426  41.90  0.001916157    3.415    0.707
        31 -11.4037     20.9953    200.4591   1.4662307395e+02   3.1303824520e+01    0.2511814    0.1569741  57.23 0.0004202026    1.329    0.247
        32 -11.6196     17.5118    198.4399   1.4713822503e+02   3.2054100644e+01    0.2216022    0.1548643  66.56 0.0005040005    1.135    0.119
        33  -9.8273    191.8086    192.7522   1.1164194151e+02   6.1729496546e+00    0.4140475    0.2448023 -67.30  0.001594419    3.949    0.747
        34 -11.9157     69.5749    190.9561   1.3632566569e+02   2.7467667914e+01    0.2553859    0.2282852 -73.38  0.000524756    1.317    0.241
        35 -10.9626     79.2882    178.1474   1.3276681430e+02   2.8805562063e+01     0.230957    0.2006318 -85.59 0.0003550452    1.125    0.112
        36 -13.3232     66.2639    176.1040   1.3535877610e+02   3.1078424661e+01    0.4683664    0.2693788 -48.20   0.00183639    2.276    0.561
        37  -8.7835    101.5690    178.3956   1.2792334962e+02   2.5297894543e+01    0.1358947    0.1125692  71.66 0.0002905316    1.078    0.072
        38 -11.9803     87.0836    168.3855   1.2970857506e+02   2.9766047345e+01    0.6611561    0.5925772  37.59  0.004108089    1.337    0.252
        39  -8.9393    250.6886    171.6826   9.7094519258e+01  -1.3057729934e+00    0.1333031   0.08908951   6.55 0.0002645105    1.641    0.391
        40 -12.7597     37.9250    233.6043   1.4569115528e+02   2.3207273747e+01      0.27072    0.2138381 -85.12 0.0007595141    1.369    0.270
        41  -9.8518    187.9638    151.2786   1.0417031510e+02   1.4106274110e+01    0.4658437    0.2964002 -77.60  0.001672166    3.495    0.714
        42 -10.0640     98.8789    152.5276   1.2443435229e+02   3.1416628720e+01     0.282986    0.2479764  63.12 0.0007911175    1.100    0.091
        43  -9.1277    101.8554    148.1702   1.2293948323e+02   3.1898850904e+01    0.2417366    0.1717946 -34.97  0.000904135    1.883    0.469
        44 -12.1849     87.5210    151.8294   1.2706020135e+02   3.3416952641e+01    0.2728012    0.2527987 -50.52 0.0006677225    1.274    0.215
        45 -12.7065     67.0338    143.8914   1.3084654870e+02   3.8248454313e+01    0.7851244    0.4954123  73.45   0.00380682    1.773    0.436
        46  -8.7251    182.2342    145.4426   1.0404607504e+02   1.6415071476e+01    0.1942415    0.1407193  59.20 0.0004315028    1.515    0.340
        47  -8.7197    192.0060    144.0301   1.0175179609e+02   1.4581045521e+01      0.17177    0.1647155 -17.28 0.0003869218    1.039    0.038
        48  -9.7199    109.8768    137.6653   1.1893529827e+02   3.2869189874e+01    0.4094058    0.2503927 -29.93  0.001606716    2.668    0.625
        49 -10.5838     97.3943    134.7779   1.2151705336e+02   3.5730542110e+01    0.2561966    0.2306331 -31.34 0.0004362288    1.340    0.254
        50  -9.9325     93.2614    133.1678   1.2226534515e+02   3.6797746520e+01    0.2916549    0.2100586  71.61 0.0007416662    1.558    0.358
        51 -10.2534     83.4072    134.4198   1.2506182379e+02   3.8084906176e+01    0.2696718    0.2059906  75.09 0.0005618762    1.371    0.271
        52 -14.2413     43.6597    225.5833   1.4420727058e+02   2.3986144116e+01     2.158841     1.176665  37.18  0.004311617    1.999    0.500
        53 -12.4104     33.9239    131.6763   1.3754098329e+02   4.4977116073e+01    0.6948896    0.2900936 -84.43  0.002873341    2.831    0.647
        54  -8.7199    160.2868    125.5836   1.0412370163e+02   2.5167526824e+01    0.1627249    0.1193643 -77.36  0.000261819    1.831    0.454
        55  -9.2948    107.0805    124.0292   1.1674728729e+02   3.6495096803e+01    0.2055721     0.194793 -73.07 0.0003021214    1.038    0.037
        56 -10.4480     53.5879    119.3251   1.3038896275e+02   4.5734754104e+01     0.269488    0.1166347 -68.77  0.001146069    2.183    0.542
        57 -10.3591    151.8365    229.3175   1.2487691667e+02   7.4351713712e+00    0.2645326   0.08720528  47.53  0.001097469    2.615    0.618
        58 -10.4003    167.8478    113.0279   9.9289419139e+01   2.5987260937e+01    0.3304799    0.2828927 -81.54 0.0007514509    1.334    0.251
        59  -9.5766    203.7403    111.2189   9.1601695942e+01   1.7950011330e+01    0.3700485    0.1862749  31.72  0.001250583    3.144    0.682
        60 -10.7361    173.8397    222.4247   1.1986018191e+02   4.7727120347e+00    0.3560389    0.2709139  74.19  0.002123128    1.791    0.442
        61 -10.6622    240.9916     91.0013   8.0445167541e+01   1.2888563217e+01    0.2288813     0.173214  10.99  0.001143831    1.717    0.418
        62  -8.8933     72.7861     85.8737   1.1731622015e+02   5.0930669568e+01    0.1787769    0.1554393  87.79 0.0003314721    1.313    0.239
        63  -8.5057     67.2300     82.6800   1.1824655606e+02   5.2442813657e+01     0.129829     0.100377 -78.10 0.0001965538    1.504    0.335
        64  -9.2208    156.6563     75.6968   9.1239807182e+01   3.5873934587e+01     0.160352    0.1219345  19.05 0.0007007705    1.683    0.406
        65 -10.5422     12.2779     64.7316   1.3313824945e+02   6.1952758647e+01    0.1754584     0.144925  21.16 0.0008536691    1.527    0.345
        66 -11.2613      2.0688     61.8572   1.3636140525e+02   6.3144870014e+01    0.4675267    0.1075186 -68.14  0.001807897    3.459    0.711
        67 -10.2562     27.1932     60.3396   1.2643571073e+02   6.1796906932e+01    0.2609025    0.1910788  46.49  0.000692558    1.761    0.432
        68 -10.9192     22.6132     58.4137   1.2770307242e+02   6.2575085943e+01    0.3684174    0.1889552  39.34  0.001978712    2.484    0.597
        69  -9.5219     32.8834     62.1910   1.2476107135e+02   6.0901223320e+01    0.2793183    0.1920225  50.81  0.001629931    1.945    0.486
        70 -10.3867      2.7803     46.8007   1.3279154174e+02   6.6261286507e+01    0.1448022    0.1217838 -80.01  0.000881926    1.335    0.251
        71 -10.8648    237.8934    247.8801   1.1258506738e+02  -8.5346526636e+00    0.1781134    0.1464942 -11.96  0.001377785    1.353    0.261
        72 -10.3624    151.9991    248.4958   1.2723103807e+02   4.5803771733e+00    0.1831176   0.09130304  42.40 0.0005105405    1.563    0.360
