#   1 NUMBER                 Running object number                                     
#   2 MAG_AUTO               Kron-like elliptical aperture magnitude                    [mag]
#   3 X_IMAGE                Object position along x                                    [pixel]
#   4 Y_IMAGE                Object position along y                                    [pixel]
#   5 X_WORLD                Barycenter position along world x axis                     [deg]
#   6 Y_WORLD                Barycenter position along world y axis                     [deg]
#   7 A_WORLD                Profile RMS along major axis (world units)                 [deg]
#   8 B_WORLD                Profile RMS along minor axis (world units)                 [deg]
#   9 THETA_WORLD            Position angle (CCW/world-x)                               [deg]
#  10 FWHM_WORLD             FWHM assuming a gaussian core                              [deg]
#  11 ELONGATION             A_IMAGE/B_IMAGE                                           
#  12 ELLIPTICITY            1 - B_IMAGE/A_IMAGE                                       
         1 -10.0669    212.1908     15.3508   1.0048901140e+01   3.1776909260e+01    0.5013016    0.3769764  76.41  0.003439412    1.539    0.350
         2  -8.5745     98.0258      2.3433   1.5681864975e+01   6.0105977906e+01    0.2347597    0.1809367 -47.65 0.0003728647    1.303    0.233
         3  -6.7133    123.6896      1.3239   1.2163830088e+01   5.3526156603e+01    0.1466565   0.08214924 -60.60 0.0002944041    1.654    0.395
         4  -9.6586    124.8915    243.8744   7.0500527260e+01   8.4013484950e+00    0.3859389    0.1642093 -53.58  0.001804382    2.817    0.645
         5  -9.3435     99.5488    250.2012   7.6526937394e+01   1.0121668702e+01      0.32731    0.1787446  15.80  0.001828931    1.703    0.413
         6  -9.0012    100.5159    244.8606   7.5820322775e+01   1.0903957019e+01    0.2858878    0.1525177  40.35  0.001602008    1.690    0.408
         7  -8.0703     75.4004    250.0769   8.1817303720e+01   1.2693113781e+01    0.1725219    0.1697245 -35.44  0.001327297    1.285    0.222
         8  -8.7761     76.0243    245.4540   8.1323495712e+01   1.3438009021e+01    0.2045147     0.200036  35.39 0.0004826079    1.233    0.189
         9 -17.2174     22.8766    233.9940   9.3023305753e+01   2.0892939385e+01     2.394546      1.91842  28.01  0.007269225    1.175    0.149
        10  -6.9277    209.2608    239.6450   5.4299442787e+01   4.2081290475e-01   0.08446017   0.07673523 -11.36 0.0006976112    1.618    0.382
        11  -7.8007    249.5282    231.5104   4.7195182039e+01  -2.0713365028e+00   0.09868223   0.06532189 -11.65 0.0001934283    1.024    0.024
        12 -12.8546     12.3968    206.5926   9.4600618331e+01   2.7669991770e+01     1.254547    0.5739642  11.44  0.005561245    2.560    0.609
        13  -9.0583    120.7530    227.5815   6.9538581969e+01   1.1560335192e+01    0.1826801   0.09482346  34.86 0.0009604754    1.676    0.403
        14  -8.9078    126.1909    237.1981   6.9483210870e+01   9.3258265006e+00    0.1787038    0.1729458   0.57 0.0007382245    1.273    0.214
        15  -8.7444    114.4810    212.4837   6.9108354775e+01   1.5049078075e+01     0.129198    0.1107387  12.77 1.536899e-05    1.054    0.051
        16  -8.0037    121.5305    211.5404   6.7370492604e+01   1.4335586470e+01    0.1275466    0.1102653  19.32 0.0001155733    1.027    0.026
        17  -8.3014     75.7491    209.5818   7.8213028790e+01   2.0431788561e+01    0.2732257     0.165455 -74.84  0.001395124    2.001    0.500
        18  -8.8411    127.4800    207.3776   6.5466798872e+01   1.4346215098e+01    0.2601551    0.1655996 -29.13  0.001284842    1.779    0.438
        19  -9.4714    124.4425    233.4840   6.9428723790e+01   1.0133381029e+01    0.1881468    0.1578231  38.24 0.0007920935    1.287    0.223
        20  -9.8878    114.9137    200.2077   6.7391217524e+01   1.7366451031e+01     0.276098    0.2287958 -60.02 0.0003420751    1.397    0.284
        21  -8.8604    121.2321    198.4923   6.5659518390e+01   1.6857468626e+01     0.250634    0.1941634   5.43 0.0006491248    1.309    0.236
        22  -7.9626     84.7956    245.1983   7.9331310566e+01   1.2548155453e+01     0.212198    0.1575097 -47.36  0.001392867    1.643    0.392
        23  -7.0891    127.4800    195.4912   6.3772725026e+01   1.6594451078e+01    0.1324223    0.1166374   5.90 0.0008097867    1.050    0.047
        24  -8.1997     57.7061    192.9627   8.1373361472e+01   2.6281092449e+01    0.1879731    0.1707625  64.00 0.0004717357    1.094    0.086
        25  -8.1339      3.5959    190.9854   9.6452828277e+01   3.2025875305e+01     0.289471     0.149427  36.06  0.001454614    1.573    0.364
        26  -7.7113    118.3893    190.2535   6.5138074638e+01   1.8890863594e+01    0.1754472    0.1323308 -67.61 0.0005519656    1.625    0.385
        27  -9.4953     62.0192    188.6492   7.9739777274e+01   2.6780444432e+01    0.3678658    0.3353225  10.62  0.001279858    1.186    0.157
        28  -8.7887     58.5836    183.9488   8.0225706515e+01   2.8321166724e+01     0.250352    0.1881591  32.72 0.0003693573    1.205    0.170
        29  -9.2055    102.7595    240.1887   7.4874059900e+01   1.1449209499e+01    0.2189745    0.1641679  19.94 0.0006223565    1.105    0.095
        30  -8.6027     72.3215    187.2779   7.6715830196e+01   2.5815042620e+01    0.2495769    0.2055779  54.74 0.0003957073    1.172    0.147
        31  -7.2210      8.6156    188.7830   9.4969543475e+01   3.2169709899e+01    0.1216443   0.09743509 -16.21 0.0002447069    1.608    0.378
        32  -8.1739     23.9333    185.0168   9.0386565949e+01   3.1777092123e+01    0.3301182    0.1473145 -56.37  0.001243825    2.559    0.609
        33  -8.4884     27.5541    181.0000   8.9068111737e+01   3.2436444081e+01    0.3327348    0.1896494  15.49  0.001545404    1.886    0.470
        34  -7.5144     30.6599    178.6721   8.7978625787e+01   3.2719771629e+01    0.2084158    0.1988191 -51.21  0.001260189    1.232    0.188
        35  -7.9167    203.7912    181.0149   4.6313736995e+01   8.9952811746e+00    0.1612259    0.1394299 -31.36 0.0004816077    1.266    0.210
        36  -7.2038    109.6123    178.3023   6.5497467902e+01   2.2671412447e+01    0.1485583    0.1018633  58.73 0.0007015917    1.795    0.443
        37  -9.6480     74.4821    176.4917   7.4786623720e+01   2.8090852320e+01    0.5155759    0.3165882  24.52  0.002403143    1.606    0.377
        38  -7.2631     55.3273    176.2918   8.0367972801e+01   3.0597528666e+01    0.1404739    0.1090941 -23.98 0.0003033838    1.621    0.383
        39  -8.8553     49.2913    173.0338   8.1842764004e+01   3.2137889679e+01    0.3882593    0.2410478  10.40  0.001751276    1.924    0.480
        40  -7.9956     20.7659    170.3559   9.0438289424e+01   3.5786705002e+01    0.2216915    0.1482375  42.08 0.0006666515    1.305    0.234
        41  -8.9512     82.9278    165.0809   7.0748923555e+01   2.9680403829e+01    0.3627848    0.2699254 -18.65  0.001736983    1.737    0.424
        42  -8.5497     85.5267    161.5252   6.9442512854e+01   3.0167094504e+01    0.2907745    0.2291928 -25.29  0.001449433    1.528    0.345
        43  -9.0842     19.1142    164.8361   9.0606800508e+01   3.7379100463e+01    0.4500842    0.2304095  72.15  0.001953469    1.961    0.490
        44  -8.5143     24.2943    164.7639   8.8941143816e+01   3.6930652968e+01    0.2292324    0.2231816 -20.40  0.001039929    1.212    0.175
        45  -7.6115      1.6298    163.2769   9.6109960735e+01   3.9146766174e+01    0.1878328      0.15093  51.66 0.0009858183    1.080    0.074
        46  -8.3803     69.9539    160.4365   7.3952757616e+01   3.2701965153e+01    0.2673762    0.2027672  82.32 0.0004871483    1.450    0.310
        47  -9.6751     51.0278    157.5064   7.9561567135e+01   3.5965398975e+01    0.4042185    0.2601692  59.73 0.0006396289    1.580    0.367
        48  -8.0614     23.1780    156.6223   8.8696119930e+01   3.9210037543e+01    0.1913649    0.1365267   4.58 0.0005726492    1.659    0.397
        49  -7.3550     92.4681    153.9818   6.6167029107e+01   3.0944428050e+01    0.2115129    0.1471738 -59.35 0.0004069248    1.480    0.324
        50  -9.0402    130.6973    156.2330   5.6399388910e+01   2.4147677486e+01    0.3508521    0.2465526 -37.75 0.0009418217    1.461    0.315
        51  -7.3502     96.9667    149.5227   6.4065602851e+01   3.1305190048e+01    0.2246025    0.1444006  34.53 0.0005916795    1.518    0.341
        52  -9.2911     81.5727    147.9726   6.8394730980e+01   3.4167366197e+01    0.3387706    0.2565788 -43.35  0.001100193    1.446    0.309
        53 -10.8759     68.7335    144.8466   7.1962112407e+01   3.6931373323e+01    0.7671456    0.5280095  62.18  0.002702261    1.573    0.364
        54  -9.9279     55.4880    145.1591   7.6440968833e+01   3.8705083989e+01    0.3872488    0.2726593 -54.66  0.001825936    1.484    0.326
        55  -7.4958    109.9771    139.5107   5.8433072835e+01   3.1479307498e+01    0.2137615    0.1464021  38.54 0.0003600031    1.452    0.311
        56  -8.9621     16.5970    138.1434   8.9551655070e+01   4.4874010699e+01    0.2337041    0.2238712 -14.79 0.0002991759    1.207    0.172
        57  -8.5829     97.4898    134.3163   6.0941470569e+01   3.4950287480e+01    0.3800968    0.2541702 -37.74   0.00166552    1.730    0.422
        58 -10.0487     39.7908    129.8476   7.9907330419e+01   4.4911060229e+01    0.5358463    0.2643633  36.37 0.0006608738    1.878    0.467
        59 -10.5413     38.9292    126.0422   7.9698105816e+01   4.6084697410e+01    0.4047488    0.3186472  -9.90  0.001958195    1.568    0.362
        60  -9.3933     57.4636    126.1465   7.2687368120e+01   4.3632309923e+01     0.344484    0.1941031   8.12  0.001226733    2.756    0.637
        61  -7.2413     69.6337    125.3394   6.8150468784e+01   4.2000080384e+01    0.1746771    0.1130826  65.48 0.0007029211    1.843    0.457
        62  -7.0172    103.3060    123.3316   5.6818344110e+01   3.6576650740e+01    0.1562757    0.1229622 -17.46 0.0003436219    1.661    0.398
        63  -7.6326     90.8262    119.1323   5.9678807198e+01   3.9951248036e+01    0.2036925      0.18147 -25.32            0    1.290    0.225
        64  -7.2548      7.8651    106.3463   9.0369515811e+01   5.4540697027e+01    0.1992667    0.1336207  -8.82 0.0009319215    1.778    0.438
        65  -8.1500    186.0334    102.9154   3.3644751267e+01   2.4576248852e+01    0.1934037     0.166964 -45.27            0    1.011    0.011
        66  -7.3948    199.0122    100.4849   3.1186332294e+01   2.2625621777e+01    0.1553668    0.1303612  57.33 0.0009743198    1.423    0.297
        67  -7.5164    119.4997     99.4820   4.6287605031e+01   3.8829086032e+01    0.1539302    0.1458587 -73.76 0.0001289331    1.001    0.001
        68  -8.1755    113.0353     95.9261   4.7045220428e+01   4.1006377681e+01    0.2271855    0.2148181 -76.53 0.0002878792    1.003    0.003
        69  -7.3988     81.9988     92.6970   5.5886571578e+01   4.8270867836e+01    0.2106203    0.1976055  61.48 0.0004885575    1.052    0.050
        70  -9.0642     85.4669     80.7802   5.1068880633e+01   5.0409045077e+01    0.3783677    0.2947923 -27.17  0.001738573    1.615    0.381
        71  -6.8203    154.2449     79.7310   3.3150164088e+01   3.5108080677e+01     0.139161    0.1011778 -66.33            0    1.436    0.304
        72  -7.3701     84.7875     64.1859   4.5640344518e+01   5.4231238951e+01    0.1926011    0.1812568  -2.92 0.0002893878    1.259    0.206
        73  -8.3115    136.0545     62.0438   3.1406419056e+01   4.2415669518e+01    0.2139837    0.1922186 -68.66 -0.001320134    1.010    0.010
        74  -8.1157    172.0381     60.5215   2.5097264266e+01   3.4362319234e+01    0.2196162    0.1659677 -45.40 0.0005665923    1.162    0.139
        75  -7.2818     83.5623     53.5281   4.1991342733e+01   5.6663416181e+01    0.1541511    0.1402656 -88.87 6.122349e-05    1.082    0.076
        76  -9.8072    188.2241     46.3454   1.9453433907e+01   3.2916479660e+01    0.5358008    0.3618432 -25.35  0.002726353    1.661    0.398
        77  -8.7647    193.2732     40.5445   1.7492575996e+01   3.2626129070e+01     0.286164    0.2480929 -14.48  0.000991996    1.499    0.333
        78  -7.0971    126.3219     37.6938   2.5138612319e+01   4.8675861585e+01    0.1545285   0.09928406 -68.19 0.0004118885    1.640    0.390
        79  -8.4323    174.6203     44.0904   2.0309920249e+01   3.6180525236e+01    0.2069505    0.1830598  86.39  0.000429197    1.202    0.168
        80  -8.4988    131.0240    247.7945   6.9662670382e+01   7.1336383622e+00     0.176674    0.1323522  35.73 0.0009120824    1.359    0.264
        81  -7.3049     77.6313     18.5502   2.7914516053e+01   6.3717251422e+01    0.1371627    0.1280052  82.34 -3.36522e-05    1.031    0.030
        82  -7.6687     93.9753     14.0544   2.1767600095e+01   6.0034493589e+01    0.2010398    0.1846106  87.04 0.0003450594    1.045    0.043
        83  -9.5028     67.8486    244.9972   8.3142540810e+01   1.4378028284e+01    0.4235344    0.2471965 -29.56   0.00194319    2.562    0.610
