#   1 NUMBER                 Running object number                                     
#   2 MAG_AUTO               Kron-like elliptical aperture magnitude                    [mag]
#   3 X_IMAGE                Object position along x                                    [pixel]
#   4 Y_IMAGE                Object position along y                                    [pixel]
#   5 X_WORLD                Barycenter position along world x axis                     [deg]
#   6 Y_WORLD                Barycenter position along world y axis                     [deg]
#   7 A_WORLD                Profile RMS along major axis (world units)                 [deg]
#   8 B_WORLD                Profile RMS along minor axis (world units)                 [deg]
#   9 THETA_WORLD            Position angle (CCW/world-x)                               [deg]
#  10 FWHM_WORLD             FWHM assuming a gaussian core                              [deg]
#  11 ELONGATION             A_IMAGE/B_IMAGE                                           
#  12 ELLIPTICITY            1 - B_IMAGE/A_IMAGE                                       
         1 -10.1566    168.1033    249.9108   4.2105397769e+01   2.0430407042e+00    0.3673083    0.1694497  18.60  0.001743069    1.986    0.496
         2 -16.2187    207.0918    232.9212   3.2798643959e+01   4.0492183171e-01     2.403599     1.063375  31.70   0.01384419    2.273    0.560
         3 -16.0237    160.3850    150.6314   2.7604445568e+01   2.0233158913e+01     3.559701     2.047555  -8.32   0.01230682    4.012    0.751
         4 -14.9902    249.3498    175.4690   1.7261982579e+01   3.8590445382e+00     1.070289      0.22082 -35.64  0.004065463    4.084    0.755
         5 -16.2731    227.0384    207.4902   2.5724898276e+01   1.8270803989e+00     1.131193    0.6290553  12.68  0.006993791    1.923    0.480
         6 -15.9667    199.6054    204.4394   2.9768223839e+01   5.2746341920e+00     1.099715    0.8958509  89.73  0.006400408    2.892    0.654
         7 -19.8958    215.5991    166.4964   2.0599751613e+01   9.1853042956e+00      6.74303     4.842847 -27.49   0.04367915    1.143    0.125
         8 -11.2098    106.1157    234.8770   5.3133120436e+01   1.1441437286e+01     0.480841    0.3713538  14.76  0.003055444    1.172    0.147
         9  -9.1141    156.5135    249.3990   4.4265469263e+01   3.3386191165e+00    0.8915007       0.1179 -46.75  0.002960014    6.654    0.850
        10  -8.1590    162.4557    247.5199   4.2879373511e+01   2.9793250170e+00     0.242474    0.2056835 -79.88 -7.42269e-06    2.164    0.538
        11 -10.4382    166.0306    244.2536   4.1774548944e+01   3.0732693821e+00    0.7416376    0.5444816  67.60  0.004105569    3.322    0.699
        12  -9.8673     53.1621    233.1494   6.5238475496e+01   1.7761071667e+01    0.2990438    0.2334786  57.69  0.001920272    1.220    0.180
        13  -9.1187     85.1780    231.3377   5.7557951486e+01   1.4560667535e+01    0.2494134    0.1092966  18.31  0.001061776    2.509    0.602
        14  -8.4998    166.2671    236.2395   4.0669369483e+01   4.2364047926e+00     0.136648    0.1215978  19.22 0.0002809463    1.311    0.237
        15  -7.7744     66.6546    230.7063   6.1858363286e+01   1.6792255932e+01    0.1228268   0.09237131 -11.78 0.0003910621    1.665    0.400
        16  -8.6164     92.9772    228.0024   5.5398539257e+01   1.4286962706e+01    0.1982949    0.1618351  -3.28  0.001140081    1.319    0.242
        17  -9.2834     91.7221    223.2064   5.5180415533e+01   1.5374887198e+01    0.3278054    0.1635284 -46.86  0.001580545    2.298    0.565
        18  -9.1053     75.9025    226.8855   5.9318675970e+01   1.6511557830e+01    0.1933843    0.1625767   1.18 0.0008966639    1.297    0.229
        19  -9.5127    104.0639    224.6512   5.2449790225e+01   1.3591061065e+01    0.1909542    0.1788992  74.11 0.0006481027    1.269    0.212
        20  -9.5135     92.0768    217.7225   5.4489952438e+01   1.6429407775e+01    0.2868415    0.1867019 -62.12   0.00105154    1.758    0.431
        21 -11.6583    159.2944    243.3236   4.2958052429e+01   3.9383819345e+00    0.2079253    0.1641057  -1.93 0.0002830559    1.075    0.070
        22 -10.5999     65.0558    217.7036   6.1108825103e+01   1.9656005220e+01    0.3732925    0.2234014  44.91 0.0004266039    1.492    0.330
        23 -11.9375    159.6485    240.3313   4.2501961731e+01   4.3498070671e+00    0.2763911    0.2207057  41.45  0.001400972    1.596    0.374
        24  -9.8361     69.5442    249.2521   6.2680494620e+01   1.2936202327e+01    0.3989374    0.1516015  18.87  0.001675785    2.892    0.654
        25  -9.1080     62.4719    211.3422   6.1173108586e+01   2.1326661636e+01    0.2255797    0.1807314 -38.88 0.0008999843    1.483    0.326
        26  -9.4515     94.1711    248.1864   5.7137654232e+01   1.0439544225e+01    0.1825377    0.1447681   5.45  0.000748651    1.266    0.210
        27  -8.9107     71.5005    227.5121   6.0427276355e+01   1.6889457845e+01    0.2167327    0.1618396 -17.84 0.0007455452    1.688    0.408
        28  -9.7355     97.4399    201.5815   5.1218691162e+01   1.9105861391e+01    0.2723492    0.2157589 -14.06  0.001319081    1.442    0.307
        29  -9.8965    109.8515    195.8270   4.7347195702e+01   1.8647929577e+01    0.2550842    0.2130195  20.88 0.0007585997    1.120    0.107
        30  -7.8693     92.3425    197.2748   5.1949744361e+01   2.0717332962e+01    0.1372645    0.1027536 -10.89 0.0006999682    1.619    0.382
        31  -9.9684    102.3480    191.9773   4.8675241676e+01   2.0517534035e+01    0.4499188    0.2006641 -43.21   0.00137285    2.580    0.612
        32  -8.9945     89.0852    180.5473   5.0522254895e+01   2.4965479187e+01    0.2429489    0.1993404 -50.08 0.0003352511    1.284    0.221
        33  -9.4429    105.1532    174.8725   4.5352265013e+01   2.3942719113e+01    0.2191491    0.1892422  57.61 0.0005093097    1.243    0.196
        34  -8.9627     94.1373    168.2876   4.7263729867e+01   2.7138089724e+01    0.2454678    0.1878158 -48.34 0.0002083714    1.352    0.261
        35 -10.0691    110.0144    147.9951   3.9224203208e+01   2.9441428637e+01    0.3377343    0.2414416 -30.28  0.001568486    1.630    0.387
        36  -9.8610    107.1500    145.1456   3.9447698984e+01   3.0608206822e+01    0.3064243    0.2613808 -44.97 0.0003479429    1.178    0.151
        37 -10.7292    116.9798    144.2356   3.6586533210e+01   2.9119616774e+01     0.401582     0.316574 -10.24  0.001336084    1.562    0.360
        38  -9.9148     81.6940    247.4793   5.9832437850e+01   1.1943815620e+01    0.2311866    0.1663178 -21.95  0.001201632    1.757    0.431
        39  -9.5416    110.0297    138.0205   3.7179373618e+01   3.1805778633e+01    0.2242829    0.2174376 -68.69 0.0003225959    1.036    0.035
        40  -8.6783     96.0910    138.0413   4.1192422235e+01   3.4231371117e+01    0.2221047    0.2183562 -79.37 0.0003781483    1.009    0.009
        41 -10.2305    112.8699    133.9295   3.5514332077e+01   3.2263834348e+01    0.3854269    0.2564124  31.54 0.0009187636    1.605    0.377
        42 -10.1956    115.8541    129.8782   3.3799777153e+01   3.2664534834e+01    0.3566407    0.2601701  17.64 0.0008532481    1.712    0.416
        43  -8.6878    174.5609    250.5878   4.0983848212e+01   1.2838756777e+00     0.207952   0.08924708  24.88 0.0005049042    1.986    0.497
        44  -7.8251     87.2800    120.3332   4.0099537377e+01   4.0197294265e+01    0.1570131    0.1202426 -24.94 0.0002012205    1.609    0.379
        45 -10.2785    105.1747    109.2747   3.1878970442e+01   3.9540540673e+01    0.4748752    0.3422861  40.63   0.00106217    1.421    0.297
        46 -10.2273    117.5464    108.9924   2.8315793139e+01   3.7128502169e+01    0.3417654    0.2983766 -18.18  0.000413035    1.319    0.242
        47 -10.1232    121.4991    108.0105   2.7010473421e+01   3.6543186168e+01    0.3116417    0.2583638 -47.96 0.0005574489    1.171    0.146
        48  -9.2098    135.9654    101.6809   2.1774852310e+01   3.4896114985e+01    0.2847763    0.2124115 -41.04 0.0006440883    1.312    0.238
        49 -10.0065    138.9185     98.0680   2.0146130210e+01   3.5010884023e+01    0.3547167    0.2672254 -18.62 0.0003228463    1.727    0.421
        50  -9.3797    128.4930    106.9754   2.4953591164e+01   3.5334047306e+01    0.2575117     0.219575  19.39 0.0006862133    1.392    0.281
        51  -9.8281    134.1423    106.5086   2.3453857368e+01   3.4268887098e+01    0.4070613    0.2722864 -19.00    0.0016921    2.252    0.556
        52  -9.3030    146.1018     93.1254   1.7265267696e+01   3.4458069318e+01    0.2129021    0.1984135 -21.87 0.0002836022    1.188    0.158
        53  -8.7780    138.1514     90.9965   1.8423067687e+01   3.6586489930e+01     0.215653    0.1982618 -17.43  0.000494427    1.237    0.192
        54 -10.0293    154.3509     82.1536   1.2683166137e+01   3.4725362762e+01    0.4401054    0.2390939 -32.53  0.001771987    2.021    0.505
        55  -8.3899    158.7032     89.3091   1.3750563167e+01   3.2493250832e+01    0.2250725    0.1783006 -56.96 0.0002710161    1.203    0.169
        56  -9.6366    157.3076     86.1389   1.3185117518e+01   3.3367361793e+01    0.3304945    0.2798271  12.91  0.001773904    1.564    0.361
        57  -9.7411    148.6195     88.6877   1.5561416654e+01   3.4764723228e+01    0.3102065    0.2280118  40.23  0.001195343    1.577    0.366
        58 -10.3862    105.9397    243.6167   5.4104062830e+01   9.9099808139e+00    0.3954944    0.2406628 -17.50 0.0005669903    2.237    0.553
        59  -9.9711    142.6182     84.1851   1.5581254166e+01   3.6923038327e+01    0.2922323      0.24791 -47.68 0.0003514152    1.118    0.106
        60  -8.2077    113.6778     73.9637   1.9398868200e+01   4.5394074013e+01    0.2056019    0.1923009 -59.04 0.0004336054    1.050    0.048
        61  -9.9895    157.8177     71.6880   9.2168697720e+00   3.5789198833e+01    0.3876706    0.2525248  40.32  0.001840561    1.969    0.492
        62  -9.2908    163.9610     68.8635   7.4208334826e+00   3.4903243564e+01    0.1942281    0.1841278 -19.79  0.001164187    1.245    0.197
        63  -9.7633    172.1350     67.0240   5.6648730140e+00   3.3420698829e+01    0.2263474    0.1944672  71.79 0.0006342632    1.237    0.192
        64  -9.2326     71.4101    243.3490   6.1798129030e+01   1.3824258586e+01    0.1992448    0.1134071 -60.52  0.001117982    2.063    0.515
        65  -8.6821    129.8536     63.1742   1.2145889338e+01   4.3645225869e+01    0.2183075    0.1848646 -77.69 0.0003539382    1.184    0.155
        66 -10.8855     96.0879    242.1042   5.6129009790e+01   1.1300185715e+01    0.4710121    0.2398586   9.06  0.002164733    2.571    0.611
        67  -9.7160     76.1272    246.1221   6.0961242057e+01   1.2798366869e+01    0.1808897    0.1507442   2.77 0.0007516457    1.294    0.227
        68  -9.9081    126.7490     50.3178   8.6934637533e+00   4.6509580003e+01    0.2886915    0.2413628 -40.58 0.0002107621    1.226    0.184
        69 -10.8533    204.5572     44.6265   3.5623595327e+02   2.9910293649e+01    0.4406061    0.2567089  65.41  0.001947507    1.907    0.476
        70  -8.9502    244.4617    238.6958   2.7736863491e+01  -3.7239656254e+00    0.2455273   0.09738648  23.94   0.00150484    2.475    0.596
        71  -9.7411    175.9485    237.0436   3.8933351630e+01   3.0593109706e+00     0.252555     0.224774 -87.87  0.001754889    2.109    0.526
        72 -10.0248    216.4361     40.1639   3.5418938265e+02   2.8177894289e+01    0.2458369    0.2055076  44.49  0.001668887    1.698    0.411
        73  -9.9039     14.7725     30.8336   4.6696076647e+01   7.2521765209e+01    0.5764611    0.2508714  49.42  0.002057523    4.161    0.760
