#   1 NUMBER                 Running object number                                     
#   2 MAG_AUTO               Kron-like elliptical aperture magnitude                    [mag]
#   3 X_IMAGE                Object position along x                                    [pixel]
#   4 Y_IMAGE                Object position along y                                    [pixel]
#   5 X_WORLD                Barycenter position along world x axis                     [deg]
#   6 Y_WORLD                Barycenter position along world y axis                     [deg]
#   7 A_WORLD                Profile RMS along major axis (world units)                 [deg]
#   8 B_WORLD                Profile RMS along minor axis (world units)                 [deg]
#   9 THETA_WORLD            Position angle (CCW/world-x)                               [deg]
#  10 FWHM_WORLD             FWHM assuming a gaussian core                              [deg]
#  11 ELONGATION             A_IMAGE/B_IMAGE                                           
#  12 ELLIPTICITY            1 - B_IMAGE/A_IMAGE                                       
         1 -14.7273    177.3384     30.4651   7.2285006556e+01   3.6903647805e+01     1.390729    0.9676338   5.29  0.004604808    1.735    0.424
         2 -10.9074     57.0000      3.9858   9.0683294259e+01   6.9144858643e+01    0.2211109   0.07164076 -29.56 0.0008074549    2.977    0.664
         3 -13.3675    181.3688     23.6224   6.9575221753e+01   3.6659860414e+01    0.5641478    0.5079949  69.50  0.001440514    1.128    0.113
         4  -9.6554     18.5956    224.7975   1.4842578639e+02   2.6078471158e+01   0.08662652   0.07142109  12.45 0.0006790814    1.628    0.386
         5 -19.6449     47.2592    161.5249   1.3830050768e+02   3.5664599782e+01     18.07593      5.54416 -75.37   0.06849755    3.655    0.726
         6 -12.0217    207.8159    185.7670   1.0569242890e+02   7.8908648932e+00    0.3319946    0.2285416   3.63  0.001124392    1.319    0.242
         7 -12.1612    212.4043    182.2582   1.0423969774e+02   7.6646326727e+00    0.3156956    0.2132749   2.54  0.001071324    1.361    0.265
         8 -11.6356     99.4603    180.6788   1.2770475210e+02   2.5250880104e+01    0.2408655    0.2091752  35.44 0.0006684392    1.050    0.047
         9 -11.5216    198.7421    178.2570   1.0601496189e+02   1.0290761929e+01    0.2799773      0.24141 -29.25 0.0009978772    1.401    0.286
        10 -12.3982    114.8071    172.4083   1.2293220303e+02   2.4617026314e+01    0.5634727    0.3934118  66.53  0.002954528    1.890    0.471
        11 -13.6483    103.3477    171.6893   1.2555631610e+02   2.6455179388e+01     1.238727     0.343816  41.59   0.00445545    3.194    0.687
        12 -11.8557     98.7087    164.0814   1.2558398614e+02   2.8662232514e+01    0.2800007    0.2375521 -31.59 0.0004765783    1.351    0.260
        13 -12.3612     91.1546    177.8432   1.2929794978e+02   2.6945028108e+01     0.357767    0.2469555 -35.16  0.001981413    1.866    0.464
        14 -12.4137     93.4891    173.0203   1.2811537029e+02   2.7587282210e+01    0.2982584     0.248246 -37.11  0.001835681    1.398    0.285
        15 -11.7330    126.3103    173.0816   1.2035000343e+02   2.2722969677e+01    0.2745067    0.1813003  40.94  0.001184204    1.385    0.278
        16 -12.4261    136.7598    170.9417   1.1760447588e+02   2.1461236355e+01    0.5050099    0.2149629  31.03  0.002084744    2.360    0.576
        17 -11.1481    145.0392    168.4872   1.1531313508e+02   2.0556486865e+01    0.2137654    0.1201993  36.01  0.001036984    1.603    0.376
        18 -10.3493    182.6904    243.3406   1.1892726592e+02   4.2731392562e+00   0.09871147   0.07602512  44.69 0.0006626094    1.691    0.409
        19 -13.4046    112.1715    208.2983   1.2826918351e+02   1.8542609107e+01    0.4537752    0.3607559   0.70  0.002269135    1.506    0.336
        20 -10.7103    166.1380    208.6796   1.1731138035e+02   1.0893808492e+01    0.2552363    0.1667537  42.39  0.001536221    1.533    0.348
        21 -13.6791     11.0940    206.1295   1.4920000901e+02   2.9989927492e+01    0.5299438    0.2435052  26.58  0.003197742    2.147    0.534
        22 -12.6602    104.8044    201.0586   1.2900517096e+02   2.0770014107e+01    0.3728304    0.2598223  19.13  0.002095084    1.530    0.346
        23 -11.4483    102.1868    158.1357   1.2380419666e+02   2.9375881183e+01    0.2715772    0.2414501 -41.91 0.0004946567    1.217    0.178
        24 -11.8793    103.9810    153.9883   1.2267831475e+02   2.9968334659e+01    0.4301599    0.2974113  50.64  0.001486929    1.479    0.324
        25 -11.4750    164.3166    157.2898   1.0897661145e+02   1.9248815030e+01    0.2449883    0.1957576   3.54 0.0008319623    1.236    0.191
        26 -11.6957    133.8649    145.2720   1.1359236515e+02   2.6814186905e+01    0.8575924    0.2132743 -52.04   0.00232487    5.529    0.819
        27 -11.2797    174.3992    149.0802   1.0516689188e+02   1.8858869187e+01     0.251817    0.1762756  26.03 0.0006997656    1.359    0.264
        28 -11.8784    111.5268    197.2222   1.2708311688e+02   2.0525410422e+01    0.4588026    0.1967001  23.32  0.001864742    3.089    0.676
        29 -12.0110    112.1338    140.7501   1.1821149856e+02   3.1460467474e+01    0.4096057    0.3020868 -26.78  0.002079904    1.607    0.378
        30 -12.4979    101.5464    141.3286   1.2112856729e+02   3.3049123013e+01     0.265462     0.240179  27.09 0.0003591233    1.094    0.086
        31 -11.6059     16.4918    136.2634   1.4432233362e+02   4.4103512550e+01    0.2290083    0.1937029  39.65 0.0005593042    1.255    0.203
        32 -11.3398    117.9410    130.8107   1.1468237104e+02   3.2578511876e+01     0.347599    0.2551412 -30.68 0.0009842023    1.512    0.339
        33 -11.9453    106.2029    129.0910   1.1750447778e+02   3.4968798291e+01    0.5546049    0.3178495 -52.82  0.002502765    1.787    0.440
        34 -11.6899    160.4311    128.1588   1.0361832055e+02   2.5144672057e+01    0.3304481    0.2591007 -33.68  0.001736421    1.276    0.216
        35 -10.9624    124.4987    126.7065   1.1206362586e+02   3.2266777450e+01     0.385636    0.2202168  62.51  0.001407595    3.072    0.674
        36 -11.2333    115.6308    193.2014   1.2567066834e+02   2.0657970905e+01    0.2478745    0.1927007 -12.82  0.001502376    1.614    0.381
        37 -11.6573     83.2273    120.9907   1.2250731261e+02   4.0457473190e+01    0.3319528    0.1949255  32.85 0.0009961572    1.732    0.423
        38 -13.2808    196.9406    197.1499   1.0963624609e+02   7.9987898140e+00    0.6141593    0.4095092  36.15  0.002482864    1.441    0.306
        39 -10.5904    112.4546    119.8087   1.1377286769e+02   3.5918921550e+01    0.2507492    0.1998174  36.15 0.0002894801    1.238    0.192
        40 -11.5217    168.0705    113.2280   9.8313675254e+01   2.6312351993e+01    0.3741729    0.3169083  83.99  0.001350478    1.684    0.406
        41 -10.8550      1.7359    112.9349   1.4697096855e+02   5.0504834999e+01    0.1822966    0.1402188 -65.00 0.0006284085    1.234    0.190
        42 -10.6524    205.6096    110.1097   9.0175027472e+01   1.9208639834e+01    0.2599362    0.1954353  29.95 0.0007461597    1.341    0.254
        43 -11.8628    189.0235    187.0717   1.0942497262e+02   1.0553891179e+01    0.4944441     0.323396 -44.79   0.00246063    1.979    0.495
        44 -11.8897    175.2777    228.4519   1.1833264895e+02   7.0024397585e+00    0.3319919   0.08927451  31.17  0.001309726    3.436    0.709
        45 -11.3489    180.7691    194.6055   1.1228381989e+02   1.0738920445e+01    0.3529452     0.269301 -70.80  0.001926974    2.752    0.637
        46 -13.8927    164.3535     46.8530   7.9695988083e+01   3.8069134714e+01    0.9749758    0.5696651 -20.87   0.00176649    1.801    0.445
        47 -10.2830      1.3049    249.3000   1.5214459103e+02   2.3569246325e+01   0.07221954   0.07104004  -4.76  0.000700598    1.591    0.371
        48 -11.9751     21.4476     36.9034   1.2650160502e+02   6.7837694304e+01    0.4207878    0.1931694  18.03  0.001246578    2.478    0.596
        49  -9.3612    120.3275     24.6971   8.0614288395e+01   5.2156830760e+01    0.1486657    0.1144057 -65.13  0.000549977    1.645    0.392
        50 -11.8942    189.7660     14.9877   6.5931538254e+01   3.5460704128e+01    0.2383483    0.1993898  77.08 0.0007087732    1.212    0.175
        51 -10.3337    158.4485    194.2513   1.1668437949e+02   1.4157940137e+01    0.1486548    0.1241398 -55.88  0.000939845    1.623    0.384
