#   1 NUMBER                 Running object number                                     
#   2 MAG_AUTO               Kron-like elliptical aperture magnitude                    [mag]
#   3 X_IMAGE                Object position along x                                    [pixel]
#   4 Y_IMAGE                Object position along y                                    [pixel]
#   5 X_WORLD                Barycenter position along world x axis                     [deg]
#   6 Y_WORLD                Barycenter position along world y axis                     [deg]
#   7 A_WORLD                Profile RMS along major axis (world units)                 [deg]
#   8 B_WORLD                Profile RMS along minor axis (world units)                 [deg]
#   9 THETA_WORLD            Position angle (CCW/world-x)                               [deg]
#  10 FWHM_WORLD             FWHM assuming a gaussian core                              [deg]
#  11 ELONGATION             A_IMAGE/B_IMAGE                                           
#  12 ELLIPTICITY            1 - B_IMAGE/A_IMAGE                                       
         1  -7.9850     29.9892     16.0275   9.5288134564e+01   6.7627510725e+01    0.1414094    0.1357204   2.14 0.0007232548    1.662    0.398
         2  -8.5360     55.8209     10.1419   8.3019250006e+01   6.4549345435e+01    0.1570581    0.1432502  20.57 0.0007682008    1.300    0.231
         3  -8.0065     47.4719     10.2668   8.5997225179e+01   6.5843240033e+01    0.1372157   0.09993454 -30.09 0.0009385607    1.627    0.385
         4  -8.2568      7.5176     15.5326   1.0528092427e+02   7.0055549732e+01    0.1630627    0.0936885 -46.96 0.0008549097    2.261    0.558
         5  -8.4350     90.8119      8.7530   7.2446060513e+01   5.8338110728e+01    0.2037537    0.1425476 -54.18   0.00120969    2.106    0.525
         6  -7.6429    101.4588      8.4505   6.9898166187e+01   5.6213831313e+01    0.1183648    0.1001702  52.99  9.73292e-05    1.079    0.073
         7  -8.6119     33.4300      5.0803   8.9179232001e+01   6.8354125010e+01      0.24175    0.1590216 -47.24  0.001449497    2.924    0.658
         8  -8.3937     79.2297      4.1288   7.3712515803e+01   6.0947539405e+01    0.1835515    0.1471177 -41.19 0.0008275308    1.657    0.397
         9  -7.4115     44.6507      3.2771   8.4091531100e+01   6.6918102061e+01    0.0931401   0.08526672  50.22 0.0004451565    1.638    0.390
        10  -7.7761     15.7917      3.0330   9.5931235958e+01   7.0719987773e+01     0.127008   0.07081748 -26.80 0.0004105784    1.664    0.399
        11  -8.4620     62.3865      1.6108   7.7500885590e+01   6.4185196830e+01    0.1811889    0.1194658  55.02 0.0005726239    1.598    0.374
        12  -7.6930     39.4578      1.4822   8.5245605047e+01   6.7844222915e+01    0.1080479   0.08421899  17.04 5.940777e-05    1.081    0.075
        13  -8.2905     13.2138    247.3850   1.4378183503e+02   2.0136796450e+01    0.1636472    0.0815504  50.80 0.0009494639    1.688    0.408
        14  -9.2081    232.6985    246.7885   9.9708723118e+01  -1.2041976985e+01    0.4303881    0.2294573 -23.47   0.00225557    1.970    0.492
        15  -9.4086    211.5665    247.5642   1.0383622904e+02  -9.2349258875e+00     0.427728    0.2917232 -62.08  0.001794782    2.601    0.615
        16  -7.7956    199.4830    250.4507   1.0667601878e+02  -7.9247901931e+00    0.1280315    0.1071533   9.13 0.0001645882    1.035    0.034
        17  -8.6818    191.5789    249.7095   1.0812547995e+02  -6.6156775144e+00    0.2096218     0.143425  49.18 0.0007080874    1.736    0.424
        18  -8.6772     94.0017    249.5014   1.2831383408e+02   9.0046013594e+00    0.3186562    0.1855308  80.51  0.001487033    2.350    0.575
        19  -8.6326      9.5233    243.5731   1.4419763101e+02   2.1318799965e+01    0.3320087    0.1195736  83.50   0.00138377    3.350    0.702
        20  -8.4231    139.7820    244.9795   1.1810801334e+02   2.5444010082e+00    0.2166599     0.152355  80.70  0.001073666    2.085    0.520
        21  -8.0225     67.5043    244.9690   1.3323131915e+02   1.3858417213e+01    0.1824001    0.1172116 -71.96  0.000579619    1.556    0.357
        22  -8.8010    202.0184    242.7555   1.0489593907e+02  -7.0535426949e+00    0.3327585    0.1781911 -43.69  0.001162732    1.988    0.497
        23  -9.0729    169.2030    243.3609   1.1167080890e+02  -1.9945838132e+00    0.2297806    0.2141901  78.82 0.0005765585    1.320    0.242
        24  -9.1619     77.7725    243.1200   1.3094032704e+02   1.2767040136e+01     0.309403    0.1760558  76.07  0.001474644    2.128    0.530
        25  -9.3933    194.7405    239.9959   1.0588258464e+02  -5.4762092838e+00    0.4977627    0.2881972 -39.70  0.001442397    1.785    0.440
        26  -9.7223    160.3114    240.4973   1.1307969418e+02  -1.0289761417e-02    0.3810309    0.2560668 -76.08  0.001343125    2.470    0.595
        27  -7.5874     49.6744    243.3500   1.3663223327e+02   1.6628029843e+01    0.1377761   0.07626221  68.09  0.000704875    1.756    0.430
        28  -9.9258    182.8020    240.0968   1.0832704603e+02  -3.6093166956e+00    0.4958735    0.4286475  48.52  0.001954094    1.307    0.235
        29  -7.8896    153.4703    241.9811   1.1475782153e+02   8.4639501979e-01    0.1756614    0.1204133 -84.75  0.000809107    2.484    0.597
        30  -8.6015    147.2914    240.6831   1.1587161256e+02   2.1215734919e+00    0.3951037      0.24944  77.33  0.001636372    3.081    0.675
        31  -8.2040     88.3613    242.2597   1.2864145290e+02   1.1361290541e+01    0.1764328    0.1172138 -81.92 0.0006009552    1.643    0.391
        32  -8.4254    240.5863    240.2776   9.7147227120e+01  -1.2109440424e+01     0.211238    0.1065553 -40.71   0.00110859    1.965    0.491
        33  -8.6813    209.2477    238.5796   1.0276038350e+02  -7.4500807146e+00    0.2164312     0.153736 -49.24 0.0006854103    1.698    0.411
        34  -9.2964    135.6778    239.0395   1.1811249794e+02   4.3845409128e+00    0.2969567    0.1698594  51.42  0.001069379    1.788    0.441
        35  -8.4675    129.1344    238.8922   1.1950007087e+02   5.5067071795e+00    0.2127736    0.1713551  64.02 0.0006819806    1.292    0.226
        36  -8.8446    230.5854    237.0691   9.8423339134e+01  -1.0275060020e+01    0.2573472    0.2207281 -83.53  0.001433975    2.152    0.535
        37  -8.0398     13.6516    238.3052   1.4310374360e+02   2.1986336849e+01    0.1283865   0.06603299  66.25  0.000704177    1.699    0.411
        38  -7.8539    189.6373    237.2074   1.0644388400e+02  -4.1924775502e+00    0.1797399    0.1170031 -31.88  0.000792591    1.617    0.382
        39  -8.5633     25.6352    236.8072   1.4074856346e+02   2.0980000684e+01    0.2790177    0.1147628  78.82  0.001167789    3.046    0.672
        40  -9.0604    216.5053    223.5848   9.8694053140e+01  -6.0205211161e+00    0.3861463    0.2141028 -46.18  0.001349234    1.919    0.479
        41  -8.5820    214.4722    227.5168   9.9796702235e+01  -6.3836207249e+00    0.2614764    0.1657846  -6.18  0.000798042    1.978    0.495
        42  -9.0353    216.7007    235.3944   1.0075953289e+02  -8.0302312614e+00    0.2514718    0.2310022  63.79 0.0008646412    1.577    0.366
        43  -9.4680    213.9239    231.9597   1.0069320528e+02  -7.0504410319e+00    0.2806576    0.2477956 -85.42  0.001143962    1.792    0.442
        44  -9.1678    203.3091    234.5007   1.0322567737e+02  -5.8659351638e+00     0.402647    0.2181224 -50.40  0.001548794    2.231    0.552
        45  -9.7615    175.7642    233.5185   1.0868695763e+02  -1.2769720613e+00    0.4960945    0.2674888 -59.44  0.002130564    2.698    0.629
        46  -8.3414    170.0069    235.4651   1.1022098301e+02  -6.8278791903e-01    0.2232327    0.1421541 -55.29 0.0008233911    1.874    0.466
        47  -9.3671    109.0624    234.6826   1.2325811480e+02   9.6906657898e+00    0.5433837    0.2418131  53.25  0.001210041    2.468    0.595
        48  -9.1786    247.7517    234.9755   9.4937979610e+01  -1.2242384620e+01    0.1976524    0.1561492  10.29 0.0006102115    1.171    0.146
        49  -8.5537     99.6507    234.6496   1.2529646636e+02   1.1214639858e+01    0.2754172    0.1673931  69.42  0.001039703    2.000    0.500
        50  -8.9191     78.7210    234.5362   1.2977568462e+02   1.4467136980e+01    0.2651198    0.1668245  77.54  0.000934399    1.767    0.434
        51  -9.9100      8.4853    234.0386   1.4376901862e+02   2.3435368312e+01    0.2568973    0.1282075 -62.39  0.001435477    2.042    0.510
        52  -8.1307    122.7882    234.2193   1.2020121715e+02   7.5203076244e+00    0.2170331    0.1660372  80.67 0.0007456118    1.537    0.350
        53  -8.5422     70.4984    234.4886   1.3150806819e+02   1.5680647636e+01    0.2398189    0.1288496  55.77 0.0009705669    1.763    0.433
        54  -8.5450     67.4831    231.5022   1.3181549017e+02   1.6768964197e+01    0.2710395     0.186135  81.31  0.001495699    1.433    0.302
        55  -8.6708    194.2977    232.5403   1.0469535539e+02  -4.1139310249e+00    0.2366379    0.1739342 -38.37 0.0006839459    1.393    0.282
        56  -8.7561    140.1802    230.1406   1.1577886511e+02   5.4123823980e+00    0.3533605    0.2007939  59.53  0.001235214    2.343    0.573
        57  -8.2676    132.7360    232.7807   1.1781503975e+02   6.1416855489e+00      0.19124    0.1536123  67.36 0.0006903018    1.357    0.263
        58  -8.2832     92.8810    232.1162   1.2643856639e+02   1.2831031461e+01    0.3821816    0.1948297  68.20    0.0014909    2.933    0.659
        59  -9.2682    236.2064    230.6177   9.6247623502e+01  -1.0035786163e+01    0.3557841    0.1818219 -40.28 0.0009049739    1.874    0.466
        60  -9.4391    186.4442    230.7434   1.0599143422e+02  -2.5256450073e+00     0.358564    0.2571782 -68.24  0.001282876    2.143    0.533
        61  -8.1326    157.7993    231.9483   1.1224148036e+02   2.0396626659e+00     0.209154    0.1588227 -87.06 0.0008527517    1.925    0.480
        62  -9.3334    151.3358    229.0059   1.1316015529e+02   3.7255687802e+00    0.4371074    0.2740947 -87.25  0.001672129    3.470    0.712
        63  -9.5448    148.6640    224.6396   1.1302940045e+02   5.0710362097e+00     0.496143    0.3409616  89.44  0.001596018    2.392    0.582
        64  -9.2675    246.5009    229.5190   9.4195510054e+01  -1.1248823548e+01    0.3000712    0.1819432 -40.09  0.000928077    1.606    0.377
        65  -9.0908      1.7405    230.9487   1.4480782797e+02   2.4770250964e+01    0.2202416    0.1193686  80.66 0.0008958036    1.538    0.350
        66  -7.9495    229.7867    228.9623   9.7138753095e+01  -8.8737004346e+00    0.1820387    0.1450479 -61.70 0.0007061153    1.929    0.482
        67  -8.8215    162.7683    228.3326   1.1057413633e+02   1.8965900801e+00    0.3637218    0.2121837  59.30  0.001187606    2.516    0.602
        68  -7.9279     15.6590    229.6399   1.4211612539e+02   2.3634993951e+01    0.1140756   0.08351943 -51.00  0.000216862    1.829    0.453
        69  -8.7769    127.8276    227.0632   1.1802765639e+02   8.1673051925e+00    0.2900349    0.1971133 -73.19 0.0008028802    1.810    0.447
        70  -8.1285    120.0027    227.7509   1.1986883773e+02   9.3500176508e+00     0.247266    0.1766129 -80.97  0.001198374    1.698    0.411
        71  -8.1801    223.4546    226.8676   9.7954610914e+01  -7.6151801766e+00     0.247818    0.1151488 -38.36 0.0009612192    2.047    0.511
        72  -8.8231    206.0122    225.5988   1.0111567326e+02  -4.7459853932e+00    0.3478198    0.1881561 -45.46  0.001310719    1.933    0.483
        73  -8.3562    200.3644    225.9053   1.0230029972e+02  -3.9054133147e+00    0.2943257    0.1618093 -44.18 0.0009245451    1.867    0.464
        74  -7.9447     49.1541    226.7079   1.3516387626e+02   2.0333646546e+01    0.2477063    0.1293916 -88.28 0.0007933708    2.062    0.515
        75  -8.9094     94.2830    224.3941   1.2512133815e+02   1.4312773799e+01    0.4155733    0.2224971  68.88  0.001561526    2.682    0.627
        76  -8.7903    180.6947    224.2400   1.0605410723e+02  -3.6541575739e-01    0.2526467    0.2174549 -63.03 0.0005297527    1.418    0.295
        77  -8.9447    104.7926    223.7007   1.2267697697e+02   1.2767834224e+01    0.3746064    0.2365092  83.66  0.001679861    2.169    0.539
        78  -7.7879     78.2971    225.6540   1.2881237036e+02   1.6497184059e+01    0.1441819   0.09224942  71.49 0.0004890214    1.674    0.403
        79  -9.1410    173.1758    223.2816   1.0747828190e+02   1.0965351185e+00    0.3158081    0.2407255 -75.64  0.001009326    1.894    0.472
        80  -8.0454    113.5677    223.9874   1.2075006487e+02   1.1247058813e+01    0.2002272    0.1367714 -61.86 0.0005188083    1.545    0.353
        81  -7.7825     59.8380    224.2088   1.3264459468e+02   1.9472281535e+01    0.2397468    0.1108338  67.07 0.0009442131    2.868    0.651
        82  -7.5012     38.3220    224.6990   1.3721331863e+02   2.2147534106e+01    0.1350049   0.07866132  68.00 0.0003903364    1.629    0.386
        83  -9.4956    192.4787    221.1583   1.0305324535e+02  -1.7588052536e+00     0.393249    0.2696194 -56.15  0.001110074    1.802    0.445
        84  -8.9675    239.0946    221.7965   9.4135527539e+01  -9.0228701727e+00    0.2105468    0.1896401 -83.95 0.0008240846    1.814    0.449
        85  -9.2292    225.5399    221.8872   9.6658609656e+01  -7.0887061993e+00    0.2504137    0.2063476  54.32  0.001033748    1.692    0.409
        86  -9.1958    160.4954    221.3318   1.0987684048e+02   3.6782530040e+00    0.5640247    0.2493509  53.63  0.001952612    3.359    0.702
        87  -9.1993      7.4504    222.2234   1.4315446062e+02   2.6104421350e+01     0.254547    0.1024497  48.79  0.001299468    2.212    0.548
        88  -9.2309    120.5741    219.4943   1.1849090843e+02   1.1043671936e+01    0.5103909     0.270382  64.43  0.001575934    3.002    0.667
        89  -8.7199     82.7101    220.6402   1.2720895268e+02   1.6966249687e+01    0.3422341    0.1776557  65.58  0.001367552    2.490    0.598
        90  -8.4082     72.9305    220.6354   1.2938165195e+02   1.8430782072e+01    0.2799318    0.1652395  89.64   0.00109225    1.979    0.495
        91  -8.3526     27.5323    220.5220   1.3904647471e+02   2.4356956953e+01    0.2627512    0.1052426 -72.77  0.001216646    2.194    0.544
        92  -8.2684    202.7504    220.3656   1.0082127741e+02  -3.2940907145e+00    0.1759092    0.1612296 -19.28  0.000572106    1.097    0.088
        93  -8.6670     15.3579    220.0524   1.4145199480e+02   2.5784053040e+01    0.1808388    0.1641529  65.51  0.001250037    1.295    0.228
        94  -9.1669    248.3092    217.2076   9.1657386536e+01  -9.5498643800e+00    0.4841679    0.3406179 -63.10  0.002539741    2.563    0.610
        95  -8.2272    210.0544    219.2778   9.9169092259e+01  -4.2659631271e+00    0.1817124    0.1651172   1.33 0.0005353395    1.060    0.057
        96  -9.3438    132.7925    215.9438   1.1514755071e+02   9.6947018004e+00    0.5351712    0.3298055  84.42  0.002027669    3.090    0.676
        97  -8.2405    111.9084    217.5803   1.2017020432e+02   1.2946257267e+01    0.2674382    0.1666157  73.94 0.0009175831    2.242    0.554
        98  -8.5648     62.3107    217.3640   1.3133777732e+02   2.0700472487e+01    0.3120812    0.1605571  68.09  0.001230034    2.372    0.578
        99  -8.7836     51.3883    217.4988   1.3373904917e+02   2.2142044501e+01    0.2435922    0.1806216  88.92 0.0007337638    1.202    0.168
       100  -8.7878    179.1596    217.2181   1.0512700969e+02   1.2465927041e+00    0.1855493    0.1692685  88.86  0.000616613    1.373    0.272
       101  -9.0519    169.2851    216.2410   1.0707085549e+02   3.1616724609e+00    0.3233244    0.2428868 -72.26 0.0008975446    1.814    0.449
       102  -8.6852    142.9582    216.7451   1.1298185919e+02   7.7233974860e+00    0.2972768    0.2260093  89.40  0.001446111    1.744    0.427
       103  -8.7514    232.5171    214.6003   9.4017581316e+01  -6.8855341752e+00    0.3578345    0.2161239 -39.23   0.00172932    1.536    0.349
       104  -8.6626    185.7957    214.8617   1.0329683646e+02   5.6151593008e-01    0.2465299    0.1995872 -70.06 0.0008085172    1.645    0.392
       105  -8.4192    154.2643    215.2050   1.1018763175e+02   6.0367930942e+00    0.1957606    0.1679107  79.75 0.0006274265    1.392    0.282
       106  -9.0069     93.3703    214.3102   1.2393824402e+02   1.6751132497e+01    0.3928252    0.2163368  63.00  0.001290434    2.227    0.551
       107  -9.5351     73.5228    212.1760   1.2819142938e+02   2.0306876400e+01    0.7915787    0.3216565  60.82  0.002578968    3.960    0.747
       108  -7.5886     41.3461    215.6525   1.3570801768e+02   2.3842243747e+01    0.1441323   0.08120081  69.00 0.0007042689    1.807    0.446
       109  -9.5502    214.0181    212.3274   9.7104210024e+01  -3.6505907161e+00    0.3534137    0.2859156  63.80  0.001407308    1.794    0.443
       110  -8.3422    224.9126    212.9426   9.5128140229e+01  -5.4603646638e+00     0.189886    0.1643237 -73.38 0.0008978554    1.713    0.416
       111  -8.9265    161.7425    212.5582   1.0806187351e+02   5.2518091238e+00    0.2627285    0.2295091 -82.54 0.0007932411    1.378    0.274
       112  -7.9683    106.5382    212.7733   1.2067601983e+02   1.4941800419e+01    0.1903084    0.1349562 -78.94  0.000927047    1.579    0.367
       113  -7.4409    242.6561    212.2730   9.1749089356e+01  -7.9588316443e+00    0.1103763    0.1030184 -86.11 0.0003746844    1.618    0.382
       114  -9.0700    204.2849    211.0390   9.8788717822e+01  -1.8332341263e+00    0.2964713    0.2322044 -65.92 0.0009190628    1.765    0.433
       115  -9.6101    175.7985    210.2666   1.0457743518e+02   3.2142130826e+00    0.4446233    0.3262395  86.08  0.001486367    2.294    0.564
       116  -8.8544    148.2244    210.8891   1.1078595277e+02   8.0353891991e+00    0.3442287    0.2411105 -88.48  0.001156938    2.203    0.546
       117  -9.4722      8.4706    211.9666   1.4219969849e+02   2.8295460228e+01    0.2942843    0.1277173  65.77  0.001394783    2.386    0.581
       118  -8.9593      5.6982    208.3224   1.4247848099e+02   2.9385763967e+01    0.2528853    0.1375435  86.81  0.001398138    1.593    0.372
       119  -8.7566    192.3426    210.7985   1.0117911599e+02   2.2313367513e-01    0.2515902    0.2088275 -70.89  0.001074044    1.603    0.376
       120  -8.7507    116.2816    210.4674   1.1805584468e+02   1.3806726909e+01    0.3247033    0.2090149  69.84  0.001055596    2.028    0.507
       121  -8.4981     32.6426    210.7211   1.3708339213e+02   2.6022587176e+01    0.2633755    0.1267057  83.24  0.001124882    2.416    0.586
       122  -9.1162    236.8098    208.6985   9.2133565830e+01  -6.5116824952e+00    0.3065793    0.2588073  88.07   0.00175353    2.018    0.504
       123  -8.3943     85.7187    209.8123   1.2507090243e+02   1.9012012095e+01    0.2766189    0.1810437  89.17  0.001307481    1.775    0.437
       124  -8.3068     46.2797    209.4044   1.3398280131e+02   2.4687582126e+01    0.2317518    0.1368981  84.92 0.0005317172    1.753    0.429
       125  -8.2020    126.6680    208.5687   1.1533060555e+02   1.2415437990e+01    0.2412437    0.1775466 -86.69  0.000639288    1.703    0.413
       126  -9.4317    246.3797    207.2753   9.0163366142e+01  -7.6526964814e+00    0.2686462    0.1925734 -40.55 0.0007514145    1.334    0.250
       127  -8.1490    156.6028    208.2966   1.0843792083e+02   7.0733899750e+00    0.2176789    0.1721035  78.94 0.0008765747    1.657    0.397
       128  -8.3879    139.0144    207.9941   1.1237873019e+02   1.0330286850e+01    0.2317465    0.1753286  77.65  0.000675863    1.684    0.406
       129  -9.2376     99.3228    206.1114   1.2134645086e+02   1.7694124312e+01    0.4110431    0.2608224  85.40  0.001362617    2.124    0.529
       130  -8.5864     24.3227    205.5527   1.3837341055e+02   2.8154207934e+01    0.3478178    0.1115381 -59.89  0.001444189    2.769    0.639
       131  -8.0406     11.3624    207.3005   1.4124495497e+02   2.9077219528e+01    0.1160406    0.0852322 -49.13 0.0007035501    1.723    0.420
       132  -8.1480    109.2752    205.4656   1.1889690558e+02   1.6168114399e+01    0.2426926    0.1696356 -88.84 0.0005862064    1.760    0.432
       133  -8.4121     56.4862    205.4843   1.3124266094e+02   2.4292206879e+01    0.3165494    0.1662765  71.26  0.001079276    2.393    0.582
       134  -9.5081    194.9395    203.4280   9.9247093735e+01   1.2059335276e+00    0.4461964    0.3708952 -62.58  0.001664877    1.460    0.315
       135  -9.2386    192.3489    197.3730   9.8613004036e+01   2.8615566758e+00    0.3439321    0.2717088 -63.84 0.0008737157    1.555    0.357
       136  -9.0109    183.8573    204.1176   1.0169992325e+02   3.0207593411e+00    0.3416036    0.2498174  71.83  0.001076631    2.114    0.527
       137  -8.8198    131.3123    204.0887   1.1348408824e+02   1.2597155766e+01    0.3641008    0.2384861  87.79   0.00104351    2.438    0.590
       138  -9.6569    163.9580    203.1052   1.0583980752e+02   6.8342702498e+00    0.4529259    0.3085242  61.69  0.001275723    1.911    0.477
       139  -9.3586    250.0909    202.0127   8.8536280339e+01  -7.2952436270e+00    0.3702938    0.1637389 -39.93  0.001352348    1.963    0.490
       140  -7.8910     17.3377    203.6659   1.3968983055e+02   2.9322988638e+01    0.1363508    0.0760295  69.45 0.0007051844    1.746    0.427
       141  -9.2879    243.0569    200.6766   8.9507009331e+01  -6.0535607418e+00    0.3323425    0.1947351 -42.29 0.0009239348    1.566    0.362
       142  -8.0360    222.3078    201.8080   9.3514661121e+01  -3.0682284908e+00    0.2558902    0.1129176 -49.18 0.0009130455    2.504    0.601
       143  -8.3475    211.0010    202.0055   9.5736029279e+01  -1.2584418346e+00    0.2013814    0.1720374 -83.48 0.0005628695    1.688    0.407
       144  -8.8248    140.5308    201.1298   1.1081086555e+02   1.1583976184e+01    0.3821646    0.2588961  86.58 0.0009956718    2.343    0.573
       145  -8.2697     80.0975    201.6944   1.2524344206e+02   2.1814843020e+01    0.3380671    0.1734654  66.15  0.001278446    2.777    0.640
       146  -8.2962     48.2158    202.0733   1.3272603667e+02   2.6186575307e+01    0.2330038    0.1308814  80.59  0.001036518    2.038    0.509
       147  -7.7789      9.6859    202.6618   1.4121222389e+02   3.0306605731e+01    0.1196591   0.08189086 -52.86 0.0006205661    1.696    0.410
       148  -9.4169    237.1773    198.6124   9.0158983388e+01  -4.8156063087e+00    0.3405693    0.1878151 -50.59  0.001343112    2.048    0.512
       149  -9.5481    149.6274    198.7400   1.0826858261e+02   1.0433778479e+01    0.4551662    0.3153421  89.29  0.001426562    2.299    0.565
       150  -8.9070    124.1852    199.5530   1.1437404036e+02   1.4923914885e+01     0.323104     0.230981  78.80   0.00136029    1.812    0.448
       151  -9.2241    112.9586    198.6792   1.1690556673e+02   1.7124047789e+01     0.501915    0.3018386  70.44  0.001621134    2.449    0.592
       152  -9.1436     88.7175    198.7330   1.2274804002e+02   2.1181633624e+01    0.4071845    0.2561911  78.47   0.00157221    2.054    0.513
       153  -8.4332    176.9400    199.1209   1.0222870167e+02   5.2914021255e+00    0.2158037    0.1967512  87.03 0.0005423658    1.311    0.237
       154  -8.2408    202.4688    198.0553   9.6671002333e+01   9.4675183547e-01    0.2113297    0.1979097 -86.94 0.0008183947    1.333    0.250
       155  -9.0834     61.4846    197.0213   1.2901774987e+02   2.5655842389e+01    0.4331549    0.2330695  74.40  0.001506335    2.510    0.602
       156  -8.0853     53.6784    196.6742   1.3081355761e+02   2.6788005985e+01    0.2916727    0.1507947  85.78  0.001178832    2.578    0.612
       157  -8.2790     12.3333    196.9066   1.4016130105e+02   3.1393861772e+01    0.2584522   0.09820864 -82.53  0.001089251    2.560    0.609
       158  -8.6156    215.8358    195.5885   9.3548669903e+01  -8.5716440351e-01     0.263427     0.172757 -56.92 0.0007976473    1.901    0.474
       159  -8.2149    132.9256    196.1196   1.1168850419e+02   1.4126044001e+01    0.2326841    0.1966709  77.62  0.000678044    1.309    0.236
       160  -9.2923    245.9252    193.7227   8.7684764949e+01  -5.2730713988e+00    0.3088146    0.2284456 -70.82   0.00117427    2.291    0.563
       161  -8.2844    230.8840    194.3482   9.0478166493e+01  -3.0775911989e+00    0.2332688    0.1674783 -45.85 0.0006655984    1.384    0.277
       162  -8.9096    224.3780    193.9085   9.1596329084e+01  -1.9527288414e+00     0.341592    0.2078676 -56.41  0.001142844    2.116    0.527
       163  -8.8930    185.4348    194.9027   9.9583649612e+01   4.6106369431e+00    0.2555444    0.2254812  84.73 0.0006632787    1.428    0.300
       164  -9.1228    160.9590    194.4521   1.0486927566e+02   9.2565488106e+00    0.3380892    0.2459178  69.35 0.0008533461    1.851    0.460
       165  -8.5880     76.9921    193.9724   1.2487113161e+02   2.4163516402e+01    0.2230529     0.188864  79.59 0.0004522032    1.116    0.104
       166  -8.8694     43.5864    193.3386   1.3277122729e+02   2.8871955331e+01    0.3821043    0.2087371  78.78  0.001712074    2.184    0.542
       167  -8.6525    172.4418    192.0056   1.0182673128e+02   7.6256139522e+00    0.3089994     0.236942 -85.91   0.00117413    1.872    0.466
       168  -7.7337    205.2523    191.9444   9.4910890548e+01   1.6553956009e+00    0.1802354    0.1150154 -43.48 0.0004030384    1.497    0.332
       169  -8.2357    199.0686    191.8506   9.6140756867e+01   2.7669706435e+00    0.2085483    0.1935551 -75.84 0.0005714579    1.291    0.225
       170  -8.3785    179.1191    191.6958   1.0030632701e+02   6.4421345701e+00    0.2513416    0.1970024 -58.60 0.0006174004    1.412    0.292
       171  -9.0339    139.5696    190.6938   1.0910700067e+02   1.4139717075e+01    0.4007757    0.2767464  78.54  0.001052121    2.134    0.531
       172 -10.4617     92.0328    188.4367   1.2031190777e+02   2.3156554888e+01     1.008217    0.4588654  53.10  0.003361653    2.592    0.614
       173  -8.9630    129.3113    188.7285   1.1119292280e+02   1.6519313151e+01    0.3439435    0.2451265  83.40  0.001032831    1.916    0.478
       174  -8.3450    237.2028    188.4747   8.8198799221e+01  -3.0108736918e+00    0.2510988     0.160004 -38.92 0.0006593378    1.382    0.276
       175  -8.9095    216.6045    187.8525   9.1875827795e+01   4.8411330953e-01    0.2813303    0.2310248 -64.60 0.0008611334    1.518    0.341
       176  -9.3323    155.9857    187.6155   1.0467160624e+02   1.1715850460e+01    0.3877349    0.2388012 -61.06 0.0009762856    1.902    0.474
       177  -8.2295    148.6118    189.3213   1.0671594684e+02   1.2740473556e+01     0.232413    0.1794596  82.59   0.00107726    1.692    0.409
       178  -9.8775    120.9742    186.8425   1.1287244700e+02   1.8506498677e+01    0.6009692    0.3231945 -73.34  0.002108339    2.916    0.657
       179  -8.6760     34.1427    187.9365   1.3435349761e+02   3.1287959128e+01    0.3236544    0.1713021  82.51  0.001062773    2.205    0.547
       180  -8.2209    230.5604    187.3019   8.9161782242e+01  -1.7367825288e+00     0.252271    0.1200238 -46.03 0.0007917327    1.998    0.500
       181  -8.7287    191.2291    187.4096   9.6872049349e+01   5.0885403194e+00    0.2947741    0.2256517 -63.15 0.0008628058    1.568    0.362
       182  -9.1828     54.5981    186.8461   1.2932159668e+02   2.9079298539e+01    0.4433304    0.2435209  79.33  0.001660987    2.419    0.587
       183  -8.8382    164.8119    186.7798   1.0249265917e+02   1.0208361444e+01     0.308296    0.2458959 -89.17  0.001070172    1.654    0.395
       184  -9.1941    109.5728    186.1215   1.1555513760e+02   2.0733295859e+01    0.4076494    0.2719879  74.81  0.001151906    2.001    0.500
       185  -8.7765    249.3085    185.6068   8.5551908059e+01  -4.3583157123e+00    0.2895376    0.1779013 -46.30 0.0009517103    1.540    0.351
       186  -9.9111    248.8002    177.5581   8.4079116655e+01  -2.8548158941e+00    0.6729705    0.2791267 -51.18  0.002678458    2.815    0.645
       187  -8.5219    250.5105    172.9090   8.2891350992e+01  -2.2878810169e+00     0.202062    0.1384109 -47.25 0.0005578121    1.358    0.264
       188  -8.8720    210.2731    184.6417   9.2459430340e+01   2.2061172128e+00    0.2863938    0.1811406 -46.70 0.0004338834    1.532    0.347
       189  -8.7481    182.8826    185.2016   9.8194296527e+01   7.1057633808e+00    0.3149047    0.1989644 -45.61 0.0009157688    1.545    0.353
       190  -9.1040     66.6831    184.6131   1.2602921810e+02   2.7987478474e+01    0.3760749    0.2426861  75.48  0.001176818    1.811    0.448
       191  -8.8349    202.7692    184.8391   9.3987263774e+01   3.5053302228e+00    0.2473668    0.1916648 -61.83 0.0006103945    1.537    0.350
       192  -7.7654     12.3154    185.6300   1.3913108836e+02   3.4061019097e+01    0.1370377   0.07795889  72.31 0.0007035625    1.782    0.439
       193  -8.4650    224.1323    183.6465   8.9618660187e+01   8.5226845055e-03    0.2345927    0.1714634 -48.23 0.0006450021    1.362    0.266
       194  -8.2896    197.0137    183.7775   9.4940330064e+01   4.7678259345e+00    0.2555568    0.1852004 -58.69 0.0006777178    1.588    0.370
       195  -9.0254    174.2722    183.5437   9.9730453389e+01   9.0992222215e+00    0.2949274    0.2450687 -78.24 0.0007461938    1.480    0.324
       196  -9.2696    241.2841    181.5482   8.6131761022e+01  -2.4000968467e+00    0.4263625    0.2506992 -61.68  0.001848285    2.755    0.637
       197  -9.0800     44.5385    182.4662   1.3120025055e+02   3.1425814717e+01    0.3812066    0.2240092  71.20  0.001152646    1.969    0.492
       198  -7.9432      1.7661    183.6288   1.4129767384e+02   3.5451653164e+01    0.1608815   0.09804394  48.32 0.0009418571    1.703    0.413
       199  -9.2765    147.6152    180.8098   1.0527294049e+02   1.4881677385e+01    0.3938589    0.2866505  86.92  0.001151639    1.963    0.490
       200  -8.7767      6.3299    190.4352   1.4089123715e+02   3.3462988292e+01    0.3091978   0.09325996 -73.63  0.001267631    2.676    0.626
       201  -9.5588     25.6363    178.8444   1.3533250401e+02   3.4413319766e+01    0.7166669    0.2944454  83.72   0.00230484    4.550    0.780
       202  -7.8479    235.5525    181.2537   8.7075265222e+01  -1.4305653807e+00    0.2012412    0.1144338 -32.46 0.0009574165    1.681    0.405
       203  -8.6704    137.6622    179.3541   1.0736499330e+02   1.7148314147e+01    0.3172751    0.2395003  81.71 0.0009583303    1.717    0.418
       204  -9.5140    191.5233    178.4748   9.4989667887e+01   6.8859618159e+00    0.3387941    0.2627302  68.59 0.0005805885    1.695    0.410
       205  -8.0533    169.1618    178.8299   9.9901532559e+01   1.1119363813e+01    0.2266614    0.2015633  89.97 0.0007059113    1.301    0.232
       206  -9.1760     35.7446    176.7452   1.3262953166e+02   3.3857013251e+01    0.5672387    0.2509059  85.12  0.001896003    4.018    0.751
       207  -8.5290    231.2244    177.2435   8.7048149758e+01   2.6584807479e-02    0.2636849    0.1660545 -49.39 0.0005975541    1.573    0.364
       208  -8.5654    217.7680    177.4639   8.9566528230e+01   2.2907119097e+00    0.2688986    0.1739179 -57.23 0.0007782867    1.826    0.452
       209  -8.6998    204.9745    177.6772   9.2088031765e+01   4.5446252670e+00    0.2821014    0.2010976 -50.89 0.0007556262    1.419    0.295
       210  -8.7141    129.3480    177.6404   1.0905752354e+02   1.9148015285e+01    0.3299568    0.2439808  82.87  0.001033336    1.765    0.433
       211  -8.9989    183.1240    176.2480   9.6304108240e+01   8.9637561680e+00    0.3022339    0.2297766 -56.81 0.0005785444    1.399    0.285
       212  -9.3505    159.0083    175.2901   1.0147996573e+02   1.3909359309e+01    0.4561304    0.3081582  80.13  0.001328239    2.489    0.598
       213  -8.0265     97.9589    177.3178   1.1690630314e+02   2.4917784776e+01    0.2107174    0.1958338  49.07 0.0007572162    1.112    0.101
       214  -9.0189     89.0138    176.8888   1.1912585671e+02   2.6515450639e+01    0.3097516    0.2198792  83.61 0.0009059593    1.682    0.405
       215 -10.0008     57.2331    173.1862   1.2672340583e+02   3.2141871361e+01    0.8777197     0.423783  83.41  0.002676688    4.567    0.781
       216  -8.8466     12.7613    176.8263   1.3815937725e+02   3.6129541376e+01    0.2475847    0.1451253  86.36 0.0007251014    1.629    0.386
       217  -7.5417    211.6676    176.3058   9.0495879913e+01   3.6035618063e+00    0.1386802    0.1139221 -82.91 0.0007038885    1.663    0.399
       218  -9.6094    104.3014    174.8349   1.1482646463e+02   2.4435787617e+01    0.5299423    0.3101673  67.86  0.001889557    2.581    0.612
       219 -10.7651     75.9756    169.3690   1.2122335260e+02   3.0453676590e+01     1.525304    0.5491247 -66.38  0.004665175    3.236    0.691
       220  -9.7335     81.3931    154.6599   1.1708778045e+02   3.3328856639e+01    0.5112273    0.3403956  79.09   0.00137896    2.075    0.518
       221  -8.6561    224.2870    174.3061   8.7712777980e+01   1.7643589406e+00    0.2723787    0.1695997 -49.47 0.0006876371    1.582    0.368
       222  -7.9920    241.4694    174.5125   8.4715686984e+01  -1.1477109189e+00    0.1351725    0.1160489 -33.97 0.0001212692    1.022    0.021
       223  -9.2687    175.8636    172.3960   9.7072996124e+01   1.1216929659e+01    0.3781835     0.278426 -55.85  0.001420314    1.417    0.294
       224  -8.3449    143.2011    172.8019   1.0469886132e+02   1.7610493024e+01    0.2931712    0.2339904  89.14  0.001014133    1.541    0.351
       225  -8.6559    134.8182    172.0563   1.0658864872e+02   1.9429556088e+01    0.2454032    0.2076867  88.05 0.0006989064    1.335    0.251
       226  -9.5212    121.3861    170.3817   1.0960391006e+02   2.2411772188e+01    0.4606948     0.292426 -74.25  0.001084633    2.078    0.519
       227  -9.0962     45.1115    171.1504   1.2953759334e+02   3.4172794683e+01     0.385088    0.2164216 -89.92  0.001206739    2.125    0.529
       228  -9.1660    229.9947    169.5479   8.5718635270e+01   1.6899237068e+00    0.4303077    0.1888229 -50.35  0.001719687    2.385    0.581
       229  -8.5477    205.7812    170.3195   9.0405920560e+01   5.8849092204e+00    0.3339849    0.1789297 -56.09  0.001080133    2.244    0.554
       230  -7.7110     68.6950    171.2926   1.2345468984e+02   3.1040594422e+01    0.1470261    0.1049418  73.80 0.0003167193    1.577    0.366
       231  -8.6805    237.3206    169.6893   8.4466655953e+01   4.2378093575e-01    0.2655342    0.1833144 -48.83 0.0008062526    1.381    0.276
       232  -8.6801    239.7089    164.6001   8.3039751795e+01   9.7392997666e-01    0.3122452    0.2026949 -16.04  0.001481806    2.084    0.520
       233  -8.4409    198.5074    170.1830   9.1827634832e+01   7.2847298485e+00    0.2263359    0.2003615  89.11 0.0006423178    1.367    0.268
       234  -9.2069    167.1885    168.8176   9.8247619284e+01   1.3737445896e+01    0.3892249    0.2827204  77.74  0.001006298    1.980    0.495
       235  -8.8138    149.8829    169.2587   1.0235817134e+02   1.7111222925e+01    0.3737063    0.2194082 -60.46  0.001203596    1.961    0.490
       236  -8.5848    244.4622    169.1345   8.3147299227e+01  -6.4576823978e-01    0.2075479     0.115222 -42.05 0.0005387089    1.546    0.353
       237  -8.3847     88.8238    168.5319   1.1768765367e+02   2.8642162999e+01    0.3027854    0.1925869 -79.50  0.001040998    1.915    0.478
       238  -8.2927    218.8091    168.2468   8.7484717420e+01   3.9095882407e+00    0.2077806    0.1829012 -61.95 0.0005902477    1.249    0.200
       239  -8.9502    111.5251    167.4237   1.1153737087e+02   2.4972524435e+01    0.3606352    0.2496025 -82.66  0.001076269    1.865    0.464
       240  -8.9124    191.8541    166.5477   9.2419804812e+01   9.3292900677e+00    0.3221169    0.2057661 -53.49 0.0009425572    1.622    0.384
       241  -8.7909    185.0119    166.5512   9.3854760298e+01   1.0674898367e+01     0.293625    0.2042882 -60.64 0.0007420682    1.638    0.390
       242  -9.4076    159.4920    165.3164   9.9259624568e+01   1.6082604120e+01    0.4484305     0.261831 -49.64  0.001864346    1.687    0.407
       243 -10.1573     94.9219    162.9745   1.1502674253e+02   2.9019200142e+01     0.928244    0.5343744  85.46  0.002955128    3.571    0.720
       244  -9.1973     92.1831    153.1781   1.1382805510e+02   3.1937446909e+01    0.2612294    0.2531681  78.04 0.0003081539    1.056    0.053
       245  -9.1093     20.5062    166.1985   1.3511596138e+02   3.8005768807e+01    0.3351626     0.163133  60.70  0.001051184    2.544    0.607
       246  -8.3712     13.3205    167.6683   1.3705481149e+02   3.8292906509e+01    0.1337598   0.08294536  72.62 0.0004582775    1.696    0.410
       247  -8.5905    140.6530    166.3325   1.0396675143e+02   1.9640607116e+01    0.3128361    0.2105473  66.68  0.001288362    1.965    0.491
       248  -9.6419    135.7266    164.0581   1.0469835899e+02   2.1160254983e+01    0.4394839    0.3006153  64.84 0.0008314681    1.837    0.456
       249  -8.3524    233.8734    165.1064   8.4138554002e+01   1.8674042406e+00    0.2092547    0.1688325 -55.77 0.0005836097    1.297    0.229
       250  -9.3906     33.5052    163.3471   1.3144780878e+02   3.7420947660e+01    0.5636095    0.2558934  57.91  0.002259398    2.973    0.664
       251  -9.4023    246.0843    162.8732   8.1638134874e+01   2.3803340150e-01    0.2770196    0.1727013 -42.94 0.0005480924    1.372    0.271
       252  -8.6557    212.9007    163.5823   8.7622816300e+01   5.9171775683e+00    0.2736052    0.1903317 -48.16 0.0005000352    1.358    0.264
       253  -8.6182     58.2402    163.5577   1.2496235541e+02   3.4433905822e+01    0.4198149    0.2233157  14.60  0.001622642    3.166    0.684
       254  -8.7204     60.7026    160.4354   1.2378820326e+02   3.4893454095e+01    0.3499696    0.2115792  71.08  0.001435081    2.244    0.554
       255  -8.5574    204.8969    163.0708   8.9055175244e+01   7.5304801309e+00    0.2224197    0.1917063 -68.79 0.0004761988    1.305    0.234
       256  -9.2990      3.2669    162.2664   1.3892203488e+02   4.0409446935e+01    0.3975401    0.1973373  61.81  0.001854639    2.371    0.578
       257  -9.2618    177.3615    160.7380   9.4244691784e+01   1.3473042301e+01    0.3263292    0.2624658 -65.11 0.0007787574    1.367    0.268
       258  -8.8883    151.6906    160.9276   1.0014115521e+02   1.8680483004e+01    0.3914769    0.2554375 -60.61  0.001000466    1.699    0.411
       259  -8.8502    242.2241    159.9787   8.1693052361e+01   1.4122271633e+00    0.1910568    0.1585815 -40.59 0.0004289882    1.038    0.037
       260  -8.6929    227.4385    159.1434   8.4042961793e+01   4.1356268757e+00    0.3156984    0.1987055 -59.76  0.001000936    1.912    0.477
       261  -9.8534    105.8127    157.9485   1.1112047706e+02   2.8359516788e+01    0.5961753    0.4014944  87.37  0.001261734    2.172    0.540
       262  -9.8070    250.1912    157.7463   7.9962331070e+01   5.0469556744e-01    0.3455776    0.1611287 -43.19 0.0008574603    1.807    0.447
       263  -8.6023    236.9925    158.9901   8.2365536911e+01   2.4869649564e+00    0.2139301    0.1601519 -68.43 0.0006673591    1.692    0.409
       264  -9.1806    167.6451    157.4579   9.5678478752e+01   1.6191994426e+01    0.3799575    0.2815036 -77.28  0.001141941    1.775    0.437
       265  -8.2223    128.0519    159.0663   1.0556105896e+02   2.3874830969e+01    0.2489632    0.1902114  84.42  0.000631171    1.664    0.399
       266  -8.5106    196.6385    158.0686   8.9623223939e+01   1.0172720153e+01    0.2394202    0.2104614  75.84 0.0009344379    1.319    0.242
       267  -8.3717    188.1343    157.7392   9.1293651584e+01   1.1941165465e+01    0.2673087    0.1936667 -54.46 0.0005801259    1.397    0.284
       268  -8.3520    217.9087    156.5927   8.5222106931e+01   6.3778861158e+00    0.2915575    0.1708504 -56.66 0.0008592333    1.931    0.482
       269  -9.0305    157.3417    155.6197   9.7637822061e+01   1.8741270357e+01    0.4554756    0.2627126 -62.78  0.001314953    2.211    0.548
       270  -9.3850    119.5508    155.2218   1.0692344923e+02   2.6462385231e+01    0.5326791    0.3242392 -73.25   0.00195403    2.319    0.569
       271  -9.2916     49.7910    155.4392   1.2593240605e+02   3.7550680093e+01    0.4756668    0.2630634  67.59   0.00177528    2.636    0.621
       272  -9.2431    242.6988    155.0108   8.0616633526e+01   2.2558659343e+00     0.245717    0.1974186 -67.58  0.000391365    1.453    0.312
       273  -8.0078    239.7072    153.3200   8.0763428011e+01   3.0849246576e+00    0.1892526    0.1567825 -53.42 0.0004492118    1.170    0.145
       274  -8.2702    204.4600    155.2654   8.7473076269e+01   9.2162524347e+00    0.2098534    0.1325767 -54.11 0.0009394164    1.632    0.387
       275  -8.5972    144.6718    155.0536   1.0053927275e+02   2.1487794226e+01     0.268825    0.2179777  62.99 0.0009450459    1.353    0.261
       276  -9.5453     67.8447    153.8112   1.2067548658e+02   3.5575706130e+01    0.4534391    0.2903065  78.58  0.001458555    2.171    0.539
       277  -8.4807    232.9555    154.0074   8.2030881507e+01   4.1388053121e+00    0.2116137     0.160833 -69.88 0.0005531613    1.630    0.386
       278  -9.7198    132.8776    152.9179   1.0299465784e+02   2.4392285548e+01    0.4730676    0.3545693  81.84  0.001508503    1.757    0.431
       279  -8.8147    133.5107    148.4969   1.0184369020e+02   2.5317522742e+01     0.358696      0.19882 -45.54  0.001421256    1.785    0.440
       280  -8.3614    151.8203    152.8697   9.8327113354e+01   2.0520074828e+01    0.2190594    0.1857877 -80.96 0.0005867602    1.331    0.249
       281  -8.9376     20.0348    152.7038   1.3354959034e+02   4.1353744984e+01    0.2346339    0.1561881  82.28 0.0007905902    1.594    0.373
       282  -7.7068      9.4858    153.4927   1.3639668765e+02   4.2041587019e+01    0.1286262    0.1030812 -77.06  0.000810361    1.024    0.023
       283  -9.7498     29.2243    150.6260   1.3080193548e+02   4.1008225980e+01    0.4853759    0.2588831  75.66  0.002038091    2.754    0.637
       284  -8.3712    250.4862    140.9974   7.6587270517e+01   3.5135194860e+00     0.195361    0.1529426 -45.44 0.0004935771    1.071    0.066
       285  -9.7289    248.7368    149.4996   7.8551448733e+01   2.2535299119e+00    0.3653939    0.1936682 -43.21 0.0008331419    1.590    0.371
       286  -9.2745    247.0841    143.7090   7.7647944080e+01   3.5992918820e+00    0.2992214    0.1820584 -35.04 0.0006657072    1.553    0.356
       287  -9.3615    242.6958    150.0266   7.9611476286e+01   3.1845455873e+00    0.3232216    0.2628608 -71.65  0.001665814    1.448    0.309
       288  -8.8959    240.3657    145.2342   7.9012146056e+01   4.4866667626e+00    0.2448089     0.147381 -48.44 0.0006756692    1.475    0.322
       289  -9.1067    242.7201    143.3525   7.8255689807e+01   4.4238069825e+00     0.195681    0.1508382 -48.93 0.0009114151    1.137    0.121
       290  -8.7937    189.3682    150.1867   8.9377014599e+01   1.3302302784e+01    0.3285264    0.2108721 -56.40 0.0008138547    1.657    0.396
       291  -8.1115    182.3996    151.2803   9.1075353671e+01   1.4502130069e+01    0.2146204    0.1397365 -54.97 0.0005072893    1.588    0.370
       292  -8.3684    162.7382    150.8737   9.5323356974e+01   1.8695323203e+01    0.3006521    0.2138106 -66.83  0.001084068    1.668    0.400
       293  -8.7149     98.3118    150.7324   1.1164524185e+02   3.1490018350e+01    0.3176041    0.2359731  82.36 0.0009937185    1.710    0.415
       294  -7.9290    237.0080    150.5108   8.0635539045e+01   4.0857357537e+00    0.1773196    0.1391189  49.80 0.0003579014    1.479    0.324
       295  -9.9251    233.6961    147.1501   8.0493672751e+01   5.3148883287e+00    0.5183121    0.2565562 -30.52  0.002084083    2.485    0.598
       296  -8.3928    212.8530    150.0822   8.4769839175e+01   8.6389298394e+00    0.2224331    0.1840058 -62.21 0.0004376371    1.264    0.209
       297  -8.9208      2.6944    150.1392   1.3775003791e+02   4.3353332556e+01     0.205599    0.1312847  89.29 0.0009903663    1.484    0.326
       298  -8.5019    198.8090    149.0200   8.7219861997e+01   1.1628948355e+01    0.2303018    0.1918608 -70.25 0.0005779015    1.329    0.248
       299 -10.1297     89.1448    146.1617   1.1322480445e+02   3.4197409970e+01    0.7118182    0.4228651  88.96  0.002437653    3.304    0.697
       300  -9.6856     39.7330    148.0120   1.2751379104e+02   4.0568616230e+01    0.4819713    0.2555493  63.04  0.001762573    2.737    0.635
       301 -10.5260     54.4473    143.9820   1.2266640257e+02   3.9841816373e+01    0.9503791    0.5269765  89.42  0.003018967    3.024    0.669
       302  -9.0735     57.2200    135.5911   1.2028182991e+02   4.1567102124e+01    0.2797129    0.2177054   7.83  0.001201333    1.583    0.368
       303  -8.1839    223.5933    147.0567   8.2195943808e+01   7.1930589991e+00    0.2274588    0.1585341 -56.81 0.0006518561    1.470    0.320
       304  -8.1798    206.7736    146.5633   8.5146580399e+01   1.0541873650e+01    0.2302113     0.165889 -50.34 0.0005953668    1.308    0.236
       305 -10.2793    149.0091    144.8958   9.7185624522e+01   2.2948976448e+01    0.6165258     0.411058 -80.52  0.001535355    2.362    0.577
       306  -8.9598    150.9630    136.1096   9.4658810090e+01   2.4539671203e+01    0.4772305    0.3057272  13.91   0.00168872    2.943    0.660
       307 -10.1420    139.1832    145.0723   9.9635705228e+01   2.4961514246e+01    0.5675951    0.3505628 -70.09  0.001288275    2.292    0.564
       308 -10.2853    106.7413    144.3371   1.0796044033e+02   3.1545261083e+01    0.8063428    0.5313437 -89.57   0.00218856    2.442    0.591
       309  -9.1182     78.0592    146.7549   1.1646610782e+02   3.5831830680e+01    0.3235677    0.2191257  88.21  0.001130385    2.007    0.502
       310  -9.2920     13.4888    146.2956   1.3445303391e+02   4.3465803207e+01    0.4198686    0.2199684  67.74  0.001410379    2.585    0.613
       311  -8.2089    175.2813    146.1990   9.1461131058e+01   1.7095263517e+01    0.2130566    0.1761477 -74.46 0.0006250241    1.366    0.268
       312 -10.9540     69.5590    141.3095   1.1780668616e+02   3.8461045843e+01    0.7123914    0.4950634 -60.02  0.002105561    1.327    0.247
       313  -9.6097     68.5044    135.0056   1.1683239162e+02   4.0171258595e+01    0.4889481    0.2905995   5.57  0.001899747    2.942    0.660
       314  -9.9767    125.0190    142.3266   1.0261883828e+02   2.8501015883e+01    0.6853943    0.4175211 -69.08  0.001805142    2.222    0.550
       315  -7.9344    194.4574    143.9421   8.6958590198e+01   1.3575289329e+01     0.228679    0.1398098 -47.59 0.0004948637    1.542    0.351
       316  -8.8327    165.3949    143.9474   9.3138611339e+01   1.9688696177e+01    0.2842701    0.2508178 -88.85 0.0006902186    1.248    0.199
       317  -9.2497      2.6176    141.6037   1.3676850835e+02   4.5394817093e+01    0.3700378    0.1921789  78.26  0.001750202    2.459    0.593
       318  -7.9955    230.5119    142.5348   8.0066015799e+01   6.7797408083e+00    0.1409664    0.1237497 -46.70 9.875858e-05    1.005    0.005
       319  -8.0847    181.8187    141.7940   8.9061034479e+01   1.6670490609e+01    0.2111705    0.1771792 -76.40  0.000526407    1.332    0.249
       320  -9.8321     23.3674    138.2567   1.3059640107e+02   4.4585647595e+01    0.5034317    0.2795142  73.94     0.001936    2.635    0.621
       321  -9.3488    241.4835    136.5276   7.7059477031e+01   5.9145456187e+00    0.2892866    0.1196677 -38.68  0.001169262    2.251    0.556
       322  -8.6362    172.2937    138.4600   9.0335849080e+01   1.9423484725e+01    0.3234435    0.2370817 -87.65 0.0008365684    1.889    0.471
       323  -8.5445     89.0834    138.2923   1.1155706173e+02   3.6151353963e+01    0.3534083    0.2239129 -14.64   0.00131794    2.849    0.649
       324  -8.0231    218.5218    138.5744   8.1278000943e+01   9.8295764611e+00    0.1438891    0.1289582 -55.49 0.0001501451    1.048    0.046
       325  -8.3175    207.1945    137.7212   8.3132802884e+01   1.2252512213e+01    0.2580745    0.1843324 -54.96 0.0006437433    1.369    0.270
       326  -8.6257    197.4992    137.5143   8.4923875329e+01   1.4283134618e+01    0.2862427    0.2247339 -75.61 0.0008447142    1.496    0.332
       327  -8.5976    162.7225    136.5305   9.2017984368e+01   2.1910871198e+01    0.2602264    0.1890274 -71.30 0.0007825398    1.690    0.408
       328 -10.4463     83.3322    133.0844   1.1206746418e+02   3.8373732941e+01    0.6888229    0.3793103 -59.37   0.00140103    1.812    0.448
       329  -8.9428     85.0623    122.7153   1.0917586236e+02   4.0577292113e+01    0.5068185     0.286021  12.61  0.001784063    3.279    0.695
       330  -9.3610     39.1616    136.3729   1.2573843099e+02   4.3505311763e+01    0.3067532    0.2068194  80.32  0.000780448    1.882    0.469
       331  -9.3158    250.7299    130.1022   7.4375858866e+01   5.4539454265e+00    0.5004392    0.1111343 -42.35   0.00157991    3.797    0.737
       332  -9.2713    248.2803    135.2458   7.5766111020e+01   4.9461285002e+00    0.3458729    0.1895608 -47.57 0.0007197072    1.561    0.359
       333  -8.7093    246.9817    130.3106   7.4965340386e+01   6.0782254713e+00    0.2390773    0.1550155 -51.29 0.0006136759    1.355    0.262
       334  -7.7918    187.7930    135.9103   8.6485122774e+01   1.6655755279e+01    0.2037456    0.1164908 -42.99 0.0005346925    1.667    0.400
       335  -8.6185    179.7186    134.0482   8.7721333668e+01   1.8777318547e+01    0.3228186    0.1944284 -56.60 0.0008875049    1.790    0.441
       336  -7.9869    237.4821    133.9593   7.7156655876e+01   7.1216259334e+00    0.2147305    0.1188499 -45.94  0.001012712    1.561    0.359
       337  -8.3713    231.5017    134.0075   7.8120488002e+01   8.2248634426e+00    0.2147044    0.1234186 -42.97 0.0004094072    1.529    0.346
       338  -9.1783    112.7864    133.2987   1.0377618757e+02   3.3062235903e+01     0.350893    0.2596367 -87.74  0.000857547    1.837    0.456
       339  -9.3747    143.1464    131.7187   9.5500883306e+01   2.7208936878e+01    0.3382191    0.2665315 -63.30 0.0007923295    1.347    0.258
       340 -10.5331    132.3703    131.0905   9.8055485184e+01   2.9630670813e+01    0.6853001    0.4820648 -74.09   0.00213504    1.869    0.465
       341 -10.4387     98.1491    130.1255   1.0711341159e+02   3.6553151603e+01    0.7707755    0.3286982 -54.58  0.001939024    2.347    0.574
       342  -8.8702     98.8237    120.7974   1.0467311858e+02   3.8627542401e+01    0.6565212    0.3394418  18.57  0.002009973    4.083    0.755
       343  -7.9511    204.7530    130.7353   8.2036182997e+01   1.4161109516e+01    0.2010389    0.1627662 -72.30 0.0006417023    1.342    0.255
       344 -10.0604     12.8841    129.0687   1.3222082512e+02   4.7649963438e+01     0.495225    0.2680756  83.58  0.002155321    2.591    0.614
       345  -8.3421    220.5396    130.0075   7.9086895346e+01   1.1109039556e+01    0.2171842     0.127782 -45.11  0.000463822    1.518    0.341
       346  -7.9925    192.6589    129.9070   8.4144173598e+01   1.6870813787e+01    0.2202828     0.128623 -53.39 0.0005096073    1.730    0.422
       347  -9.1083    168.3760    129.5275   8.9095088877e+01   2.2212545982e+01    0.3163712    0.2464401 -72.04 0.0007378432    1.471    0.320
       348  -9.5545    153.1078    128.4896   9.2320505640e+01   2.5779931858e+01    0.6615983    0.2621495 -46.67   0.00212688    2.470    0.595
       349  -7.8877      1.4173    130.1604   1.3564779901e+02   4.8180037441e+01    0.1714946     0.100089 -81.83  0.000597588    1.615    0.381
       350  -8.3160    211.4380    129.2012   8.0488433639e+01   1.3094123586e+01    0.2105913    0.1252954 -54.35 0.0007048321    1.677    0.404
       351 -10.5388     59.8866    124.9634   1.1730925077e+02   4.3805171359e+01    0.7570164    0.4680558  86.74  0.002685211    2.856    0.650
       352  -8.8670     59.0867    115.5353   1.1548190821e+02   4.6146818670e+01     0.377967    0.2073568 -15.30    0.0013301    3.680    0.728
       353 -10.7308     44.8937    123.6037   1.2164017648e+02   4.5974564993e+01     1.094849    0.6193582  82.25  0.004009769    3.713    0.731
       354  -9.9978    117.8209    125.2233   1.0045309729e+02   3.3961324737e+01    0.5275648    0.3650658 -81.77  0.001427365    2.171    0.539
       355 -10.7935     28.3650    121.5251   1.2634438707e+02   4.8159502070e+01    0.9637197    0.4892482 -84.50   0.00382368    3.110    0.678
       356  -7.9506    228.4480    125.5151   7.6824120534e+01   1.0421571264e+01    0.1414366    0.1232138 -52.58 0.0001709018    1.006    0.006
       357  -8.9633    179.2761    124.8932   8.5669673228e+01   2.0807308380e+01    0.2856787    0.2396218 -84.97 0.0007561216    1.325    0.245
       358  -7.7219    244.2368    124.6143   7.4215879009e+01   7.6147945037e+00    0.1401743   0.08982371 -61.24 0.0006917582    1.639    0.390
       359  -7.9154    188.4848    123.9767   8.3595863436e+01   1.8987355588e+01     0.230411    0.1417783 -46.36 0.0005516846    1.536    0.349
       360 -10.3416    130.9091    118.3438   9.5267971114e+01   3.2816537227e+01    0.6736546    0.4401825 -76.71  0.002540934    2.452    0.592
       361  -9.7528     71.5798    120.0823   1.1263506070e+02   4.3321689698e+01    0.5980579    0.3814819 -84.23  0.002123304    2.588    0.614
       362  -9.7704     73.1920    129.1822   1.1419855503e+02   4.0904336338e+01     0.471332     0.303967 -75.93  0.001596194    1.984    0.496
       363  -7.7865    195.0000    122.0412   8.1889751706e+01   1.7972345907e+01    0.2408565   0.08078299 -43.07 0.0004421798    2.805    0.644
       364  -8.4603    172.0692    121.6946   8.6420418717e+01   2.3066556749e+01    0.2580795    0.2002209 -58.37 0.0004153779    1.300    0.231
       365  -9.1420    158.5714    120.7618   8.9166466383e+01   2.6260044778e+01    0.5388918    0.2729528 -43.28  0.001559957    1.947    0.487
       366 -10.1354    141.4977    118.0836   9.2537423507e+01   3.0597646141e+01    0.6253467    0.3129076 -53.43  0.001410597    2.176    0.540
       367  -9.7941      3.2188    117.6467   1.3336341044e+02   5.0983791960e+01    0.4636339    0.2766396  71.54  0.002403816    2.315    0.568
       368  -7.8156    231.5083    117.5023   7.4652776745e+01   1.1329062684e+01    0.1414529    0.1199798 -59.44 -0.0001000029    1.053    0.050
       369 -10.0945    109.1611    114.3133   1.0009012930e+02   3.8152034321e+01    0.5601301    0.3672807 -71.15  0.001218437    2.177    0.541
       370  -9.0358    109.8319    107.3592   9.8083976063e+01   3.9550333228e+01     0.457047    0.2701718  18.24  0.001656683    2.884    0.653
       371  -7.6754    219.4657    116.5180   7.6345368618e+01   1.3915290616e+01    0.1427208    0.1273018 -55.87 -2.456348e-05    1.025    0.024
       372  -7.8771    185.6176    115.8668   8.2258231754e+01   2.1263618115e+01     0.219827    0.1317032 -54.07 0.0004800817    1.699    0.412
       373  -8.9013    250.1006    115.1440   7.1475431779e+01   8.2545449510e+00    0.1927284    0.1738278 -27.84  0.001152817    1.304    0.233
       374  -8.2654    193.2077    115.2266   8.0652489673e+01   1.9723617491e+01    0.2098795    0.1626705 -67.77 0.0005203975    1.358    0.263
       375  -7.3559    153.2656    115.6488   8.9114562661e+01   2.8528125017e+01    0.1578303    0.1197723 -76.63 0.0006518979    1.619    0.382
       376 -10.1441     92.7555    112.6289   1.0439975690e+02   4.1588964164e+01    0.5362731    0.3315854 -63.38  0.001315049    1.961    0.490
       377 -10.0319     78.8331    112.3487   1.0854585774e+02   4.3999518835e+01    0.5937958    0.4044493 -83.39  0.002149367    2.344    0.573
       378  -8.7962     78.3381    105.3105   1.0691575861e+02   4.5661825709e+01    0.3169685    0.2357947   9.43  0.001329825    1.610    0.379
       379  -8.2715    167.0694    114.3381   8.5702654024e+01   2.5713982898e+01    0.2172047    0.1997335  68.15  0.000774822    1.097    0.088
       380  -9.8001    121.9427    112.7356   9.6179198622e+01   3.5928936624e+01    0.3952078    0.3044458 -78.69 0.0007623998    1.667    0.400
       381 -10.0125    118.6999    106.7016   9.5465354885e+01   3.7902153698e+01    0.4731045    0.3248741 -44.39  0.002186033    1.443    0.307
       382 -10.7552    109.5621     99.3276   9.5993973455e+01   4.1306601435e+01    0.8930179     0.496727  66.38  0.002753935    3.577    0.720
       383  -9.0357    107.6700     92.7312   9.4696443607e+01   4.3027500883e+01    0.5720905    0.2956817  28.03  0.002105817    2.744    0.636
       384 -10.2713    133.7985    109.3225   9.2207575147e+01   3.4152470037e+01    0.6817231    0.3113599 -49.33  0.002351969    2.258    0.557
       385  -9.7482     14.1760    111.3246   1.2895499772e+02   5.1705824507e+01     0.392861    0.2433369  80.39   0.00135563    2.345    0.574
       386  -8.3247    174.8092    112.0288   8.3508039420e+01   2.4447656097e+01    0.2391628    0.1959242 -69.33 0.0006306415    1.277    0.217
       387  -8.5850    159.1612    111.9149   8.6836426488e+01   2.7991684073e+01    0.2368526    0.2004787 -78.30 0.0005370834    1.285    0.222
       388 -10.2644     66.5504    109.8571   1.1177997588e+02   4.6429383458e+01    0.6415928    0.3152153 -54.46  0.002589164    1.922    0.480
       389 -10.6137    248.5481    107.6911   7.0195656649e+01   9.8577846479e+00    0.5204558    0.2898489 -33.15   0.00247643    2.037    0.509
       390  -8.1814    189.3625    108.1374   7.9713453596e+01   2.1965399770e+01    0.2144322    0.1282106 -52.77 0.0004430678    1.659    0.397
       391  -9.4414    139.9727    104.8035   8.9491943967e+01   3.3746877794e+01    0.3751534    0.2863697  89.06 0.0007986748    1.712    0.416
       392 -10.4949     45.6499    102.3386   1.1679610402e+02   5.0824013120e+01    0.7377632    0.4736807  77.43  0.003139426    3.093    0.677
       393  -8.8887     45.7971     92.7530   1.1441043326e+02   5.2905098329e+01    0.3835628    0.1917075   8.76  0.001531149    3.200    0.688
       394 -10.6454     22.9328    102.7791   1.2449147831e+02   5.2966373567e+01    0.6935317    0.4243942  79.22  0.003035505    2.920    0.658
       395  -8.4185    166.5349    104.3116   8.3328797001e+01   2.7865165995e+01    0.2638274    0.2017624 -65.64 0.0006940136    1.414    0.293
       396  -9.5357    150.5093    103.0735   8.6545393983e+01   3.1746543956e+01    0.4976431     0.288499 -61.37  0.001127962    2.251    0.556
       397  -8.9889    151.2787     95.9018   8.4501829022e+01   3.2989394411e+01    0.3938567    0.2781671  -5.28   0.00136898    2.348    0.574
       398  -8.8623     93.0862    104.7974   1.0226177207e+02   4.3267205799e+01    0.3396145    0.2109611 -17.50  0.001141255    2.552    0.608
       399 -10.0563    128.5590    102.1474   9.1646613140e+01   3.6781930862e+01    0.3720643    0.2817357  89.82  0.001072183    1.813    0.448
       400  -9.4850      6.4654    102.4864   1.2987221866e+02   5.4228107984e+01     0.326677    0.1858439 -76.53  0.001719239    1.861    0.463
       401  -7.5841    175.5366    102.4871   8.1028380094e+01   2.6176256186e+01     0.152255    0.1387646 -76.93 0.0001878885    1.063    0.059
       402  -8.2324    159.8393    101.1427   8.3962501303e+01   3.0015995449e+01    0.2365479    0.1944118 -76.67 0.0005316979    1.340    0.254
       403  -9.2199     81.9341    100.1854   1.0444119286e+02   4.6193804608e+01     0.354525    0.2659059 -76.26 0.0008325756    1.847    0.459
       404 -10.3181     63.8824     96.4917   1.0926338554e+02   4.9771074207e+01    0.7157596     0.408247 -66.57  0.002183952    2.513    0.602
       405  -8.8404     65.0195     87.6956   1.0649996112e+02   5.1452174359e+01    0.4736742    0.2451169  16.00  0.001868797    2.936    0.659
       406  -8.5770    167.9515     98.5755   8.1594828027e+01   2.8663568101e+01    0.2418069    0.2044598 -32.91  0.001245258    1.286    0.222
       407 -10.8191    123.9894     90.9917   8.9781956399e+01   3.9994511953e+01    0.8281817    0.6150193 -17.69  0.002538913    1.684    0.406
       408  -9.7250     95.0326     96.4078   9.9402213277e+01   4.4698543961e+01    0.5985261    0.2811628 -40.09  0.001159537    2.170    0.539
       409  -8.2808    164.6758     94.1508   8.1152704498e+01   3.0259433419e+01    0.2349024    0.1757361 -59.60 0.0004876917    1.396    0.284
       410  -9.5101    139.1408     92.0088   8.6282820344e+01   3.6478647005e+01    0.4894233    0.3270034 -58.13  0.001494325    1.719    0.418
       411  -7.6257    188.4854     93.4932   7.6396011363e+01   2.4936232547e+01    0.1471084    0.1337189 -75.86 2.253805e-05    1.018    0.018
       412  -7.8845    176.3949     93.2533   7.8584810774e+01   2.7736104990e+01    0.2128345    0.1299309 -53.40 0.0005485152    1.679    0.404
       413  -9.3447      5.3581     92.2806   1.2835407901e+02   5.6538454219e+01    0.3221359    0.1965983  55.28  0.001623866    2.504    0.601
       414  -8.8256     43.4546    109.3903   1.1912340278e+02   4.9473393380e+01    0.2767474    0.1344682  23.30  0.001231589    2.412    0.585
       415  -8.9478    224.1574     91.5020   7.0220708020e+01   1.7509774550e+01    0.2323338    0.1700156 -48.53 0.0002405676    1.236    0.191
       416  -8.2405    157.7634     91.9776   8.2051764475e+01   3.2257217940e+01    0.2094836    0.1896961 -53.98 0.0003562316    1.101    0.092
       417  -9.6731     34.8540     90.0479   1.1755259782e+02   5.4666450422e+01    0.4366654    0.2706336 -75.02   0.00172842    2.345    0.573
       418  -9.0803     22.8122     90.5350   1.2190981827e+02   5.5666806306e+01    0.3126793     0.229841 -16.34  0.001672008    1.413    0.292
       419  -8.1225    151.3644     89.2568   8.2732400441e+01   3.4233230687e+01    0.2102734     0.134252 -51.74 0.0003740209    1.646    0.393
       420 -10.2036     86.5080     85.9739   9.9045969141e+01   4.8340997091e+01    0.6105052    0.4096989 -54.36  0.001627147    1.679    0.405
       421  -9.8902     48.5356     84.3151   1.1124198615e+02   5.4345390335e+01    0.4663473    0.3371636  82.35  0.001895357    2.620    0.618
       422  -7.7429    179.4184     85.5266   7.6110901319e+01   2.8446670401e+01    0.1468796    0.1313856 -77.68 0.0001353686    1.061    0.057
       423  -9.8421    104.9577     83.3893   9.2792296031e+01   4.5381528851e+01    0.4518286    0.3289732 -72.81  0.001194927    2.040    0.510
       424  -8.9176    105.7280     76.9813   9.0688293404e+01   4.6407343799e+01    0.3910034    0.2228088  27.27  0.001621011    2.281    0.562
       425  -8.3082    157.8754     84.0878   7.9969972323e+01   3.3682324430e+01    0.2213407    0.1889097 -75.57 0.0004146828    1.230    0.187
       426  -9.2320    140.7971     82.7208   8.3362213560e+01   3.7836731584e+01    0.4053574    0.2461708 -56.41  0.001015668    1.958    0.489
       427  -7.4487    185.3045     82.6333   7.4350841861e+01   2.7604359541e+01    0.1542183    0.1042356 -72.76 0.0007035638    1.744    0.427
       428  -9.6899     24.6593     80.4319   1.1884584797e+02   5.7628796786e+01    0.4233553    0.2719944 -79.29  0.001425107    2.492    0.599
       429  -9.5055      9.6531     80.8737   1.2446182389e+02   5.8682627108e+01    0.2763684    0.1929872  57.40  0.001293833    2.204    0.546
       430  -8.5297    150.1480     80.6785   8.0711827657e+01   3.6069729269e+01    0.2519316    0.1933664 -57.02 0.0007689494    1.382    0.276
       431  -9.0942    119.3635     80.1085   8.7904645764e+01   4.3023257397e+01    0.3899646    0.2418189 -48.08  0.001286437    1.729    0.422
       432  -8.8156     74.4377     80.2668   1.0123170463e+02   5.1483526887e+01    0.3258585     0.225701 -66.01  0.001116392    2.115    0.527
       433  -8.3864    166.8039     79.7199   7.7037345462e+01   3.2384975845e+01    0.2292784      0.19094 -34.98 0.0003758635    1.308    0.236
       434  -7.8125    184.2058     78.0624   7.3435501987e+01   2.8642791954e+01    0.1848258    0.1112184 -40.37 0.0005303851    1.684    0.406
       435  -7.9173    174.6042     77.8378   7.5088002371e+01   3.0898704073e+01    0.2077927     0.125106 -52.52 0.0006103739    1.712    0.416
       436 -10.0527     63.7174     74.4963   1.0311144180e+02   5.4231366822e+01     0.634688    0.2909759 -56.69  0.002449567    3.211    0.689
       437  -9.5009    128.0896     74.6857   8.4134874674e+01   4.2091174611e+01    0.5297384    0.2649971 -43.54  0.001742534    2.089    0.521
       438  -8.8075    140.5361     75.3705   8.1395105380e+01   3.9189058084e+01    0.2482896    0.1960269 -63.75 0.0007249959    1.428    0.300
       439  -9.9221     82.2621     72.3325   9.6302795288e+01   5.1646786429e+01    0.5040219    0.2926365 -55.10  0.001217689    2.277    0.561
       440  -8.2395    163.5518     73.2808   7.6008655635e+01   3.4235593257e+01     0.251199    0.1344564 -44.12 0.0008127688    1.894    0.472
       441  -8.0786    151.4658     73.5081   7.8502687451e+01   3.7001169572e+01    0.1444355    0.1342119  84.19 0.0004892649    1.049    0.047
       442  -8.7555    115.7139     72.4943   8.6637862566e+01   4.5137532516e+01     0.350741    0.1839288 -44.08  0.001108313    2.018    0.504
       443  -9.4007     95.1654     71.1450   9.1974731996e+01   4.9504100817e+01    0.3693268    0.2261954 -53.68 0.0009253098    2.057    0.514
       444  -8.1084     42.5936     72.8411   1.1016477229e+02   5.7323337409e+01    0.1744673    0.1164547 -58.93 0.0007981451    1.775    0.437
       445  -7.7788    175.4717     72.5351   7.3606862479e+01   3.1586802653e+01    0.1418861    0.1303813  88.93 8.507818e-05    1.010    0.010
       446  -8.0763    169.1242     71.8208   7.4579110441e+01   3.3180189099e+01    0.2002028    0.1656119  38.19  0.001073259    1.396    0.284
       447  -9.3702    105.8389     71.2849   8.8949578772e+01   4.7384986259e+01    0.3879537    0.1996416 -45.72  0.001268038    2.111    0.526
       448  -9.0851     28.8848     70.7717   1.1471873611e+02   5.9167435979e+01     0.407719    0.2003256 -14.76  0.001741608    3.094    0.677
       449  -9.4798     51.3435     69.5452   1.0598441887e+02   5.6869277818e+01     0.398567    0.2670971 -67.40  0.001718921    2.455    0.593
       450  -8.9874     16.4794     69.9774   1.1926513225e+02   6.0389613669e+01    0.2766253    0.2015902 -70.33  0.001494609    1.748    0.428
       451  -7.8301    157.0000     69.9696   7.6426037318e+01   3.6304682229e+01    0.2217186   0.08130196 -37.91 0.0004454087    2.853    0.650
       452  -8.9159    147.0812     68.3754   7.8032445165e+01   3.8857749536e+01    0.2657186    0.1994087 -53.22 0.0006313138    1.422    0.297
       453  -8.9732    138.4811     66.0147   7.9241102821e+01   4.1202767094e+01    0.3122176     0.216845 -62.83 0.0009394237    1.787    0.440
       454  -8.8184    121.5994     66.1464   8.3252821835e+01   4.4933825210e+01    0.2868413    0.2223082 -69.80 0.0007423874    1.668    0.401
       455  -9.1116    110.1440     63.6524   8.5455031126e+01   4.7766884458e+01    0.3221807     0.230842 -52.82 0.0008853101    1.660    0.398
       456  -8.8090     64.3182     63.7168   9.9549739002e+01   5.6082514922e+01    0.3556145    0.2136245   1.04  0.001612552    2.428    0.588
       457  -8.8276     37.1713     64.0907   1.0960953361e+02   5.9573066719e+01    0.2738296    0.1919819 -65.46 0.0009508155    2.091    0.522
       458  -8.4135     85.1609     64.1825   9.2836193480e+01   5.2541161539e+01    0.3547642    0.1472478  29.75  0.001237448    3.470    0.712
       459  -7.5545    187.6486     63.2916   6.9316698082e+01   3.0247952222e+01    0.1452619   0.09791873 -78.49 0.0006725874    1.675    0.403
       460  -8.0439    158.2205     61.9552   7.4065382127e+01   3.7288815506e+01    0.1871429    0.1774333 -70.32 0.0004048466    1.085    0.078
       461  -8.0743     51.3361     62.3339   1.0374314130e+02   5.8168130569e+01    0.1364525   0.08822192 -11.38 0.0007052073    1.741    0.426
       462  -8.3395     19.3307     62.3267   1.1606917111e+02   6.1620905585e+01    0.1298816    0.0726077 -26.18 0.0007051085    1.708    0.415
       463  -9.6068     97.7412     59.9812   8.7740125057e+01   5.0852251303e+01     0.426397    0.2921733 -20.33  0.001863744    1.656    0.396
       464  -9.7012     73.2054     59.4164   9.5137869403e+01   5.5392951157e+01    0.3732308    0.2342927 -50.56  0.001232569    1.978    0.494
       465  -7.8006    164.3282     60.2745   7.2492003423e+01   3.6121832080e+01    0.1362568    0.1046104  34.51 0.0002212447    1.588    0.370
       466  -7.8112    147.1169     59.1662   7.5497047323e+01   4.0285373006e+01    0.1904148    0.1574532 -71.11  0.000573248    1.326    0.246
       467  -7.9006     88.8726     59.3800   9.0158592540e+01   5.2640902520e+01    0.1781535     0.162719 -31.83 0.0004765333    1.184    0.156
       468  -9.8414     23.3363     56.4006   1.1271701458e+02   6.2349649399e+01    0.3842828    0.2851176 -82.97  0.002064009    2.706    0.631
       469  -8.3510    130.8833     57.9482   7.8638749824e+01   4.4159575931e+01    0.2125131      0.16393 -76.70  0.000575393    1.654    0.395
       470  -9.5231      7.2649     57.1076   1.1949028386e+02   6.3489156981e+01     0.240882    0.2061287 -81.32  0.000940704    1.724    0.420
       471  -9.3098    119.0712     55.4960   8.0692402482e+01   4.7122132492e+01    0.3771094    0.2107467 -46.17  0.001427215    2.049    0.512
       472  -9.5437     54.3388     55.7162   1.0048727821e+02   5.8882434200e+01    0.3122154    0.2149644 -51.89  0.001191581    1.828    0.453
       473  -8.2066    140.0072     56.0658   7.6104463643e+01   4.2375266330e+01    0.2125746    0.1607214 -74.84 0.0004506242    1.628    0.386
       474  -8.6905     44.2928     55.6688   1.0422247734e+02   6.0217025632e+01    0.2140976    0.2023269 -88.90  0.000717515    1.614    0.381
       475  -8.7336    105.8056     53.3947   8.3428089952e+01   5.0228021796e+01    0.2449457    0.2084185 -75.44 0.0008156785    1.543    0.352
       476  -9.4760     92.4085     50.5150   8.6225450395e+01   5.3310339061e+01    0.3723818    0.2289213 -49.33  0.001246477    2.086    0.521
       477  -8.6296     92.7739     42.9377   8.3613036839e+01   5.4285786433e+01    0.3187927    0.1909173 -13.33  0.001553432    2.171    0.539
       478  -8.2018    144.5952     49.0657   7.3209607462e+01   4.2315768936e+01    0.1936398    0.1313207 -38.65 0.0006157077    1.595    0.373
       479  -8.5521    129.6399     49.1625   7.6350832444e+01   4.5694957491e+01     0.177499    0.1303108 -18.53 0.0005080234    1.641    0.390
       480  -8.7074    120.8794     47.5603   7.7858245272e+01   4.7848049089e+01    0.2268645    0.1906062 -41.11 0.0004997336    1.313    0.239
       481  -7.4416    163.7006     47.6896   6.9349701089e+01   3.8078980695e+01    0.1311482    0.1011929  33.91 0.0003589095    1.601    0.375
       482  -8.5174    112.2051     46.9554   7.9760015595e+01   4.9795515616e+01    0.1916707    0.1761774 -83.89 0.0005716067    1.286    0.222
       483  -9.0892     82.0369     46.6167   8.8025608760e+01   5.5802205303e+01      0.23091    0.2013057 -49.63 0.0006394512    1.447    0.309
       484  -8.4553     45.0512     44.7138   1.0020140356e+02   6.1876422826e+01    0.1904307    0.1526787 -35.31 0.0005121412    1.342    0.255
       485  -9.0919     16.5459     44.5619   1.1180343371e+02   6.4978889412e+01    0.2118346    0.1786877 -61.85   0.00093169    1.736    0.424
       486  -8.9065    132.9905     43.5311   7.3989252824e+01   4.5694119102e+01    0.2466633    0.1781074 -54.89 0.0008303387    1.621    0.383
       487  -9.0210     58.1034     42.5642   9.4581935958e+01   6.0357887259e+01    0.2785858    0.1881689 -49.30   0.00123362    2.005    0.501
       488  -7.9518     32.3433     44.3209   1.0510576673e+02   6.3468789650e+01    0.1270458   0.07678398 -11.66 0.0007049993    1.726    0.421
       489  -8.5150    220.5186     43.0315   6.0475063765e+01   2.5869917490e+01    0.1815262    0.1154818 -42.71  0.001007208    1.578    0.366
       490  -9.3582     69.5589     41.7126   9.0322805435e+01   5.8656228558e+01    0.3182508    0.2281433 -55.08  0.001053966    2.133    0.531
       491  -9.6012      5.1901     41.9693   1.1591065759e+02   6.6285826678e+01    0.2850243    0.1858993 -62.49  0.001247071    2.121    0.529
       492  -8.6672    106.0119     41.3325   7.9536888583e+01   5.1832557291e+01    0.2616744     0.174629 -42.93 0.0007679341    1.733    0.423
       493  -8.0696    140.4456     41.5283   7.1913806084e+01   4.4261464927e+01    0.1329007    0.1191622  71.88  0.000181468    1.056    0.053
       494  -8.6230     36.6504     40.7908   1.0211554374e+02   6.3517382353e+01    0.1898812    0.1779922 -54.76 0.0007375008    1.635    0.389
       495  -8.7330     95.3997     38.0313   8.1247525275e+01   5.4400266945e+01    0.2458447    0.1867614 -52.14 0.0007983528    1.719    0.418
       496  -8.3225     80.6372     36.7732   8.5061042142e+01   5.7368483240e+01    0.2043892    0.1530614 -37.03 0.0006987348    1.523    0.343
       497  -9.4661     26.1116     35.4977   1.0456565004e+02   6.5489372723e+01    0.2449179    0.1908762 -43.35 0.0008766244    1.566    0.361
       498  -8.1899    125.9396     35.7333   7.3175430136e+01   4.8237385085e+01    0.1782722    0.1542812  59.91 0.0003568365    1.060    0.057
       499  -8.6058    111.9984     34.6832   7.5958225966e+01   5.1390276252e+01    0.1981456    0.1756148 -53.03 0.0005780385    1.336    0.251
       500  -7.9503     88.5295     34.5206   8.1966393093e+01   5.6169021399e+01    0.1249925    0.1112391  31.55 9.261005e-05    1.069    0.065
       501  -8.9412     48.5800     33.6050   9.4807763316e+01   6.2984615672e+01    0.2060934    0.1843654  -1.11 0.0006351495    1.228    0.186
       502  -8.3335    119.0771     33.0858   7.3853256800e+01   5.0053547210e+01    0.1926112    0.1516788 -78.01 0.0005317171    1.638    0.389
       503  -8.7061     60.7022     32.3653   8.9947954864e+01   6.1327785440e+01     0.187182    0.1730689  -9.94 0.0005676582    1.279    0.218
       504  -8.7439     72.1631     31.4368   8.5793078957e+01   5.9534876461e+01    0.2012729    0.1899218 -61.00 0.0006435583    1.502    0.334
       505  -9.0678     12.8572     30.1861   1.0845146984e+02   6.7548946624e+01    0.2883883    0.1508141 -50.37  0.001618738    2.306    0.566
       506  -7.8414     42.3019     30.2929   9.5969815296e+01   6.4284276752e+01    0.1193367   0.07639923   1.59 0.0002679793    1.571    0.363
       507  -8.4177    101.2387     29.2403   7.6806592911e+01   5.4257107614e+01    0.1595184    0.1463412 -89.43 0.0006740139    1.347    0.258
       508  -8.9983     81.5306     27.4633   8.1511255631e+01   5.8308949413e+01    0.2698193     0.204029 -55.96 0.0007292225    1.986    0.496
       509  -8.9253      3.5285     27.7005   1.1186160731e+02   6.8666467729e+01    0.1885178     0.155065 -33.83 0.0008428445    1.362    0.266
       510  -7.8351    109.7701     27.0715   7.4063223450e+01   5.2718180125e+01    0.1527768    0.1052719 -28.23 0.0008754405    1.642    0.391
       511  -8.9170     91.8144     26.4762   7.8304004929e+01   5.6449855775e+01    0.2431437    0.1741145 -39.03  0.000904498    1.664    0.399
       512  -7.8231    145.6028     25.7522   6.6601773086e+01   4.4939022836e+01    0.1646041    0.1141903 -47.92 0.0008538098    1.612    0.380
       513  -8.3491    104.4814     22.9951   7.3975419659e+01   5.4251839261e+01     0.165058    0.1231374 -22.36 0.0004539274    1.521    0.343
       514  -7.9750     34.7997     23.5613   9.6352691024e+01   6.6119488793e+01    0.1504932   0.09786527  39.01 0.0009479813    1.768    0.434
       515  -8.9492     63.6963     21.3403   8.4778960296e+01   6.2128436898e+01    0.2234685    0.1878682 -39.68 0.0008752845    1.585    0.369
       516  -8.9313     48.3195     21.7131   9.0319021169e+01   6.4500103785e+01    0.2062305    0.1804007  -5.30 0.0005536706    1.249    0.199
       517  -7.7522    120.7175     21.3472   6.9927765249e+01   5.0957282788e+01    0.1206522   0.09306213 -73.60 0.0007015275    1.645    0.392
       518  -8.1588     19.7459     21.5671   1.0202922159e+02   6.8099293883e+01     0.135876    0.0926718  29.61 0.0003962914    1.612    0.379
       519  -8.7746     74.0517     19.5534   8.0852554705e+01   6.0518697869e+01    0.1982065    0.1598968 -39.98 0.0006763653    1.598    0.374
       520  -8.3103     87.8257     17.8214   7.6359515470e+01   5.8111721997e+01      0.14509    0.1410452 -78.97 0.0004010728    1.334    0.250
       521  -8.3851     38.7596     17.9772   9.2496074136e+01   6.6272825279e+01    0.2010799    0.1277395 -29.70   0.00130785    1.609    0.379
       522  -7.8070    112.5713     16.5563   7.0123951135e+01   5.3175380960e+01    0.1221448    0.1044277  53.61 8.101216e-05    1.038    0.037
       523  -9.7905    248.7211    243.5286   9.6252570655e+01  -1.3625494875e+01    0.5743916    0.2023759 -43.42  0.002545341    3.052    0.672
       524  -7.7205    119.7249     11.3336   6.7094905113e+01   5.2108022737e+01    0.1149483    0.0890955 -74.36  0.000270583    1.601    0.375
       525  -7.6465     83.5006     11.4479   7.5239976281e+01   5.9530365006e+01    0.1178624   0.09836563  39.10 0.0001607876    1.060    0.057
       526  -8.3670     17.1999     14.1996   1.0016346903e+02   6.9296842492e+01    0.1325711    0.1119768  -1.78 0.0004857862    1.327    0.246
       527  -9.2677    175.6214    247.6468   1.1102705626e+02  -3.7829834185e+00    0.3171098    0.2559414 -77.22  0.001190859    1.829    0.453
       528  -8.6853    156.4764    248.3654   1.1510029220e+02  -8.2740302763e-01    0.3126158    0.1980145  56.85  0.001504328    1.937    0.484
       529  -8.2188    113.0470    248.8064   1.2427232932e+02   6.1557258637e+00    0.2257296    0.1632175 -88.30  0.001235461    1.659    0.397
       530  -9.1444    103.9610    247.0445   1.2595153650e+02   7.9517374609e+00    0.4498868    0.2290377 -75.25  0.001941261    2.770    0.639
       531 -10.0676    224.0727    244.1466   1.0086752832e+02  -1.0471705074e+01    0.5070803    0.2518642 -42.90  0.002171573    2.123    0.529
       532  -8.4279    218.5511    248.1066   1.0258623061e+02  -1.0311060524e+01     0.176844    0.1129581 -35.38 0.0007532937    1.559    0.359
       533  -8.8003    132.1489    247.7157   1.2011151030e+02   3.2742156920e+00    0.2563935    0.1915724  77.80 0.0007892596    1.685    0.407
       534  -8.7704    243.0621    246.3565   9.7746895617e+01  -1.3323332276e+01    0.3075164    0.1450493 -31.66   0.00160848    1.983    0.496
       535  -9.3955    146.8544    246.2149   1.1679537956e+02   1.1443328081e+00    0.3357438    0.2177746  58.42  0.001281607    1.834    0.455
       536  -9.1631    120.3110    245.5584   1.2231623480e+02   5.6278481634e+00    0.3962086    0.2500999  79.13  0.001836963    2.370    0.578
