#   1 NUMBER                 Running object number                                     
#   2 MAG_AUTO               Kron-like elliptical aperture magnitude                    [mag]
#   3 X_IMAGE                Object position along x                                    [pixel]
#   4 Y_IMAGE                Object position along y                                    [pixel]
#   5 X_WORLD                Barycenter position along world x axis                     [deg]
#   6 Y_WORLD                Barycenter position along world y axis                     [deg]
#   7 A_WORLD                Profile RMS along major axis (world units)                 [deg]
#   8 B_WORLD                Profile RMS along minor axis (world units)                 [deg]
#   9 THETA_WORLD            Position angle (CCW/world-x)                               [deg]
#  10 FWHM_WORLD             FWHM assuming a gaussian core                              [deg]
#  11 ELONGATION             A_IMAGE/B_IMAGE                                           
#  12 ELLIPTICITY            1 - B_IMAGE/A_IMAGE                                       
         1 -14.4507     68.3593    144.2541   1.0183926819e+02   3.7181940410e+01     5.077705     2.521232  68.25  0.003065424    4.721    0.788
         2 -14.3102    206.7156     37.4425   4.1474121647e+01   2.9159240530e+01     1.766842     1.478598   4.00   0.00759408    1.610    0.379
         3 -13.9705    222.0317     22.7064   3.6395705640e+01   2.7519942797e+01    0.9701005    0.8631646  58.78   0.00270955    1.322    0.244
         4 -12.3151    247.0026      2.9019   3.0303094297e+01   2.4468150318e+01    0.5955294     0.295479  68.82  0.002950509    1.987    0.497
         5 -11.7136    242.6557      2.3153   3.0466656229e+01   2.5401790411e+01    0.3291248     0.164421 -87.52  0.001615294    1.953    0.488
         6 -10.6324     50.1861      3.4161   6.3505734187e+01   6.7694871574e+01    0.2515103    0.1730477  51.05  0.001189043    1.764    0.433
         7 -10.6879     45.8303      1.6136   6.4349117171e+01   6.8584699491e+01    0.2889767    0.1516944  50.24  0.001540662    2.231    0.552
         8  -9.9216      2.0000      2.9665   8.7672451117e+01   7.3770544315e+01    0.1745793   0.05106473 -43.93 0.0008075238    2.978    0.664
         9  -9.1911     79.4313    182.2371   1.0497650209e+02   2.6386913269e+01     0.199473    0.1277969 -79.69 0.0009531499    1.729    0.422
        10 -10.8567    139.4680    248.8386   1.0073471845e+02   3.7947441810e+00    0.2894329    0.2079802 -49.66  0.001786512    1.663    0.399
        11 -14.5578     46.3347    218.1261   1.1649992118e+02   2.2650819220e+01     2.218138     1.549928  71.97   0.01084432    1.275    0.215
        12 -13.8563      4.2746    183.7471   1.2267727855e+02   3.4374050358e+01     1.612171    0.4769574 -78.90   0.00117797    2.907    0.656
        13 -14.9480     84.4973    222.0724   1.0887584324e+02   1.6893855785e+01     4.633343    0.7612525  42.09  0.003619553    4.449    0.775
        14 -13.2351     35.4024    203.2441   1.1751537768e+02   2.7087774912e+01    0.4719363    0.3781265 -40.49   0.00118827    1.692    0.409
        15 -14.9854     44.7766    193.5598   1.1455618676e+02   2.8216435330e+01     2.136676     1.321079  67.14  0.008368601    1.608    0.378
        16  -9.5824     99.3774    180.8437   9.9842732584e+01   2.3688583639e+01    0.2343428    0.1848224  49.97 0.0005539373    1.243    0.196
        17  -9.0385     72.7783    172.5788   1.0523649746e+02   2.9619275118e+01    0.1868261    0.1647051  68.03 0.0003260819    1.100    0.091
        18 -12.1447     62.7713    176.4075   1.0828847782e+02   3.0040115419e+01    0.4396104    0.3185039 -40.91  0.001245462    1.647    0.393
        19 -12.0429     67.8616    171.1787   1.0628370169e+02   3.0626319440e+01    0.3445657    0.2726952 -35.78  0.001376949    1.517    0.341
        20  -8.8038    149.3505    176.7251   8.6978513496e+01   1.5889735348e+01    0.1470257    0.1161257  69.08 0.0004561344    1.636    0.389
        21  -8.8971    203.6778    175.7151   7.4949112602e+01   6.0881451042e+00      0.14453    0.1029466   0.64 0.0003148159    1.596    0.374
        22 -13.5223     64.7073    157.7292   1.0509410019e+02   3.4327987056e+01    0.5427119    0.3655099 -45.80  0.001341831    1.564    0.361
        23 -12.5705     84.5063    155.3229   9.9340832364e+01   3.2114375675e+01     1.042885    0.5951234 -49.20  0.001912028    1.724    0.420
        24 -13.0516     76.5813    159.5513   1.0220578884e+02   3.2248548049e+01     1.276435    0.7693614  75.60  0.002444585    2.434    0.589
        25 -10.2442    172.4028    241.2035   9.3072512404e+01   3.1543601769e-02    0.4005616    0.2636425 -74.62  0.001802421    3.712    0.731
        26 -10.7715     34.1381    160.6082   1.1352815237e+02   3.7144421201e+01    0.2251956      0.15868 -86.82 0.0007924902    1.302    0.232
        27 -10.0149    174.8347    148.9253   7.5182403749e+01   1.6787432005e+01    0.2774815      0.21581 -62.12 0.0007708017    1.569    0.363
        28 -10.4279    134.0000    145.9984   8.4258697846e+01   2.5638880071e+01     0.751733    0.1730351 -51.58  0.001815419    5.137    0.805
        29 -10.1431    133.0000    140.5083   8.3260429508e+01   2.7092358875e+01    0.6000173    0.1855703 -50.05  0.001777441    3.333    0.700
        30 -14.0611     19.4558    219.6028   1.2196963460e+02   2.5246307129e+01    0.8166933    0.6360832  45.40  0.005843352    1.325    0.245
        31 -11.3611     54.7922    146.6581   1.0606819721e+02   3.8320156327e+01    0.3049062    0.2636639  62.58  0.001461068    1.207    0.172
        32 -10.3240     32.4806    143.8109   1.1186010483e+02   4.1423559044e+01    0.3774228    0.2399797  72.07  0.001936599    1.793    0.442
        33 -10.1338     98.5119    141.5184   9.2783401594e+01   3.3238632318e+01    0.2904972    0.2733874 -43.17 0.0008242459    1.051    0.048
        34  -9.8552    101.3192    138.9694   9.1453116869e+01   3.3375374925e+01    0.3214921     0.219017 -30.75 0.0007626759    1.747    0.428
        35 -12.4190     86.7506    140.1422   9.5817335112e+01   3.5501687821e+01    0.3144679    0.2594782 -44.11 0.0004262649    1.198    0.165
        36  -9.7779    146.5694    171.8286   8.6660167034e+01   1.7457294982e+01    0.2109553    0.1440774 -61.85 0.0009439695    1.770    0.435
        37  -8.9445     27.5499    135.4969   1.1211716826e+02   4.3924976867e+01     0.132722    0.1112805 -74.21 0.0001257382    1.020    0.020
        38 -10.9346    107.5176    130.7912   8.7870888378e+01   3.4238547124e+01    0.6173459    0.3400806  35.74  0.002519088    1.910    0.476
        39 -15.9340     41.5895    248.7448   1.1973359960e+02   1.7133774703e+01     9.726487     2.857212  26.24   0.02324484   12.746    0.922
        40 -10.8781    135.6453    128.4188   7.9679668126e+01   2.9306468759e+01    0.5505278    0.1467151 -49.39  0.001460898    4.056    0.753
        41  -9.1150    187.3118    172.6524   7.7671661824e+01   9.6304976438e+00    0.1400954    0.1190761 -84.62  0.000704597    1.714    0.416
        42 -11.2656     96.8790    126.7264   8.9973285967e+01   3.7103217384e+01    0.3256169    0.2749659 -10.92 0.0007041101    1.354    0.261
        43  -9.3534    159.9932    126.5059   7.3199843298e+01   2.4585688958e+01    0.2147729    0.1403294  70.64 0.0008094324    2.458    0.593
        44  -9.5847    116.2237    124.6010   8.3946864054e+01   3.4062261116e+01     0.215966    0.1492639  25.91 0.0005689287    1.659    0.397
        45 -10.4355     43.3536    122.8817   1.0543372220e+02   4.5530339797e+01    0.2063407    0.1581151 -59.73  0.001150144    1.128    0.114
        46 -11.4742     67.0530    126.6945   9.8882086892e+01   4.1726434490e+01    0.5054349    0.3168015 -65.60  0.002358718    1.579    0.367
        47  -9.9026    106.8443    119.1341   8.5244143398e+01   3.7118907002e+01    0.2192021    0.2083378 -32.78 0.0003141643    1.014    0.013
        48 -10.1990     22.4444    118.8543   1.1122731697e+02   4.8440447639e+01    0.3069613    0.1592471  55.33   0.00140534    2.554    0.609
        49  -9.3244     81.8793    116.6235   9.2107086483e+01   4.2018816528e+01    0.2074439    0.1351348  46.47 0.0009376797    1.718    0.418
        50  -9.1257    168.2401    113.2286   6.7931764936e+01   2.5527330715e+01    0.2539587    0.1826601 -80.08  0.001046626    2.153    0.536
        51  -9.6496    135.0000    112.9822   7.5882958229e+01   3.2866658111e+01    0.2657269    0.0880682 -44.19 0.0008034724    2.950    0.661
        52 -10.0067    205.2656    110.2000   5.9760937953e+01   1.7989424010e+01    0.2936381    0.2180064  48.50  0.001005413    1.452    0.311
        53 -15.1878      9.2887    207.7527   1.2320747273e+02   2.8691827989e+01     2.534741     1.153346 -51.92   0.00994543    2.897    0.655
        54 -10.9192     53.3526    105.4743   9.8717574603e+01   4.8671085540e+01    0.2909896    0.1687992 -60.49  0.001360697    1.600    0.375
        55 -12.1319    242.5029    100.9567   5.1693133507e+01   1.2024357337e+01    0.5172312    0.2998208 -67.51  0.002190255    2.818    0.645
        56  -9.1815    120.6880     98.3035   7.5695649243e+01   3.9053889120e+01    0.1524137    0.1256978 -87.75 0.0003478647    1.613    0.380
        57 -15.7855      8.1249    240.7731   1.2522268902e+02   2.2156547940e+01     1.839193     1.465228 -87.65   0.01454999    1.266    0.210
        58  -8.3850    135.9632    166.0000   8.8044685329e+01   2.0725133807e+01    0.2565969    0.0845538  39.05 0.0001940606    3.004    0.667
        59 -10.3485     41.5261     91.3497   9.9559361714e+01   5.3339205147e+01    0.3231613    0.2209286 -71.13  0.001035276    1.617    0.382
        60 -10.5068     53.0488     90.6758   9.5271955365e+01   5.2195334474e+01     0.281844    0.1820222 -46.14 0.0007833395    1.352    0.260
        61  -9.0812     18.4901     90.4805   1.0765449230e+02   5.5542066503e+01    0.1297198    0.1064308 -55.05 -4.001161e-05    1.024    0.023
        62  -9.3111    234.2836     86.3280   4.9525152054e+01   1.6009493369e+01    0.1295085    0.1046424  -1.82 0.0003296807    1.606    0.377
        63  -9.5402     73.0374     83.7771   8.6319018583e+01   5.0973834857e+01    0.2051755    0.1910478  65.76 0.0006948205    1.327    0.246
        64 -11.6750      2.3337     78.8547   1.1136099610e+02   5.9171355031e+01    0.8196266   0.07811107 -63.00  0.002612652    4.380    0.772
        65 -10.9259    243.3699     77.7686   4.6422577352e+01   1.5524318039e+01    0.1813823    0.1543227 -60.02 0.0007265389    1.097    0.089
        66  -9.5142     90.5789     65.7750   7.4644734437e+01   5.1593836994e+01     0.326065    0.2254606  77.41  0.001300575    3.057    0.673
        67  -9.2607     48.0593     62.4930   8.9026254652e+01   5.8913115255e+01    0.1788583    0.1279808  25.06 0.0004886929    1.483    0.326
        68 -10.7393     13.5251     59.9551   1.0268111471e+02   6.2694262122e+01    0.2475986    0.1795983 -51.00 0.0004530814    1.152    0.132
        69 -13.6059    198.1228     43.3820   4.4038128796e+01   3.0371828437e+01     1.330679    0.8043182  36.94  0.002343435    2.296    0.564
        70 -13.0159     57.9123    241.4197   1.1613892104e+02   1.6572143729e+01    0.4775824    0.3292108  87.96 0.0005625031    1.419    0.295
        71 -15.2384      5.3691    141.1687   1.1887809687e+02   4.4243262300e+01     4.886485     1.638921 -84.09    0.0185314    3.277    0.695
        72  -9.1813    136.7877     42.8851   5.4315589312e+01   4.5187021000e+01    0.1872014    0.1626534 -70.15 0.0003521519    1.324    0.244
        73 -10.0586    138.8782     36.9543   5.1951875160e+01   4.5466390322e+01    0.2290754    0.1953575  84.41 0.0005079552    1.284    0.221
        74 -12.5005    215.4600     29.2811   3.8549566739e+01   2.8194806048e+01    0.4773443    0.3557035  49.58  0.001043125    1.575    0.365
        75  -9.5332    189.5129     15.0374   3.7864616234e+01   3.5761106736e+01    0.1836369    0.1240558 -32.20 0.0009323378    1.580    0.367
        76 -10.7353     59.3650    220.5520   1.1402233233e+02   2.0561304102e+01    0.3034791    0.2648376 -36.98  0.001511334    1.554    0.357
        77 -10.6625    109.6712    201.2191   1.0054836474e+02   1.7493436609e+01    0.3341233    0.2284888 -63.70  0.001548448    1.582    0.368
        78 -11.2086    192.2426    193.3667   8.0805659349e+01   4.8950662062e+00     0.637666    0.3580718 -63.51  0.002154422    4.586    0.782
        79  -9.6055     59.8201    197.1427   1.1152076323e+02   2.5591792598e+01    0.1887452    0.1521295  74.01 0.0002896615    1.131    0.116
