#   1 NUMBER                 Running object number                                     
#   2 MAG_AUTO               Kron-like elliptical aperture magnitude                    [mag]
#   3 X_IMAGE                Object position along x                                    [pixel]
#   4 Y_IMAGE                Object position along y                                    [pixel]
#   5 X_WORLD                Barycenter position along world x axis                     [deg]
#   6 Y_WORLD                Barycenter position along world y axis                     [deg]
#   7 A_WORLD                Profile RMS along major axis (world units)                 [deg]
#   8 B_WORLD                Profile RMS along minor axis (world units)                 [deg]
#   9 THETA_WORLD            Position angle (CCW/world-x)                               [deg]
#  10 FWHM_WORLD             FWHM assuming a gaussian core                              [deg]
#  11 ELONGATION             A_IMAGE/B_IMAGE                                           
#  12 ELLIPTICITY            1 - B_IMAGE/A_IMAGE                                       
         1 -13.3479      2.0088    110.5060   2.9240473829e+02   6.4905772994e+00    0.1135417   0.01964162 -65.43  0.004928689    8.811    0.887
         2 -14.3147      5.5889     18.9402   2.9181540018e+02   7.5332918883e+00    0.2467663    0.0425375 -58.22   0.01486164    4.419    0.774
         3 -13.8584    190.0498     22.1324   2.8968205469e+02   6.4284007095e+00     0.112068   0.04135628 -53.13  0.008110743    2.510    0.602
         4 -14.2365    197.4736     17.4021   2.8956713726e+02   6.4400378197e+00   0.08990369   0.06709918  -0.53  0.007978676    1.554    0.356
         5 -13.9241    202.5657      9.7136   2.8946157339e+02   6.4994966134e+00    0.0745937   0.04748707  -3.79  0.001364067    2.116    0.527
         6  -8.9892    136.6837     94.2866   2.9073713928e+02   5.9011155160e+00  0.006810806   0.00496032  59.98 0.0003003771    1.588    0.370
         7 -10.6324    205.3150    249.8306   2.9086964156e+02   3.6965931420e+00   0.01165415  0.008784614  37.48 0.0007214722    1.330    0.248
         8  -9.2015    184.2861    250.3666   2.9111715214e+02   3.8121643645e+00   0.00715474  0.004782845 -32.67 0.0007020748    1.698    0.411
         9 -11.3656    146.0895    240.8743   2.9150447524e+02   4.1435278268e+00   0.01773183   0.01616631  33.03  0.001042838    1.103    0.093
        10  -9.5477    150.7617    239.4029   2.9144136910e+02   4.1335935853e+00   0.01205988  0.006121727  31.55 0.0005908092    1.915    0.478
        11 -10.5093    152.7448    243.8995   2.9144514791e+02   4.0698698999e+00   0.01698383   0.01196447 -82.82  0.001435267    1.664    0.399
        12 -11.5779    143.1233    248.4136   2.9158394135e+02   4.0730765570e+00   0.03171594   0.01964083 -83.39  0.002720647    2.076    0.518
        13 -11.4006    150.5623    248.2170   2.9149628156e+02   4.0323288952e+00   0.03107742   0.01429669  39.70  0.002329328    2.174    0.540
        14 -11.4583    135.8338    240.9263   2.9162404075e+02   4.2022447865e+00    0.0154126   0.01348605  13.84  0.001269081    1.175    0.149
        15 -12.1743    135.2298    236.6767   2.9160571367e+02   4.2551248015e+00   0.01959401   0.01567488 -67.10  0.001444376    1.267    0.211
        16 -11.0776    134.1697    249.8053   2.9169634525e+02   4.1086819998e+00   0.02862476   0.01098993  39.06  0.002287196    2.562    0.610
        17 -12.8733    125.4928    242.8706   2.9175589676e+02   4.2394419916e+00   0.05228831   0.02989713 -48.91  0.004915635    1.725    0.420
        18 -11.4792     99.5716    247.5842   2.9208547908e+02   4.3344338944e+00     0.032632   0.02055579  45.75  0.003279121    1.680    0.405
        19 -11.9027     97.3389    239.6717   2.9206431284e+02   4.4393062131e+00   0.03612906   0.02345957  56.20  0.002823626    1.820    0.450
        20 -10.7712    104.4965    237.9864   2.9197100178e+02   4.4175522812e+00   0.01970614   0.01150155  36.58  0.001930652    1.692    0.409
        21 -10.1433     92.4809    231.6840   2.9207323866e+02   4.5602175061e+00   0.01770515  0.007387824 -59.03  0.001478186    2.265    0.558
        22 -10.2752     93.7593    217.3003   2.9197262331e+02   4.7200457337e+00   0.01849798   0.01170406  87.37  0.001712933    2.195    0.544
        23 -11.2749     98.6278    231.5323   2.9200081200e+02   4.5264793414e+00   0.02507823   0.01841591 -67.50  0.001958972    1.392    0.282
        24 -12.4234    110.0570    230.2120   2.9185996547e+02   4.4757929232e+00   0.04116881   0.02126736  28.17  0.002816386    1.917    0.478
        25 -12.0657     97.8908    223.6554   2.9196243304e+02   4.6223028279e+00   0.03734634   0.02091398   7.41  0.003267757    2.398    0.583
        26 -10.5358    110.5619    222.2951   2.9180687770e+02   4.5648992379e+00   0.01629562   0.01224306 -40.72 0.0009228834    1.367    0.268
        27 -11.3544    105.1148    219.3745   2.9185284046e+02   4.6303285665e+00   0.02154094   0.01200583 -64.88 0.0004557426    1.823    0.452
        28 -11.0444     84.6475    230.5449   2.9215760347e+02   4.6186900253e+00   0.02640398   0.01498113 -59.92  0.001950799    1.714    0.417
        29 -11.2589     87.8564    249.1128   2.9223085772e+02   4.3843088029e+00   0.02521799    0.0226554  17.92  0.001951547    1.130    0.115
        30 -11.0703     81.2673    246.6468   2.9229282880e+02   4.4510078189e+00   0.02899804   0.01541325 -77.39  0.002265184    2.439    0.590
        31 -10.9301     90.0192    236.0403   2.9212783753e+02   4.5237906416e+00    0.0180899   0.01428716 -84.21  0.002020385    1.411    0.291
        32 -10.9022     83.7969    242.1841   2.9223682778e+02   4.4882892567e+00   0.01871202   0.01276399  -0.84  0.001879462    1.811    0.448
        33 -10.8185     83.2826    238.3770   2.9222013885e+02   4.5355159610e+00   0.02182384  0.009824074  35.58  0.001896058    2.140    0.533
        34  -9.7035     86.3100    237.2838   2.9217840301e+02   4.5307497183e+00  0.009774325   0.00855939 -64.76 0.0002579144    1.143    0.125
        35  -9.6458     74.6344    250.6108   2.9239358870e+02   4.4431992350e+00    0.0154461  0.006725901  20.49   0.00123421    2.621    0.618
        36 -13.5671     45.6997    246.1348   2.9270361786e+02   4.6620799259e+00   0.05188895   0.03707604 -19.83  0.002532086    1.674    0.403
        37 -13.3068     47.3956    228.4791   2.9257886095e+02   4.8576001609e+00     0.046258   0.02709149  12.69  0.001945212    2.029    0.507
        38 -15.0740     56.5909    217.0910   2.9240402651e+02   4.9370020135e+00    0.1637511    0.1252308 -67.91    0.0182979    1.335    0.251
        39 -11.5012    121.6780    232.7988   2.9174020284e+02   4.3785552365e+00   0.01740838   0.01351509   1.20 0.0005583925    1.446    0.308
        40 -12.3438    110.7547    248.4967   2.9196084090e+02   4.2592280243e+00    0.0548358   0.03054739  38.11  0.005084479    1.782    0.439
        41 -11.6505    245.6589    232.6489   2.9029841853e+02   3.6622273528e+00   0.01899076   0.01018598  46.53  0.001211911    2.047    0.511
        42 -10.9945    156.7158    231.4540   2.9132469078e+02   4.1915020059e+00   0.01406289   0.01114464 -48.06 0.0002845336    1.248    0.199
        43 -11.5530    142.1695    229.6997   2.9148337152e+02   4.2960632613e+00   0.02619508     0.011742 -56.71  0.001859161    2.099    0.524
        44 -11.0636    136.1776    227.8720   2.9154215313e+02   4.3519672711e+00   0.01283774   0.01070749 -45.58 0.0009729226    1.192    0.161
        45 -12.9688     42.2383    237.0509   2.9268988187e+02   4.7876498226e+00    0.0387306   0.02106784  34.19 0.0008730668    1.794    0.443
        46 -11.2184     78.5773    229.3430   2.9222108306e+02   4.6677039377e+00   0.01994478   0.01313283  15.73  0.002028174    1.661    0.398
        47  -9.8994    180.9674    229.6415   2.9103192823e+02   4.0721393289e+00  0.009232153  0.008517208  19.55 0.0006548407    1.094    0.086
        48 -10.6350    165.3261    227.3700   2.9120018982e+02   4.1891102077e+00   0.01881028   0.01189155 -88.39  0.001469054    2.121    0.529
        49  -9.4305    150.7931    229.6333   2.9138268944e+02   4.2469360654e+00   0.01028212  0.005631115  37.73 0.0009609113    1.807    0.447
        50 -15.3550     12.3435    207.6390   2.9286300303e+02   5.3018171340e+00    0.2039931    0.1124968 -57.00   0.01960325    1.738    0.425
        51 -10.0993    190.9244    228.0916   2.9090694013e+02   4.0324627318e+00  0.009656836  0.009465906  59.02 0.0003139523    1.044    0.042
        52  -9.1349    184.6515    228.6738   2.9098332550e+02   4.0620416644e+00  0.007208549  0.004884023 -26.96 0.0007049325    1.753    0.430
        53  -9.0975    175.2399    228.1882   2.9108982266e+02   4.1221967918e+00   0.01171219   0.00710621  60.77  0.001068292    2.162    0.537
        54 -10.5380    132.7797    224.4256   2.9156110778e+02   4.4116751637e+00   0.01316605   0.01026068 -40.04 0.0007522476    1.315    0.239
        55 -10.7109    117.0690    224.5094   2.9174437507e+02   4.5015482004e+00   0.01699542   0.01233664   5.49  0.001074051    1.573    0.364
        56  -8.8929    219.8574    223.5735   2.9054375116e+02   3.9172328255e+00  0.008835551  0.006017533  39.58 0.0009145542    1.479    0.324
        57  -9.2234    155.9367    223.5067   2.9128629268e+02   4.2883562392e+00   0.00971062  0.006451518  28.85 0.0003647319    1.498    0.333
        58 -10.5018    149.9971    222.4567   2.9134909554e+02   4.3349372286e+00    0.0133435  0.009267217 -54.36 0.0001118803    1.401    0.286
        59  -9.4053    149.5598    218.5338   2.9133075480e+02   4.3830535044e+00   0.00983737  0.009618129 -78.02 9.966602e-05    1.039    0.037
        60  -9.9542    141.5820    212.8681   2.9138971501e+02   4.4950650450e+00   0.01843554   0.01551415  66.41  0.001723365    1.312    0.238
        61 -10.5090    137.3804    214.6467   2.9144921315e+02   4.4987086912e+00   0.02308131   0.01404772  75.25  0.002031334    2.484    0.597
        62 -11.8078    142.1096    221.8528   2.9143722734e+02   4.3875993661e+00   0.01514488   0.01414402  14.09 0.0002907426    1.084    0.078
        63 -11.1082    142.3132    218.6947   2.9141600241e+02   4.4231223328e+00   0.01433744  0.009853235  39.17 0.0003152923    1.463    0.316
        64  -9.6221    164.2278    220.5214   2.9117204951e+02   4.2750428759e+00   0.01456575  0.007532898 -44.86 0.0008892728    2.008    0.502
        65 -10.6676    246.3283    218.8885   2.9020829944e+02   3.8180879482e+00   0.01485939  0.009573149  -2.36  0.001410982    2.041    0.510
        66 -10.1826    176.7066    218.3829   2.9101418108e+02   4.2276158407e+00   0.02048862   0.01152126 -87.67  0.001700714    2.731    0.634
        67 -10.0218     89.2587    218.9002   2.9203454216e+02   4.7274406642e+00   0.01256113   0.00938793 -50.86 0.0005847301    1.313    0.238
        68 -10.9003     88.2767    213.0485   2.9201108341e+02   4.8011401515e+00   0.01940623   0.01512153  12.21 0.0003907926    1.370    0.270
        69  -9.3604    134.0468    217.8288   2.9150699182e+02   4.4810119655e+00   0.01060145  0.008668532  54.06 0.0006439027    1.307    0.235
        70  -9.6789    182.9899    213.9921   2.9091488688e+02   4.2422231980e+00   0.01050825  0.007658102  62.50 0.0003170302    1.612    0.380
        71 -10.9710    102.1243    212.2134   2.9184492831e+02   4.7308521874e+00   0.01982355   0.01379871  39.46  0.001580995    1.447    0.309
        72 -12.5139    131.9176    211.6150   2.9149466486e+02   4.5655465085e+00   0.02050798   0.01415204 -32.37  0.000511376    1.626    0.385
        73  -9.4933    152.1549    211.9510   2.9126125144e+02   4.4445264515e+00   0.01024837  0.008757916  68.01 0.0005616648    1.286    0.222
        74 -10.5321    173.3873    240.1249   2.9118265489e+02   3.9942469287e+00   0.01633023   0.01156256 -85.42  0.000912455    1.686    0.407
        75  -9.0948    197.7984    208.1704   2.9070793518e+02   4.2240220630e+00   0.00884653  0.007393902 -28.03 0.0003297319    1.266    0.210
        76 -10.4867    174.7484    206.1987   2.9096411624e+02   4.3805139262e+00   0.01883914  0.009971108 -44.63  0.001277164    1.963    0.491
        77 -11.8458     93.0771    205.1193   2.9190791728e+02   4.8655920996e+00   0.03337355   0.01763717  35.42  0.001799442    1.848    0.459
        78 -11.5417    247.3924    205.2941   2.9011455289e+02   3.9697288561e+00   0.02161101   0.01718617   0.60  0.002428117    1.397    0.284
        79  -8.4325    183.2917    206.3277   2.9086555130e+02   4.3295118317e+00  0.006978513  0.004872757 -30.66 0.0002777774    1.621    0.383
        80  -9.8035    164.2093    205.9580   2.9108523770e+02   4.4443623412e+00   0.01506669   0.00703189  50.05  0.001208545    2.674    0.626
        81  -9.8096    125.9627    205.9084   2.9152987986e+02   4.6663178657e+00  0.009838591  0.009626659  28.23 0.0004076507    1.031    0.030
        82  -9.8650    149.6177    204.4015   2.9124565839e+02   4.5469426609e+00   0.01495088   0.01008089 -31.10  0.001198713    1.702    0.413
        83 -10.6290    103.5633    203.1933   2.9177436158e+02   4.8273889395e+00   0.01424988    0.0123954 -12.24 0.0008540469    1.227    0.185
        84 -10.0027     75.3262    203.6753   2.9210596134e+02   4.9848862114e+00   0.01936695   0.01138106   9.02  0.001477471    2.136    0.532
        85  -9.5617    224.9160    202.6443   2.9035974590e+02   4.1309266968e+00  0.009198954   0.00814819  27.50 0.0004020495    1.134    0.118
        86 -10.1840    166.9341    203.2480   2.9103734844e+02   4.4600655549e+00  0.009844185  0.009447088 -44.72            0    1.030    0.029
        87 -10.1212    169.8581    200.3883   2.9098624539e+02   4.4763524723e+00   0.01124762   0.01016849 -50.25 0.0003368718    1.091    0.083
        88  -9.8557    133.1363    202.8997   2.9142843850e+02   4.6597848555e+00  0.009776706  0.009519149 -72.87 0.0003311638    1.039    0.037
        89 -11.1198    134.1947    197.7508   2.9138536627e+02   4.7135000038e+00   0.01683629   0.01271231 -78.85 0.0002346686    1.459    0.315
        90  -8.6847    113.3462    203.6786   2.9166339219e+02   4.7651969520e+00  0.007125806  0.004921884  60.94  0.000704961    1.735    0.423
        91 -10.6742    197.2465    200.7632   2.9067003764e+02   4.3132572325e+00   0.01785703   0.01085074  39.18  0.001473952    1.650    0.394
        92  -8.8129    108.4908    201.9923   2.9170983997e+02   4.8128683804e+00  0.009581088  0.005751349  82.59  0.000810519    2.567    0.610
        93  -9.5215    122.5595    201.1088   2.9154082367e+02   4.7417866111e+00   0.01106354  0.008064592  17.35 0.0006919136    1.446    0.308
        94  -9.9292    115.1164    200.6033   2.9162443158e+02   4.7907070283e+00   0.01075852  0.008896363 -83.15 0.0006012075    1.314    0.239
        95 -13.2432     14.0399    238.9950   2.9302963352e+02   4.9274126376e+00   0.02692872   0.01552263  24.83  0.001063875    1.767    0.434
        96  -8.6316    158.5240    199.4915   2.9111271184e+02   4.5524252120e+00  0.006522136  0.006478426  82.73 9.824178e-06    1.025    0.025
        97 -10.0889    100.7646    198.1101   2.9177660491e+02   4.9026521918e+00   0.01344538   0.01008089 -43.00 0.0008558448    1.352    0.260
        98 -10.0461     86.0154    197.9666   2.9194746106e+02   4.9895329793e+00   0.02428242   0.01007791 -66.22 0.0008299892    2.580    0.612
        99 -10.1917     83.1319    193.3768   2.9195365407e+02   5.0595450703e+00   0.02048382   0.01179653  -4.75 0.0008404615    2.673    0.626
       100 -14.6750     27.4338    248.0763   2.9292770791e+02   4.7447169085e+00   0.08936183    0.0557682  18.93  0.006473426    1.718    0.418
       101  -9.8742    192.0348    198.0164   2.9071418984e+02   4.3753803459e+00   0.00961634  0.009449399  89.79            0    1.039    0.038
       102  -8.7220    141.7207    198.2902   2.9130101721e+02   4.6636743987e+00  0.006608789  0.005011646  63.63  0.000213285    1.524    0.344
       103 -12.0926     71.4903    193.8509   2.9209204608e+02   5.1212474874e+00   0.03170536   0.01571404 -57.25  0.002890504    1.919    0.479
       104 -11.9319     76.1912    187.9191   2.9200191980e+02   5.1630718709e+00   0.01679187   0.01326719 -36.29 0.0006964899    1.318    0.241
       105  -9.7203    113.2777    195.9842   2.9161825356e+02   4.8550287955e+00   0.01548923  0.008989702  50.98   0.00144437    1.989    0.497
       106  -9.7863    113.0109    192.0415   2.9159781638e+02   4.9023989419e+00  0.009832076  0.009457891 -37.37  0.001220644    1.031    0.030
       107  -9.4003    107.3497    195.8972   2.9168673820e+02   4.8903134731e+00   0.01043034  0.008353754  89.88 0.0007941043    1.415    0.293
       108  -9.6395    177.5297    194.2569   2.9086035902e+02   4.5031331603e+00   0.01598673   0.01022099 -16.84  0.001501182    2.100    0.524
       109 -10.5639    159.3836    194.0574   2.9107022582e+02   4.6105872349e+00   0.01872541   0.01134162  42.73  0.000899648    1.702    0.413
       110 -10.5018    120.5080    194.2719   2.9152387031e+02   4.8331166379e+00   0.02153785   0.01155184  40.30  0.002012424    1.882    0.469
       111 -10.2398    173.0026    192.4789   2.9090237358e+02   4.5500237495e+00   0.01744346  0.009887448 -44.79 0.0009541233    1.814    0.449
       112  -9.6356    101.0462    193.1848   2.9174392828e+02   4.9582783822e+00   0.01990044   0.01081267 -25.98  0.001634786    2.732    0.634
       113 -15.6734      6.5603    245.3321   2.9315431787e+02   4.8967490840e+00     0.137526   0.07570227 -48.72   0.01310329    1.795    0.443
       114  -9.6786     47.2123    192.9660   2.9236952569e+02   5.2715924593e+00   0.01019011  0.008182176 -35.10 0.0005175553    1.299    0.230
       115 -10.4917    191.4749    191.4356   2.9068132303e+02   4.4550675038e+00    0.0127674    0.0121979 -35.38 0.0005818568    1.042    0.040
       116  -9.8170    135.6794    189.8527   2.9132089698e+02   4.7966945028e+00   0.01485708  0.009598514 -27.61  0.001124263    1.888    0.470
       117 -11.7436    249.8403    187.5189   2.8997964966e+02   4.1618594321e+00   0.02548626   0.01389053 -62.66  0.002403602    1.823    0.452
       118 -11.0486    248.5065    177.9507   2.8993780022e+02   4.2806734306e+00   0.01246545   0.01171482 -22.27  0.001242862    1.080    0.074
       119 -10.3722    115.9351    240.1166   2.9185063899e+02   4.3266966274e+00    0.0103863  0.009744639 -41.65 0.0007499596    1.058    0.055
       120 -10.2833     44.4257    188.4151   2.9237486645e+02   5.3405724331e+00    0.0248772   0.01359108   7.57   0.00212567    2.507    0.601
       121  -9.9571    175.8546    186.9939   2.9083639198e+02   4.5972168947e+00  0.009798337  0.009538108 -73.11 0.0003703639    1.039    0.038
       122  -9.4713     67.3230    187.0144   2.9209980730e+02   5.2247827090e+00   0.01090721  0.008900336  -2.26 0.0005679953    1.349    0.259
       123  -8.7213    161.2375    185.6674   2.9099848734e+02   4.6973303802e+00  0.006537796  0.005038539  73.59 0.0001845938    1.536    0.349
       124  -9.2758    154.5914    185.2250   2.9107316485e+02   4.7409698356e+00  0.009613113  0.005795768 -50.40 0.0009397744    1.621    0.383
       125  -9.4046    143.3117    184.7051   2.9120130882e+02   4.8123322258e+00   0.01038248  0.009275527  47.21  0.000528619    1.150    0.131
       126 -10.2195    140.0756    183.3172   2.9123067173e+02   4.8471970078e+00   0.01154033   0.01051659 -81.80  0.000330469    1.144    0.126
       127  -8.7024    123.6996    185.7380   2.9143574151e+02   4.9138373107e+00  0.006616469  0.004962653 -24.25 0.0002017263    1.514    0.339
       128  -9.9721     86.9508    183.5601   2.9185060311e+02   5.1516063829e+00   0.02201561   0.01118353  24.76  0.001991374    2.019    0.505
       129  -9.4285     38.0757    184.3174   2.9242442134e+02   5.4248195633e+00  0.009352723  0.008420561  28.08 0.0008857842    1.116    0.104
       130  -9.7713    217.4138    183.2295   2.9033067080e+02   4.3999058363e+00   0.01101251  0.008981744  28.91 0.0003113264    1.228    0.186
       131 -12.2149    248.8789    240.8720   2.9031023564e+02   3.5480936380e+00   0.02523319   0.01843889  57.73  0.002683224    1.555    0.357
       132  -9.8303    115.4708    179.8993   2.9149665077e+02   5.0292998535e+00   0.02782349   0.01128836 -72.24  0.001490186    3.337    0.700
       133  -9.6781     66.0002    181.9960   2.9208528111e+02   5.2907610290e+00  0.009692834  0.009318034 -16.17 0.0003325494    1.048    0.046
       134  -9.5923    144.1466    180.8614   2.9116861167e+02   4.8521626950e+00   0.01072735  0.009079844  62.55  0.001239385    1.287    0.223
       135 -11.5004    104.2932    180.8352   2.9163238449e+02   5.0830575365e+00   0.01126734    0.0108393  33.74 0.0002732654    1.049    0.047
       136 -10.1366    135.0255    179.2067   2.9126487471e+02   4.9241975604e+00   0.01947352   0.00565555 -48.37  0.001325821    3.443    0.710
       137 -10.3970    129.0141    179.4162   2.9133609934e+02   4.9565573551e+00   0.01170534  0.009583872 -76.05 0.0003199903    1.290    0.225
       138  -9.6612     48.1797    179.8564   2.9228011748e+02   5.4184397622e+00  0.009612815  0.008580064  51.08 0.0004404742    1.162    0.140
       139 -10.8693    181.8000    177.3076   2.9070927669e+02   4.6752738149e+00    0.0174913   0.01184451  22.01  0.001825558    1.525    0.344
       140 -12.0083     85.1560    175.9016   2.9182578876e+02   5.2510020136e+00   0.02081341   0.01905072  62.80  0.001582508    1.151    0.131
       141 -11.5662     96.1908    159.0719   2.9159672880e+02   5.3828551724e+00   0.02501707   0.01323166 -57.74  0.002053453    1.812    0.448
       142 -10.1935     91.1791    172.7743   2.9173696202e+02   5.2525549664e+00   0.01377798   0.01030762 -31.98 0.0007116818    1.453    0.312
       143 -12.6672     90.3839    166.9237   2.9171128170e+02   5.3251563174e+00   0.03372715   0.02889218  -9.64  0.003077563    1.257    0.205
       144 -10.0616     85.1186    165.1701   2.9176214147e+02   5.3759622941e+00   0.01159177   0.01031359  64.33 0.0002558828    1.202    0.168
       145  -9.9039    109.2053    176.2779   2.9154796511e+02   5.1076255410e+00   0.01323248   0.01012386  75.20 0.0007479311    1.559    0.358
       146  -9.2201     95.2895    175.9568   2.9170809642e+02   5.1918074350e+00  0.009110036  0.008508467 -56.09            0    1.059    0.056
       147 -10.4078     77.1686    175.5700   2.9191684394e+02   5.3009900038e+00    0.0115108  0.009571645 -65.62 0.0003628907    1.209    0.173
       148 -12.4697     71.3991    174.3918   2.9197701977e+02   5.3479993110e+00   0.01943953   0.01527097 -10.37 0.0007077277    1.448    0.309
       149 -12.1939    248.4927    171.9818   2.8990218312e+02   4.3500388990e+00   0.02852364   0.02035305  12.75  0.003033689    1.537    0.349
       150 -10.1009    154.4263    172.9396   2.9100160329e+02   4.8846709481e+00   0.01575844   0.01054807 -21.56 0.0009796331    1.866    0.464
       151 -11.4650     28.2106    169.8508   2.9245315506e+02   5.6498678456e+00   0.01542377   0.01330247  82.46 0.0009308773    1.275    0.216
       152  -9.7938    166.2093    241.5179   2.9127440721e+02   4.0196181446e+00   0.01537219  0.009850533   7.50  0.001099514    1.886    0.470
       153  -9.9061    100.1510    170.5742   2.9161932788e+02   5.2262712941e+00   0.01386258  0.007447372  42.96  0.001020004    1.937    0.484
       154 -11.1724     68.9616    167.8636   2.9196645311e+02   5.4379621457e+00   0.01909358   0.01090326 -54.47 0.0007478277    1.682    0.406
       155 -11.0846     43.9220    169.2470   2.9226646353e+02   5.5663397485e+00   0.02022583   0.01406735 -13.59  0.001058898    1.791    0.442
       156 -10.1749     48.3526    169.3107   2.9221521532e+02   5.5400507859e+00   0.01221052   0.01095905 -20.88  0.001466443    1.159    0.137
       157  -9.9376    107.3710    168.3864   2.9152217210e+02   5.2099539393e+00   0.01205426  0.007790159  28.45 0.0004251614    1.541    0.351
       158  -9.5352     58.7208    167.6597   2.9208455457e+02   5.4994369950e+00  0.008946896  0.008016851 -52.82 0.0004363522    1.099    0.090
       159  -8.9584    158.1599    241.7797   2.9136954190e+02   4.0631647999e+00   0.00926748  0.007473053 -28.71 0.0004409106    1.330    0.248
       160 -11.5924    249.1472    150.2063   2.8976399986e+02   4.5989806751e+00   0.03239292   0.02053678 -75.10  0.002695835    1.793    0.442
       161 -11.5361    240.7079    150.6015   2.8986441999e+02   4.6434394418e+00   0.02502644   0.01433701  24.46   0.00240995    1.789    0.441
       162 -12.5145    244.9508    162.3948   2.8988584800e+02   4.4818978533e+00   0.02836171   0.02428769 -42.32  0.003356812    1.170    0.145
       163 -10.6371    249.3991    160.7765   2.8982447098e+02   4.4748354640e+00   0.01289569   0.01149903 -39.63  0.001548043    1.125    0.111
       164 -11.8398    245.3464    156.3670   2.8984510609e+02   4.5495650354e+00   0.05702696   0.01502185  40.92  0.003718274    3.901    0.744
       165  -8.9342    136.4628    165.9725   2.9116900818e+02   5.0696640738e+00  0.009194439  0.005708631  80.87 0.0007988106    2.376    0.579
       166  -9.0850    124.5264    165.2477   2.9130364215e+02   5.1471826123e+00  0.009468812  0.005905235 -49.74 0.0002451061    1.574    0.365
       167 -10.4710     47.0922    163.2957   2.9219402331e+02   5.6172499434e+00   0.01178894  0.009577274 -74.29 0.0001636083    1.290    0.225
       168 -10.0630     37.0353    162.8065   2.9230831032e+02   5.6809179075e+00   0.01034532  0.008608261  56.33 0.0006897993    1.290    0.225
       169  -9.0162     31.5067    171.5679   2.9242497811e+02   5.6109126540e+00   0.00651139  0.006427505  51.14   7.4124e-05    1.032    0.031
       170  -9.3666    123.4190    160.4711   2.9128797424e+02   5.2091002532e+00   0.01311389  0.009098312 -36.03 0.0009860735    1.562    0.360
       171  -8.9964    119.8412    159.1674   2.9132184036e+02   5.2449553247e+00  0.008992766  0.008388412  31.10            0    1.078    0.073
       172 -12.0429     23.8282    149.1985   2.9238110373e+02   5.9152203045e+00   0.02493426   0.01788943 -77.09  0.002384171    1.542    0.351
       173 -11.6614     34.9100    148.9042   2.9225015409e+02   5.8547895015e+00   0.02259757   0.01531662  25.98  0.001547896    1.486    0.327
       174 -13.6934     32.8953    140.0826   2.9222100173e+02   5.9689484903e+00   0.07423488   0.02478389 -61.30  0.005582219    2.860    0.650
       175 -12.9028     31.5089    154.8935   2.9232553058e+02   5.8047622328e+00   0.03757668   0.02600771 -33.94  0.001849904    1.595    0.373
       176 -13.3342     23.8379    155.3205   2.9241749932e+02   5.8439916417e+00   0.06085244   0.02404106  32.43  0.005019902    2.391    0.582
       177  -9.5219     79.0027    159.0094   2.9179659728e+02   5.4829028870e+00   0.01025862  0.007643498  61.20 0.0003691963    1.545    0.353
       178  -9.4055     52.4269    158.3231   2.9210218174e+02   5.6442897779e+00   0.01108315    0.0080017  10.54 0.0006167678    1.533    0.348
       179  -9.6741     47.3806    157.6543   2.9215700265e+02   5.6811707840e+00   0.01233096  0.008760336 -62.99  0.001317818    1.401    0.286
       180  -9.9002     88.9159    156.8823   2.9166839400e+02   5.4503531472e+00   0.01018856  0.008703384 -22.26 0.0003221531    1.246    0.197
       181  -9.8820    134.3838    155.7238   2.9113190401e+02   5.2007890348e+00   0.01214291   0.01124981 -46.82 0.0006493475    1.067    0.063
       182  -9.4127    132.1806    152.3904   2.9113761290e+02   5.2522787881e+00  0.009913608   0.00654204  27.09 0.0003637692    1.519    0.342
       183  -9.2606    175.7910    166.5197   2.9071459647e+02   4.8354309049e+00  0.009109529  0.005928015  41.39 0.0002588562    1.564    0.361
       184 -11.4488     73.4977    158.2343   2.9185611001e+02   5.5237071213e+00    0.0224422   0.01912848  87.52  0.001413626    1.291    0.225
       185  -9.6959     62.1572    153.0629   2.9195738181e+02   5.6492912985e+00   0.01602437  0.009229579 -72.83 0.0008746452    1.970    0.492
       186 -10.7607    112.7633    152.3913   2.9136375027e+02   5.3646535388e+00   0.01604435    0.0137726  34.85 0.0008199913    1.169    0.145
       187 -11.0998     80.6700    163.4578   2.9180374004e+02   5.4215651456e+00   0.01377182   0.01270318  57.54 0.0002070837    1.130    0.115
       188  -8.7824    148.6890    152.6665   2.9094706325e+02   5.1534521811e+00  0.007094169  0.004874744 -29.53  0.000704382    1.677    0.404
       189 -11.0353    102.6530    151.2343   2.9147460096e+02   5.4365804123e+00   0.01529555   0.01487611 -24.50  0.001173135    1.026    0.025
       190  -9.8569    105.4252    146.2039   2.9141222814e+02   5.4790059206e+00   0.01586786  0.009726054 -37.15   0.00153411    1.822    0.451
       191 -13.2853      3.8186    141.9400   2.9257113611e+02   6.1147944805e+00   0.04750239   0.03099544 -55.81  0.003052698    1.484    0.326
       192 -11.3739     56.2203    150.2989   2.9201007228e+02   5.7156815074e+00   0.03046678   0.01921933 -41.37  0.002397883    1.669    0.401
       193  -9.9521     53.0119    146.4683   2.9202459844e+02   5.7787207665e+00   0.01049692  0.009013153 -31.90 -7.177355e-05    1.204    0.170
       194 -10.2470     46.5824    150.6737   2.9212464706e+02   5.7669227689e+00   0.01560809  0.007966238  27.47   0.00142193    1.951    0.487
       195 -12.4633     74.7231    139.4640   2.9172969220e+02   5.7347988931e+00   0.04255657   0.02850236  66.76  0.003740345    1.917    0.478
       196 -13.4156     67.3701    144.0157   2.9184259099e+02   5.7243589320e+00   0.05359225   0.03339667  67.70  0.004952553    2.228    0.551
       197 -10.7305     65.1363    134.1461   2.9180965981e+02   5.8519656260e+00   0.01443094   0.01146154  68.17 0.0007150665    1.442    0.307
       198  -9.7154    133.7125    135.4502   2.9101838334e+02   5.4402251650e+00  0.009802579  0.006574898  25.69 0.0004273017    1.505    0.335
       199 -10.8427    134.0000    145.0318   2.9107239140e+02   5.3272409616e+00   0.03203438    0.0103143 -66.22  0.002193774    3.533    0.717
       200 -10.8655    132.9679    140.3137   2.9105617059e+02   5.3880346941e+00   0.01993228    0.0124837 -59.34  0.001210331    1.557    0.358
       201 -10.3524    236.7428    145.8952   2.8988226728e+02   4.7211082628e+00   0.03344521   0.01635675  -0.26  0.002204356    4.428    0.774
       202 -10.7566    241.9092    130.6635   2.8973084230e+02   4.8678608018e+00   0.03142185    0.0161018 -11.84  0.002118687    4.285    0.767
       203 -11.4922    248.4392    141.3231   2.8971893139e+02   4.7061912536e+00   0.03555195   0.01780568  12.69  0.002928163    2.649    0.622
       204 -12.2946    248.3217    134.5921   2.8967990615e+02   4.7849869316e+00   0.04124194    0.0276156 -44.68  0.004304322    1.514    0.339
       205 -10.6243     61.0757    137.3277   2.9187600612e+02   5.8384296628e+00   0.01606086   0.01191158  35.63 0.0006573946    1.345    0.257
       206 -10.2747     46.8058    143.2631   2.9207780668e+02   5.8517767913e+00   0.01181016   0.00783092  30.01 0.0006094633    1.496    0.332
       207 -11.2912     27.3329    142.3043   2.9229911585e+02   5.9751750010e+00    0.0165748   0.01160239 -32.98  0.001327118    1.583    0.368
       208 -11.1230     26.3518    139.3365   2.9229284754e+02   6.0153262732e+00   0.01562644   0.01070029  -1.51  0.001468922    1.803    0.445
       209 -10.4618    164.0721    139.5279   2.9068931847e+02   5.2169113321e+00   0.01155821  0.009524217 -64.32 0.0003520504    1.215    0.177
       210  -9.4460     53.6865    140.0392   2.9197834258e+02   5.8495583375e+00  0.009176251  0.008422689 -63.50 0.0005011035    1.087    0.080
       211 -11.5666     47.7406    138.3853   2.9203778487e+02   5.9030830529e+00   0.02908152   0.01272543  17.09  0.002258088    2.893    0.654
       212 -10.1463    119.8118    137.6342   2.9119336676e+02   5.4953390008e+00   0.02019498   0.01107076 -32.19  0.001755847    2.356    0.576
       213 -11.0198    112.9055    136.2425   2.9126549373e+02   5.5514814632e+00   0.02064111   0.01423635  30.59  0.001681595    1.439    0.305
       214  -8.7517    107.6966    135.7123   2.9132300832e+02   5.5877805148e+00  0.006792897  0.004943579 -26.87 0.0002773122    1.564    0.361
       215  -9.5564     91.1560    150.4609   2.9160392081e+02   5.5120390086e+00    0.0112608  0.009137073 -63.80 0.0003655777    1.231    0.188
       216  -9.1994    184.5031    136.4844   2.9043330976e+02   5.1337414044e+00  0.006528617  0.006476111  73.23 0.0001251776    1.028    0.027
       217 -12.6738     45.2620    131.1635   2.9202355394e+02   6.0013180827e+00   0.02858769   0.02452993 -73.28  0.002017866    1.203    0.169
       218  -9.0962     87.6230    133.2388   2.9154212848e+02   5.7326055472e+00  0.008799077  0.005924387 -51.69 0.0001993784    1.449    0.310
       219 -11.1046    247.7076    247.8795   2.9036574330e+02   3.4735429920e+00   0.01620623   0.01453805 -19.25  0.001952868    1.162    0.139
       220  -9.2981    106.6735    129.8351   2.9129976327e+02   5.6619885664e+00   0.01516701  0.005474003  45.45  0.001010659    3.298    0.697
       221 -11.6240     66.2297    128.0125   2.9176025506e+02   5.9169359397e+00   0.02470321   0.01819173 -87.07  0.001353492    1.597    0.374
       222  -8.9438    141.5972    129.4802   2.9089080608e+02   5.4639000526e+00   0.00653672   0.00634309 -49.80 3.103937e-05    1.019    0.019
       223 -10.2481    117.8513    128.9586   2.9116428019e+02   5.6074852747e+00   0.01160815  0.006598903 -39.01 0.0008890104    1.964    0.491
       224 -12.2012     31.7587    126.7170   2.9215446821e+02   6.1308523882e+00   0.02528299   0.01266765  34.50  0.002314327    1.936    0.484
       225 -11.7775     10.2980    124.5848   2.9239205272e+02   6.2792469945e+00   0.01535563  0.009377188  32.76   0.00111542    1.611    0.379
       226 -12.2974    248.3047    101.2957   2.8948018481e+02   5.1714137574e+00   0.04664748   0.02138102 -60.54  0.004078018    2.111    0.526
       227 -10.1894    250.3315    125.0491   2.8959927502e+02   4.8840371419e+00   0.01863544   0.01036051 -67.87  0.001739043    1.909    0.476
       228 -11.3075    244.8388    121.3510   2.8964089992e+02   4.9588918066e+00   0.02865658   0.01695783  35.33  0.002273839    1.663    0.399
       229 -11.4899    248.2828    113.0119   2.8955080769e+02   5.0356178688e+00   0.02541598   0.02100931 -11.24  0.002922356    1.334    0.250
       230  -9.5883     86.3251    126.5365   2.9151717167e+02   5.8179914049e+00   0.01629948   0.01009286 -10.78  0.001009305    2.285    0.562
       231  -9.0679    114.6303    122.8815   2.9116542892e+02   5.6967327427e+00   0.00881221  0.006314504 -79.56 0.0001601056    1.580    0.367
       232  -9.3277     50.5713    122.8329   2.9191187436e+02   6.0675092046e+00   0.00928591  0.006445686 -81.43 0.0007667473    1.681    0.405
       233 -10.8203     15.9423    123.0218   2.9231688465e+02   6.2649177211e+00   0.01135898  0.007662841 -29.59  0.001140077    1.723    0.419
       234 -10.0790    249.6083    117.7495   2.8956385298e+02   4.9729400790e+00   0.01161471   0.01074579 -46.21 0.0005979275    1.069    0.064
       235  -9.2298    143.3552    120.9089   2.9081898491e+02   5.5532723077e+00   0.01345182  0.006544928 -73.78  0.001093006    2.588    0.614
       236 -11.3455     21.6352    119.8071   2.9223128849e+02   6.2694931963e+00   0.02148677   0.00905467 -37.26  0.001552293    3.333    0.700
       237  -8.8283    130.6799    119.2720   2.9095682395e+02   5.6457291373e+00  0.006769942  0.004931182  58.26 0.0002172667    1.568    0.362
       238  -9.8381     27.9822    114.6928   2.9212670761e+02   6.2923607822e+00  0.009059994  0.008420564  25.21 0.0003044576    1.082    0.076
       239 -11.6875     31.1398    118.0452   2.9210989851e+02   6.2352043265e+00   0.01863818   0.01164493  49.67  0.001352771    1.775    0.437
       240 -11.0146     33.2596    114.9863   2.9206690024e+02   6.2585348954e+00   0.01261794  0.009144686 -55.99  0.001062647    1.345    0.257
       241 -10.4154    209.7882    125.8027   2.9007511087e+02   5.1109537261e+00   0.01181595   0.01084678 -47.83 0.0005330581    1.076    0.071
       242 -10.8250    168.1399    113.4192   2.9048548307e+02   5.4965296122e+00   0.01584858   0.01208764  61.59 0.0008769566    1.496    0.331
       243 -10.1846     72.8781    115.0658   2.9160532598e+02   6.0289811551e+00   0.01065184  0.009562489  -3.04            0    1.165    0.141
       244  -9.3134    134.3091    114.3395   2.9088499570e+02   5.6819961790e+00   0.00711708  0.004860739 -29.94 0.0007043972    1.687    0.407
       245 -11.1597     69.1555    110.8621   2.9162358920e+02   6.0993279132e+00   0.02152527  0.008403569  43.43  0.001046282    2.780    0.640
       246 -11.4242     57.6098    110.6336   2.9175686848e+02   6.1686509812e+00   0.02398768   0.01296981  16.86  0.002165488    2.125    0.529
       247 -10.2621    134.5456    105.2114   2.9082754071e+02   5.7866413275e+00   0.01676454  0.005990212 -59.49  0.001299374    2.617    0.618
       248  -9.3472    112.4938    104.4803   2.9108013183e+02   5.9228559267e+00  0.006512256  0.006487612  84.89 0.0008102377    1.021    0.021
       249  -8.5995     42.6839    103.7013   2.9188952023e+02   6.3353247776e+00  0.006913081  0.004931145 -26.97 0.0002719104    1.611    0.379
       250  -8.7972     35.8210    102.4332   2.9196200527e+02   6.3896353978e+00  0.008429251  0.006430874   5.71 0.0005579493    1.456    0.313
       251  -9.9499     63.0503     99.7410   2.9162826150e+02   6.2637945928e+00    0.0132797  0.009358432 -51.45  0.000839591    1.387    0.279
       252 -11.6579      2.0000    128.4945   2.9251217043e+02   6.2815553470e+00   0.03973704   0.01050003 -64.20  0.002541439    4.002    0.750
       253 -10.5137    239.0261    249.5179   2.9047631243e+02   3.5048564364e+00   0.01029587  0.006506767  26.67  0.001031984    1.589    0.371
       254  -9.4117     44.8430     90.1709   2.9178341712e+02   6.4800648749e+00  0.009211225  0.007561038 -26.15 0.0003386446    1.307    0.235
       255  -9.1536    102.1097     88.0958   2.9110302335e+02   6.1732532537e+00  0.008646826  0.007540496  64.07            0    1.238    0.192
       256 -11.6838    222.2031    245.8358   2.9064962592e+02   3.6451225290e+00   0.02577575   0.01427992  -8.67  0.002035998    3.083    0.676
       257  -8.7027    199.6753    245.7157   2.9091057269e+02   3.7770553816e+00  0.006861504  0.004958939 -24.95 0.0002366606    1.600    0.375
       258  -9.7287     93.0480    244.6589   2.9214394063e+02   4.4061109864e+00  0.009209143   0.00830844  29.02 0.0004457736    1.113    0.102
