#   1 NUMBER                 Running object number                                     
#   2 MAG_AUTO               Kron-like elliptical aperture magnitude                    [mag]
#   3 X_IMAGE                Object position along x                                    [pixel]
#   4 Y_IMAGE                Object position along y                                    [pixel]
#   5 X_WORLD                Barycenter position along world x axis                     [deg]
#   6 Y_WORLD                Barycenter position along world y axis                     [deg]
#   7 A_WORLD                Profile RMS along major axis (world units)                 [deg]
#   8 B_WORLD                Profile RMS along minor axis (world units)                 [deg]
#   9 THETA_WORLD            Position angle (CCW/world-x)                               [deg]
#  10 FWHM_WORLD             FWHM assuming a gaussian core                              [deg]
#  11 ELONGATION             A_IMAGE/B_IMAGE                                           
#  12 ELLIPTICITY            1 - B_IMAGE/A_IMAGE                                       
         1 -14.1560    223.1384      3.9569   3.8834261072e+01   2.8725368698e+01     2.534331     1.156376  58.59  0.007340261    2.213    0.548
         2 -13.9763    181.0034     47.8639   5.6083878237e+01   3.3921771214e+01     1.909876     1.335255  19.86 0.0008616846    1.981    0.495
         3 -14.0476    192.2847     38.2580   5.1477982382e+01   3.2364864661e+01     1.308368     1.089246 -45.22  0.003208415    1.185    0.156
         4 -14.6007    200.2307     29.2805   4.7847756751e+01   3.1501035140e+01      1.67645     1.293255  39.37  0.001330788    1.517    0.341
         5 -10.8120    189.6398     14.6783   4.5061714599e+01   3.5906563229e+01    0.2637858    0.2225919 -66.15 0.0007410072    1.149    0.130
         6 -10.7963     75.7216     13.3751   6.8335753496e+01   6.3117855316e+01    0.4479188    0.2384813  65.53   0.00178877    3.730    0.732
         7 -10.6064     69.7888      2.3843   6.5050130831e+01   6.5412893106e+01    0.1854368   0.09626973  38.96  0.000956596    1.722    0.419
         8  -9.8502     61.9864    220.3375   1.2002718494e+02   2.1532413762e+01     0.232605    0.1334324  68.81  0.001301321    1.576    0.366
         9 -19.4072     13.7627    151.0962   1.2408644683e+02   4.1606895576e+01     18.50372     5.350402 -80.28   0.07277235    3.258    0.693
        10 -13.4418     31.6789    206.2556   1.2464735692e+02   2.7948914051e+01    0.4066612    0.1609305  56.01   0.00164606    2.157    0.536
        11 -12.5533    196.3103    198.0703   9.0078694069e+01   3.5054915209e+00     1.262543     1.004959  77.92  0.006845411    1.980    0.495
        12 -10.6490     97.3387    200.8510   1.1096358013e+02   2.0355230930e+01    0.4759054     0.339824 -20.12  0.002325357    2.802    0.643
        13 -15.8753     70.9887    147.6476   1.0963568958e+02   3.6159448770e+01     10.64773     4.938562  81.18   0.01608442    7.751    0.871
        14 -11.2048    152.7999    198.3136   9.8917536197e+01   1.1388738162e+01      0.42149    0.2630024 -60.28  0.002081193    1.990    0.497
        15 -11.0471    106.0757    211.9372   1.1052616947e+02   1.6792284396e+01    0.5835655    0.3459244  23.79  0.002737559    2.611    0.617
        16 -12.3709    112.4723    196.1631   1.0713520480e+02   1.8869455718e+01    0.5905678    0.4015412   5.11  0.002573715    3.123    0.680
        17 -11.0374     37.4844    211.0992   1.2390060096e+02   2.6332845021e+01    0.1594944    0.1147943  68.52 0.0002955308    1.071    0.066
        18  -9.5769     93.9124    249.8511   1.1676517153e+02   1.1867404622e+01    0.1582814    0.1290178  47.38 0.0004440536    1.234    0.190
        19  -9.7594    159.6772    196.8833   9.7250868200e+01   1.0396670725e+01    0.1770559    0.1712641 -67.56 0.0004675034    1.163    0.140
        20 -12.3620     27.6394    196.3095   1.2471899637e+02   3.0416181497e+01    0.2007268     0.148235  73.43 0.0004568727    1.051    0.048
        21  -9.7821     82.1395    194.9967   1.1346247276e+02   2.3863630080e+01     0.218164    0.1720873  50.69 0.0008412412    1.196    0.164
        22 -11.1070    207.5264    194.2158   8.7207163855e+01   2.1067895083e+00    0.2507642    0.1717686  36.69 0.0006025717    1.332    0.249
        23 -13.6075     63.5490    188.8490   1.1672854573e+02   2.7764486436e+01    0.7626093    0.6738482 -44.81  0.005020169    1.546    0.353
        24 -10.8057     96.5973    190.4352   1.0978105423e+02   2.2629821650e+01    0.2909481    0.2756799  21.12  0.001106681    1.349    0.259
        25  -9.0148     59.6140    216.3064   1.2013555337e+02   2.2621967233e+01     0.205561   0.09815674 -87.25   0.00103427    2.316    0.568
        26 -12.3139    113.5296    207.9749   1.0850618906e+02   1.6358234911e+01    0.4391237    0.2976654  79.61  0.001662916    1.736    0.424
        27 -10.3520    153.9026    185.2504   9.6464599598e+01   1.3647825342e+01    0.2962267    0.2035734 -69.04  0.001266918    1.936    0.483
        28 -10.5053     72.6301    203.0298   1.1632677113e+02   2.3547147123e+01    0.3810893    0.2175557  71.67  0.002015071    1.812    0.448
        29 -11.4078    146.7988    183.7258   9.7732562441e+01   1.5279741995e+01    0.4223663    0.2419092  59.66  0.001582973    2.151    0.535
        30 -13.6786     54.5646    202.3299   1.1990154119e+02   2.6073326948e+01    0.8069768    0.5086313  76.12  0.001762321    1.420    0.296
        31 -10.5267     99.4095    180.6684   1.0779864251e+02   2.4275338546e+01    0.2333715    0.2168513  59.19 0.0006105872    1.133    0.117
        32 -10.4411    204.4277    176.3105   8.4329720506e+01   5.5909839472e+00    0.3790776    0.2541441 -52.51  0.001854394    1.900    0.474
        33  -9.0127    198.3183    177.3002   8.5731200174e+01   6.5872095735e+00    0.1434368    0.1038437   8.38 0.0005198513    1.619    0.382
        34 -10.3364     57.9845    175.9165   1.1652384814e+02   3.1332072079e+01    0.2593067    0.1893606  58.72 0.0004551456    1.255    0.203
        35  -9.8906     53.9637    173.7677   1.1718384653e+02   3.2317393763e+01    0.2383952    0.1624504  46.21 0.0005891794    1.450    0.310
        36 -10.9578     46.2255    172.9053   1.1882009630e+02   3.3436807354e+01    0.3415363    0.2650539  43.30  0.001502531    1.400    0.286
        37 -10.8126    230.5289    166.8055   7.7466408605e+01   2.2624348837e+00    0.3750074    0.1784906 -51.01  0.001400113    3.395    0.705
        38 -12.0110     66.2858    206.6393   1.1796491335e+02   2.3673669487e+01    0.5556064    0.3571983 -34.61 0.0005838524    3.241    0.691
        39  -9.8330    161.6317    166.1379   9.1173457885e+01   1.5908251692e+01    0.2192287    0.1812617 -69.42 0.0005718978    1.423    0.297
        40 -10.3030     49.5437    216.9243   1.2208235574e+02   2.3763435852e+01    0.3104341    0.2353222   6.79  0.001871046    2.610    0.617
        41 -12.2591     93.4978    153.8407   1.0496934315e+02   3.1301644801e+01    0.6415603    0.4497475 -31.77  0.003064165    2.025    0.506
        42  -9.0306    149.5139    156.0094   9.1838076895e+01   2.0440651409e+01    0.2051631    0.1322534 -74.67 0.0008087924    2.418    0.587
        43 -11.4557    133.8277    145.0016   9.3240082405e+01   2.5998450990e+01     1.203886    0.3083972 -54.89  0.002914101    5.615    0.822
        44 -10.8316    174.5368    148.6856   8.4631429959e+01   1.6739750300e+01     0.310221    0.2900902 -88.28 0.0009365004    1.202    0.168
        45 -10.6763    143.8564    145.7070   9.0974428232e+01   2.3810094046e+01    0.3932795    0.2048617 -63.40  0.001386967    2.810    0.644
        46  -9.0705     66.9232    216.4723   1.1875320862e+02   2.1631162896e+01    0.1715852    0.1009616  44.68  0.000511195    1.513    0.339
        47 -11.3668    106.3831    139.2584   9.8956225777e+01   3.2529021210e+01      0.56752    0.4667323 -20.92  0.002888502    1.576    0.365
        48 -12.3135     93.6720    139.2527   1.0227780964e+02   3.4714413387e+01     0.282374    0.2464346 -52.11 0.0003596766    1.176    0.150
        49 -10.8808    105.9443    130.7244   9.7283775187e+01   3.4615164046e+01    0.3717039    0.3015219 -72.12   0.00138018    1.253    0.202
        50 -10.8881    135.5926    127.8661   8.8930408883e+01   2.9475224891e+01    0.5885537    0.1947034 -50.22  0.001812865    3.139    0.681
        51 -10.5732    135.0000    120.8935   8.7383060575e+01   3.1159271236e+01    0.4840383    0.1701954 -51.02  0.001500614    3.049    0.672
        52 -10.7952    113.8316    129.9091   9.5013057445e+01   3.3348779509e+01    0.3567773     0.299661  11.38 0.0008994423    1.493    0.330
        53 -11.3023    119.8735    123.7326   9.1997254592e+01   3.3613188743e+01    0.6445566    0.3346669 -32.39  0.002241319    2.886    0.654
        54 -10.1690    160.6331    127.8397   8.2874466295e+01   2.4058995482e+01    0.3088593    0.2431297 -77.12  0.001416869    1.611    0.379
        55 -11.1185    101.2910    125.8877   9.7484505218e+01   3.6588729484e+01    0.2951384    0.2323094 -32.39 0.0007016808    1.478    0.323
        56 -10.1647    109.3087    118.9731   9.3708781307e+01   3.6753038029e+01    0.2307425    0.2110699  50.43 0.0003236075    1.130    0.115
        57 -10.2170    167.6579    112.4406   7.7351419380e+01   2.5658578593e+01     0.369469    0.2787796 -89.95  0.001479695    1.845    0.458
        58 -10.1695    134.5546    105.7666   8.3571071001e+01   3.4597657024e+01     0.472446    0.1477462 -47.53  0.001393264    3.252    0.693
        59 -11.5164    118.0814    110.4371   8.9192804016e+01   3.7015458221e+01    0.6626168    0.4260194  59.29  0.002816258    1.874    0.466
        60 -10.2864    205.4373    110.0649   6.8957178420e+01   1.7311419337e+01      0.31871    0.2299541  43.74 0.0008767789    1.451    0.311
        61  -9.6796     64.5116     99.4990   1.0232241630e+02   4.8600246474e+01    0.2288232    0.1228071  45.81 0.0009252447    2.160    0.537
        62 -11.6526     52.2415     90.4935   1.0420841229e+02   5.2237633016e+01     0.337404    0.2758155 -70.97  0.001402269    1.202    0.168
        63 -11.0276    130.9884    214.1142   1.0576549944e+02   1.2310912011e+01    0.2032607    0.1828479 -89.51 0.0004724188    1.201    0.168
        64 -12.4136    107.8144    203.4475   1.0910199542e+02   1.8171750088e+01     0.538653     0.475062  49.83  0.001950413    1.140    0.123
        65  -9.3090    155.8568     80.8545   7.1155447079e+01   3.4747171887e+01    0.2147745    0.1877618 -83.01 0.0004979788    1.297    0.229
        66 -10.0610     65.4751     70.3113   9.4265337515e+01   5.5074009315e+01    0.2362687     0.208235  44.84 0.0007108699    1.327    0.247
        67  -8.7614    169.2972    236.7279   1.0144231779e+02   2.2014909956e+00     0.115724   0.08524428  58.33  0.000205806    1.525    0.344
        68 -11.0134     44.0003    210.6556   1.2264324153e+02   2.5667181115e+01     0.293541    0.1895509 -79.52 0.0009579583    1.413    0.292
        69 -11.9755     61.3151    234.5976   1.2128864545e+02   1.8952858415e+01    0.2064188    0.1485153  72.38 0.0003852755    1.113    0.102
        70  -9.3416     72.0434    230.8262   1.1904689936e+02   1.8224782737e+01    0.1533612    0.1152759  62.56 0.0003052342    1.029    0.028
        71 -10.8316    156.8948     59.0727   6.4172676797e+01   3.8356698841e+01    0.3419206    0.2644223 -81.01 0.0004778818    1.611    0.379
        72 -10.6526    159.3294     52.9837   6.1718850643e+01   3.8717540713e+01    0.2791342    0.2210869  58.71 0.0001959556    1.241    0.194
        73 -10.1418     41.7166    205.7661   1.2270309508e+02   2.6919110124e+01    0.2435649    0.2312495 -32.70  0.001228489    1.660    0.398
        74  -9.8115     36.9810    224.6213   1.2490876129e+02   2.3765730144e+01    0.1324932    0.1191535  41.14 0.0004736332    1.565    0.361
        75  -9.7332    152.6094    211.7971   1.0107173387e+02   9.0102918367e+00    0.1636284    0.1262578 -68.27 0.0005606503    1.617    0.382
        76 -12.4487    125.8054    209.3835   1.0617318392e+02   1.4055717597e+01    0.5414572    0.3588258 -11.25   0.00225901    3.707    0.730
