#   1 NUMBER                 Running object number                                     
#   2 MAG_AUTO               Kron-like elliptical aperture magnitude                    [mag]
#   3 X_IMAGE                Object position along x                                    [pixel]
#   4 Y_IMAGE                Object position along y                                    [pixel]
#   5 X_WORLD                Barycenter position along world x axis                     [deg]
#   6 Y_WORLD                Barycenter position along world y axis                     [deg]
#   7 A_WORLD                Profile RMS along major axis (world units)                 [deg]
#   8 B_WORLD                Profile RMS along minor axis (world units)                 [deg]
#   9 THETA_WORLD            Position angle (CCW/world-x)                               [deg]
#  10 FWHM_WORLD             FWHM assuming a gaussian core                              [deg]
#  11 ELONGATION             A_IMAGE/B_IMAGE                                           
#  12 ELLIPTICITY            1 - B_IMAGE/A_IMAGE                                       
         1 -13.9113    203.6788     10.9318   6.4506098694e+01   3.2620979230e+01     1.896466     1.219964  42.84  0.009357946    1.828    0.453
         2 -12.6508    188.2519     32.1924   7.2537632965e+01   3.4202317040e+01     1.180672    0.7139941 -70.62  0.005031213    2.069    0.517
         3 -12.9622    192.7637     26.1477   7.0126826890e+01   3.3757989461e+01     1.130272    0.7205834 -72.92  0.004751192    1.806    0.446
         4 -12.6341      2.1545     12.0384   1.2351042285e+02   7.2705641743e+01     1.733769    0.2157903 -55.44  0.005316906    6.731    0.851
         5 -12.7331      2.3802      3.4975   1.1967640631e+02   7.4114306224e+01    0.8578743    0.7271964 -84.81  0.006349794    2.145    0.534
         6 -10.2839     85.5905    246.7795   1.3908430810e+02   1.5103435478e+01      0.20033     0.129797 -80.94  0.001342522    1.672    0.402
         7 -11.2890    240.6680    249.0602   1.1256292824e+02  -9.1196443006e+00    0.3977499    0.1327102  45.26  0.001831498    3.066    0.674
         8 -10.7511    250.0160    247.1925   1.1077420572e+02  -1.0258780994e+01     0.241054    0.1615504  -3.40  0.001645901    1.439    0.305
         9 -11.8046    139.6947    248.9632   1.2986765776e+02   6.6251808237e+00    0.3951224    0.2957804  59.65  0.002748545    1.228    0.186
        10 -11.0252    125.6891    249.6059   1.3239226374e+02   8.7219894210e+00    0.3413741    0.1041035  44.33  0.001549303    2.443    0.591
        11 -12.0877    109.7220    249.3808   1.3515132529e+02   1.1187251621e+01    0.6769686    0.2065406  47.99  0.003140223    2.460    0.594
        12 -11.0993     98.0532    249.8189   1.3720431926e+02   1.2839221512e+01    0.2575357    0.2434223 -34.31  0.001827731    1.685    0.406
        13  -9.0720     67.4733    250.4936   1.4241289363e+02   1.6957021171e+01    0.1101384   0.07771264  62.61 0.0008100516    1.002    0.002
        14 -10.6787     46.3122    248.8814   1.4576073107e+02   1.9877459748e+01    0.2647769    0.1279914  64.51  0.001163519    1.624    0.384
        15 -14.0696     33.0515    246.6216   1.4775196509e+02   2.1797854525e+01     10.23192     2.718714  32.26   0.02153001   20.785    0.952
        16 -10.3964    228.7158    228.1517   1.1131455295e+02  -5.0768416602e+00    0.2926005    0.2294979 -63.54  0.001526458    2.480    0.597
        17 -13.0592      6.4028    243.8877   1.5175283488e+02   2.5069834273e+01     1.161861    0.6931796  89.30   0.00922451    1.391    0.281
        18 -10.6188     35.1991    223.9657   1.4613008156e+02   2.5512816042e+01    0.3224268    0.1775406  60.77  0.001537728    1.374    0.272
        19  -9.5667     32.7047    228.3110   1.4681338038e+02   2.5008170228e+01    0.1826313    0.1221363  70.83  0.000524402    1.072    0.067
        20 -10.4039    174.5244    222.3961   1.2011576901e+02   4.7214110383e+00    0.2614459    0.1876373  58.01  0.001100624    1.501    0.334
        21  -9.3365     94.6537    216.6578   1.3463935360e+02   1.8984333987e+01    0.2452416     0.132308  67.12 0.0008485396    1.979    0.495
        22 -10.3751    199.1250    246.6113   1.1917024851e+02  -2.5732265400e+00    0.1851836    0.1578413  85.82  0.001282239    1.906    0.475
        23  -8.8346    152.6597    212.9757   1.2290138919e+02   1.0021895383e+01    0.1623945    0.1512387  51.49 0.0003642676    1.120    0.107
        24 -10.4903     32.2238    206.8409   1.4556733542e+02   2.9064799953e+01    0.3434919    0.1283389  59.70  0.001398101    2.347    0.574
        25  -9.9680    193.5472    195.7103   1.1219133908e+02   5.3488992274e+00    0.6765844     0.333661 -62.18  0.001759727    8.815    0.887
        26 -11.3971     66.7930    197.6521   1.3816325951e+02   2.6656328989e+01    0.3211682    0.2384551 -48.19  0.001428799    1.898    0.473
        27 -12.5367     41.8199    232.0342   1.4549398892e+02   2.3296750018e+01    0.2775056    0.2230482 -84.66 0.0008114804    1.384    0.277
        28 -11.5191     72.1429    190.0412   1.3627993341e+02   2.7471508892e+01    0.2493713    0.2182993 -73.00 0.0004761003    1.301    0.232
        29 -13.1176     68.6009    175.3180   1.3536498159e+02   3.1067799981e+01    0.4644298    0.2785795 -46.88   0.00182543    2.243    0.554
        30 -10.8461     81.3597    177.4964   1.3282264078e+02   2.8779083838e+01    0.2314065    0.2025245  83.42 0.0003648885    1.082    0.076
        31  -8.9153    120.3249    175.3268   1.2386258026e+02   2.2832741907e+01    0.1311605    0.1114811  -3.44 0.0007049399    1.694    0.410
        32 -11.8081     88.0239    168.0450   1.3004312392e+02   2.9809634611e+01    0.6563356    0.5052799  66.50  0.003823519    1.190    0.159
        33  -8.9543    230.3147    166.6559   9.9770946497e+01   2.8689275400e+00    0.1268425    0.1094229 -73.56 0.0007047667    1.712    0.416
        34 -14.3575     56.0999    211.9571   1.4152113200e+02   2.5249164058e+01     5.281434    0.5795685  48.88   0.01668021    5.672    0.824
        35  -9.8010    100.4000    151.8047   1.2454460203e+02   3.1395362104e+01    0.2816309    0.2584501 -57.52 0.0008658175    1.198    0.166
        36  -9.0174    103.1274    147.5400   1.2311826252e+02   3.1883636715e+01    0.2598418    0.1936031 -34.71  0.001302988    1.753    0.429
        37 -12.0601     89.0284    151.3939   1.2724735194e+02   3.3356203073e+01    0.2690115    0.2445712 -50.38 0.0005446821    1.278    0.218
        38 -12.4865     67.2237    143.9433   1.3148011206e+02   3.8273123471e+01    0.7750487    0.4980147  77.89    0.0039797    1.725    0.420
        39 -11.9202     58.1495    132.4487   1.3204672838e+02   4.2119116541e+01    0.9094229    0.3428344 -75.87  0.003114236    3.752    0.733
        40  -8.4261    134.2975    148.6336   1.1581150710e+02   2.5802955667e+01    0.1535925    0.1130774  85.88 0.0007031686    1.725    0.420
        41  -8.5604    192.2463    143.9660   1.0206031285e+02   1.4408198705e+01    0.1807065    0.1254843 -39.08 0.0004023466    1.479    0.324
        42  -9.7280    110.7141    137.0324   1.1920108970e+02   3.2893682801e+01    0.3449842    0.2280416 -30.47  0.001190061    2.193    0.544
        43 -10.4299     98.5458    134.3510   1.2177514513e+02   3.5670416484e+01    0.2717163    0.2322126 -33.07 0.0008069554    1.414    0.293
        44 -10.8464    234.3375    238.1283   1.1194107876e+02  -7.0590193979e+00    0.2670581    0.1903476 -54.47  0.001612404    2.732    0.634
        45  -9.8175    185.6077    238.8110   1.2044943957e+02   5.7517012954e-01    0.1380563    0.1151809 -61.71 0.0003911757    1.705    0.413
        46  -9.5604    107.8725    123.9412   1.1715550285e+02   3.6382067246e+01    0.2077215    0.1991476 -83.38 0.0003387268    1.032    0.031
        47 -15.2120     18.1680    167.9349   1.4554747823e+02   3.8428460550e+01     6.426302     1.960507 -88.36   0.02394543    4.180    0.761
        48  -9.1815    203.4785    111.5069   9.2074139709e+01   1.7729156406e+01     0.151552    0.1445972   3.35 0.0001437575    1.059    0.056
        49 -10.6620    168.1800    113.1542   9.9708782737e+01   2.5765659811e+01    0.3655486    0.3015151 -76.25 0.0008747212    1.437    0.304
        50 -14.5440      7.3164    208.7999   1.5011000630e+02   3.1223109302e+01     3.166924    0.7512992 -76.15    0.0148735    3.426    0.708
        51  -8.4287     73.7687     38.3697   1.0218330717e+02   6.0131998570e+01    0.1256835   0.09968169 -56.05 0.0005851438    1.599    0.374
        52 -13.9455     48.1215    224.2822   1.4389705204e+02   2.3936689119e+01    0.9675334    0.6320267  82.69  0.005791027    1.285    0.222
        53 -10.8492     81.3209    247.6901   1.3988529710e+02   1.5549979646e+01    0.3476645    0.1863104  74.86  0.002076669    1.977    0.494
        54 -10.8329     81.7907    242.2020   1.3936507047e+02   1.6386452905e+01    0.3145324    0.1719216  64.11  0.001698823    1.596    0.373
        55 -10.0071     88.3658    248.7053   1.3876763490e+02   1.4402555971e+01    0.1962407    0.1016033  54.81 0.0006365624    1.475    0.322
