#   1 NUMBER                 Running object number                                     
#   2 MAG_AUTO               Kron-like elliptical aperture magnitude                    [mag]
#   3 X_IMAGE                Object position along x                                    [pixel]
#   4 Y_IMAGE                Object position along y                                    [pixel]
#   5 X_WORLD                Barycenter position along world x axis                     [deg]
#   6 Y_WORLD                Barycenter position along world y axis                     [deg]
#   7 A_WORLD                Profile RMS along major axis (world units)                 [deg]
#   8 B_WORLD                Profile RMS along minor axis (world units)                 [deg]
#   9 THETA_WORLD            Position angle (CCW/world-x)                               [deg]
#  10 FWHM_WORLD             FWHM assuming a gaussian core                              [deg]
#  11 ELONGATION             A_IMAGE/B_IMAGE                                           
#  12 ELLIPTICITY            1 - B_IMAGE/A_IMAGE                                       
         1 -16.2385     39.2103     61.9392   1.1539817552e+02   5.9898805542e+01     3.045346     1.484314  11.79    0.0135647    2.776    0.640
         2 -15.1727     90.0141     63.0198   9.6179550364e+01   5.2568725609e+01      2.48061     1.959604  40.73   0.01295979    1.334    0.251
         3 -12.3002     58.2388     74.0907   1.1113490929e+02   5.5051890536e+01    0.4099899    0.2675101 -49.06  0.002051777    1.362    0.266
         4 -13.8878    137.4952    218.8799   1.1571898344e+02   1.3179293168e+01    0.5953208    0.2389677  31.63  0.002677332    2.437    0.590
         5 -12.8468    237.7781    216.3080   9.6618283552e+01  -1.8089410896e+00    0.3689894    0.2054468 -35.18  0.002181658    2.244    0.554
         6 -12.2340    169.4613    214.3034   1.0881090637e+02   8.8895847479e+00    0.2513535    0.1650858  52.16  0.001435171    1.763    0.433
         7 -11.9836    161.6860    211.4826   1.0992779465e+02   1.0528834450e+01    0.1871178    0.1160519 -43.26  0.001070609    1.977    0.494
         8 -12.2610    228.1766    211.0444   9.7397170212e+01   1.7057865012e-01    0.2719724    0.1938874  47.54   0.00167239    1.931    0.482
         9 -14.1951    206.2781    204.6667   1.0027329982e+02   4.3147181119e+00    0.4763042    0.3032636  39.21  0.002456148    1.445    0.308
        10 -13.5327    142.5069    203.0420   1.1260048030e+02   1.4892563376e+01    0.3276668    0.2598586 -43.17  0.002080732    1.513    0.339
        11 -13.6539    192.4429    195.6723   1.0137666897e+02   7.7728642768e+00    0.3052681    0.2097272  41.82   0.00176512    1.408    0.290
        12 -13.5785    157.8376    182.5349   1.0618602209e+02   1.5720478121e+01    0.9933144    0.4946197  25.73  0.004189142    2.425    0.588
        13 -14.4876    148.7175    178.8848   1.0754107292e+02   1.7930736264e+01    0.5802676    0.3681867  45.91  0.003011553    1.477    0.323
        14 -15.0452    145.0253    186.4659   1.0958518173e+02   1.7247116330e+01    0.9031953      0.53999 -68.30  0.004101818    2.923    0.658
        15 -14.4759    141.2226    178.0224   1.0905005567e+02   1.9377276554e+01    0.5597417    0.4540969  41.54  0.002238581    1.108    0.098
        16 -15.1137    132.2092    174.0748   1.1042572534e+02   2.1637728348e+01     1.149284    0.7492288  -9.32  0.005111569    2.705    0.630
        17 -14.9375    118.3166    175.4037   1.1381391281e+02   2.3686951082e+01    0.9302327    0.6797022  84.56  0.004983597    1.847    0.459
        18 -14.2174    140.3944    192.2901   1.1147869793e+02   1.7020112807e+01    0.4593459    0.3993493  42.18  0.002953393    1.078    0.073
        19 -15.7618     26.0263    174.2824   1.3479003360e+02   3.5609022946e+01     1.686146    0.4857673 -81.24  0.007002137    3.642    0.725
        20 -14.4935     47.5968    166.9189   1.2933408955e+02   3.5024499025e+01     1.119562    0.9531466  20.27  0.006810261    1.442    0.307
        21 -13.1605    189.3360    189.6691   1.0094453308e+02   9.1533749393e+00    0.4373637    0.2334475 -24.59  0.002097878    2.304    0.566
        22 -12.9252    156.1639    191.9284   1.0808583785e+02   1.4456098866e+01    0.2000045    0.1681576  52.89 0.0008956359    1.307    0.235
        23 -14.9267     77.2669    179.5692   1.2380046560e+02   2.8884839704e+01    0.9065153     0.717494  32.61  0.004903184    1.305    0.234
        24 -15.0233     62.3614    184.8833   1.2768526776e+02   2.9683785227e+01     0.707085    0.4961759 -87.54  0.003450095    1.424    0.298
        25 -13.5833     68.8041    183.7287   1.2614854637e+02   2.9131876090e+01    0.4065388    0.2132224 -82.93  0.001853375    2.264    0.558
        26 -14.8663    235.7419    183.3403   9.1144798065e+01   2.2791267105e+00     1.467148     1.169608  75.09  0.007749794    3.061    0.673
        27 -14.8928    247.4921    172.9390   8.7142106287e+01   1.6771013241e+00     1.280753    0.5275021 -22.03  0.005757373    2.539    0.606
        28 -13.7605    247.5399    155.6399   8.3646895055e+01   3.8179606753e+00    0.7141166    0.4194454 -23.89  0.003836174    1.554    0.357
        29 -14.3301     46.5414    186.8652   1.3128468960e+02   3.1073453098e+01    0.3910864    0.2362763  21.59  0.002279847    2.107    0.525
        30 -11.9685    193.8426    187.3095   9.9640060129e+01   8.7242682097e+00     0.204276    0.1515732  44.82  0.001177857    1.444    0.307
        31 -13.1007    192.2893    178.3943   9.8315698237e+01   1.0303332022e+01    0.4268464    0.1448341  42.38  0.001649557    2.664    0.625
        32 -12.2445     91.9102    176.5971   1.2008113907e+02   2.7476838717e+01    0.2713326    0.2134496  33.26  0.001037944    1.263    0.208
        33 -14.8930     33.9092    174.4634   1.3307582561e+02   3.4841864796e+01    0.5312047    0.3385383 -88.78  0.002416249    1.430    0.301
        34 -14.2560    200.4457    160.1822   9.3116536242e+01   1.1580786624e+01    0.8830856     0.481883 -10.41  0.003578753    2.771    0.639
        35 -14.6678    203.6338    166.7062   9.3816226738e+01   1.0012123662e+01     1.079661    0.5178531 -16.42  0.004050641    3.361    0.702
        36 -13.1199    199.1122    167.9176   9.4943523178e+01   1.0652479685e+01    0.3239729    0.2878613  47.34  0.001297655    1.390    0.280
        37 -11.8288    191.6646    168.8399   9.6611176689e+01   1.1869683007e+01    0.2469691    0.1642047  28.01 0.0007553437    1.361    0.265
        38 -14.0527    100.3478    164.5132   1.1640263125e+02   2.8681446499e+01    0.5654247    0.3749034  27.68  0.002649317    1.614    0.380
        39 -12.0572    129.2370    160.0495   1.0871764986e+02   2.4835626948e+01    0.2801085    0.2090375 -38.90  0.001401087    1.494    0.331
        40 -12.3646    128.2387    156.5945   1.0833334793e+02   2.5693127096e+01    0.2809523    0.2292859  23.82  0.001017446    1.247    0.198
        41 -11.9213    213.2159    158.9341   9.0392812327e+01   9.4070782687e+00     0.267772    0.1781184  -6.41  0.001375078    1.597    0.374
        42 -10.9757    163.6322    159.7299   1.0073997070e+02   1.8604403221e+01    0.1467982    0.1024581  13.53 0.0006370261    1.665    0.399
        43 -13.4919    149.9839    158.0664   1.0349135126e+02   2.1463767923e+01    0.6052891    0.2720408  37.19  0.002470104    2.084    0.520
        44 -12.4232    188.0065    161.4113   9.5874399598e+01   1.3718076448e+01    0.4080817    0.2749208  14.78  0.001786778    1.612    0.380
        45 -14.1997    144.0532    152.0274   1.0368982254e+02   2.3711762852e+01    0.8045958    0.4897498  26.83  0.003649965    1.804    0.446
        46 -14.1176    104.1146    153.0259   1.1365290056e+02   3.0486947288e+01    0.5749771    0.3524658 -30.90  0.002585565    2.388    0.581
        47 -12.5927    199.9618    152.5337   9.1609313220e+01   1.2854119317e+01    0.3304194    0.2285086  25.31  0.001265634    1.362    0.266
        48 -14.0412    208.3749    149.2770   8.9266475919e+01   1.1747261173e+01    0.6807583     0.545629  14.01  0.002600996    1.115    0.103
        49 -11.3913    194.4554    151.4726   9.2486228577e+01   1.4081095553e+01    0.1435717    0.1235205  13.04 0.0001345893    1.013    0.013
        50 -12.1716    230.4186    148.7981   8.5111345438e+01   7.7108729649e+00    0.2525222     0.179655  34.96  0.001407428    1.351    0.260
        51 -14.2312    142.3890    141.0072   1.0183042720e+02   2.6175477850e+01     1.238256    0.5519217  47.86  0.004750587    2.321    0.569
        52 -12.0889    130.0867    139.6246   1.0458067003e+02   2.8787574564e+01    0.2839407    0.2289996   0.08  0.001211876    1.482    0.325
        53 -13.3411    205.0227    139.3561   8.7721363122e+01   1.3929230985e+01    0.6427997    0.4502098  24.71  0.003286119    1.386    0.278
        54 -13.5927    104.6273    141.3862   1.1147618638e+02   3.2891817456e+01    0.5874282    0.2081936  38.45  0.002167407    2.668    0.625
        55 -12.1496    164.1795    137.3802   9.5899292421e+01   2.2541751184e+01     0.415269    0.2444135  40.82  0.001830964    1.598    0.374
        56 -14.1334    178.6707    108.8975   8.5732170912e+01   2.4593634011e+01     1.108886    0.6287233  17.61  0.003903915    2.940    0.660
        57 -13.7171    172.6372    120.4096   8.9978016159e+01   2.3871008883e+01    0.6643882    0.3999116  14.51  0.002526564    2.555    0.609
        58 -15.8318    189.4216    123.4203   8.7115875592e+01   1.9738450643e+01     2.191711      1.79746  27.03   0.01159525    1.151    0.131
        59 -12.2833    156.9545    117.9042   9.2970082215e+01   2.7715819852e+01    0.6017948    0.3033873  55.07  0.002228843    2.461    0.594
        60 -14.0455    201.8173    129.5858   8.6095861900e+01   1.6125346778e+01    0.7925568    0.4572885 -26.59  0.003582006    1.767    0.434
        61 -13.5601    162.7898    124.0672   9.3112016418e+01   2.5306025454e+01    0.7257139        0.424 -26.94  0.003031495    1.993    0.498
        62 -13.3049    165.9574    117.0797   9.0657436108e+01   2.5927086368e+01    0.5331014    0.4129496  23.01  0.001966572    1.325    0.245
        63 -11.4657    212.7389    128.6965   8.3801077472e+01   1.4036324188e+01    0.2735047    0.1658382 -18.96  0.001260152    1.730    0.422
        64 -11.2061     95.5049    128.9748   1.1158684910e+02   3.7103612819e+01    0.2135333    0.1372395 -58.27  0.001026691    1.580    0.367
        65 -12.4422    248.2705    126.0151   7.7120117686e+01   7.5611652221e+00    0.3866807    0.3049808 -24.53  0.002281804    1.198    0.165
        66 -14.7636    237.2819    114.5849   7.6225218431e+01   1.1203123738e+01     1.753115      1.15482  70.78  0.008070171    2.603    0.616
        67 -13.2841    220.5685    115.7605   7.9306390986e+01   1.4396892819e+01    0.8495514    0.4937047 -34.46  0.003985954    1.664    0.399
        68 -11.7670     38.7522    125.9599   1.2718944981e+02   4.4993912547e+01    0.1693031   0.09442857 -70.17 0.0007429158    1.588    0.370
        69 -12.8162     48.6627    118.4882   1.2329673614e+02   4.5748766375e+01    0.4208716     0.350976 -19.16  0.002480251    1.475    0.322
        70 -13.1266     31.5109    117.4981   1.2822530684e+02   4.7599056666e+01    0.2635239    0.1990073 -50.15  0.001551768    1.358    0.264
        71 -13.7710     29.9730    114.2943   1.2828129725e+02   4.8472466574e+01    0.5672613    0.3161125 -23.37  0.002701247    2.855    0.650
        72 -11.0478    102.6710    116.3091   1.0691462400e+02   3.8745958499e+01    0.1474853    0.1135778  74.73 0.0006658259    1.662    0.398
        73 -14.8270     35.1823    165.7355   1.3210901794e+02   3.6528050870e+01    0.6530415    0.3332357  47.86  0.003254295    1.759    0.431
        74 -11.5783    163.0069    108.7078   8.9189069746e+01   2.8129084612e+01    0.3295779    0.1977509  -9.23  0.001188538    2.742    0.635
        75 -12.9916    131.8906    108.0128   9.6778719969e+01   3.4977753089e+01    0.8001521     0.400615  31.72  0.002960615    2.382    0.580
        76 -12.7836    139.5817    102.3577   9.3256931971e+01   3.4504163322e+01    0.4835463    0.4061772   0.68  0.001894023    1.297    0.229
        77 -13.8554    144.6689     93.0604   8.9362651339e+01   3.5209010786e+01    0.9568177     0.576974 -34.66  0.004053452    1.696    0.411
        78 -11.4288     48.7756    109.4315   1.2183918477e+02   4.7863302147e+01    0.1691751    0.1275994   2.01 0.0009451018    1.698    0.411
        79 -13.1705     39.3003    101.1683   1.2349932550e+02   5.0745973984e+01     0.360037    0.3288595  34.33  0.001821422    1.236    0.191
        80 -14.7260     28.1379    103.0639   1.2736852278e+02   5.1247162351e+01    0.8459406    0.6683513 -65.65  0.004963932    1.096    0.087
        81 -12.7443     19.3442     97.0869   1.2938530956e+02   5.3281255951e+01    0.3540787    0.3030834  31.64  0.002358441    1.368    0.269
        82 -12.6760    148.8036    103.1727   9.1132080087e+01   3.2331296757e+01    0.6725478    0.3945393 -21.44   0.00259571    2.282    0.562
        83 -13.2259    102.7971    102.2099   1.0352698586e+02   4.1858515784e+01     0.650898    0.4706549  15.37  0.003067254    1.702    0.413
        84 -13.6112     97.1492     99.2900   1.0450098544e+02   4.3503450950e+01    0.6628774    0.5118081  19.28  0.003341133    1.456    0.313
        85 -11.9736    182.8629     79.9927   7.6916478633e+01   2.8508481706e+01    0.4209628    0.3032148 -46.58  0.001959416    1.523    0.343
        86 -12.3748    196.6065     93.4108   7.7981443203e+01   2.3103812735e+01    0.6152868    0.4647974 -79.84  0.002794066    2.058    0.514
        87 -11.9565    187.1124    103.7663   8.2614799532e+01   2.3573985412e+01    0.3396875    0.2389546  35.67  0.001527436    1.411    0.291
        88 -13.5603    184.0477     88.0483   7.8966513937e+01   2.6911085007e+01    0.7807806    0.6518204 -69.28  0.003866266    1.542    0.351
        89 -13.0707    185.5901     97.7755   8.1328156729e+01   2.4930556643e+01    0.6215006    0.4792101  73.43  0.002926273    1.736    0.424
        90 -12.8272    190.1592     93.5143   7.9256266806e+01   2.4579232656e+01    0.4057692    0.3093949 -52.75  0.001947433    1.565    0.361
        91 -13.1861    213.1664     99.3143   7.6512270904e+01   1.8452939559e+01    0.6669024    0.5738037  39.33  0.003678592    1.186    0.157
        92 -12.5196    209.5570     92.0492   7.5259102462e+01   2.0359987449e+01    0.8811858    0.4159907  39.67  0.003455985    2.302    0.566
        93 -12.1470    179.1092    100.3729   8.3379928485e+01   2.5979463337e+01    0.4317337    0.3102637 -84.98  0.001757907    2.506    0.601
        94 -14.1645     86.1161     94.8521   1.0684480931e+02   4.6343616353e+01     0.819135     0.625943  33.45  0.003818431    1.364    0.267
        95 -14.0575     83.9564     88.1423   1.0581705227e+02   4.8204165427e+01    0.8845572    0.6379023  10.78  0.004302242    1.726    0.420
        96 -13.3559     76.2351     84.7637   1.0752148102e+02   5.0161437554e+01    0.5154543     0.481364 -78.60  0.002551446    1.174    0.148
        97 -11.6350     71.0568     99.0580   1.1271405339e+02   4.7615006588e+01    0.3101684    0.1685916  44.46  0.001397843    2.014    0.503
        98 -13.4779     68.1329     93.2553   1.1236761484e+02   4.9360670604e+01    0.6786907      0.47245 -43.43  0.003528813    1.389    0.280
        99 -13.5299     37.4501     91.0046   1.2238327112e+02   5.3313117118e+01    0.4357255    0.3190875 -29.73  0.002325827    1.537    0.349
       100 -12.3191     46.8334     91.9543   1.1933307885e+02   5.2188735581e+01    0.2652399    0.2167409  55.87   0.00158121    1.374    0.272
       101 -13.1874    124.2025     86.3904   9.2907929034e+01   4.1017244641e+01    0.8842635    0.6460932  85.89  0.003690992    2.307    0.566
       102 -13.2649    122.3710     75.8418   9.0197635700e+01   4.3504747127e+01    0.9112751    0.7230642  23.76   0.00445569    1.320    0.242
       103 -12.6302     59.0728     89.6777   1.1463642092e+02   5.1352528304e+01    0.3083951    0.2411836  71.44  0.001401412    1.563    0.360
       104 -13.8982    154.5123     81.1763   8.3442205179e+01   3.5139382192e+01     1.222913    0.8433513  44.96  0.005547779    1.418    0.295
       105 -14.0254    139.8999     79.8544   8.6671057398e+01   3.8805467697e+01    0.7794574    0.5856141  63.74  0.003581336    1.598    0.374
       106 -14.4116     38.5735     81.4567   1.2016165653e+02   5.5457296913e+01     0.758431    0.6070427  20.87  0.004652054    1.432    0.302
       107 -14.2472     48.1863     80.4076   1.1641611725e+02   5.4754199355e+01    0.8232253    0.5121976 -68.21  0.004204613    1.603    0.376
       108 -12.6952    171.7527     81.3160   7.9591510717e+01   3.0976594652e+01     0.683831    0.4035416 -32.88  0.002893315    1.689    0.408
       109 -13.3151    130.1214     82.7114   9.0155319857e+01   4.0465491744e+01    0.5137722    0.3616764  47.02  0.002171632    1.433    0.302
       110 -14.2732    208.3494    223.6070   1.0292684174e+02   1.6873304370e+00    0.5980437    0.3207512  37.43  0.003479803    1.536    0.349
       111 -13.6953    203.2955     76.0871   7.2038781302e+01   2.4209251613e+01     1.290624    0.5407841  47.20  0.004860229    2.385    0.581
       112 -11.5972    143.2195     68.6487   8.2282826659e+01   4.0055438087e+01    0.2742313    0.2352327 -24.17  0.001310898    1.165    0.141
       113 -12.9240    224.5303    222.4462   9.9887016645e+01  -5.6305148679e-01    0.3081844    0.2364892  27.66  0.002171544    1.252    0.201
       114 -13.2503    131.8156     63.1265   8.3400664706e+01   4.3728754798e+01    0.7151666    0.5936083 -77.31  0.003444481    1.621    0.383
       115 -13.3216    163.7814     56.6565   7.3679396818e+01   3.6918425126e+01    0.8508565    0.6375505 -12.46  0.004021007    1.445    0.308
       116 -13.1203    119.2580     50.3070   8.2335664779e+01   4.8849351154e+01    0.8433388    0.4465129 -39.67   0.00345147    1.941    0.485
