#   1 NUMBER                 Running object number                                     
#   2 MAG_AUTO               Kron-like elliptical aperture magnitude                    [mag]
#   3 X_IMAGE                Object position along x                                    [pixel]
#   4 Y_IMAGE                Object position along y                                    [pixel]
#   5 X_WORLD                Barycenter position along world x axis                     [deg]
#   6 Y_WORLD                Barycenter position along world y axis                     [deg]
#   7 A_WORLD                Profile RMS along major axis (world units)                 [deg]
#   8 B_WORLD                Profile RMS along minor axis (world units)                 [deg]
#   9 THETA_WORLD            Position angle (CCW/world-x)                               [deg]
#  10 FWHM_WORLD             FWHM assuming a gaussian core                              [deg]
#  11 ELONGATION             A_IMAGE/B_IMAGE                                           
#  12 ELLIPTICITY            1 - B_IMAGE/A_IMAGE                                       
         1 -14.1563    157.2119    114.4784   8.1165904405e+01   2.7671411734e+01     2.658841     1.468588  47.13   0.01066043    1.814    0.449
         2 -13.6452    179.9516     57.2057   6.0001221996e+01   3.2727406884e+01     2.472802     1.655524  44.81   0.01125727    1.566    0.362
         3 -11.1795    181.4253     31.6128   5.2078198559e+01   3.5976154187e+01    0.5447724    0.3780855  81.36 0.0005723516    1.510    0.338
         4 -11.3682    138.6660     36.0148   6.1409275700e+01   4.6355017188e+01    0.5569153    0.3960696  75.99  0.002631726    1.659    0.397
         5 -12.4050    219.7188     10.6213   4.1634757040e+01   2.8729253444e+01     1.704271    0.9306377 -72.56  0.006139827    1.996    0.499
         6 -11.6542    231.8445      3.4851   3.8845072447e+01   2.6591524510e+01    0.9662693    0.5657386  79.95  0.005154786    1.600    0.375
         7 -12.4277    244.3166      3.9234   3.7991217795e+01   2.3672318269e+01     1.099326    0.9455425  31.49  0.007075471    1.599    0.375
         8  -8.4347    172.3120      2.6431   4.4586746784e+01   4.1493683579e+01    0.2439816    0.1235857 -61.63  0.001008523    2.495    0.599
         9  -9.6364    120.3918      9.0099   5.5394764623e+01   5.3940190456e+01     0.404139    0.3681596 -10.59  0.001523586    1.169    0.144
        10  -9.0781    179.2064      5.4052   4.4559716257e+01   3.9464283671e+01    0.1971924    0.1208929  86.13 0.0007112444    1.651    0.394
        11 -11.8398     53.2323    195.1150   1.2006237786e+02   2.7941446056e+01     1.028314    0.8596842  69.45  0.007087603    1.115    0.103
        12 -11.3946    246.4250    232.7112   8.7751383036e+01  -9.0551131434e+00    0.7145765    0.5018537  23.54   0.00489605    1.134    0.118
        13 -12.1867    244.1483    243.9398   8.9935773329e+01  -9.9519772873e+00     1.489463    0.6849907  38.60  0.008488404    1.872    0.466
        14  -8.9985    219.4567    194.0453   8.5708635243e+01   2.1144323852e-01    0.2537662     0.169045  41.87 0.0009491583    1.456    0.313
        15 -10.1876    250.3222    191.6230   7.9781794558e+01  -4.6179760638e+00    0.2198808    0.1536747 -22.10  0.001321463    1.332    0.249
        16  -8.8505    220.3881    189.0642   8.4591732716e+01   7.8929422917e-01    0.2391549    0.1766335  33.59 0.0003363726    1.242    0.195
        17  -8.9135    231.5902    199.4313   8.4511232953e+01  -2.6245855075e+00    0.2222244    0.2086059 -64.21 0.0005552079    1.610    0.379
        18  -8.3498    220.8956    184.5853   8.3631554210e+01   1.3763713727e+00    0.2117576    0.1673256  -7.78 0.0004537734    1.234    0.190
        19  -8.4385    140.9609    181.6305   9.9367920562e+01   1.6977376653e+01    0.2043236    0.1894058 -36.78 0.0003560871    1.220    0.180
        20 -10.0937    188.6505    180.6993   8.9117068524e+01   8.0235181009e+00    0.2466486    0.2282116  29.90 0.0003682783    1.054    0.051
        21  -8.6756    247.0544    179.4968   7.7971293522e+01  -2.4221514332e+00    0.2001032     0.153055 -20.84 0.0005282116    1.207    0.172
        22  -8.9647     74.0498    178.7968   1.1387588518e+02   2.8691015318e+01    0.2006599    0.1641176 -84.48 0.0003242747    1.118    0.106
        23  -8.5750    209.0455    164.4335   8.1786598346e+01   6.8512909861e+00    0.1967316    0.1795494  -6.70 0.0001191063    1.052    0.049
        24  -8.2411     74.3315    163.0626   1.1174198692e+02   3.2175842520e+01    0.1815791    0.1500079 -79.94 0.0003329197    1.102    0.093
        25  -7.9626    195.2871    162.6439   8.4126466558e+01   9.9044299615e+00     0.139696    0.1164653 -80.57  0.000702351    1.675    0.403
        26  -7.8784    137.2873    158.3838   9.5928438251e+01   2.2493138082e+01    0.1480128    0.1169097 -12.21 0.0007012434    1.743    0.426
        27  -8.5426    141.9737    154.7568   9.4109210089e+01   2.2343464461e+01    0.1985484    0.1218648  43.06 0.0006454893    1.575    0.365
        28 -12.0394      7.5286    138.1972   1.2493075104e+02   4.5048608045e+01     1.265719    0.5186452 -62.96  0.006642143    1.985    0.496
        29  -8.4482    241.9477    144.5148   7.1492395582e+01   3.7413569124e+00     0.209717    0.1728941 -22.66 0.0005916351    1.100    0.091
        30  -9.9284    132.5933    141.7189   9.3625494049e+01   2.7058248323e+01    0.3930387    0.1441347 -47.61  0.001335874    2.756    0.637
        31 -11.4041    181.2592    135.0611   8.0874639214e+01   1.8069745524e+01     0.856453    0.3677661 -55.09  0.002585431    3.805    0.737
        32  -7.7967    242.0000    135.9742   6.9578653560e+01   5.0903085686e+00    0.2398435   0.07316694 -35.02 0.0008129589    3.016    0.668
        33 -10.2025    121.7267    242.2344   1.1160035445e+02   9.2992522932e+00     0.205851    0.1799773  55.05 0.0002177303    1.133    0.117
        34 -10.5810    209.3839    110.6994   6.9262110882e+01   1.6301367779e+01    0.4211347    0.3700591  27.34 0.0009270073    1.201    0.168
        35 -11.0845    239.2633    109.2299   6.3815706376e+01   9.9854311500e+00    0.4133172    0.3107751  27.77  0.002138571    1.541    0.351
        36 -13.0907    189.1687    100.2765   7.0435808156e+01   2.2945052010e+01     1.566748    0.8174075 -46.39  0.006099869    1.979    0.495
        37 -11.8334    135.8985    127.4543   8.9583150410e+01   2.9547054221e+01    0.5885202    0.4159448  73.49  0.002545493    1.894    0.472
        38  -9.8528    202.5700    100.7671   6.7981883274e+01   1.9663887481e+01     0.273909    0.2310194 -23.09  0.001384095    1.210    0.174
        39  -8.3184    223.6230    128.7731   7.1078362159e+01   1.0004659588e+01    0.2061175     0.127555 -43.29 0.0005776896    1.618    0.382
        40  -8.2561    246.3298     99.3132   6.0385217824e+01   1.0100243320e+01    0.1412075    0.1068834   9.03 0.0007043934    1.674    0.402
        41 -12.4214    134.8221    108.9998   8.5241372238e+01   3.3834562803e+01     1.211341    0.4435121 -44.70  0.003986287    2.697    0.629
        42 -12.4697    151.7861     89.1745   7.5498654411e+01   3.4094499193e+01     1.037922    0.6421465  60.57  0.003862813    1.837    0.456
        43 -10.8377    152.5078     84.5519   7.3971841433e+01   3.4824022327e+01    0.5141978    0.3869725  69.21  0.001844265    1.545    0.353
        44 -10.0600    187.8195     78.4607   6.4705781713e+01   2.7212992301e+01    0.7085797    0.3461347  74.60  0.002114366    3.944    0.746
        45  -9.0561     31.3076    238.2688   1.2718395038e+02   2.2189999076e+01    0.2021482    0.1350277 -37.20  0.001137516    3.925    0.745
        46 -10.4376    179.8892     35.8581   5.3595915969e+01   3.5825410010e+01    0.3588754     0.307815  68.01 0.0005313747    1.115    0.103
        47  -9.3746     21.0017    231.0383   1.2850367951e+02   2.4596748269e+01    0.1838937   0.08425733  65.46 0.0009108037    1.720    0.419
        48 -11.6853    187.1576     39.1087   5.3421978873e+01   3.3507422754e+01    0.7433439    0.5277433 -27.44  0.002214515    1.491    0.329
        49  -8.4681    114.0165     69.9923   7.9464908044e+01   4.6425487095e+01    0.2169851    0.2067534 -17.48            0    1.009    0.009
        50 -11.2903    144.4956     59.9628   6.8208141663e+01   4.1245782080e+01    0.6293498    0.4000826 -61.82  0.001237175    2.193    0.544
        51  -8.2917    209.7853     62.2126   5.6451945213e+01   2.4396123340e+01    0.3518677    0.1959852 -53.57  0.001458049    1.978    0.494
        52 -11.1710    186.3583     47.4428   5.5999905557e+01   3.2546807881e+01    0.6384629    0.4066671  79.07  0.001983697    1.799    0.444
        53  -9.2931     16.4327     66.5251   1.1213393233e+02   6.0750329336e+01    0.2366233   0.09528506  -8.72 0.0008097035    5.956    0.832
        54 -13.2225    166.7433     72.9057   6.7306055153e+01   3.3474167378e+01     1.299899     1.166425  84.68  0.006669391    1.195    0.163
        55  -9.8110    164.8123     64.4235   6.5136491109e+01   3.5422903036e+01    0.4803454    0.3421152 -11.60 0.0009977751    1.765    0.434
        56  -9.3752    221.8541     39.7287   4.8839645486e+01   2.4668828922e+01    0.3452905    0.2335647 -72.37 0.0006218165    1.599    0.375
        57  -9.6645    205.5100     40.1120   5.1042032377e+01   2.8674971064e+01    0.2632581    0.2543029 -20.09 0.0004855648    1.152    0.132
        58 -11.6345    160.5466     60.5935   6.4841120579e+01   3.7140177114e+01     0.591696    0.5432051  75.07  0.001016862    1.119    0.107
        59 -10.0612    100.9601     38.7000   7.2160823489e+01   5.4620862514e+01    0.2719251    0.2019062 -37.29 0.0006529589    1.383    0.277
        60 -10.6903    120.7788     35.0120   6.5279494575e+01   5.0787875185e+01    0.4335553    0.2556118 -50.41  0.001723925    2.171    0.539
        61  -9.9526    107.1154     38.1484   7.0148484525e+01   5.3400307263e+01    0.2321316     0.187585  14.77  0.001245623    1.262    0.208
        62  -8.7411    124.1558    227.8930   1.0951244523e+02   1.1289435612e+01    0.1852903    0.1424672  61.34  0.000367444    1.182    0.154
        63  -9.4982    214.2974     32.3455   4.7822243001e+01   2.7495860424e+01    0.2513084    0.2376465  51.53 0.0005838771    1.190    0.160
        64 -10.6915    198.6515     33.5783   5.0162615874e+01   3.1282109456e+01    0.4072445    0.3193563 -87.14 0.0005410643    1.289    0.224
        65  -9.1666    124.4987     29.4971   6.2301291732e+01   5.0655509972e+01    0.1438206    0.1319199  30.04 -0.0003229767    1.017    0.017
        66 -10.9216    113.1473     27.3991   6.4331253374e+01   5.3560785048e+01    0.4949965    0.3176673 -58.39  0.002208728    2.350    0.574
        67 -10.7496    206.3550     24.9458   4.6797115177e+01   3.0403421659e+01    0.4837882    0.3286933 -84.19 0.0008122307    1.544    0.352
        68 -10.5282    183.9283     24.1468   4.9485334723e+01   3.6241719773e+01    0.4215617    0.2572828 -82.64  0.001859254    1.998    0.500
        69 -12.8960    140.7190    100.5536   8.1454005016e+01   3.4338928426e+01     1.245421    0.8342769  -8.53  0.004752589    2.494    0.599
        70 -11.1639    146.0167     75.1062   7.2662980017e+01   3.8178855744e+01    0.5943089    0.4120421 -67.92  0.002060039    1.992    0.498
        71 -11.3113    230.3251    248.9445   9.3028585452e+01  -8.5282554538e+00    0.8877144    0.3567719  45.51  0.004359246    2.676    0.626
        72 -12.2247     38.0912    215.8761   1.2463281890e+02   2.5568313855e+01     1.088903    0.5566045  68.35  0.002607587    1.697    0.411
        73 -10.4723     28.2020    208.7410   1.2596142824e+02   2.8050771272e+01    0.4692247    0.3139363 -50.83  0.001967398    2.218    0.549
        74  -8.5676    233.0429    216.9998   8.7398211255e+01  -5.1831018444e+00    0.1804024    0.1476083  19.57 0.0002952321    1.088    0.081
        75  -8.1637      2.2103    213.0056   1.3078106099e+02   2.9781404900e+01     0.145509    0.1080731 -88.97 0.0007229046    1.246    0.197
