#   1 NUMBER                 Running object number                                     
#   2 MAG_AUTO               Kron-like elliptical aperture magnitude                    [mag]
#   3 X_IMAGE                Object position along x                                    [pixel]
#   4 Y_IMAGE                Object position along y                                    [pixel]
#   5 X_WORLD                Barycenter position along world x axis                     [deg]
#   6 Y_WORLD                Barycenter position along world y axis                     [deg]
#   7 A_WORLD                Profile RMS along major axis (world units)                 [deg]
#   8 B_WORLD                Profile RMS along minor axis (world units)                 [deg]
#   9 THETA_WORLD            Position angle (CCW/world-x)                               [deg]
#  10 FWHM_WORLD             FWHM assuming a gaussian core                              [deg]
#  11 ELONGATION             A_IMAGE/B_IMAGE                                           
#  12 ELLIPTICITY            1 - B_IMAGE/A_IMAGE                                       
         1  -9.0792    217.2332     37.3911   3.5298124714e+02   2.8605679905e+01    0.1586141    0.0986814 -82.22 0.0009521095    1.682    0.406
         2 -12.6568      7.1314     11.2895   4.1761650709e+01   7.7162006395e+01    0.6535255    0.2257141 -37.00  0.002564824    3.322    0.699
         3 -11.0195      1.5051      6.5104   4.4246345339e+01   7.8604504946e+01    0.2882656    0.1023905 -49.68  0.001295105    2.618    0.618
         4 -10.3732    158.1118    229.9235   4.1011671081e+01   6.3469224912e+00     0.292693    0.1672776 -32.92  0.001135722    1.760    0.432
         5 -14.6599    209.6436    237.2677   3.2575581091e+01  -1.5430940389e-01     2.322819     1.288365 -37.13   0.01524279    1.728    0.421
         6 -15.3633    190.0747    235.8692   3.5770244693e+01   1.9755512155e+00     9.889574     1.607987 -41.85   0.03509893    5.424    0.816
         7 -16.4192    237.5466    228.7700   2.6914221978e+01  -1.6445177520e+00     3.309864     2.086946 -46.27   0.02215184    2.321    0.569
         8 -13.8317    248.9448    218.2831   2.3687847375e+01  -1.3588908422e+00    0.5354859    0.2128979 -32.82  0.002967669    1.951    0.487
         9 -14.8758    248.1465     81.9836   3.5967422306e+02   1.7518279131e+01      2.34804    0.5328836 -33.73  0.008423275    4.165    0.760
        10 -16.9509    244.4075     28.7482   3.4937947101e+02   2.4793411168e+01     4.874601     1.429706 -35.34   0.02385244    2.481    0.597
        11 -12.4818    119.7178    238.1072   5.0109616329e+01   9.4161018594e+00    0.6956844    0.2358462  29.54  0.003056358    2.419    0.587
        12 -11.7304    134.7050    244.7623   4.7707242294e+01   6.6091729388e+00    0.4244014    0.2267643   9.97  0.001614263    2.013    0.503
        13 -12.8415    139.2970    236.4535   4.5731710002e+01   7.4436370222e+00     1.038194      0.51248  -4.41  0.004110022    3.849    0.740
        14 -11.8085    163.5110    246.9383   4.2211024449e+01   3.1538153444e+00    0.5224597    0.4335102 -78.04  0.003434747    2.287    0.563
        15 -11.9635    152.6815    244.4063   4.4008080611e+01   4.6885786117e+00    0.8517339    0.3486415 -28.58   0.00371062    3.471    0.712
        16 -12.0472    116.5310    243.1942   5.1377531013e+01   8.9066168028e+00    0.4253539    0.3258383  42.25  0.002647434    1.376    0.273
        17 -11.6036    110.0558    248.3159   5.3325030164e+01   8.7619159839e+00    0.3558495    0.2779365  19.46  0.001766213    1.050    0.048
        18 -11.4010    104.3642    250.1709   5.4741942839e+01   9.0749172663e+00    0.3288727    0.2315784  24.34  0.001183396    1.154    0.133
        19 -11.7903    156.7609    247.9947   4.3654648694e+01   3.7110750447e+00    0.4717111    0.3077877 -39.89  0.003094576    1.649    0.394
        20 -11.7712    159.2834    236.6265   4.1687383187e+01   5.1602167360e+00    0.6431172    0.3303044   6.57  0.003217255    2.340    0.573
        21 -11.7219     44.7271    236.7089   6.7092745034e+01   1.7933000930e+01    0.7315394    0.1604104  34.98  0.002891581    2.880    0.653
        22 -13.6837     21.1703    224.6828   7.1980384916e+01   2.2645782957e+01     1.531497    0.6516691  38.38  0.007667772    1.807    0.447
        23 -13.9389      5.7305    212.6849   7.5213921051e+01   2.6564017348e+01     1.188622    0.7693888  66.84    0.0070399    1.370    0.270
        24 -11.1117     76.7593    245.1210   6.0373510805e+01   1.2979845784e+01    0.3375777    0.2372121 -47.55  0.001740566    1.698    0.411
        25 -12.3891      5.3592    235.1038   7.6059092397e+01   2.1807193982e+01    0.6726949    0.4150909   2.87  0.003168237    2.113    0.527
        26 -12.1903     73.3484    249.8284   6.1522216868e+01   1.2484613627e+01    0.4998362     0.183473  35.18  0.001702265    2.053    0.513
        27 -12.3026     63.8523    248.2404   6.3519092990e+01   1.3767642237e+01    0.5350168     0.264828  33.03   0.00187379    1.570    0.363
        28 -12.5064     48.1341    249.7180   6.7128312306e+01   1.5079634654e+01    0.6813721    0.2249151  25.10   0.00280555    2.517    0.603
        29 -12.5185     28.4906    239.7850   7.1004474457e+01   1.8870247463e+01    0.6811964    0.4381101  17.94  0.004084893    1.557    0.358
        30 -12.6315      3.1745    242.3466   7.6754958964e+01   2.0531777678e+01    0.5504651    0.2530406  45.91  0.002086363    1.614    0.381
        31 -12.9653     15.2348    239.9442   7.4007251229e+01   2.0012968544e+01    0.8051261    0.3086628  29.70  0.002722944    2.007    0.502
        32 -12.2111     43.0655    244.0987   6.7928145252e+01   1.6644159388e+01    0.6441014    0.2347684  29.26  0.002185601    2.105    0.525
        33 -11.3586     37.4853    239.9553   6.8959262026e+01   1.7993343574e+01     0.428627    0.2018052  32.86  0.002274237    1.651    0.394
        34 -12.1802      4.4995    226.8016   7.5994091099e+01   2.3595681870e+01    0.5126828    0.3243466  55.36  0.001773625    1.294    0.227
        35 -11.7962     10.8677    225.0796   7.4444515334e+01   2.3444561594e+01    0.4476973    0.1972621  42.78  0.001320488    1.743    0.426
        36 -13.1392     35.9502    248.2707   6.9755694793e+01   1.6524989264e+01     1.061116    0.3386799  27.58  0.004839564    2.398    0.583
        37 -12.2201      3.9940    250.2106   7.6792079837e+01   1.8944409029e+01    0.4212897    0.1757909  23.93   0.00131366    2.072    0.517
        38 -12.5629     21.0224    248.5469   7.3061540307e+01   1.7830217195e+01     0.514245    0.2199403  41.91  0.001680947    1.721    0.419
        39 -12.6992     12.9929    248.6009   7.4812112499e+01   1.8511036503e+01    0.6409468    0.2014804  30.66  0.002177018    2.243    0.554
        40 -10.7181    108.3642    239.5678   5.2763847035e+01   1.0463628662e+01    0.3611538    0.1756312  49.68  0.001427599    2.664    0.625
        41 -11.0250    103.0109    238.0217   5.3788315140e+01   1.1352417025e+01    0.2512356    0.1430327  26.23 0.0006555318    1.476    0.322
        42 -10.4799     63.8883    238.7494   6.2791384606e+01   1.5560599221e+01    0.2988268    0.1765185  47.43   0.00122428    1.545    0.353
        43 -10.5235     82.6949    236.4661   5.8250353171e+01   1.3946434221e+01    0.4046496    0.1403822  41.56  0.001726606    2.555    0.609
        44 -11.2910     95.0384    234.7680   5.5249581576e+01   1.2864946853e+01    0.4828856    0.1849286  41.48  0.002131114    2.432    0.589
        45 -10.5003    153.1137    233.2424   4.2469872334e+01   6.3865660540e+00    0.2546124    0.1762567  -5.87   0.00106769    1.398    0.285
        46 -11.8362     56.0493    241.8795   6.4827585075e+01   1.5773565844e+01    0.6739146    0.2181632  41.83  0.002977124    2.441    0.590
        47 -10.7853    110.3623    232.2169   5.1496781274e+01   1.1551314889e+01    0.2763448    0.1562237  21.42  0.001122454    1.594    0.373
        48 -10.9498    123.8096    230.7354   4.8333391695e+01   1.0227370419e+01    0.2968028    0.1741837   4.65  0.001513424    1.999    0.500
        49 -11.0561     38.3046    230.3784   6.8206234052e+01   1.9851998986e+01    0.3399728    0.2084507  28.19  0.001032369    1.408    0.290
        50 -10.5758     47.1977    229.3882   6.6023334961e+01   1.9171775450e+01    0.3210327    0.1671032  44.50  0.001181624    1.626    0.385
        51  -9.7435    169.2888    228.3668   3.8588715083e+01   5.3224442394e+00    0.2052064   0.09826872 -33.55  0.001071427    2.096    0.523
        52  -9.9175    170.4480    224.4855   3.7807830863e+01   5.7967817653e+00     0.255122    0.1526241 -29.66 0.0007254003    1.606    0.377
        53 -10.3417    152.5016    227.9883   4.1881925701e+01   7.3091492857e+00    0.2233725    0.1526502 -21.29  0.001142379    1.457    0.314
        54 -10.5854    155.2039    224.1807   4.0799735270e+01   7.6190460258e+00    0.3984259    0.1641033 -34.78  0.001805261    2.717    0.632
        55 -10.9652    163.0027    225.5857   3.9427945238e+01   6.4783779694e+00    0.3912009    0.3198564 -29.52  0.002167002    1.255    0.203
        56 -10.1024    165.5050    221.0121   3.8272317741e+01   6.9232207528e+00     0.249706     0.135827 -39.95  0.001382264    1.810    0.448
        57 -10.7125    138.8494    227.2602   4.4634378061e+01   9.0433270869e+00    0.2383126    0.1388052 -21.72  0.001231486    2.061    0.515
        58 -11.2217    143.5063    226.3493   4.3525863459e+01   8.6439697026e+00     0.244179    0.1808951 -10.78   0.00100717    1.319    0.242
        59 -11.3021     60.0421    230.1352   6.3012532089e+01   1.7678318867e+01     0.415753    0.2251176  32.45  0.001605397    1.513    0.339
        60 -10.9071    176.8713    210.6393   3.4488330742e+01   7.2527061773e+00    0.4223548    0.1998211 -45.02  0.001598653    2.142    0.533
        61 -10.3372    178.8587    203.9760   3.3054643196e+01   8.0975978531e+00    0.2639432     0.153065 -34.50  0.000837479    1.592    0.372
        62 -10.4985    180.3142    222.1944   3.5587874183e+01   5.0328866603e+00    0.3459992    0.1670676 -41.63  0.001477524    2.027    0.507
        63 -10.4313    179.4826    216.6246   3.4909875869e+01   5.9914476154e+00    0.2678379    0.1519329 -32.33  0.001535965    1.645    0.392
        64  -9.8865    120.3523    224.3117   4.8298488232e+01   1.1801344316e+01    0.1321848   0.08889547  -9.24 0.0007045048    1.725    0.420
        65 -11.2788    135.6279    222.9012   4.4743124948e+01   1.0191687404e+01    0.2242397    0.1539987  11.53 0.0008360534    1.373    0.272
        66 -10.8483    130.0019    223.4867   4.6048703278e+01   1.0773779445e+01    0.1997643    0.1099384  25.27  0.001038397    1.615    0.381
        67 -11.0594     31.7570    222.2877   6.9295908462e+01   2.2188272873e+01    0.3816856    0.1612482  36.35  0.001343912    1.850    0.459
        68 -10.5933     53.8895    221.8752   6.3843290148e+01   2.0048723572e+01    0.3504479    0.1575406  29.46  0.001378287    1.858    0.462
        69 -11.2354    148.9573    220.3690   4.1552093672e+01   9.0092256044e+00    0.3334173      0.19487  -5.10  0.001664279    2.170    0.539
        70  -9.6541     62.5660    220.5172   6.1594610349e+01   1.9395485403e+01    0.2537324     0.081595  36.89  0.001027464    2.417    0.586
        71 -10.6117     43.1256    220.0522   6.6360117406e+01   2.1556360274e+01    0.3316889    0.1703429  26.57  0.001192166    1.717    0.417
        72 -10.4813    159.2790    217.6486   3.9029199396e+01   8.2188589201e+00    0.3493545    0.2028699 -16.81  0.001810644    2.027    0.507
        73  -9.8071    154.3327    218.8437   4.0216375151e+01   8.6165313409e+00    0.1769359   0.09907086 -35.41 0.0009446045    1.797    0.443
        74 -10.2964    141.2138    219.5966   4.3084989370e+01   1.0090602093e+01    0.1799587    0.1066346  15.48 0.0009454884    1.668    0.400
        75 -10.5874    170.7659    215.7435   3.6453975822e+01   7.1550375674e+00    0.4732952    0.1460112 -42.82  0.001994026    3.098    0.677
        76  -9.6382    167.9559    209.9472   3.6122811533e+01   8.4497164588e+00    0.3076358    0.1653451 -57.49   0.00145153    2.856    0.650
        77 -10.1110     72.8345    226.9701   5.9682128812e+01   1.6915293636e+01    0.3265518    0.1158491  40.53  0.001382848    2.382    0.580
        78 -12.8541    142.1556    245.8001   4.6299898527e+01   5.6219760877e+00     1.252731    0.6353358  -7.28  0.005637385    3.160    0.684
        79 -11.7076     24.4074    216.7429   7.0788354901e+01   2.4078605720e+01    0.5434292   0.09186501  35.56  0.001969813    3.273    0.695
        80  -9.4407    165.3171    214.9261   3.7407786566e+01   7.9424539594e+00    0.3144485   0.07792607 -39.70  0.001102584    4.251    0.765
        81 -11.0037    154.3119    213.2630   3.9401735447e+01   9.5748474367e+00    0.3568788    0.1576195 -34.28  0.001615417    2.508    0.601
        82 -10.7235     33.9702    213.9096   6.8230160805e+01   2.3810974348e+01    0.3083977    0.1490232  34.34  0.001012829    1.701    0.412
        83 -11.0982    144.5639    213.3092   4.1468747492e+01   1.0788924506e+01    0.2311761    0.1426138   5.63  0.001195285    1.819    0.450
        84 -11.1915    160.7926    210.4503   3.7642611703e+01   9.2517223311e+00    0.4356659    0.1223031 -40.34  0.001624897    3.659    0.727
        85 -11.1710    149.4878    207.5241   3.9553941351e+01   1.1198121526e+01    0.2637254    0.1701799 -62.63  0.001360217    2.241    0.554
        86 -11.5652     71.6918    239.4890   6.1052281814e+01   1.4582331143e+01     0.490567    0.2031221  39.67   0.00190728    1.985    0.496
        87 -10.3651     27.1397    210.1352   6.9726446641e+01   2.5306250869e+01    0.1924814     0.126625  52.90  0.001022318    1.331    0.249
        88 -11.7370     19.7791    210.1042   7.1594018331e+01   2.5977097289e+01    0.2854802    0.1786316  26.78  0.001527553    1.476    0.323
        89  -9.7109    171.2729    207.9602   3.5157883913e+01   8.3729453780e+00    0.2016498    0.1351788 -41.42 0.0006365645    1.501    0.334
        90  -9.9332    172.7673    203.7833   3.4203382664e+01   8.8859448268e+00    0.2503439    0.1319397 -36.57 0.0008006466    1.792    0.442
        91 -10.1112    182.8582    206.9653   3.2773643689e+01   7.1262426101e+00    0.2391769    0.1511161 -30.44  0.001207221    1.434    0.303
        92 -11.3862    186.7680    203.6869   3.1519781117e+01   7.1810944223e+00    0.2504767    0.2126302 -42.90 0.0007262829    1.436    0.304
        93  -9.9247    156.0043    207.1673   3.8126092592e+01   1.0425700898e+01     0.187124    0.1157712 -29.21 0.0007436045    1.636    0.389
        94  -9.6612     34.5000    206.4773   6.7596513973e+01   2.5440896242e+01    0.2417496   0.08735614  36.03  0.001022758    2.180    0.541
        95  -9.6509     43.8152    211.8535   6.5587956452e+01   2.3287605055e+01    0.1882716    0.1304735  51.00 0.0005502612    1.298    0.229
        96 -10.2512    156.3923    197.7922   3.6564640718e+01   1.2051284667e+01    0.2290059    0.1493083  -6.76 0.0008854682    1.783    0.439
        97 -12.2819      9.5887    203.2700   7.3863965270e+01   2.8402513044e+01    0.5535464    0.1921453  21.56  0.002286288    2.722    0.633
        98 -12.0720      3.8733    196.9258   7.5079401630e+01   3.0333917712e+01     0.455881    0.2243366  70.40  0.002224175    1.910    0.476
        99 -10.6083    176.1447    197.5604   3.2533749876e+01   9.5081877835e+00    0.2232322    0.1789626 -35.54 0.0006100421    1.247    0.198
       100 -10.4235    169.5327    197.2361   3.3781369613e+01   1.0417009575e+01    0.3484025     0.271895  82.48  0.001781629    2.621    0.618
       101 -10.0865     22.6729    197.3069   7.0117202996e+01   2.8696249068e+01    0.1453717   0.07943458  53.74 0.0003726196    1.653    0.395
       102 -10.3839    161.6212    192.4141   3.4589207174e+01   1.2323417956e+01    0.2242838    0.1838091 -39.81 0.0007685131    1.254    0.203
       103 -12.2768    123.6985    247.6172   5.0340355191e+01   7.3673701503e+00    0.8831059     0.340234  21.91  0.004033947    2.433    0.589
       104 -10.5462    172.0177    190.7324   3.2200440303e+01   1.1223969265e+01    0.2195519    0.1751543 -42.34 0.0006028826    1.319    0.242
       105  -9.8657    155.9221    188.4694   3.5120316173e+01   1.3833610189e+01    0.2251187    0.1653485 -20.14 0.0008651654    1.358    0.264
       106 -12.1590      3.5139    187.9202   7.4803604822e+01   3.2524810734e+01    0.4925546    0.1652283  49.48  0.002026278    2.491    0.599
       107 -10.7915    165.7339    186.1777   3.2683717158e+01   1.2891429999e+01    0.2721552    0.2261412  -3.36 0.0009284432    1.105    0.095
       108 -12.0078     89.6680    248.7166   5.7812450575e+01   1.0933214767e+01    0.5879189    0.2365689  34.98  0.002901695    1.958    0.489
       109 -10.1225    150.4719    186.9386   3.6033231741e+01   1.4890116070e+01    0.1977532    0.1255388 -45.72 0.0007208553    1.572    0.364
       110  -9.3718    154.4993    183.4569   3.4564462170e+01   1.4981188381e+01    0.1324781     0.119097  -7.22   0.00014074    1.019    0.019
       111 -11.3809      2.1828    177.9214   7.4736199369e+01   3.5095279217e+01    0.3564788    0.1485897  81.13  0.001497727    2.381    0.580
       112  -9.9421    169.0374    177.4850   3.0479172116e+01   1.4012852172e+01    0.1993307     0.157859 -33.29 0.0004642259    1.163    0.140
       113 -10.8957    150.1009    177.4327   3.4460548742e+01   1.6788772148e+01    0.2646023    0.1810215 -63.07  0.001317639    1.940    0.484
       114  -9.6836    161.4805    174.9764   3.1576322489e+01   1.5578930482e+01    0.2032249    0.1231012 -43.34   0.00102607    1.572    0.364
       115 -11.0953      1.6020    170.7115   7.4572493685e+01   3.6963383366e+01    0.2615971    0.1129815 -76.89  0.001139612    2.146    0.534
       116 -10.1197    169.8017    167.5060   2.8486252580e+01   1.5746499207e+01    0.2378179    0.1725202 -40.22 0.0006734396    1.283    0.221
       117 -10.4857    149.6373    168.1655   3.2870513453e+01   1.8700682152e+01    0.2051679    0.1170583 -37.42 0.0009499548    1.739    0.425
       118  -9.7238    157.8694    169.8635   3.1397432714e+01   1.7100571500e+01    0.1743103     0.162976 -64.87 0.0006802737    1.303    0.232
       119  -9.6707    159.3721    164.1647   3.0002032401e+01   1.7978358327e+01    0.1888161    0.1236553 -52.97 0.0006893864    1.652    0.395
       120 -12.0495     96.9570    243.4272   5.5694687225e+01   1.1067647058e+01    0.5098388    0.2648435  33.11  0.001473953    1.573    0.364
       121  -9.2743    163.4422    160.5419   2.8449701866e+01   1.8044591752e+01    0.1365924    0.1211971 -20.14 0.0001272023    1.022    0.021
       122 -10.8409    176.7082    157.7222   2.5246202374e+01   1.6510228289e+01    0.3561504       0.1959 -38.71  0.001540651    1.646    0.392
       123 -10.1193    172.3680    162.6239   2.7045130041e+01   1.6267973579e+01    0.2562807    0.1437804 -40.07 0.0007261736    1.627    0.385
       124  -9.4224    172.4738    158.0007   2.6126280791e+01   1.7114507988e+01    0.2020605    0.1209565 -41.93 0.0004669644    1.526    0.345
       125  -9.5915    167.9906    158.0031   2.7021895352e+01   1.7815932098e+01    0.1651388     0.144613 -26.72 0.0005063644    1.026    0.025
       126  -9.5907    179.3761    152.8424   2.3773280091e+01   1.6992573154e+01    0.1970927     0.147592 -31.32 0.0005121745    1.200    0.167
       127 -10.6332    181.6576    148.6369   2.2502593252e+01   1.7402111960e+01    0.3193627    0.2125171 -20.45  0.001000988    1.673    0.402
       128 -10.5160    171.3798    152.7614   2.5302946546e+01   1.8272533226e+01    0.3418561    0.1469586 -37.80 0.0008552271    2.242    0.554
       129  -9.9140    167.3418    151.7033   2.5897107254e+01   1.9124583337e+01    0.3641411    0.1112997 -40.41  0.001246588    3.169    0.684
       130  -9.4705    157.2919    151.6697   2.7979977820e+01   2.0779508732e+01    0.1332258     0.111413 -82.02 0.0004068169    1.628    0.386
       131  -9.5260    176.4206    150.4610   2.3858622354e+01   1.7898555710e+01    0.1357657    0.1163973 -24.04 0.0001735159    1.054    0.052
       132 -10.8722    200.3478    143.6219   1.8223482532e+01   1.5384655456e+01     0.239021    0.1849856 -16.98 0.0005480661    1.285    0.222
       133  -9.8268    203.5148    139.9332   1.6970472394e+01   1.5527270795e+01    0.1759936    0.1303547 -32.58 0.0004419583    1.139    0.122
       134  -9.4241    176.4701    144.4935   2.2631777566e+01   1.9000619794e+01    0.1371336    0.1186594 -24.52 7.620262e-05    1.058    0.055
       135 -10.1041    194.3487    142.1454   1.8930645940e+01   1.6562251635e+01    0.1938102    0.1603405  -7.75   0.00048642    1.258    0.205
       136 -13.2807    246.9539    128.3080   8.7036520618e+00   1.1160879803e+01    0.8965969    0.4910942 -14.23  0.004422808    2.955    0.662
       137 -11.7723    226.2716    131.3759   1.1911346683e+01   1.3543377516e+01    0.3005178    0.2252917  13.99  0.001917249    1.701    0.412
       138 -11.4541    214.4537    140.6428   1.5414939820e+01   1.3782848289e+01    0.2385384    0.1758648 -19.23 0.0005016343    1.329    0.248
       139 -11.8428    219.2197    136.0846   1.3819653105e+01   1.3821212742e+01    0.2559913    0.1999523 -13.43 0.0007539232    1.323    0.244
       140 -10.0127    215.7223    133.9371   1.3902544542e+01   1.4677587400e+01    0.1678741    0.1297436 -34.53 0.0004290061    1.047    0.045
       141 -10.1309    218.4852    131.5346   1.3025926371e+01   1.4652424205e+01    0.2253774    0.1501496 -16.59 8.080166e-05    1.722    0.419
       142 -10.9263    208.0418    135.8220   1.5432626057e+01   1.5524338076e+01    0.3722736    0.2558592  62.46  0.001769893    2.186    0.543
       143  -9.9758    198.7779    134.7505   1.6682436620e+01   1.7143002914e+01    0.2465054    0.2255851  85.65  0.001600125    1.424    0.298
       144 -10.0258    192.6521    135.1608   1.7784949530e+01   1.8052356896e+01    0.1829878    0.1408216 -29.84 0.0006759283    1.164    0.141
       145 -14.1538    244.4711    117.5628   6.9627277088e+00   1.3046711273e+01     1.615517     1.025486 -19.24  0.009812936    1.778    0.437
       146  -9.3318    212.4687    132.4915   1.4092767089e+01   1.5399223819e+01    0.1270096    0.1030821 -32.07  0.000126225    1.021    0.020
       147 -10.1407    206.0002    128.7239   1.4301083539e+01   1.7019052896e+01    0.1607629    0.1507779 -10.88 0.0003650606    1.165    0.142
       148 -11.4509    221.7650    126.3542   1.1535116796e+01   1.4984621152e+01    0.3588103    0.2169252 -26.77 0.0006133845    1.602    0.376
       149 -10.9307    228.6689    122.7407   9.8967858679e+00   1.4525795273e+01    0.3127859    0.2922477  32.44  0.001727711    1.345    0.256
       150  -9.6002    231.4155    119.2699   8.8610544449e+00   1.4652032668e+01    0.1762516    0.1645989  14.68 0.0009569774    1.317    0.241
       151 -10.3996    212.2350    126.8283   1.2980331189e+01   1.6356363269e+01    0.1708657    0.1621085 -57.25 0.0003553391    1.239    0.193
       152 -11.2409    170.4981    233.8485   3.9123281058e+01   4.3488133293e+00     0.448642    0.2976134  15.47  0.002659065    1.297    0.229
       153  -9.4537    218.0178    123.7132   1.1522168787e+01   1.5967332487e+01    0.1534069    0.1339395 -24.31 0.0003525428    1.127    0.113
       154  -9.5715    200.1820    124.5959   1.4342004066e+01   1.8648676895e+01    0.1515625    0.1207793  22.16  0.000261461    1.523    0.343
       155 -13.5138    129.4369    236.7913   4.7857492096e+01   8.5208616779e+00     1.038349    0.5249451 -28.25  0.005025171    2.590    0.614
       156  -8.6340    220.5556    118.4877   1.0114302609e+01   1.6403263326e+01    0.1251145    0.0995505 -35.60 0.0002791652    1.024    0.023
       157  -9.2858    225.6815    113.7800   8.4885664511e+00   1.6346690479e+01    0.1065791   0.08625603  -4.57 0.0003840917    1.490    0.329
       158 -11.2766    169.1040    241.7677   4.0464300737e+01   3.3199038498e+00    0.4095624    0.2362956 -15.04  0.001579548    1.843    0.457
       159  -9.3435    228.2011    103.4076   6.0678734921e+00   1.7531639102e+01    0.2710628   0.05390223 -44.47 0.0008743395    4.334    0.769
       160 -16.9899    243.7622    177.0971   1.7832087431e+01   4.5769067589e+00     2.617001      1.28244 -26.12   0.01515738    1.795    0.443
       161  -9.5334    224.2599     62.8230   3.5794829746e+02   2.4034286970e+01    0.2097175    0.1448778 -31.33  0.001307607    1.401    0.286
       162 -10.2830      2.0000     41.0222   5.9051186289e+01   7.1315490240e+01    0.2159532   0.06906781 -67.89 0.0008058919    2.966    0.663
       163 -11.4307    243.0287    248.5087   2.8896796982e+01  -4.4413733901e+00    0.2046029    0.1427869  -0.28 0.0007104058    1.154    0.134
       164 -17.4045    242.4098    155.9346   1.4330498812e+01   7.7387286517e+00     3.541496      2.47512   8.76   0.02385801    1.709    0.415
       165 -12.0572     83.9711    243.1549   5.8576491412e+01   1.2556579186e+01    0.4784659    0.2077529  26.63  0.001561123    1.906    0.475
