#   1 NUMBER                 Running object number                                     
#   2 MAG_AUTO               Kron-like elliptical aperture magnitude                    [mag]
#   3 X_IMAGE                Object position along x                                    [pixel]
#   4 Y_IMAGE                Object position along y                                    [pixel]
#   5 X_WORLD                Barycenter position along world x axis                     [deg]
#   6 Y_WORLD                Barycenter position along world y axis                     [deg]
#   7 A_WORLD                Profile RMS along major axis (world units)                 [deg]
#   8 B_WORLD                Profile RMS along minor axis (world units)                 [deg]
#   9 THETA_WORLD            Position angle (CCW/world-x)                               [deg]
#  10 FWHM_WORLD             FWHM assuming a gaussian core                              [deg]
#  11 ELONGATION             A_IMAGE/B_IMAGE                                           
#  12 ELLIPTICITY            1 - B_IMAGE/A_IMAGE                                       
         1 -13.9270    202.5286      5.1579   5.9113358826e+01   3.4049194062e+01     1.305709     1.135903 -88.03  0.007698773    1.107    0.097
         2 -15.1279    183.2258     30.4080   6.7523986678e+01   3.5807933211e+01     2.495866     1.653075   7.49   0.01156182    2.713    0.631
         3 -12.0204     55.3176      6.0854   8.8527201095e+01   6.5501049903e+01    0.2151903    0.1491652  38.85  0.000718324    1.381    0.276
         4 -11.3249    171.8260    240.7203   1.1745806447e+02  -1.1724944762e+00    0.4172922    0.2917298 -81.28  0.001631565    2.494    0.599
         5 -19.4247     35.0315    146.3933   1.3430079311e+02   4.1287374811e+01     20.21803     5.824736 -70.20   0.06996828    3.488    0.713
         6 -10.2104     83.2686    229.3487   1.3385147865e+02   1.5894089953e+01    0.2237998    0.1347785  46.03   0.00041138    1.490    0.329
         7 -10.5021    157.3883    219.1640   1.1698167877e+02   5.2775934700e+00    0.1869254    0.1331927 -65.64 0.0009463481    1.730    0.422
         8 -11.7970    183.7509    215.0991   1.1077456280e+02   1.2040798016e+00    0.3019779    0.2673466 -60.15  0.001582388    1.331    0.249
         9 -12.2272    103.7083    194.7766   1.2488119545e+02   2.0141728240e+01    0.4632491     0.351058  37.89  0.001822699    1.390    0.281
        10 -13.8438    118.0461    201.0392   1.2261649977e+02   1.6226135413e+01    0.7666716    0.5886017  30.69   0.00400965    1.469    0.319
        11 -13.1151    116.1199    211.8132   1.2469460598e+02   1.4224573995e+01    0.7810733    0.5091869  85.68  0.001362441    2.005    0.501
        12 -12.5691    108.3211    209.6638   1.2607970210e+02   1.6034474596e+01    0.5908681    0.4925318  27.40  0.002784297    1.439    0.305
        13 -12.3360    107.4520    203.9069   1.2542545739e+02   1.7446724576e+01    0.6804814    0.4877533   2.09  0.003039775    2.649    0.623
        14 -12.1496    126.0177    209.8154   1.2223060966e+02   1.2896833860e+01    0.3718447    0.2407306  19.62  0.001627079    2.370    0.578
        15 -13.1340    112.5284    196.3928   1.2312409499e+02   1.8242366188e+01     1.147845    0.6910195   9.34  0.003548732    5.188    0.807
        16 -13.1578     11.5248    207.0384   1.4576536106e+02   2.9727084757e+01    0.4590642    0.3284234  54.25  0.002768988    1.372    0.271
        17  99.0000      3.7448    207.2721   1.4722334513e+02   3.0418673270e+01    0.1547195   0.09617765  77.49 0.0003884815    1.273    0.214
        18 -11.2840     93.1010    206.6821   1.2898568928e+02   1.9220916391e+01    0.4496139    0.3523533  74.18  0.002234876    1.192    0.161
        19 -11.0586     94.3105    199.6976   1.2774086716e+02   2.0592667447e+01    0.5435247    0.2840025  81.88  0.001913467    3.566    0.720
        20 -10.2546    164.8731    205.3356   1.1300700277e+02   6.5863415658e+00    0.4151805    0.1930926 -63.33  0.001345957    4.083    0.755
        21 -10.8563     86.2195    204.5644   1.3020419803e+02   2.0788679422e+01     0.481202    0.3400378   7.53  0.002232807    2.687    0.628
        22 -12.8441    193.9702    193.8858   1.0468978527e+02   3.2599432778e+00     1.089936    0.7370908 -67.25  0.004412477    2.248    0.555
        23 -11.4910    140.7025    199.4935   1.1727861722e+02   1.2388858493e+01    0.2569523    0.2348323 -87.60 0.0006213988    1.128    0.114
        24  -9.6395    234.3061    197.9911   9.7584480882e+01  -4.7483236457e+00     0.202786    0.1015772 -56.74 0.0006804534    4.118    0.757
        25  -9.4274    211.4727    203.4670   1.0301257388e+02  -1.7287636764e+00    0.1351255    0.1262026   9.92 6.288388e-05    1.061    0.058
        26 -10.3515     91.0231    193.8671   1.2763837594e+02   2.2459603791e+01    0.2250888    0.1711338  72.96 0.0007954031    1.286    0.222
        27 -10.0716    180.0696    193.0341   1.0744580561e+02   6.1089290723e+00     0.234229    0.1823548  80.87  0.001131632    1.787    0.440
        28 -12.8722    109.6436    188.8336   1.2256234478e+02   2.0473502127e+01    0.7179003     0.444824  14.32  0.002708962    3.251    0.692
        29 -13.4030    110.5186    183.4806   1.2145885116e+02   2.1557729679e+01    0.8779768    0.4245785  33.40  0.003432673    2.415    0.586
        30 -11.8453    207.7907    183.8124   9.9857970736e+01   2.5355756057e+00    0.3870474    0.3599673 -52.67  0.001117273    1.192    0.161
        31 -11.7783    210.9838    180.5600   9.8555858377e+01   2.5402959521e+00    0.4642074    0.3163824 -28.90  0.002094219    1.527    0.345
        32 -11.7637     99.2454    180.7654   1.2367982618e+02   2.4157479612e+01    0.2818259    0.2631359  80.52  0.000668554    1.054    0.052
        33 -11.2742     95.5953    179.8197   1.2439588331e+02   2.4995581982e+01    0.2953299    0.2180419  71.56 0.0005953691    1.423    0.297
        34 -10.8507    136.9754    179.4759   1.1449024432e+02   1.7520306274e+01    0.2256018    0.1448889  42.11 0.0003178176    1.524    0.344
        35 -12.0967    197.7095    174.9861   1.0008172335e+02   6.2142096395e+00    0.5619025     0.349554 -49.24  0.001889843    1.688    0.408
        36 -10.3603    145.2266    178.5976   1.1239564187e+02   1.6088931680e+01    0.2140901    0.1428026  32.59 0.0008658528    1.642    0.391
        37 -10.4133     57.8498    201.1871   1.3592092461e+02   2.5677574573e+01    0.1841728     0.145906  74.58 0.0002809044    1.086    0.079
        38 -11.5382    145.7623    169.2387   1.1039888164e+02   1.8088313258e+01    0.4609992    0.2440473 -43.40  0.001451091    2.005    0.501
        39 -11.2251    203.4893    167.2532   9.7261034921e+01   6.5863253640e+00    0.4521205    0.3861188  41.15  0.001822252    1.194    0.162
        40 -10.8880    230.3868    167.5598   9.2136598166e+01   1.2942311777e+00    0.2904823    0.1134073 -51.30 0.0009584358    3.501    0.714
        41 -10.5116    225.4890    166.4671   9.2813014566e+01   2.4182293087e+00    0.1407731    0.1323768 -32.33 0.0001106852    1.065    0.061
        42  -9.9781      5.3718    161.6431   1.4322066496e+02   4.0369626238e+01    0.1935056    0.1476564  13.46  0.001292969    1.890    0.471
        43 -13.0332    100.3826    155.9693   1.1894894793e+02   2.9907232489e+01    0.7325626    0.4745334 -40.48  0.003297297    1.768    0.435
        44 -10.2371    119.5100    155.8240   1.1404245310e+02   2.6431665498e+01    0.3326581    0.2463744  87.66 0.0009713084    1.684    0.406
        45 -12.1659    133.9308    145.0556   1.0808004606e+02   2.6097294540e+01     1.203552    0.3249882 -54.54  0.002975934    4.888    0.795
        46 -10.0728    112.6575    150.2930   1.1463999794e+02   2.9053278449e+01    0.1578671    0.1167569  77.10 0.0002773345    1.657    0.397
        47 -11.1535    174.4162    148.3355   9.9237017453e+01   1.6661861394e+01    0.4582779    0.2771654 -56.36  0.001608465    1.855    0.461
        48 -11.9758    145.2323    145.9344   1.0548822150e+02   2.3525897670e+01    0.3877519    0.3443752  79.99 0.0006688496    1.201    0.167
        49 -12.5048    110.1391    140.5628   1.1321151824e+02   3.1853155526e+01    0.6542904    0.4161167 -33.07  0.002742033    1.997    0.499
        50 -14.3248     65.2367    208.2844   1.3516548088e+02   2.3070951578e+01     1.614938    0.9668653  34.81  0.008462163    1.891    0.471
        51 -12.4390     99.1149    141.0288   1.1625051279e+02   3.3739720838e+01    0.2907036    0.2798696 -35.83  0.000405568    1.121    0.108
        52 -12.0259    117.2762    130.5242   1.0902788556e+02   3.2856519669e+01    0.4714808    0.3951554   4.02  0.001370224    1.495    0.331
        53 -12.0415    105.3884    129.0128   1.1188209213e+02   3.5476620474e+01    0.6513771     0.357377 -61.48   0.00259559    2.041    0.510
        54 -10.8710    160.3900    127.8194   9.7566637703e+01   2.4257654937e+01    0.4468137     0.291706 -46.99  0.001924956    1.518    0.341
        55 -11.9766    135.4053    122.9416   1.0244999114e+02   3.0863056975e+01    0.7224058    0.3193091 -53.39  0.002489045    2.494    0.599
        56 -11.1123    125.0738    127.0389   1.0613271155e+02   3.2099199635e+01    0.3964143    0.2571844  79.24  0.001466802    2.651    0.623
        57 -10.4785    111.6110    119.6760   1.0793734430e+02   3.6471993068e+01    0.2664891    0.2504137 -82.26 0.0004192798    1.102    0.092
        58 -10.7571    168.4513    113.3866   9.2115073618e+01   2.5481175758e+01    0.3745641    0.2842271 -84.14 0.0009369833    1.688    0.408
        59 -10.3996    205.4986    110.1755   8.3807724138e+01   1.7510792594e+01    0.3133141    0.2170271  45.96 0.0009238249    1.552    0.356
        60  -9.7244    182.5328    241.9521   1.1552570249e+02  -3.2047160965e+00    0.1732592    0.1295235 -44.28 0.0006176538    1.550    0.355
        61 -10.6959    176.9745    235.2359   1.1556329002e+02  -1.1365365743e+00     0.200694    0.1903533 -35.07 0.0004290067    1.202    0.168
        62 -11.4363      9.6560    233.4963   1.4786107472e+02   2.4437559494e+01     0.317622    0.2297762 -28.46  0.001895799    3.298    0.697
        63 -10.5952     78.8472    232.1014   1.3503060215e+02   1.5992937854e+01    0.1959201    0.1532099  58.23 0.0002939345    1.115    0.103
        64  -9.8763    134.5139    102.9735   9.7482165252e+01   3.5402960572e+01    0.2405084    0.1513983 -44.08  0.001029896    1.582    0.368
        65  -9.6162    151.0711    101.7108   9.3056721523e+01   3.1927098875e+01    0.2141903    0.1902067  53.26 0.0002980661    1.122    0.109
        66  -9.1777     75.3513     74.2180   1.0637744209e+02   5.2492221156e+01    0.1322764   0.09773947   2.48 0.0002880006    1.547    0.354
        67 -10.8504     13.6794     59.9280   1.2434113092e+02   6.2085710975e+01    0.1801963    0.1591944  -5.69 0.0004378157    1.261    0.207
        68  -9.6405    168.1989    248.1899   1.1930479991e+02  -1.7914066762e+00    0.1682479    0.1358197  56.65 0.0003203248    1.306    0.234
        69 -13.8027    169.4468     45.6266   7.3739631906e+01   3.7175024988e+01    0.8091539    0.7260793 -16.43 0.0009589983    1.317    0.241
        70  -9.9598    158.3157    246.6646   1.2103303382e+02   1.4214335750e-01    0.1298621   0.09427001  67.41 0.0007047479    1.693    0.409
        71  -9.8966     87.9136     13.1392   8.1186456411e+01   5.9172000821e+01    0.1738352    0.1555669  47.87 0.0005252272    1.241    0.194
