#   1 NUMBER                 Running object number                                     
#   2 MAG_AUTO               Kron-like elliptical aperture magnitude                    [mag]
#   3 X_IMAGE                Object position along x                                    [pixel]
#   4 Y_IMAGE                Object position along y                                    [pixel]
#   5 X_WORLD                Barycenter position along world x axis                     [deg]
#   6 Y_WORLD                Barycenter position along world y axis                     [deg]
#   7 A_WORLD                Profile RMS along major axis (world units)                 [deg]
#   8 B_WORLD                Profile RMS along minor axis (world units)                 [deg]
#   9 THETA_WORLD            Position angle (CCW/world-x)                               [deg]
#  10 FWHM_WORLD             FWHM assuming a gaussian core                              [deg]
#  11 ELONGATION             A_IMAGE/B_IMAGE                                           
#  12 ELLIPTICITY            1 - B_IMAGE/A_IMAGE                                       
         1 -11.4336    215.3434      3.5202   5.6687907246e+01   3.1542431125e+01    0.8151231    0.3969197  71.94  0.003160993    1.746    0.427
         2 -11.9387    191.1272     28.8135   6.5069767703e+01   3.4317160013e+01    0.7762628    0.5810936 -35.93  0.003002536    1.484    0.326
         3 -12.4935    199.0099     21.9851   6.2460610826e+01   3.3264725211e+01     1.224662    0.9085609 -45.33  0.007336552    1.394    0.283
         4  -9.8252     49.0000     16.4370   9.3411359984e+01   6.5586192131e+01    0.5831072    0.0464748 -34.77  0.001412198   10.809    0.907
         5  -9.7649     48.9985      3.1441   8.7639786057e+01   6.6954174193e+01    0.3861162    0.1210104 -30.03   0.00183097    3.195    0.687
         6 -11.5448    205.8307     14.6153   6.0015588191e+01   3.2514920095e+01      0.60226    0.5437583 -55.72  0.001794992    1.253    0.202
         7  -8.6961     33.0000      3.9807   9.4229341608e+01   6.9097627209e+01    0.2695812   0.05391292 -31.60  0.001036662    4.802    0.792
         8 -11.1522    109.5185    229.3848   1.2770565117e+02   1.1601949713e+01    0.5890338    0.2366916  48.18  0.002468549    2.243    0.554
         9 -12.5189     35.7516    246.0612   1.4357130235e+02   1.8909933486e+01     2.826639    0.7227406  41.23   0.01242802    3.214    0.689
        10 -11.6513     53.3690    230.7959   1.3909862608e+02   1.9781732265e+01     1.410742    0.7393658 -53.27   0.00618897    2.423    0.587
        11 -13.9078     19.2796    169.5287   1.4014294509e+02   3.7575949513e+01     6.770313     2.354372 -88.35    0.0212112    5.032    0.801
        12  -8.7851    149.9116    227.7872   1.1907088658e+02   4.9067061535e+00    0.3968543    0.1648471 -42.66  0.001569044    2.963    0.663
        13  -7.6987    164.0000    225.9905   1.1586077436e+02   2.7290499216e+00    0.2137177   0.07883965 -48.62  0.000809755    2.993    0.666
        14 -14.2657      3.0891    233.1712   1.4833060014e+02   2.5129170073e+01     22.90263          nan -75.29   0.03456046   28.230    0.965
        15  -9.7549     32.3833    206.6848   1.4099737279e+02   2.7640228774e+01    0.3483553    0.1889086  66.62  0.001061599    1.747    0.428
        16 -11.4713     45.2724    220.7538   1.3973732994e+02   2.2980418750e+01    0.5164092    0.4664366  -2.31  0.001357096    1.820    0.450
        17 -10.0479     97.1053    234.3107   1.3085803007e+02   1.2620423903e+01    0.3553706    0.2352234 -62.05  0.001432512    1.611    0.379
        18 -10.8354    126.0782    230.3844   1.2441284317e+02   8.5881119847e+00    0.3812455    0.3178031  73.09   0.00226583    1.184    0.155
        19 -10.2297    134.4456    229.8259   1.2259581092e+02   7.2442578130e+00    0.3553909     0.207954 -47.54  0.001745186    1.959    0.489
        20  -8.3212    193.3139    194.9865   1.0416141121e+02   3.2227384336e+00    0.2250994    0.1152046 -63.26 0.0007043356    4.224    0.763
        21  -9.9448     69.3008    189.3202   1.3109661851e+02   2.6902369618e+01    0.4428136    0.2617125 -40.68   0.00199487    2.454    0.593
        22 -10.0523     74.0071    182.9093   1.2910333041e+02   2.7747401120e+01    0.3134549    0.2371806 -54.17 0.0006759921    1.390    0.280
        23  -9.7666     93.9053    230.0961   1.3099914132e+02   1.3997124446e+01    0.3427429     0.178611 -70.68 0.0009406724    2.100    0.524
        24  -8.3116    141.7688    231.0221   1.2125413512e+02   5.7275006616e+00    0.1684022    0.1139608 -55.35 0.0008809164    1.648    0.393
        25  -8.2318     48.7208    173.4584   1.3376983511e+02   3.3459279595e+01    0.2515668    0.1027612 -66.58   0.00098925    2.114    0.527
        26 -11.5860     70.3656    168.6852   1.2783083679e+02   3.1736119753e+01    0.5362716    0.2927085 -45.18  0.001233984    2.142    0.533
        27  -9.6129     33.0000    159.5015   1.3573161874e+02   3.8609992266e+01    0.6125654    0.0671819 -67.64  0.001364624    8.078    0.876
        28 -10.6872     88.5336    164.0545   1.2249964365e+02   3.0083839393e+01    0.6617911    0.5734422  38.86  0.001363736    1.275    0.216
        29 -10.3848     78.9926    159.6275   1.2414855835e+02   3.2681968782e+01     1.186621    0.5807851  74.40  0.003030553    6.477    0.846
        30  -9.7681     82.7929    171.7132   1.2524840852e+02   2.9124456766e+01    0.2898465    0.2500136 -60.86 0.0004986605    1.161    0.139
        31  -8.6245     49.0000    155.9474   1.3123814771e+02   3.7684544463e+01     0.231083   0.06754599 -64.61 0.0008030423    2.947    0.661
        32 -11.3436     67.8186    144.3495   1.2434667071e+02   3.8089958132e+01    0.7673999    0.5460528  74.52  0.002969781    1.662    0.398
        33 -10.3710     90.2913    146.9675   1.1880269076e+02   3.3998483679e+01    0.2955859     0.258444 -37.09 0.0004675808    1.264    0.209
        34 -11.1978     58.3531    132.4779   1.2473726757e+02   4.2260438999e+01    0.9409316    0.3264875 -66.31  0.003149738    3.303    0.697
        35  -7.8206    208.3522    138.1714   8.8936495921e+01   1.1563485965e+01    0.2276003    0.1300303 -50.25 0.0009493331    1.746    0.427
        36 -11.9606     49.3863    130.1956   1.2684901987e+02   4.3908724667e+01     1.026639    0.3304681 -60.79  0.003837771    2.621    0.619
        37  -8.4977    111.6041    134.3720   1.1035461480e+02   3.3242898822e+01    0.2852911     0.189991  16.20  0.001123549    2.322    0.569
        38  -9.0216     99.3221    131.0927   1.1293289051e+02   3.6300579420e+01    0.3379331    0.2325779 -28.65 0.0006738366    1.862    0.463
        39  -9.2985    102.3798    146.6501   1.1552610846e+02   3.1986544223e+01    0.6336272    0.2775565 -39.90  0.002115668    3.032    0.670
        40  -8.0175    108.2101    121.8308   1.0827606814e+02   3.6848368261e+01    0.1972243    0.1760511 -10.29 0.0002482123    1.284    0.221
        41 -13.1679     53.5484    209.2698   1.3693351241e+02   2.4450356460e+01     2.390917     1.295701  48.20   0.01259986    1.721    0.419
        42  -8.8119     32.6218    132.2381   1.3190081971e+02   4.5206264336e+01    0.3201993   0.07411359 -57.22  0.001145132    3.036    0.671
        43 -10.1529     32.7753    112.3433   1.2837967557e+02   4.9875594925e+01    0.8581175   0.03177214 -60.75  0.001871275    8.378    0.881
        44  -7.8003    203.6835    111.3270   8.3491374550e+01   1.7926290532e+01    0.1581296    0.1140845 -73.95 0.0007044992    1.675    0.403
        45 -11.0750     50.7303    108.2889   1.2202870514e+02   4.8919748089e+01    0.5925758    0.3906645 -84.78  0.002862396    2.102    0.524
        46  -9.4520    167.8667    112.7488   9.1042862159e+01   2.5941363658e+01    0.3694284    0.2916376 -73.83 0.0008912885    1.451    0.311
        47 -12.6910      9.9661    206.5508   1.4536244704e+02   3.0045426216e+01    0.9149141    0.6982413 -76.85  0.004041418    1.254    0.202
        48  -9.6612     49.1227     91.6480   1.1862929057e+02   5.2821376560e+01    0.4199727   0.08699178 -56.98  0.001161746    5.172    0.807
        49 -10.7407    101.8114    227.8333   1.2909670038e+02   1.3194464019e+01    0.4529847    0.2385781  50.85  0.002186614    1.710    0.415
        50 -10.4424     96.7204    226.8273   1.3002054804e+02   1.4230244162e+01    0.4549956    0.2235521  56.18  0.002065818    2.023    0.506
        51  -7.6689    208.3301     62.3193   7.0855951725e+01   2.5533212404e+01    0.1351577    0.1107926  29.16 0.0007047979    1.689    0.408
        52  -8.1985    208.6315    232.8329   1.0808879116e+02  -6.1406412589e+00    0.1689087    0.1200437 -48.90 0.0006794147    1.713    0.416
        53  -8.7699    139.9925    250.0000   1.2429955128e+02   2.5341375347e+00    0.2226879   0.06369806  40.77  0.000808339    2.983    0.665
        54  -8.7284    208.7578    248.0170   1.1061552235e+02  -8.4808113959e+00    0.1537629    0.1023978 -36.33            0    1.638    0.389
        55  -8.1912     90.9431    246.4588   1.3345099297e+02   1.1165935324e+01    0.1844622     0.105786  46.20 0.0003781288    1.498    0.333
        56  -8.7198     33.0000     30.4765   1.0549164963e+02   6.5802811405e+01    0.2479118   0.05672856 -41.93 0.0009413283    3.988    0.749
        57  -9.7765     21.0323    229.5131   1.4498385224e+02   2.3991860609e+01    0.2565518    0.1370686  65.33  0.001521352    1.574    0.364
        58  -8.6901    105.9908    240.5531   1.2983111141e+02   9.9414691859e+00    0.1960313    0.1111648  44.76 0.0003606818    1.537    0.349
        59  -8.9427     32.8492     19.2913   1.0104290678e+02   6.7347428665e+01    0.3112106   0.06406411 -34.68  0.001117296    4.802    0.792
        60  -9.9916     30.8549    235.7901   1.4368196077e+02   2.1571092441e+01    0.3287033    0.1947892  65.16  0.000896314    1.376    0.273
