#   1 NUMBER                 Running object number                                     
#   2 MAG_AUTO               Kron-like elliptical aperture magnitude                    [mag]
#   3 X_IMAGE                Object position along x                                    [pixel]
#   4 Y_IMAGE                Object position along y                                    [pixel]
#   5 X_WORLD                Barycenter position along world x axis                     [deg]
#   6 Y_WORLD                Barycenter position along world y axis                     [deg]
#   7 A_WORLD                Profile RMS along major axis (world units)                 [deg]
#   8 B_WORLD                Profile RMS along minor axis (world units)                 [deg]
#   9 THETA_WORLD            Position angle (CCW/world-x)                               [deg]
#  10 FWHM_WORLD             FWHM assuming a gaussian core                              [deg]
#  11 ELONGATION             A_IMAGE/B_IMAGE                                           
#  12 ELLIPTICITY            1 - B_IMAGE/A_IMAGE                                       
         1 -13.8723    210.7326     29.7687   3.9449025529e+00   2.8182287797e+01    0.9259996    0.8319445 -62.73  0.003766672    1.103    0.093
         2 -11.1803    227.2607      9.5272   3.5802760384e+02   2.6826473095e+01    0.2340681    0.2012095 -82.40 0.0007467375    1.172    0.147
         3 -11.3706     48.6789     10.0025   3.0570682922e+01   6.9929159377e+01    0.2906397    0.1114776  39.25  0.001199994    2.450    0.592
         4  -9.9252     79.3364      2.3240   1.4970076641e+01   6.4049780394e+01    0.1468391   0.08437408  36.01 0.0007051075    1.716    0.417
         5 -18.9739     23.8312     95.5805   7.3883365326e+01   5.5308307644e+01       16.448      1.05493 -69.22   0.02686838   13.903    0.928
         6 -14.0019    245.5410    238.1784   4.1842843068e+01  -7.1178444829e+00     1.837854    0.7010274 -27.67   0.01008542    2.474    0.596
         7  99.0000    121.4681    234.5439   6.5149921138e+01   9.8623713783e+00     10.27082     6.613835  77.55    0.0508064    2.831    0.647
         8  99.0000     39.2775    207.1819   8.1375098096e+01   2.6222910754e+01     5.522762     2.848346  76.86   0.02744427    2.101    0.524
         9  -9.5687     47.1425    193.9498   7.8387332195e+01   2.8234389906e+01    0.1829645    0.1474715 -42.55  0.001073631    1.592    0.372
        10 -10.5945    175.0320    179.3289   4.4831322708e+01   1.1070727999e+01     0.298665    0.2374613  29.70 0.0007941308    1.169    0.144
        11 -12.6185    172.7401    173.7018   4.4245064344e+01   1.2480725383e+01    0.7247751    0.4989322   1.40  0.001367189    1.790    0.441
        12 -11.5013    180.6154    168.4790   4.1562518766e+01   1.2026899616e+01    0.6687182    0.4097512 -56.44  0.003012382    2.325    0.570
        13 -11.3792     49.5800    224.5434   8.0244571108e+01   2.1421102628e+01    0.1630175    0.1366895 -85.27 0.0004685638    1.310    0.237
        14 -11.7957    155.1422    177.9358   4.8940163097e+01   1.4810227995e+01      0.35956    0.2671056  19.95  0.001699063    1.349    0.259
        15 -10.3374     56.2120    193.1044   7.6000557739e+01   2.7312530572e+01    0.1772675    0.1665702 -84.93 0.0006011047    1.183    0.154
        16 -11.1254      2.8133    176.6179   8.8485223029e+01   3.6604709643e+01    0.1544669    0.1408141  23.93 0.0005855603    1.331    0.249
        17 -11.7664      2.2388    164.2267   8.8005833780e+01   3.9565068889e+01    0.1932723    0.1780066 -73.77 0.0005295305    1.229    0.186
        18 -10.0313    234.3112    191.0508   3.5876619101e+01   5.9409512322e-02    0.1694251    0.1286296 -17.02 0.0004370454    1.121    0.108
        19 -10.5829    115.8609    154.8644   5.4294722680e+01   2.6878274374e+01    0.3140549    0.2598442  66.36 0.0009229228    1.346    0.257
        20 -11.6584    106.3204    139.0206   5.3742539096e+01   3.2361862686e+01    0.4849822     0.326274  74.01  0.000922729    2.175    0.540
        21 -11.2077    111.9632    150.1762   5.4436616433e+01   2.8681202109e+01    0.3567007    0.2620238  65.97   0.00122043    1.639    0.390
        22 -11.9461    108.8985    145.3048   5.4311674296e+01   3.0390998614e+01    0.3546987    0.3500389  16.01 0.0006962221    1.052    0.050
        23 -12.0534    133.3555    145.8243   4.7800099860e+01   2.5543664182e+01     1.096524    0.3573763 -53.97  0.003189404    3.958    0.747
        24 -10.4428    116.6498    149.3201   5.2974557888e+01   2.8000555974e+01    0.2825261    0.1706657  47.71 0.0007460683    1.653    0.395
        25  -9.3471    159.0000    190.9282   5.0412758530e+01   1.1718088655e+01    0.2079664   0.07867934 -45.87 0.0005457337    2.894    0.654
        26  -9.7389    171.0517    142.0475   3.8030285245e+01   1.8747703867e+01    0.3887886    0.1877857 -60.00  0.001153672    4.537    0.780
        27  -9.1957    163.0148    135.9364   3.8416284219e+01   2.1575087340e+01    0.1786804    0.1672904 -26.40 0.0004299387    1.061    0.057
        28 -12.4593    106.5420    131.0197   5.1931975544e+01   3.4224507177e+01    0.6338297    0.5118409  43.10  0.002456038    1.198    0.165
        29 -12.2077     97.5253    130.5390   5.4529746542e+01   3.6048513400e+01    0.4677341    0.3285301 -48.28  0.002136852    1.469    0.319
        30 -10.6639    222.9254    130.5759   2.5846444905e+01   1.0878846913e+01    0.5601142    0.2137221 -49.04  0.001988176    3.594    0.722
        31 -11.3793    133.7187    128.3554   4.3740818350e+01   2.9311062048e+01    0.6297883    0.4596755  78.78   0.00186496    1.983    0.496
        32 -11.0970    115.5265    125.2478   4.7981656054e+01   3.3795781238e+01    0.2984736    0.2517669  17.25 0.0006525011    1.320    0.242
        33  -9.2534     10.9901    189.5119   8.7098147929e+01   3.2978211723e+01    0.1408401    0.1274792  47.17 0.0003351067    1.212    0.175
        34 -10.0958    160.4780    127.9935   3.7129971575e+01   2.3691390260e+01    0.2379652    0.1479349 -42.37  0.001038695    1.612    0.379
        35  -9.4411    156.3075    117.6293   3.5550871024e+01   2.6676935574e+01    0.2957396    0.2073078 -82.56  0.001191608    2.337    0.572
        36 -10.7356    161.3932    118.6745   3.4660540944e+01   2.5349799807e+01    0.4920432    0.3090632 -64.10   0.00191887    2.315    0.568
        37  -9.7342    158.5474    120.5346   3.5760536059e+01   2.5601894491e+01    0.2264288    0.1893375 -88.58 6.247906e-05    1.502    0.334
        38 -10.6706    103.4296    120.0438   5.0310393499e+01   3.7448407973e+01     0.287358    0.2626102   2.89 0.0006296058    1.206    0.171
        39  -9.7416     96.4487    115.2479   5.1316795948e+01   3.9959453245e+01    0.2937208    0.1474492 -46.32 0.0008457614    2.052    0.513
        40 -10.7639    110.3277    114.3466   4.6815721728e+01   3.7393846598e+01    0.4057076    0.2964361  85.61  0.001438139    1.964    0.491
        41  -9.8235    106.8286     95.6022   4.2804251240e+01   4.2407005464e+01    0.2626483     0.201982  87.98 0.0005337191    1.755    0.430
        42 -12.3507    119.3011    104.3642   4.1557317578e+01   3.7737127084e+01    0.7456879    0.3866175 -48.37  0.002853895    1.992    0.498
        43 -12.0313    112.6018     99.6311   4.2199123568e+01   4.0256495484e+01    0.6199702    0.4644888  69.96  0.001465175    1.646    0.392
        44 -11.2199    118.6280    111.8061   4.3736746784e+01   3.6222681577e+01    0.3611246     0.324509  66.38  0.001045715    1.169    0.145
        45 -11.5527    115.0757    108.7157   4.3949928007e+01   3.7683325247e+01     0.445675    0.3768935  89.92 0.0004965069    1.401    0.286
        46  -9.2290    103.9051    108.8564   4.7351480998e+01   3.9994164049e+01     0.209575    0.1834881  76.34            0    1.269    0.212
        47 -11.0169     77.5608    107.4740   5.5713378512e+01   4.5320138221e+01    0.2926942    0.2456832  -8.42  0.001166295    1.410    0.291
        48 -12.1350     80.6872    104.4585   5.3867041948e+01   4.5513635079e+01    0.8516225    0.3666216  51.91  0.002138638    3.133    0.681
        49 -10.8784    134.3882    105.4094   3.7728214893e+01   3.4128090350e+01    0.3916933    0.1477125 -48.01  0.001254714    2.830    0.647
        50  -9.7152     57.1512    187.8311   7.5225351997e+01   2.8395650351e+01    0.1640832    0.1442575  19.61 0.0004000092    1.299    0.230
        51  -9.3324    127.6887     97.3370   3.7270147213e+01   3.7362828998e+01    0.1625407    0.1263689 -86.06 0.0002436458    1.686    0.407
        52 -11.1914     57.8069    222.1133   7.8194417324e+01   2.0910922753e+01     0.148178    0.1213676 -74.19 0.0005951507    1.393    0.282
        53  -9.7756    152.6809     91.3713   2.9426639544e+01   3.2672884007e+01    0.2356756    0.1797034 -76.84 0.0005664408    1.651    0.394
        54  -9.7551     50.9641     90.5659   6.1614588835e+01   5.3632073586e+01    0.2181031    0.1408722  31.60  0.001017925    1.589    0.371
        55 -10.0808     97.4250     87.8103   4.3505684535e+01   4.6146098295e+01    0.4371567    0.2406886  67.82  0.001312227    3.891    0.743
        56  -9.6070     93.1886     85.4319   4.4196978195e+01   4.7557968926e+01    0.2325844    0.1433468  54.08 0.0009482348    1.806    0.446
        57  -9.7398    154.4867     87.4472   2.7928070350e+01   3.2977592595e+01    0.1514989    0.1486421  81.08 0.0001821825    1.010    0.009
        58 -10.4873    109.7822     82.0565   3.7831068747e+01   4.4670438578e+01    0.3724074    0.2734725  88.05  0.001083012    1.980    0.495
        59 -11.9192     89.3270    212.0349   6.9834303733e+01   1.8724153467e+01    0.2705398    0.2288478 -72.48 0.0006448131    1.359    0.264
        60 -10.2114     67.5174    212.8117   7.5116037810e+01   2.1573156211e+01    0.1286328   0.08765844  35.31 0.0003678598    1.284    0.221
        61 -13.2115    170.1999     68.2176   1.9392957570e+01   3.2485878085e+01    0.7434455    0.6177871  65.11  0.001016798    1.196    0.164
        62  -9.9063     60.6073     68.2389   5.1106762614e+01   5.7481377395e+01    0.2729399    0.1637747  43.53 0.0008864165    1.759    0.431
        63  -8.9959     79.5257     67.4778   4.3220833756e+01   5.4203171058e+01    0.1483593    0.1452135  31.39 0.0008091926    1.050    0.048
        64 -13.9206    186.8646     54.9793   1.3117211114e+01   3.0451431423e+01      1.26724     1.002761  25.69  0.004181259    1.684    0.406
        65 -12.0626    192.9680     49.3975   1.0820862880e+01   2.9781084107e+01    0.3612979    0.3306503  55.62 0.0008885391    1.231    0.188
        66  -9.8836     99.0108     65.1826   3.5603463772e+01   5.0502948620e+01    0.2555547    0.1793275  76.31  0.001070381    2.049    0.512
        67  -9.7923     74.2310     65.2086   4.4463636874e+01   5.5708971690e+01    0.2953938    0.1933831  49.43 0.0009108123    1.634    0.388
        68 -10.5659     68.0047     63.6815   4.6428820994e+01   5.7189750380e+01    0.2810218    0.2387569  48.57  0.001389789    1.257    0.205
        69 -10.7267    160.8686    200.6255   5.1655439073e+01   9.6844859199e+00    0.3509619    0.2016975 -47.92  0.001580755    2.025    0.506
        70  -9.9634    210.9548    198.7624   4.1311655795e+01   2.2445432270e+00    0.1977608     0.155987 -12.78 0.0004401154    1.126    0.112
        71 -16.5860     68.2230    143.8169   6.6219001425e+01   3.7607926471e+01     4.772915     3.068448  67.29   0.02115365    1.859    0.462
        72  -9.1054    213.4751    247.4953   4.8648581919e+01  -4.5050803935e+00     0.114678   0.08238927   9.11 1.742114e-05    1.017    0.016
        73 -10.0176     60.8551     21.1865   3.1175111757e+01   6.6076215894e+01    0.1969356    0.1813212  50.30 0.0006718665    1.226    0.184
        74 -10.9419     71.0654    230.3416   7.5883875935e+01   1.7610938376e+01    0.1382865    0.1140069  55.77    0.0002838    1.092    0.085
        75 -11.6472     54.6236    229.0261   7.9444512886e+01   1.9929380388e+01    0.2298695       0.1329 -69.23  0.001305314    1.961    0.490
