#   1 NUMBER                 Running object number                                     
#   2 MAG_AUTO               Kron-like elliptical aperture magnitude                    [mag]
#   3 X_IMAGE                Object position along x                                    [pixel]
#   4 Y_IMAGE                Object position along y                                    [pixel]
#   5 X_WORLD                Barycenter position along world x axis                     [deg]
#   6 Y_WORLD                Barycenter position along world y axis                     [deg]
#   7 A_WORLD                Profile RMS along major axis (world units)                 [deg]
#   8 B_WORLD                Profile RMS along minor axis (world units)                 [deg]
#   9 THETA_WORLD            Position angle (CCW/world-x)                               [deg]
#  10 FWHM_WORLD             FWHM assuming a gaussian core                              [deg]
#  11 ELONGATION             A_IMAGE/B_IMAGE                                           
#  12 ELLIPTICITY            1 - B_IMAGE/A_IMAGE                                       
         1 -11.8860    225.2691     22.2712   3.5208605590e+01   2.6924314868e+01    0.7150708    0.6190317 -64.30  0.002819184    1.106    0.096
         2 -12.5212    209.1011     37.1384   4.0201858132e+01   2.8671952789e+01     1.230667     1.088451   9.90  0.007655523    1.542    0.351
         3 -10.7072    217.5115     29.7479   3.7594184104e+01   2.7719571066e+01    0.4372005    0.3243042  48.38  0.001094688    1.661    0.398
         4 -10.5105      1.9909     22.5273   9.5128610855e+01   7.0859546234e+01    0.6437928    0.1239333 -53.84  0.002296741    4.844    0.794
         5 -10.4767      1.9954     12.9962   9.1208098301e+01   7.2423966368e+01    0.4402259    0.2066498 -55.70  0.002284923    2.856    0.650
         6  -9.3343      2.2545      4.6139   8.7146696315e+01   7.3667099546e+01    0.4154304   0.09440012 -40.13  0.001802897    3.419    0.707
         7  -9.8903    249.2316      3.6078   2.9641060501e+01   2.4068840495e+01    0.2791781    0.2580698 -64.54  0.002154936    1.330    0.248
         8  -9.8269    245.2042      2.3967   2.9660318927e+01   2.4992606976e+01     0.281437    0.2048838  87.42  0.001511453    1.244    0.196
         9 -10.1740     65.9440    171.3588   1.0531569295e+02   3.1039618797e+01    0.3226885    0.2524835 -37.95  0.000817472    1.519    0.342
        10  -8.2111     81.7624    250.6142   1.1089364242e+02   1.1709985349e+01    0.1687714   0.09045827  45.75 0.0006042345    1.518    0.341
        11 -12.4648     82.1259    221.7042   1.0785337547e+02   1.7326709642e+01      1.90154     1.068683  57.78  0.003075408    1.807    0.447
        12 -11.4704     32.8040    203.2405   1.1680485913e+02   2.7554523147e+01    0.4702438    0.3674787 -48.01   0.00106431    1.616    0.381
        13 -14.1817     40.4467    192.2784   1.1408842680e+02   2.9201949845e+01     10.30344     3.999981  79.86    0.0293726    6.167    0.838
        14 -10.2945     43.9050    219.1010   1.1577545718e+02   2.2844551350e+01    0.2900114    0.1732449  53.48 0.0006354991    1.460    0.315
        15  -9.4044    111.4957    173.0000   9.3827972802e+01   2.3582969887e+01    0.3341797   0.08238395  36.81 0.0009421899    3.995    0.750
        16 -13.5201     10.4599    209.1705   1.2192818421e+02   2.8488053160e+01     1.719252    0.9382272  61.60   0.01017802    1.589    0.371
        17 -11.0182     19.4995    194.3131   1.1898718962e+02   3.0914582411e+01    0.5443348    0.2448017  35.54   0.00241063    2.181    0.541
        18 -10.9316     82.9768    155.6551   9.8238286213e+01   3.2443785045e+01    0.8793468    0.4678734 -43.98  0.002259556    2.067    0.516
        19 -10.3450     75.8011    161.7332   1.0123224350e+02   3.2017917132e+01    0.4905358    0.2957426 -50.75 0.0004947689    1.653    0.395
        20 -12.0937     68.8738    145.3783   1.0036351145e+02   3.7062230993e+01     1.299881    0.7420741  86.94  0.004916445    2.891    0.654
        21  -8.1959    174.6853    149.3051   7.3660103040e+01   1.6729022645e+01     0.147813    0.1224295 -87.59 0.0004236306    1.622    0.383
        22 -11.7737     63.0425    157.8441   1.0407234318e+02   3.4749155981e+01    0.5118927    0.3031776 -42.99  0.001313813    1.918    0.479
        23  -9.0798     97.9878    141.6722   9.1330986035e+01   3.3433620693e+01    0.3820805    0.2520821  21.83  0.001475235    1.863    0.463
        24  -8.5458    100.6626    138.6794   8.9937110304e+01   3.3695128903e+01    0.3904803    0.2373113  10.04  0.001410953    2.930    0.659
        25 -10.6972     85.6463    140.2635   9.4558483024e+01   3.5827309971e+01    0.3372259    0.2849771 -37.56 0.0004861044    1.238    0.192
        26  -8.0390    197.9909    139.4944   6.6579764305e+01   1.3979355849e+01     0.187263    0.1329446  77.32 0.0004618378    2.275    0.561
        27  -9.7682     75.4030    136.1203   9.6718729611e+01   3.8429607429e+01     0.340032    0.2613706  62.83 0.0006000678    1.483    0.326
        28 -11.8087     57.5855    240.8163   1.1480646940e+02   1.6742325606e+01     0.758525     0.390041  47.25  0.002261956    1.600    0.375
        29  -9.3531    107.8660    130.8323   8.6137708883e+01   3.4278012904e+01     0.535796    0.2772008  32.32  0.001976115    2.165    0.538
        30  -8.7394     96.2773    126.5843   8.8489465697e+01   3.7388121299e+01    0.3271159    0.2350766 -12.14  0.001115622    1.944    0.486
        31  -7.9222    106.4236    119.4328   8.3808520251e+01   3.7237532043e+01    0.1523923    0.1463715 -30.81 0.0001102513    1.025    0.024
        32  -8.1010    205.8643    110.1698   5.8263606863e+01   1.7868895090e+01    0.1968767    0.1714663   4.28 0.0004966363    1.337    0.252
        33  -8.8154     41.6930     91.9729   9.8192040220e+01   5.3455488554e+01    0.1932648    0.1577971 -51.86 0.0004787172    1.091    0.083
        34  -8.3825     52.7010     90.6649   9.3887295962e+01   5.2484076391e+01    0.1472258   0.09600441 -28.61 0.0003256844    1.653    0.395
        35 -10.3699     60.6440    176.8704   1.0742965393e+02   3.0405054531e+01    0.4561546    0.3019575 -30.33  0.001684664    2.223    0.550
        36 -10.0329     13.4577     60.1499   1.0145334675e+02   6.2939541196e+01    0.2323869    0.1890643 -39.13 0.0006865473    1.028    0.027
        37  -7.4242     44.7056     60.7037   8.8328073785e+01   5.9876338535e+01    0.1352665   0.08944739 -20.06 0.0002452509    1.563    0.360
        38 -12.1620    200.4053     43.2211   4.2716743364e+01   2.9862508566e+01     1.034891    0.7177842  22.79  0.005065888    2.353    0.575
        39 -14.3966      7.2850    241.8325   1.2431993325e+02   2.2135123879e+01     8.943349     1.577777 -78.45   0.03227606    5.473    0.817
        40 -12.1633    127.9959    230.0031   9.8950522943e+01   8.7455384582e+00     1.154337    0.4283891  32.77  0.004543428    2.657    0.624
        41 -12.2734      3.5922    183.8078   1.2171125635e+02   3.4698498187e+01      1.40267    0.5000414 -84.68  0.006217777    2.599    0.615
        42 -10.2433     10.6547     53.6855   1.0095090930e+02   6.4458509380e+01    0.3427187    0.1490689 -26.46   0.00159712    2.531    0.605
        43  -8.2631    134.9570     41.6250   5.3106824200e+01   4.5751932987e+01    0.2012042    0.1671857  62.24 0.0005615873    1.150    0.131
        44  -8.1020    134.9581     33.7077   5.0563335574e+01   4.6766561011e+01    0.1902062    0.1619942  61.74 0.0003743808    1.091    0.084
        45  -9.4563     58.9656    229.5898   1.1356255910e+02   1.8811532537e+01    0.2816762    0.1702189 -67.03 0.0009194471    1.710    0.415
        46 -12.2103    111.0890    230.4595   1.0263568121e+02   1.1282412136e+01     1.575181    0.4513466  42.57  0.005856303    2.957    0.662
        47  -8.2833     36.6462    235.3170   1.1848716498e+02   2.0335568573e+01    0.1297761   0.06671944  62.07 0.0007046311    1.743    0.426
        48 -13.3972     38.5286    249.4110   1.1908679648e+02   1.7379712895e+01     4.193727     1.158755  27.28   0.01200068    8.461    0.882
