#   1 NUMBER                 Running object number                                     
#   2 MAG_AUTO               Kron-like elliptical aperture magnitude                    [mag]
#   3 X_IMAGE                Object position along x                                    [pixel]
#   4 Y_IMAGE                Object position along y                                    [pixel]
#   5 X_WORLD                Barycenter position along world x axis                     [deg]
#   6 Y_WORLD                Barycenter position along world y axis                     [deg]
#   7 A_WORLD                Profile RMS along major axis (world units)                 [deg]
#   8 B_WORLD                Profile RMS along minor axis (world units)                 [deg]
#   9 THETA_WORLD            Position angle (CCW/world-x)                               [deg]
#  10 FWHM_WORLD             FWHM assuming a gaussian core                              [deg]
#  11 ELONGATION             A_IMAGE/B_IMAGE                                           
#  12 ELLIPTICITY            1 - B_IMAGE/A_IMAGE                                       
         1 -13.0201    234.6396     78.8025   6.7912765104e+01   1.6496185663e+01     1.943815     1.573288 -74.27  0.007251015    1.235    0.190
         2 -14.0350    222.5344     40.5616   6.0525062498e+01   2.4780419138e+01     10.82324          nan -42.04   0.02297942    9.285    0.892
         3 -13.3425    180.0940     75.8296   7.5565727670e+01   2.9701300553e+01     2.985882     1.638505 -88.54  0.008922484    3.936    0.746
         4 -13.3931    169.5377     59.1210   7.2821814737e+01   3.5072211010e+01     7.573515     3.496668  85.93   0.01412429   11.140    0.910
         5 -12.6243    246.1453     20.1498   5.3945340882e+01   2.2146759480e+01    0.4829102     0.397952 -54.94  0.002438518    1.170    0.145
         6 -11.2961    135.9862     16.0826   6.5561119871e+01   4.9103483770e+01    0.6880727     0.146091  58.53  0.002270476    3.297    0.697
         7 -10.6464    144.9829     22.6919   6.6146435515e+01   4.6157771266e+01    0.3490473    0.1916075 -51.02  0.001576007    2.135    0.532
         8 -10.0944    223.4379     15.7230   5.4785759980e+01   2.7630982782e+01    0.3773178    0.1866184 -52.20  0.001205915    1.793    0.442
         9 -10.0846    216.5424      7.0315   5.3403617092e+01   3.0153800320e+01     1.044158    0.3440256 -60.15  0.003221984    3.600    0.722
        10 -11.5048    155.0544     11.8163   6.1194482936e+01   4.4717280643e+01    0.7250986    0.2163731  55.23  0.002714425    2.776    0.640
        11 -10.1892    197.6081      1.7895   5.3754133415e+01   3.5127674099e+01    0.6503291    0.1633976  68.02  0.002472759    3.107    0.678
        12  -9.8748    177.5939     11.3416   5.8192192897e+01   3.9093642222e+01    0.6155123    0.2264603 -44.38  0.002550969    2.699    0.629
        13 -12.3595    188.0403      5.1044   5.5454265572e+01   3.7124364504e+01      1.78289    0.8555224  78.80  0.008521443    1.854    0.461
        14 -10.4671    173.1532      3.0786   5.6453252217e+01   4.0984195759e+01    0.5912586    0.3064105 -74.56  0.002506743    2.184    0.542
        15 -11.7461    129.0364     22.4899   6.9043554356e+01   5.0171529219e+01    0.6238405    0.2551022  49.28  0.002552544    2.182    0.542
        16  -9.3851    115.7908     12.4356   6.8169378993e+01   5.4403416598e+01    0.2981067    0.1953429  57.77   0.00124499    1.300    0.231
        17 -10.6033    120.2945      8.9134   6.5979200376e+01   5.3633575637e+01    0.4034719    0.3104368  56.42  0.001283096    1.104    0.094
        18  -8.6276    134.4898      9.5326   6.3636324759e+01   5.0090992746e+01    0.1358899    0.1152976  62.16 0.0001207076    1.024    0.024
        19  -8.1976    249.3445      2.0880   5.0115370325e+01   2.3511785928e+01    0.1713144    0.1207558 -58.33  0.001147726    1.142    0.124
        20  -9.4638    224.9825      1.6247   5.1586419806e+01   2.8798895804e+01    0.2020417    0.1277002 -77.02 0.0006015315    1.341    0.254
        21  -8.4282     99.2077    147.9623   1.1412715422e+02   3.2292983233e+01    0.1974334    0.1850783 -66.48            0    1.062    0.059
        22  -9.7579     69.9604    145.5026   1.2199640688e+02   3.7641661024e+01    0.3563868    0.3023449  74.24  0.001278937    1.180    0.153
        23  -9.8616     66.3913    144.2323   1.2281127515e+02   3.8468877199e+01    0.4503798    0.2842226 -72.39  0.001448357    1.586    0.370
        24 -10.9395    248.7675    143.7339   8.0173160985e+01   3.0945094344e+00     0.451082     0.199776 -33.07  0.001971487    2.083    0.520
        25  -9.1894    192.3081    144.2216   9.0389019328e+01   1.3937996632e+01    0.2427709    0.1943975  34.33 0.0004187851    1.288    0.223
        26  -9.4999    232.4239    137.9298   8.1552579650e+01   7.0302708944e+00    0.2406625    0.2049391  41.18 0.0003576133    1.287    0.223
        27 -11.7564    233.7768     32.9067   5.7681461267e+01   2.3247580844e+01    0.4495392     0.392928  28.26  0.001733649    1.665    0.399
        28 -11.9543    238.9395    244.5129   1.0080587538e+02  -1.0174722482e+01    0.2495544    0.2219597  -0.51 0.0003172068    1.388    0.280
        29  -7.9116      2.7828    236.9786   1.4634709466e+02   2.4607826244e+01    0.1291915   0.07111013 -87.69 0.0003609759    1.551    0.355
        30  -7.9945    160.9651    137.0260   9.5586401384e+01   2.2213043102e+01    0.1882653      0.17623 -43.54 0.0003050355    1.075    0.070
        31  -9.0549    160.4751    128.0183   9.3516238195e+01   2.4250390673e+01    0.2454665    0.1552969 -42.09  0.000886879    1.591    0.371
        32 -10.0595    202.6123    126.2831   8.4184784327e+01   1.5189666594e+01    0.4008774    0.2869821 -78.81  0.001268647    2.084    0.520
        33 -12.6130    203.2858    112.6222   8.0788651978e+01   1.7595824062e+01     1.697312     1.041134   5.46  0.005493964    4.146    0.759
        34 -12.6358    187.4553    109.4664   8.3005341927e+01   2.1796361311e+01     2.534087    0.8552321 -35.70   0.00783631    3.250    0.692
        35 -11.8445    186.4469     92.0827   7.8727298302e+01   2.5284435853e+01      1.06766    0.6930005 -48.82  0.004819763    1.535    0.349
        36  -9.8952    151.1288    221.8694   1.1434733387e+02   6.8051064033e+00    0.2099213     0.201718  -1.83 0.0003374523    1.154    0.134
        37 -11.6994      2.5918    212.6999   1.4527693698e+02   2.9505284647e+01    0.7337104    0.2747338 -77.53  0.003179811    2.279    0.561
        38 -10.4133    167.7213    113.7293   8.8241218430e+01   2.5565330105e+01    0.4668859    0.3626722 -71.44  0.001276372    1.550    0.355
        39  -8.3004      4.6939    116.7154   1.3743537599e+02   5.1429206933e+01    0.1242864   0.07688623 -47.99 0.0002442663    1.564    0.360
        40  -8.4071    133.3934    111.5677   9.6047452125e+01   3.3956839340e+01    0.4909411    0.2930476 -79.80  0.001425322    4.233    0.764
        41 -12.2452    158.2554     48.8489   7.1882162750e+01   3.9475972780e+01     1.911504    0.9477084  87.23  0.003781295    4.473    0.776
        42  -9.9018    224.6655     96.3832   7.3365891207e+01   1.5769914649e+01    0.3929582    0.2330155 -86.21  0.001376336    3.057    0.673
        43  -9.2609    150.4659     96.3060   8.7532781790e+01   3.3193985367e+01    0.3220681    0.2599815  19.00 0.0008148629    1.517    0.341
        44  -9.0521    136.0972     93.2179   9.0225383531e+01   3.7228874373e+01    0.4355199    0.2085599 -42.61  0.001613234    2.114    0.527
        45  -8.7537    173.6276     91.0955   8.0973402458e+01   2.8573163332e+01    0.2428247    0.2030993  69.45 0.0003591194    1.226    0.185
        46  -9.2063    159.3447     88.8261   8.3382775353e+01   3.2496479146e+01    0.4881963    0.3003611  30.38  0.001709592    2.257    0.557
        47 -10.0384    163.4729     86.4808   8.1822748843e+01   3.1922148903e+01    0.3572328    0.3028688 -51.76 0.0009536811    1.189    0.159
        48  -9.2844    229.4940    124.5335   7.9068300636e+01   9.9204578298e+00     0.140286    0.1271034 -36.72 0.0001236133    1.008    0.008
        49  -9.9374    144.6361     85.0402   8.5700144251e+01   3.6806862578e+01     0.333923    0.2841652 -45.06 0.0007990634    1.197    0.164
        50  -9.3773    205.3527    122.1925   8.2705451058e+01   1.5363801440e+01    0.2472838    0.2204665  59.88 0.0008745997    1.202    0.168
        51 -11.2643    160.4935     76.3202   7.9563461993e+01   3.4501695773e+01    0.3975696      0.36449 -22.73  0.001036203    1.195    0.163
        52 -11.2868    210.8665     69.7310   6.8984076119e+01   2.3253104934e+01     1.495728    0.6623694 -66.80  0.003979805    5.879    0.830
        53 -10.8721    197.5041     59.8838   6.8439417569e+01   2.7973825168e+01    0.4184917    0.3884788 -54.34  0.001304757    1.105    0.095
        54 -11.0185    209.9636     62.9572   6.7437422502e+01   2.4514992480e+01     1.037018    0.4271418 -62.72   0.00276869    5.105    0.804
        55 -11.0358    203.5911     55.6992   6.6500572739e+01   2.7122624819e+01    0.3969531    0.3295165  68.69  0.001321446    1.197    0.164
        56  -8.1375    116.3334     73.2440   8.9490279090e+01   4.5706603149e+01    0.1919406    0.1394077 -47.06 0.0002040825    1.453    0.312
        57 -10.3938    186.5276     68.1666   7.2359632918e+01   2.9377542385e+01    0.3920245     0.292666  80.79 0.0004459763    1.410    0.291
        58 -10.2368    225.2000     28.2707   5.7443200438e+01   2.5747957452e+01    0.3327026    0.2112802 -59.78 0.0008335614    1.406    0.289
        59  -9.9890    144.2963     59.3319   7.7957660346e+01   4.1417577729e+01    0.3538659    0.2602147 -59.91 0.0006454612    1.563    0.360
        60 -10.7435    220.0942     28.9426   5.8084645478e+01   2.6833141720e+01    0.3262672    0.2628644 -31.66  0.001289692    1.428    0.300
        61  -7.9899     72.6178     58.4931   9.8739099608e+01   5.7237343583e+01    0.1382668    0.1242622 -12.23 9.688496e-05    1.030    0.029
        62  -9.2501     34.2155     57.3638   1.1416519903e+02   6.2747744112e+01    0.2253876    0.1856787 -58.70 0.0006375151    1.346    0.257
        63  -8.7756    247.9528     54.0768   6.0920770971e+01   1.7367925914e+01    0.2881511    0.1669457 -33.46  0.001030999    1.723    0.420
        64  -8.6487    190.9095     53.0667   6.7631688861e+01   3.0610791517e+01    0.3584671    0.1396016 -52.88  0.001222625    3.158    0.683
        65 -10.2583    128.9319     51.0082   7.8812358236e+01   4.6508702204e+01    0.2264319    0.2173851   2.99 -0.001877172    1.102    0.093
        66  -9.0583    212.3948     49.5334   6.3823077486e+01   2.5910284110e+01    0.3616005    0.1385039 -42.70  0.001458748    2.343    0.573
        67  -8.0614    175.2323     50.0263   6.9249493147e+01   3.4985973428e+01    0.1762609    0.1210224 -34.69  0.000350772    1.535    0.349
        68 -11.0664    248.2026     44.1690   5.8786165503e+01   1.8676628277e+01    0.3244545    0.2432884 -54.33 0.0004814411    1.112    0.101
        69 -10.8939    244.7793     41.8275   5.8603036455e+01   1.9708098906e+01    0.2578837    0.1938743 -66.48 0.0005788603    1.130    0.115
        70  -9.0021    188.3815     43.9366   6.5570066537e+01   3.2529326239e+01    0.5253444   0.06609152 -38.53  0.001408651    5.221    0.808
        71  -9.8207    184.0632     36.1031   6.4069802837e+01   3.4646970375e+01    0.6074405    0.3087107 -49.82  0.002687755    2.017    0.504
        72 -12.1558    179.6441     57.0880   7.0491783723e+01   3.2829752593e+01     0.543952     0.388741  -0.71  0.001897484    2.153    0.536
        73  -8.0582    197.2338     43.6017   6.4271632232e+01   3.0384333583e+01     0.194304    0.1105483 -79.82 0.0004499326    2.193    0.544
        74  -9.9844    204.6962     38.6659   6.2084243643e+01   2.9229165892e+01    0.3298805    0.1943658 -58.24  0.001076954    1.687    0.407
        75  -7.8281    165.3583     39.2676   6.7783228034e+01   3.8979356278e+01    0.1467996    0.1015531  40.99 0.0006991778    1.639    0.390
        76  -8.9806    243.4090     32.0994   5.6655044067e+01   2.1262060510e+01     0.426019    0.1311018 -49.45  0.001736513    2.779    0.640
        77 -10.7542    115.5505     25.9587   7.3208682631e+01   5.3066288423e+01    0.2965318    0.1946149  38.33  0.001499374    1.497    0.332
        78 -10.9910    117.7324     29.9982   7.4168062827e+01   5.2071878920e+01    0.3192172    0.2399229  44.83  0.001547731    1.214    0.176
        79 -10.4469    104.2692     28.6144   7.7035421384e+01   5.5388858036e+01    0.2690606    0.1592776  46.07  0.001311813    1.504    0.335
        80 -10.6880    249.7554     26.3846   5.4949933805e+01   2.0639615832e+01    0.2637024    0.1645185 -57.43 0.0005972318    1.320    0.242
        81  -7.4871    152.7060    207.3083   1.1168090160e+02   9.2395407179e+00    0.1361904    0.1062822  67.75 0.0002679791    1.586    0.369
        82  -9.4977    178.4801     23.4524   6.1374245811e+01   3.7579274775e+01    0.4302013    0.2576317 -52.06  0.002137356    1.705    0.413
        83  -9.3648    181.6709     23.3151   6.0931576036e+01   3.6793948006e+01    0.2652071    0.2071517 -70.30 0.0009469268    1.224    0.183
        84 -11.4624    135.0307     24.3551   6.8502500665e+01   4.8478654057e+01    0.4305909    0.3066614  54.30   0.00229361    1.248    0.199
        85 -13.1714     43.6263    178.4622   1.3364458001e+02   3.2964996935e+01     1.075355     1.053698 -42.89  0.003783762    1.311    0.237
        86  -9.4663    236.3567    174.6008   8.8575304993e+01   1.7733950994e-01    0.2984817    0.1633102  56.65  0.001280165    3.030    0.670
        87  -9.9033    108.7266     22.5779   7.3582414205e+01   5.5054225752e+01    0.2734901    0.1102788  53.83  0.001129478    2.086    0.521
        88 -11.1914     34.3753    185.9185   1.3661075630e+02   3.2260429839e+01    0.3503092    0.2992074 -36.76   0.00118738    1.602    0.376
        89 -13.3875     27.5528    190.9626   1.3862115859e+02   3.1830232390e+01     1.029088    0.9030142  39.29    0.0027707    1.351    0.260
        90 -10.5896    158.9124     15.0315   6.1611412445e+01   4.3426815065e+01    0.6420676   0.05305398  58.53  0.001753225    4.981    0.799
        91 -10.0880    153.2282     15.5887   6.2602761684e+01   4.4810104188e+01    0.2772188    0.1610453  52.40  0.001284754    1.606    0.377
        92 -10.1557    244.0790    166.8656   8.5699276357e+01   1.4296034848e-01    0.3273535    0.2787214 -65.82  0.001024276    1.669    0.401
        93  -9.7057    245.3176    162.1526   8.4536296203e+01   6.9370479575e-01     0.216106    0.1982522   0.09   0.00030608    1.120    0.107
        94  -8.7033    100.3627    163.0557   1.1668137249e+02   2.8421286147e+01    0.1959337    0.1784185 -74.70 0.0004012432    1.090    0.082
        95  -8.6599    210.9859    193.2125   9.6923331187e+01   1.4090606649e+00    0.1825269    0.1582909 -63.47  0.001051549    1.617    0.382
        96  -8.4185    166.5111    159.9091   9.9492833298e+01   1.6162772926e+01    0.2138888    0.1504163 -43.77 0.0003033034    1.455    0.313
        97  -9.7407    245.0152    157.2231   8.3574632675e+01   1.5406061467e+00    0.1852167    0.1708091 -45.03  0.000434958    1.254    0.202
        98 -10.0302    213.3328    155.3643   8.8737238860e+01   7.5971719576e+00     0.237297    0.2234215 -43.37  0.000327085    1.152    0.132
        99 -11.8543    236.4525    146.7487   8.2786846064e+01   4.7770799704e+00    0.5340255    0.5304899 -23.77  0.003430897    1.179    0.152
       100 -11.6365    240.4528    140.4928   8.0797228586e+01   5.1057746163e+00    0.6256428    0.3764185 -56.55  0.002894227    2.195    0.544
       101  -8.3253    134.2321    148.2107   1.0476069094e+02   2.5453815815e+01    0.2542461    0.1284378 -60.19 0.0008909578    2.504    0.601
