#   1 NUMBER                 Running object number                                     
#   2 MAG_AUTO               Kron-like elliptical aperture magnitude                    [mag]
#   3 X_IMAGE                Object position along x                                    [pixel]
#   4 Y_IMAGE                Object position along y                                    [pixel]
#   5 X_WORLD                Barycenter position along world x axis                     [deg]
#   6 Y_WORLD                Barycenter position along world y axis                     [deg]
#   7 A_WORLD                Profile RMS along major axis (world units)                 [deg]
#   8 B_WORLD                Profile RMS along minor axis (world units)                 [deg]
#   9 THETA_WORLD            Position angle (CCW/world-x)                               [deg]
#  10 FWHM_WORLD             FWHM assuming a gaussian core                              [deg]
#  11 ELONGATION             A_IMAGE/B_IMAGE                                           
#  12 ELLIPTICITY            1 - B_IMAGE/A_IMAGE                                       
         1 -17.0726    140.5835    196.6660   4.5451413211e+01   1.4298882919e+01     6.063405     5.405276 -15.91   0.01879028    1.105    0.095
         2 -11.7248     85.4639    207.6379   6.0689300123e+01   1.9346197719e+01    0.4129174    0.2915237  32.87  0.001789905    1.234    0.190
         3  -9.2756    135.9586    238.9224   5.2447237064e+01   7.4200117038e+00    0.1782202    0.1408925  10.89 0.0002780123    1.027    0.026
         4  -9.9108    141.9755    237.4713   5.0973416162e+01   6.9890007360e+00    0.1747717    0.1617521  15.64 0.0003683679    1.332    0.249
         5  -9.9420    155.9828    236.5096   4.7927816513e+01   5.6097553558e+00     0.192312      0.15462 -19.66 0.0003348227    1.220    0.181
         6 -10.6406    124.2622    235.1561   5.4559526541e+01   9.3640590021e+00    0.2294476    0.1834987   8.29 0.0003116914    1.038    0.037
         7 -10.4401    114.7631    235.2357   5.6728901095e+01   1.0435808577e+01    0.2311756    0.1972048  19.21 0.0003940846    1.108    0.097
         8 -10.9283    147.1495    233.3638   4.9341401373e+01   7.0744604336e+00    0.2420798    0.1951807  12.48 0.0004405908    1.099    0.090
         9 -10.6863    134.4598    233.2778   5.2060115280e+01   8.5199311057e+00    0.2237491    0.1759614  16.19 0.0004282296    1.075    0.070
        10 -10.0612    161.2815    232.6657   4.6334068428e+01   5.6278348723e+00    0.2630656    0.1768499  29.91  0.001206591    1.483    0.326
        11 -13.2203    110.1157    182.4653   5.0646209997e+01   2.1492034794e+01     1.021238    0.8745268 -79.45   0.00133189    1.461    0.316
        12  -9.8795    149.1018    240.1100   4.9815160177e+01   5.7950946914e+00    0.1764754    0.1368482   8.44 0.0003549776    1.032    0.031
        13  -9.4395    177.5337    224.7511   4.2025704561e+01   5.0711872720e+00    0.2016132    0.1348709  15.13 0.0005693445    1.289    0.224
        14  -9.4155    183.0784    223.9933   4.0868611027e+01   4.5906818005e+00    0.1788659    0.1335071  -4.55 0.0003821542    1.050    0.047
        15 -12.0999     77.7739    158.2529   5.6026253397e+01   3.2024898438e+01     0.550554    0.2942003  55.83  0.002069369    2.406    0.584
        16 -11.9099     79.6361    199.2386   6.1252586398e+01   2.1920870678e+01    0.4588029    0.3062128  77.79  0.001862696    2.089    0.521
        17 -11.6154      5.8508    156.1592   8.0095357368e+01   4.0524663018e+01    0.3466575    0.2125964  52.94  0.001462898    1.519    0.342
        18 -11.5571     78.1555    191.5310   6.0710967626e+01   2.3868253060e+01    0.4443569    0.2609493 -81.78  0.001509031    2.371    0.578
        19 -11.4319     87.6043    199.1787   5.9076222836e+01   2.0914124575e+01    0.3058982    0.2735442 -85.76  0.001269491    1.328    0.247
        20  -9.5916     32.5192    155.4844   7.0796948279e+01   3.8473646185e+01    0.1472008    0.1396953  52.42 0.0001623728    1.019    0.019
        21 -11.1329    193.2354    196.4660   3.4731043953e+01   7.6263912451e+00    0.2152364    0.1417581 -32.06 0.0005798509    1.330    0.248
        22 -12.2320     65.7967    194.7209   6.4602069887e+01   2.4675196974e+01    0.6206172    0.2526813  48.39  0.002313853    2.674    0.626
        23 -10.5582    114.8584    223.2060   5.5245117006e+01   1.2601916660e+01    0.2533383    0.2153616  24.31 0.0003538612    1.119    0.106
        24 -12.0637     92.4595    140.5110   4.8168781903e+01   3.4151715025e+01    0.5359702    0.3785097 -22.83  0.002227945    1.812    0.448
        25 -13.2502     88.5957    136.7753   4.8626542964e+01   3.5742981036e+01    0.7728614    0.5456681 -32.53  0.003439688    1.654    0.395
        26 -12.0896     49.1516    191.5667   6.9101773034e+01   2.7365493888e+01    0.3407975    0.3269714 -73.01  0.002053297    1.156    0.135
        27 -11.8995     13.8113    189.9172   7.9421337380e+01   3.1177728698e+01    0.4213729    0.1788076  18.93  0.001769731    2.234    0.552
        28 -10.6642    120.8236    228.1413   5.4473449368e+01   1.0990618620e+01    0.2558157     0.226809 -18.44 0.0003649693    1.200    0.167
        29  -9.5009    198.9957    221.6813   3.7650813024e+01   3.2697809160e+00    0.1790157    0.1297685 -19.29 0.0004294183    1.135    0.119
        30  -9.6623    189.3305    221.9955   3.9421491616e+01   4.2227476204e+00    0.2036363     0.135951   6.45 0.0003788751    1.287    0.223
        31 -11.5049      2.9241    186.9072   8.2479348860e+01   3.2748162536e+01    0.3147599    0.2485576 -62.91  0.001755035    1.415    0.293
        32 -10.6378     97.9072    220.6690   5.9043689179e+01   1.5138188627e+01    0.2060569    0.2015442 -83.49 0.0004343145    1.263    0.209
        33 -11.5833     73.9083    183.2075   6.0861107655e+01   2.6386380211e+01    0.3123602    0.2089481 -56.52  0.001286217    1.604    0.376
        34 -10.4839    116.5589    228.4714   5.5501522816e+01   1.1434213604e+01     0.420575    0.1436752  26.59  0.001541452    2.451    0.592
        35 -12.3533     57.1158    188.5397   6.6445337868e+01   2.7189928654e+01    0.5628914    0.3117151  83.16  0.002326441    2.508    0.601
        36 -12.2300     97.3314    131.8752   4.4846927298e+01   3.5424284036e+01    0.6342195    0.3275277 -39.03  0.002362965    2.299    0.565
        37 -10.0140    108.4317    229.9384   5.7584181176e+01   1.2121942755e+01     0.243363    0.1765854  26.10 0.0004102929    1.157    0.136
        38 -14.1254    120.7556    181.3419   4.7717209722e+01   2.0172532252e+01     2.067451    0.6588992 -43.70  0.003005967    3.378    0.704
        39 -11.7725    104.6699    117.4313   3.9278985961e+01   3.7505423425e+01     0.407413    0.3101283 -33.92  0.001905835    1.449    0.310
        40 -12.1103     68.0188    168.8541   6.0699352056e+01   3.0711691551e+01    0.4614826    0.2760268 -28.15  0.001872132    2.291    0.564
        41 -10.3837    165.0075    228.0533   4.4945020930e+01   5.9320938187e+00    0.1997527    0.1509196   7.81 0.0003405374    1.078    0.073
        42 -11.8296      3.1816    176.1325   8.1959622490e+01   3.5446235038e+01    0.3998962    0.2432689 -70.09   0.00200377    1.694    0.410
        43 -11.4588     82.1388    120.1522   4.7164033600e+01   4.1073944662e+01    0.4053975    0.2343305 -33.76  0.001518674    2.289    0.563
        44 -11.0356     98.3713    214.2421   5.8155572415e+01   1.6363479780e+01    0.3065871    0.2444905  29.63 0.0002999673    1.114    0.102
        45 -11.6232     97.3598    118.2841   4.1722083092e+01   3.8718431531e+01    0.3436578    0.2647777 -12.78  0.001545351    1.693    0.409
        46 -10.0282    170.5397    227.9900   4.3842889008e+01   5.3381833707e+00    0.2117666    0.1440049  14.50 0.0003066724    1.243    0.196
        47 -11.0216    123.4892    117.4806   3.4033050761e+01   3.3761249316e+01    0.3358088    0.2323279  -7.21  0.001369284    2.343    0.573
        48 -10.6935     75.3548    117.9967   4.9053666108e+01   4.2815740556e+01    0.2899878    0.2313164  -5.87  0.001331133    1.537    0.349
        49 -10.8083    189.6617    213.9062   3.8142183062e+01   5.3776960805e+00    0.2249976    0.1585707   8.97 0.0004263014    1.239    0.193
        50 -11.5862    112.3374    115.5592   3.6590752353e+01   3.6419468454e+01    0.4197488    0.2905943  23.97  0.001654166    1.757    0.431
        51 -10.8563     92.5264    211.6017   5.9322429522e+01   1.7630905284e+01    0.2782977    0.2472707  39.30 0.0006849439    1.153    0.133
        52 -10.3464     81.3008    112.9836   4.5764833708e+01   4.3037389486e+01    0.2283899    0.2090778 -56.28  0.001155629    1.115    0.103
        53 -11.7345    108.5237    109.4341   3.6139805862e+01   3.8580619562e+01    0.4186831    0.2739675  44.14  0.001848647    1.517    0.341
        54 -12.5124     97.3673    107.5825   3.9042800138e+01   4.1267134763e+01    0.6357837    0.4306413  10.69  0.002510761    2.292    0.564
        55 -10.4876    157.9331    226.0831   4.6099595346e+01   7.0301359886e+00    0.2257911    0.1648774  11.81 0.0003064517    1.137    0.121
        56 -10.0899    207.1183    210.3792   3.4540391705e+01   4.0299894688e+00    0.1910187    0.1210777 -22.59 0.0004557929    1.294    0.227
        57  -9.6744    104.0651    225.5389   5.8110138965e+01   1.3458571539e+01     0.206948    0.1912175 -36.36   0.00034233    1.261    0.207
        58  -9.4336    154.0745    230.0853   4.7451576678e+01   6.8255020811e+00    0.1859481    0.1429812   4.44 0.0005629605    1.039    0.037
        59 -10.2752    197.0958    209.7519   3.6168434513e+01   5.1842074575e+00    0.2070843    0.1369771 -25.26  0.000391128    1.272    0.214
        60 -11.0323     84.9067    106.8954   4.2987366997e+01   4.3876290963e+01    0.4070587    0.2145916 -42.57   0.00153981    2.088    0.521
        61 -10.5345    113.6972     93.4258   3.0364602595e+01   4.1000416003e+01    0.3378308    0.2353082  -6.69  0.001334003    2.521    0.603
        62  -9.6027     46.2924    164.3499   6.7109824845e+01   3.4601956502e+01    0.1538792    0.1089328 -33.61 0.0006022165    1.673    0.402
