#   1 NUMBER                 Running object number                                     
#   2 MAG_AUTO               Kron-like elliptical aperture magnitude                    [mag]
#   3 X_IMAGE                Object position along x                                    [pixel]
#   4 Y_IMAGE                Object position along y                                    [pixel]
#   5 X_WORLD                Barycenter position along world x axis                     [deg]
#   6 Y_WORLD                Barycenter position along world y axis                     [deg]
#   7 A_WORLD                Profile RMS along major axis (world units)                 [deg]
#   8 B_WORLD                Profile RMS along minor axis (world units)                 [deg]
#   9 THETA_WORLD            Position angle (CCW/world-x)                               [deg]
#  10 FWHM_WORLD             FWHM assuming a gaussian core                              [deg]
#  11 ELONGATION             A_IMAGE/B_IMAGE                                           
#  12 ELLIPTICITY            1 - B_IMAGE/A_IMAGE                                       
         1 -14.9616    108.1242     74.6210   1.8740143975e+01   4.6519026075e+01     2.141913     1.466049  38.23  0.009915899    1.650    0.394
         2 -14.3719    160.8394     61.1936   3.7773178572e+00   3.6968005627e+01     2.548971     1.083027 -48.90   0.01055139    2.244    0.554
         3 -14.9925    168.8078     42.2861   3.5753871350e+02   3.7934578780e+01      2.08789     1.306736 -53.90   0.01129587    1.428    0.300
         4 -13.9436     41.6045     48.9923   3.4548166918e+01   6.5100309885e+01    0.9941474    0.5668695 -44.17  0.004595717    1.754    0.430
         5 -14.2349     73.7263     55.0857   2.2788626442e+01   5.7825044696e+01     1.097942    0.7624716 -57.63  0.005238262    1.644    0.392
         6 -12.4808    232.2952     32.1185   3.4959789972e+02   2.6666064112e+01    0.7098102    0.4611833 -32.67  0.004738983    1.471    0.320
         7 -13.9793    247.5318     39.1043   3.5006315095e+02   2.3302460445e+01     1.699682    0.4249001 -33.80  0.007448025    3.162    0.684
         8 -11.9775    109.8839     15.3115   3.5726561145e+02   5.5096787328e+01    0.7296049    0.4479541  32.03  0.003500124    2.251    0.556
         9 -13.5764     30.8833     61.9103   4.5104639189e+01   6.3760863102e+01     1.066013    0.7382709  -6.28  0.005144243    1.740    0.425
        10 -10.3293    145.7087    249.5542   4.4532947203e+01   4.5743610218e+00    0.1676615    0.1512365  72.10  0.001195955    1.765    0.433
        11 -11.3375    138.9765    246.5553   4.5536143922e+01   5.7617922839e+00    0.3852138     0.185469   7.42  0.001795822    2.639    0.621
        12 -13.4399     79.0710    231.9668   5.7208741520e+01   1.5068152360e+01     1.063546    0.5599732 -16.41  0.004266472    3.623    0.724
        13 -12.6569     86.4491    232.0707   5.5482274967e+01   1.4217728646e+01    0.3772894    0.3569292 -23.65  0.002359043    1.179    0.152
        14 -11.4628    100.6186    249.3663   5.4012885901e+01   9.4642834982e+00    0.3637006    0.2169562  29.68  0.001549507    1.371    0.271
        15 -13.4637     93.9460    246.3720   5.5191350580e+01   1.0716357492e+01    0.9808004    0.5957463  -0.22  0.005266078    2.000    0.500
        16 -13.9562     82.8437    239.1871   5.7016317184e+01   1.3254182131e+01     1.108631    0.5448482  14.06  0.005205047    2.255    0.557
        17 -12.2243     83.5108    246.5730   5.7546317075e+01   1.1808894361e+01    0.4748276    0.3464447 -13.03  0.002398721    1.610    0.379
        18 -11.4966     89.9442    240.8372   5.5550509893e+01   1.2162491329e+01    0.4217916    0.3207041  -3.21  0.001896256    1.410    0.291
        19 -13.3679     94.6559    235.7673   5.3960181109e+01   1.2581098937e+01     0.718739    0.3578807  38.19  0.003164149    1.778    0.438
        20 -12.8035    132.2557    236.4849   4.5702662792e+01   8.1615185011e+00    0.5612944    0.4006596 -22.46  0.003503298    1.436    0.303
        21 -13.1215    136.3938    231.9882   4.4248257480e+01   8.4549063026e+00    0.6433609    0.4189237 -49.08  0.003829058    1.720    0.419
        22 -10.7963    150.5767    238.3661   4.2137766226e+01   5.8027894505e+00    0.2810031    0.1963047   6.55  0.001532258    1.257    0.204
        23 -12.0489    123.4312    237.5336   4.7728431300e+01   8.9842353318e+00    0.3617856    0.1948849  16.41    0.0018924    1.784    0.439
        24 -11.2190    190.7138    241.3816   3.4914292785e+01   1.1686398741e+00    0.2779449    0.1385975   9.79   0.00155729    2.066    0.516
        25 -10.8023    155.9408    234.9005   4.0596962363e+01   5.7638230159e+00    0.2718931    0.1759875 -26.84  0.001669013    1.507    0.337
        26 -12.3748     42.6821    235.0290   6.6092406348e+01   1.8283007076e+01    0.3108684    0.2464739 -77.99  0.001453706    1.425    0.298
        27 -12.4654     45.3276    229.0000   6.5053442573e+01   1.9267927242e+01    0.5481963    0.2079372  42.16  0.002477651    2.156    0.536
        28 -12.1632     38.6294    228.9888   6.6671291297e+01   1.9930820181e+01    0.3804916    0.2541372  20.00  0.001598014    1.443    0.307
        29 -11.2483     60.7269    234.3703   6.1767895176e+01   1.6580889523e+01    0.2128102    0.1516562  79.56  0.001256735    1.651    0.394
        30 -11.0883    198.4445    232.6041   3.2312807218e+01   1.6294165387e+00    0.3197675    0.1440677 -23.70  0.001669097    2.355    0.575
        31 -11.7668    190.5090    231.5157   3.3556456494e+01   2.5846285033e+00    0.2627915    0.1486304 -17.70  0.001564047    1.714    0.417
        32 -11.3122    186.2071    229.3577   3.4021543671e+01   3.3455915714e+00    0.4604322    0.1857891 -24.61  0.001988213    3.349    0.701
        33 -10.9618    184.6626    223.8757   3.3500041687e+01   4.3296684421e+00    0.2532702    0.1834603  17.95   0.00162747    1.284    0.221
        34 -13.4287    115.2092    226.1107   4.8157314219e+01   1.1997912010e+01    0.6407142    0.4243593  51.84  0.003499741    1.883    0.469
        35 -12.7291    116.5801    221.3241   4.7240389522e+01   1.2733510396e+01    0.5275462    0.3446435  -6.90  0.002783444    1.817    0.450
        36 -11.2933    102.4914    230.8517   5.1625481729e+01   1.2607428853e+01      0.26419    0.1523731   9.81    0.0013233    1.918    0.479
        37 -12.0422     57.6036    227.8569   6.1990842519e+01   1.8241884105e+01    0.4151047    0.2017512 -43.06  0.001902015    2.714    0.632
        38 -12.6968    124.4501    226.3930   4.6119329800e+01   1.0843176736e+01    0.5681314    0.2299271  30.76  0.002606333    2.136    0.532
        39 -12.5410    126.2720    220.0443   4.4877892310e+01   1.1789118502e+01     0.413348     0.280778  -9.67  0.001836597    1.642    0.391
        40 -11.4549    131.6914    219.4413   4.3590719707e+01   1.1236475152e+01    0.2327519    0.1857686  -5.78  0.001314339    1.190    0.159
        41 -11.3215     48.4340    221.9586   6.3776144027e+01   2.0449232148e+01    0.2841975    0.1418544  40.18  0.001407232    1.680    0.405
        42 -10.9996     41.1194    220.4935   6.5488752936e+01   2.1508026583e+01    0.1949206    0.1786427 -26.54  0.001272741    1.299    0.230
        43 -11.0468    165.8676    218.1348   3.6234169201e+01   7.3537541127e+00    0.1748383    0.1609069   3.17 0.0009947718    1.251    0.200
        44 -14.3378    128.5195    191.9097   4.0233148992e+01   1.6991628008e+01     1.358166    0.6072146 -33.19  0.005180308    3.023    0.669
        45 -13.2714    116.9772    194.0544   4.3327566167e+01   1.8145466443e+01    0.6830006    0.5479516  43.49  0.003872147    1.314    0.239
        46 -13.4630    105.4134    190.0846   4.5603055640e+01   2.0595933365e+01    0.9003354     0.559788  25.67  0.004397733    1.555    0.357
        47 -13.0946    104.9181    200.9415   4.7292515811e+01   1.8313521333e+01    0.7836137    0.5794839 -40.84  0.004324178    1.422    0.297
        48 -14.0377     79.5359    188.6874   5.2222341450e+01   2.4395630429e+01     1.208009    0.8691502 -15.38  0.006001092    1.742    0.426
        49 -14.3439     93.6174    183.6513   4.7719435760e+01   2.3683200161e+01     1.651644    0.8779235  14.78  0.006678801    2.394    0.582
        50 -14.4944     99.1003    210.2408   4.9960784622e+01   1.7106806787e+01     1.377208    0.7367005  20.86  0.006473631    1.856    0.461
        51 -15.6128     87.6832    198.2263   5.1300363316e+01   2.1154036160e+01     2.108114     1.631884 -28.93   0.01155394    1.453    0.312
        52 -11.5345    172.6642    214.0491   3.4283621878e+01   7.2285963934e+00    0.3156044    0.1968063 -25.95  0.001842411    1.512    0.339
        53 -12.0451     69.1249    221.3670   5.8596082988e+01   1.8345357475e+01    0.3036194    0.2301384  21.75  0.001247389    1.222    0.181
        54 -12.0572     43.6426    213.2799   6.4318232244e+01   2.2852047733e+01    0.4415364    0.3311433  37.07  0.002596946    1.160    0.138
        55 -11.9561    195.9438    210.1546   2.9360737503e+01   5.1801524217e+00     0.279456    0.1587686 -40.97  0.001645538    1.679    0.404
        56 -12.2204    201.4983    205.6033   2.7665397479e+01   5.2548281792e+00    0.5092354    0.2324588 -33.84   0.00271305    1.918    0.479
        57 -10.5148     13.5969    216.1823   7.2102640740e+01   2.4989906564e+01    0.1667998    0.1092599 -68.21 0.0009471867    1.666    0.400
        58 -12.9612    188.9530    204.6974   2.9745062594e+01   6.8296766178e+00    0.5002338    0.3534326  20.43  0.003032542    1.383    0.277
        59 -10.2784     49.0278    205.4929   6.2276137712e+01   2.4065174538e+01    0.2086557    0.1217478  25.91  0.001030014    1.582    0.368
        60 -11.1693     35.2330    202.4078   6.5693783779e+01   2.6200763169e+01     0.440955    0.2867627 -89.13  0.002335291    1.619    0.383
        61 -12.4618    179.6735    200.1555   3.0732923340e+01   8.6840893995e+00    0.5617967    0.2596396 -43.90  0.002801388    2.064    0.515
        62 -12.1353    183.4927    196.6574   2.9435414299e+01   8.7961371210e+00    0.3439839    0.3208341  -4.43  0.002421741    1.267    0.211
        63 -10.7960     27.4793    201.1925   6.7682062833e+01   2.7229143678e+01     0.334132    0.1564057  29.31   0.00154845    1.867    0.464
        64 -11.6123    140.7361    197.9240   3.8398037100e+01   1.4124676044e+01    0.2759976     0.215115   1.28  0.001605246    1.258    0.205
        65 -10.9057    227.4149    193.0547   2.1409948064e+01   4.2755690260e+00    0.3728676    0.1418762 -31.94  0.001861803    2.281    0.562
        66 -12.0644     17.2687    191.2623   6.9828787937e+01   3.0539672214e+01    0.7010744    0.3761099  -2.41  0.003048636    2.686    0.628
        67 -11.9399    145.6914    188.2316   3.5711979043e+01   1.5324409445e+01    0.3905427     0.277063  68.12  0.001866436    2.528    0.604
        68 -11.9769      2.4705    187.3492   7.3720138290e+01   3.2665318266e+01    0.2549457    0.2116638 -62.02  0.001554342    1.335    0.251
        69 -12.9274    168.1779    184.1172   3.0258376548e+01   1.2976676176e+01    0.5574529    0.3969578 -34.57  0.003229483    1.280    0.219
        70 -12.0191    151.7612    185.7130   3.3956542138e+01   1.4960279584e+01    0.2364533    0.2223549  65.52  0.001067266    1.387    0.279
        71 -11.9558     13.1791    182.4820   7.0453092406e+01   3.3067753119e+01    0.4013287    0.3300656 -84.79  0.002376181    1.188    0.158
        72 -11.8683    115.2247    181.0428   4.1700917771e+01   2.1193689381e+01    0.3626417    0.2559775  30.79  0.001863734    1.367    0.268
        73 -12.0152    118.1020    176.8445   4.0275773972e+01   2.1693815015e+01     0.295299    0.2544995 -62.98  0.001650341    1.283    0.221
        74 -11.5625      4.9714    179.5106   7.2646228118e+01   3.4448241644e+01    0.5509332    0.2737522   3.60  0.002393039    2.622    0.619
        75 -11.8006     69.9222    177.5426   5.3434084712e+01   2.8331931970e+01    0.3110407    0.2611078  14.60  0.001544198    1.243    0.195
        76 -12.9762     64.2172    171.9820   5.4357507218e+01   3.0456422393e+01    0.8262683    0.6617995 -10.52  0.004270857    1.480    0.324
        77 -12.0241     58.0360    167.0969   5.5568857009e+01   3.2483728984e+01    0.9010348    0.5715044 -17.31  0.003828011    2.274    0.560
        78 -12.7401     80.2841    171.7772   4.9638928546e+01   2.8372904241e+01    0.6617115    0.3562564  29.02  0.002850205    1.805    0.446
        79 -12.8549    150.3691    168.4160   3.1148948399e+01   1.8567422106e+01    0.5867051    0.2658336 -48.74  0.002487504    2.162    0.538
        80 -13.2033    170.7648    164.9096   2.6225287270e+01   1.6155410666e+01      0.73489    0.2384128 -42.19  0.002777633    2.806    0.644
        81 -13.9723    172.2789    158.3929   2.4667184426e+01   1.7147057379e+01    0.9232981    0.4517439 -50.45  0.004111289    2.142    0.533
        82 -13.3951    132.9196    167.2524   3.4931786322e+01   2.1514337291e+01    0.6075023    0.4402142  34.45   0.00315718    1.393    0.282
        83 -11.2465      5.2909    166.6614   7.1860545062e+01   3.7742979970e+01    0.4183576    0.2093888  27.43  0.001938233    1.905    0.475
        84 -10.8263     88.6931    165.2977   4.6209584038e+01   2.8768686355e+01    0.3102539    0.1503934 -40.33  0.001166401    2.482    0.597
        85 -12.5020    214.9827    161.5199   1.7820215568e+01   1.0528935183e+01    0.5322766    0.3378508 -28.56  0.003207841    1.336    0.251
        86 -11.9356    210.4856    159.6144   1.8170352478e+01   1.1429004299e+01    0.3838802    0.2671729 -25.17  0.002322304    1.254    0.203
        87 -12.3274     85.2419    159.8967   4.6305166415e+01   3.0615552166e+01    0.4516985    0.3044667 -23.44  0.001982375    1.955    0.489
        88 -10.8291     38.2458    158.3976   6.0719910594e+01   3.7062175439e+01    0.5069022    0.2181906 -47.05  0.001889283    2.639    0.621
        89 -11.3922    122.5736    150.6755   3.4274522262e+01   2.6853827239e+01    0.3797058    0.2096978  35.53  0.001632611    1.850    0.459
        90 -14.7296    151.9781    130.9852   2.3090347835e+01   2.5928808968e+01     1.618532     1.081844  34.71  0.007943049    1.669    0.401
        91 -14.6441    172.6911    127.8619   1.8234306938e+01   2.2842045205e+01     1.435086     1.051725 -53.85  0.007762245    1.384    0.278
        92 -10.1004    240.6569    140.6842   1.0367269119e+01   1.0412871316e+01    0.1155579   0.07660361 -13.58 0.0007048212    1.712    0.416
        93 -10.9943     49.0155    136.9508   5.4158380106e+01   4.1666905757e+01    0.2543069    0.1749092 -33.07  0.001140195    1.721    0.419
        94 -10.2885     96.8158    133.0017   3.7683154268e+01   3.5477742773e+01    0.2652507    0.1696271 -29.52  0.001081291    2.026    0.507
        95 -10.2428     30.3490    133.3210   6.0357828379e+01   4.4752369758e+01    0.1589172    0.1044901 -36.65 0.0007048779    1.741    0.426
        96 -10.5569     39.4874    131.5088   5.6737292550e+01   4.4291594534e+01    0.1493942     0.142213 -84.59 6.980418e-05    1.008    0.008
        97 -10.8267      4.8074    125.5986   6.9118055789e+01   4.8948157401e+01     0.200943    0.1214866  33.29 0.0009512741    1.676    0.403
        98 -15.3416    189.1391    132.0065   1.6198879791e+01   1.9298104587e+01     2.789953     1.462924 -52.79   0.01288065    2.106    0.525
        99 -13.0337    131.0677    113.8990   2.3838969199e+01   3.3484503432e+01    0.7408676    0.5091513 -45.94   0.00352047    1.380    0.275
       100 -12.6445    125.5825    106.8426   2.3401779962e+01   3.6100864338e+01    0.9401216    0.6481906  22.55   0.00413583    2.003    0.501
       101 -11.4303    128.5732     99.2514   2.0659743867e+01   3.7088404440e+01    0.4525294    0.2738054 -50.58  0.001996489    1.612    0.380
       102 -11.9274    211.4469    101.6319   6.3815520929e+00   2.0694674240e+01     0.413862    0.3263885  54.62  0.002672628    1.559    0.359
       103 -13.2120    200.3300     96.0571   6.6491157945e+00   2.3499110710e+01    0.9782659      0.48014 -42.04  0.004824635    1.672    0.402
       104 -12.5245     95.9512     96.6628   2.8940890371e+01   4.4386748574e+01    0.8011016    0.5754365  18.86  0.003530095    1.857    0.461
       105 -12.7358     35.8518     88.5653   5.0043659200e+01   5.6444917741e+01    0.7354935    0.6350617 -49.84  0.003948138    1.109    0.098
       106 -12.8942    131.3515     70.5103   1.1834029247e+01   4.2045270984e+01    0.8362646    0.6269476  75.53  0.004232703    1.456    0.313
       107 -14.6418     90.8097     77.6867   2.4864901954e+01   4.9650480737e+01      1.84884     1.339398 -23.51  0.008408503    1.772    0.436
       108 -10.6084     49.7724    249.3726   6.5381071572e+01   1.4765892600e+01    0.2176258    0.1382779  18.89  0.001289629    1.471    0.320
       109 -11.4041      4.4447     88.6601   6.5173792023e+01   5.9185840486e+01     0.426482    0.2550342 -68.92  0.002050382    1.487    0.328
       110 -12.2833     20.9579     84.8927   5.6358132103e+01   5.8997868429e+01    0.4539279    0.3355224   2.76  0.002304574    1.493    0.330
       111 -11.6635     28.9984     90.4047   5.3654246719e+01   5.6733121041e+01    0.4769758     0.261214  45.97  0.002011942    2.027    0.507
       112 -10.4830    237.9933    246.8506   2.7947659498e+01  -3.7303787001e+00    0.2328562   0.09057222 -19.38  0.001217568    2.891    0.654
       113 -11.5066    160.3015    246.5888   4.1276518209e+01   3.4947174919e+00    0.2309152    0.1544777 -15.32  0.001501641    1.405    0.288
       114 -11.4659    152.3754    245.3480   4.2676673626e+01   4.5154175933e+00    0.3303992    0.2101299 -52.02  0.002036175    1.985    0.496
       115 -12.1538    132.4460     61.8854   8.9869664697e+00   4.3281046111e+01    0.3386586    0.2884983 -16.76  0.001754957    1.427    0.299
       116 -14.0858     67.9493     60.0752   2.6907706626e+01   5.8023694638e+01     1.986639    0.9410975 -63.06  0.006030533    4.303    0.768
       117 -11.5739    115.3603    244.1669   5.0247942937e+01   8.7458255506e+00    0.3868226    0.2214224 -10.06  0.001942953    2.366    0.577
       118 -12.7496    126.9123     85.6027   1.7271807852e+01   4.0205673401e+01     1.089684    0.8906597  18.82  0.005487337    1.590    0.371
       119 -13.8368    203.6909     60.8776   3.5824079476e+02   2.8205569719e+01     1.227972    0.4632223 -35.35  0.005499033    2.287    0.563
       120 -12.4619     25.7166     48.9810   4.3543093589e+01   6.7390074159e+01    0.7144092    0.5011881  35.00  0.003759586    1.463    0.316
       121 -11.7487    213.0166     44.3574   3.5361559783e+02   2.8654426593e+01    0.4198151    0.1519018 -48.73  0.001985636    2.204    0.546
       122 -14.5839    234.6084     66.8955   3.5657627293e+02   2.1912765914e+01     1.741735     1.045765  65.75   0.01102677    2.065    0.516
       123 -12.5996    123.2247     62.4988   1.1138542226e+01   4.5311726344e+01    0.5336612    0.4590338  80.90  0.002930007    1.165    0.141
       124 -13.2464     60.7225    242.0133   6.2366388674e+01   1.5073628776e+01    0.6339725    0.4006407  19.43  0.003274168    1.465    0.317
       125 -10.8345    106.3115     33.8014   4.9692445196e+00   5.3768293815e+01    0.2855252    0.2016821 -63.28  0.001454541    1.544    0.352
       126 -12.4523     28.7186     32.8287   3.4664571567e+01   7.0336035884e+01    0.4386241    0.4015621   8.59  0.002730444    1.031    0.030
       127 -12.3322     14.0463     26.7739   4.1862578440e+01   7.3468495073e+01      0.44013    0.3445332 -70.71  0.002546792    1.679    0.404
       128 -10.1254    172.6675    242.6776   3.8395318327e+01   2.7945473148e+00    0.1210957   0.07170447  -8.88 0.0007050032    1.702    0.413
       129 -11.9097     62.0180     71.6211   3.3439496961e+01   5.6663833511e+01    0.4690021     0.212786 -48.71  0.001799838    2.177    0.541
       130 -11.5581    197.9163    239.3814   3.3369897271e+01   7.4405521831e-01    0.2530955    0.1600069 -23.57  0.001659246    1.337    0.252
       131 -13.5354    119.4419     79.9151   1.7421940503e+01   4.2965586860e+01       1.3349    0.7467537 -23.03  0.004751352    3.105    0.678
       132 -12.2072     46.6792     69.6566   3.9607174168e+01   5.9698577438e+01    0.3080783    0.2736804 -28.38  0.001678348    1.137    0.121
       133 -10.6707     20.9756     18.0068   3.1768311327e+01   7.4159594296e+01    0.3119051    0.1789062  26.26  0.001583885    1.751    0.429
