#   1 NUMBER                 Running object number                                     
#   2 MAG_AUTO               Kron-like elliptical aperture magnitude                    [mag]
#   3 X_IMAGE                Object position along x                                    [pixel]
#   4 Y_IMAGE                Object position along y                                    [pixel]
#   5 X_WORLD                Barycenter position along world x axis                     [deg]
#   6 Y_WORLD                Barycenter position along world y axis                     [deg]
#   7 A_WORLD                Profile RMS along major axis (world units)                 [deg]
#   8 B_WORLD                Profile RMS along minor axis (world units)                 [deg]
#   9 THETA_WORLD            Position angle (CCW/world-x)                               [deg]
#  10 FWHM_WORLD             FWHM assuming a gaussian core                              [deg]
#  11 ELONGATION             A_IMAGE/B_IMAGE                                           
#  12 ELLIPTICITY            1 - B_IMAGE/A_IMAGE                                       
         1 -14.8753    244.1698     11.1467   2.0465093380e+01   2.2156989774e+01     2.252496    0.9610955 -35.53   0.01041308    1.855    0.461
         2 -12.1490      1.7176     24.8409   8.9840139460e+01   7.2144082967e+01    0.4526483    0.1231047 -64.03  0.001864078    2.800    0.643
         3 -12.4987     13.3149     12.7254   7.7575089638e+01   7.3836794901e+01    0.3645382    0.1762529 -40.61  0.001469891    1.676    0.403
         4 -12.4835     16.0673      6.4766   7.2307792002e+01   7.4746171590e+01    0.3882335    0.2223188 -33.02  0.002081002    1.491    0.329
         5 -13.3400      6.1485     11.3486   8.1580613047e+01   7.4684607025e+01    0.8988234    0.3506327 -42.78  0.004475925    2.012    0.503
         6 -12.2810      8.6573      1.9875   7.4649079601e+01   7.6261535239e+01    0.7860692    0.2288993  24.12  0.003202802    4.457    0.776
         7 -12.2107     19.8420     14.0128   7.4187014235e+01   7.2969262593e+01    0.3816799    0.1632218 -37.74  0.001815159    2.075    0.518
         8 -13.4714     12.5270     23.3837   8.2945288857e+01   7.1744655296e+01    0.6324132    0.2332651 -43.05  0.002912137    2.255    0.557
         9 -12.5871     25.2352      3.9665   6.4920367246e+01   7.4132174025e+01    0.4599759    0.2935824  -2.77  0.002568112    1.863    0.463
        10 -12.3432    248.8482    225.2224   6.7364038286e+01  -3.5934302394e+00    0.3387084    0.1817814  -5.95  0.002162489    1.936    0.483
        11 -12.6596    243.2939    245.3542   7.1103900491e+01  -4.6024983004e+00       0.3894    0.2104511   9.05  0.001825574    1.813    0.448
        12 -12.7573    247.6292    239.0376   6.9581847641e+01  -4.6238026183e+00    0.3787006    0.2080717   0.45  0.002298339    1.840    0.457
        13 -11.7337    250.0029    232.6827   6.8311700991e+01  -4.3898934436e+00    0.2540789    0.1514282  -6.82  0.001614399    1.585    0.369
        14 -11.4542    249.1929    249.9209   7.0874830615e+01  -5.6945127078e+00    0.3571167    0.1483071  33.49  0.002309564    1.778    0.438
        15 -11.1690    248.9853    245.0254   7.0229737998e+01  -5.2816487608e+00    0.2562536    0.1490008  11.42  0.001879275    1.446    0.308
        16 -10.8758     87.5407    250.5015   9.6736739705e+01   1.5633746891e+01    0.2211377   0.07638519  39.36  0.001216631    2.185    0.542
        17 -11.2042     74.5622    250.2780   9.8862291546e+01   1.7250458811e+01    0.2984153   0.08425482  43.08  0.001590944    2.359    0.576
        18 -11.7318     65.2271    249.0279   1.0031809546e+02   1.8534978241e+01    0.3488168    0.1475058  49.90  0.002177367    1.670    0.401
        19 -11.3141     50.5520    250.0734   1.0276356289e+02   2.0048165992e+01    0.3570175   0.09951895  39.06   0.00192773    2.602    0.616
        20 -11.7140     36.7852    248.6577   1.0490655056e+02   2.1741265499e+01    0.3801479    0.1478079  54.31   0.00248755    1.783    0.439
        21 -11.6324     20.3152    249.1120   1.0752350401e+02   2.3339804954e+01     0.315451    0.1298743  50.84  0.001999293    1.577    0.366
        22 -11.5963     12.1445    248.9399   1.0878460352e+02   2.4148412099e+01    0.3065335    0.1231023  52.43   0.00182055    1.590    0.371
        23 -11.0846      3.6431    250.4148   1.1012279013e+02   2.4709922969e+01    0.2451448    0.1144744  34.52  0.001755947    2.104    0.525
        24 -12.2436      3.3657    243.2209   1.0998183199e+02   2.5829254640e+01    0.4136106    0.1674298  66.90  0.002431849    1.807    0.446
        25 -12.3975    243.8708    234.8982   6.9539174268e+01  -3.7947768158e+00     0.233635    0.1239146 -10.38  0.001482017    2.008    0.502
        26 -12.8763    234.7194    244.2404   7.2217556499e+01  -3.4245711483e+00    0.3993527    0.1970828  15.98  0.002452801    2.099    0.524
        27 -12.0409     97.4393    245.1733   9.4679283644e+01   1.5128053659e+01    0.3692319    0.1320726  49.85   0.00200028    2.230    0.552
        28 -12.2571     84.5900    244.7782   9.6817171171e+01   1.6815279370e+01     0.318603    0.1493101  54.13  0.002009112    1.729    0.422
        29  -9.8974     49.5174    243.4833   1.0259211465e+02   2.1150148327e+01    0.1028092   0.06968981  58.12 0.0001091644    1.032    0.031
        30 -11.6930     29.5563    240.7535   1.0573556647e+02   2.3698182579e+01    0.3498527    0.1566412  63.76  0.002003625    1.741    0.426
        31 -12.2345     16.1657    240.4862   1.0788521532e+02   2.5065266800e+01     0.494446    0.1482245  51.61  0.002783528    2.084    0.520
        32 -11.9463     57.4181    242.3193   1.0121714888e+02   2.0436691425e+01    0.3886651    0.1652809  59.45  0.002346553    1.988    0.497
        33 -11.7613     72.7445    240.2920   9.8507540277e+01   1.8936141106e+01    0.3310668    0.1598527  55.16  0.002133643    1.642    0.391
        34 -12.2666    226.3234    240.3655   7.2951115073e+01  -1.9903580546e+00    0.2354877    0.1309566  14.79  0.001544086    1.743    0.426
        35 -11.6735    107.4557    240.1379   9.2549486689e+01   1.4523729452e+01    0.3270383    0.1172707  49.43  0.001703354    2.307    0.567
        36 -10.5624     64.7052    240.0509   9.9855695688e+01   1.9934747586e+01    0.2429946   0.09965812  56.52  0.001434601    2.022    0.506
        37 -10.7883     38.2592    240.4811   1.0429875953e+02   2.2834439867e+01    0.2403186    0.1105235  57.70  0.001598654    1.595    0.373
        38 -11.1394     45.1934    237.3237   1.0298955445e+02   2.2579897360e+01    0.2652423    0.1188069  54.39  0.001505912    1.623    0.384
        39 -11.5069      6.6171    236.1961   1.0927609925e+02   2.6635738811e+01    0.3016204    0.1350097  66.49   0.00162643    1.630    0.387
        40 -11.5935      2.2615    220.9141   1.0953876866e+02   2.9534221586e+01    0.3062857    0.1386711  83.44   0.00165696    1.843    0.457
        41 -11.4204     82.0513    236.4858   9.6638504808e+01   1.8360616720e+01    0.2853059    0.1246605  56.32  0.001647647    2.037    0.509
        42 -10.3741     32.8845    236.1265   1.0498809390e+02   2.4083738907e+01    0.2349057   0.08119307  60.46  0.001335334    2.357    0.576
        43 -11.6478    231.7935    234.6381   7.1314973957e+01  -2.1926542054e+00     0.235996    0.1224527  -8.61   0.00142737    2.344    0.573
        44 -11.1150     95.3819    235.6616   9.4255855517e+01   1.6770554442e+01    0.2678276    0.1282805  48.97  0.001642777    1.602    0.376
        45 -11.7558      4.8133    228.2200   1.0933284351e+02   2.8089104047e+01    0.3612513     0.150185  65.87  0.002031972    1.769    0.435
        46 -11.6389     59.9845    232.6150   1.0019478925e+02   2.1646562367e+01    0.3452522     0.129631  58.17  0.001875245    2.390    0.582
        47 -11.4769     14.3002    232.0616   1.0789877946e+02   2.6584816770e+01       0.3396    0.1430922  63.37  0.002263828    1.757    0.431
        48 -11.1613     11.1539    225.8102   1.0820468754e+02   2.7907041130e+01    0.2924912    0.1294158  57.67  0.001599208    1.571    0.363
        49 -11.1548     39.9248    231.1345   1.0356236916e+02   2.4140445169e+01    0.3014058    0.1393051  66.76  0.001917757    1.878    0.468
        50 -10.9965     48.5002    230.4769   1.0205364446e+02   2.3305280822e+01    0.3045938    0.1392161  67.59    0.0018529    2.054    0.513
        51 -11.9268     25.8264    228.8351   1.0585154985e+02   2.5984874230e+01    0.4214315    0.1935525  72.71  0.002750261    1.886    0.470
        52 -10.2537     88.6343    230.3082   9.4997564067e+01   1.8462047531e+01    0.1172764   0.06229411  59.74 0.0007037721    1.751    0.429
        53 -10.3912     32.3732    229.3486   1.0476306487e+02   2.5230704690e+01     0.217375   0.08643394  60.53  0.001113179    1.991    0.498
        54 -11.6614    236.9888    228.1893   6.9587340342e+01  -2.2933017748e+00    0.2415908    0.1235632  -6.51  0.001412061    2.375    0.579
        55 -10.5427     73.7396    227.8653   9.7452475969e+01   2.0742095681e+01    0.2274855   0.09330472  55.62  0.001247574    2.132    0.531
        56 -10.4964     55.1219    222.4218   1.0039921477e+02   2.3874430784e+01    0.2138655    0.1121839  76.29  0.001330387    1.926    0.481
        57 -10.7836     43.7129    221.3569   1.0237229819e+02   2.5346201523e+01      0.24693    0.1162174  61.49  0.001535767    1.748    0.428
        58 -11.2784     18.7105    221.9603   1.0677934795e+02   2.7835030998e+01    0.2973017    0.1322652  64.71   0.00167681    1.737    0.424
        59 -11.0782     35.0882    217.0455   1.0367430845e+02   2.7015759010e+01    0.2758087    0.1506162  78.39  0.001854217    1.629    0.386
        60 -11.7367     12.1084    216.8400   1.0772095297e+02   2.9337642478e+01    0.3853546    0.1647194  58.66  0.002326775    1.682    0.406
        61 -10.5280     24.1787    217.2475   1.0562491390e+02   2.8102834547e+01     0.207914   0.08676367  67.80  0.001232969    2.048    0.512
        62 -11.8358    248.4549    214.6684   6.5778330513e+01  -2.5805232253e+00    0.2910435    0.1638862  -6.65  0.001859619    1.765    0.434
        63 -10.7900     28.8172    211.3449   1.0450956809e+02   2.8666013097e+01    0.2375547    0.1117432  68.46  0.001466184    1.805    0.446
        64 -10.7018     21.6152    210.8651   1.0579073312e+02   2.9473346316e+01    0.2365146    0.1343537  89.91  0.001657067    1.564    0.360
        65 -10.3611     36.0492    207.9846   1.0299684863e+02   2.8509174917e+01    0.1892549   0.08902001  62.06  0.001139155    1.753    0.430
        66 -12.0688     12.4926    205.5366   1.0721077231e+02   3.1296991591e+01    0.4638758    0.1828312  57.94  0.002803643    1.881    0.468
        67 -10.3481      1.4616    206.4391   1.0922556520e+02   3.2120683915e+01    0.1985943   0.07943177 -86.54  0.001207725    2.170    0.539
        68  -9.8140     36.6877    201.3447   1.0248151473e+02   2.9649224425e+01    0.1199766   0.05918447  63.78 0.0006517803    1.708    0.414
        69  -9.8965     18.9687    201.4846   1.0583940554e+02   3.1424332721e+01    0.1563216   0.04800054  53.14 0.0008076383    2.375    0.579
        70 -11.3651      2.4227    212.5877   1.0925497495e+02   3.0950852161e+01    0.2840143    0.1323985  74.71  0.001602063    1.672    0.402
        71 -12.0135      3.5588    197.1016   1.0852157592e+02   3.3639303053e+01    0.3604248     0.148819  67.69  0.002174013    1.898    0.473
        72 -10.6459      9.0877    198.0391   1.0753070132e+02   3.2979080197e+01     0.180406   0.08132645  62.60  0.001104035    1.687    0.407
        73  -9.8068     24.3255    197.6753   1.0463637216e+02   3.1607359176e+01    0.1186966   0.05641751  62.57 0.0007048786    1.691    0.408
        74 -11.9059      4.0290    188.6264   1.0810861087e+02   3.5194343974e+01    0.4711184    0.1512347  63.96  0.002415514    2.574    0.611
        75 -11.0395     17.0984    189.7167   1.0562215611e+02   3.3814747858e+01    0.2522588    0.1121306  77.48  0.001439594    1.999    0.500
        76 -10.6486     11.5063    190.9728   1.0676858667e+02   3.4089691246e+01    0.1580767   0.08424366 -89.71  0.001027297    1.584    0.369
        77 -10.2909     24.5854    186.8148   1.0398165306e+02   3.3655331636e+01    0.1610104   0.08131029  82.25 0.0009503471    1.758    0.431
        78 -11.5624     11.6503    183.8014   1.0640573377e+02   3.5461695162e+01    0.2523559     0.124735  80.47  0.001346985    1.685    0.406
        79 -11.0501      5.2030    182.9186   1.0764423746e+02   3.6197012095e+01    0.1788295    0.1030321  66.63  0.001140971    1.305    0.234
        80 -10.4038     23.1783    179.7540   1.0384857891e+02   3.5186960314e+01    0.2046522   0.07029198  62.17  0.000948928    2.764    0.638
        81 -11.1152      1.8812    177.7858   1.0808918725e+02   3.7483488371e+01    0.2420045    0.1186495  86.60  0.001508001    1.644    0.392
        82 -12.1453      6.4061    171.2476   1.0686771751e+02   3.8420497582e+01    0.3162467    0.1210245  83.57  0.001626648    2.341    0.573
        83 -10.9935     10.7788    166.8463   1.0571349815e+02   3.8951847877e+01    0.2284617   0.09218214  56.58   0.00123867    2.048    0.512
        84 -11.2639      1.4298    170.2518   1.0785843420e+02   3.9029876439e+01    0.2029907   0.08218605 -78.53  0.001135497    2.074    0.518
        85  -9.8251     19.6652    164.3404   1.0362636835e+02   3.8681137039e+01    0.1275294   0.06297148  64.75 0.0007051166    1.755    0.430
        86 -11.5385      5.8623    161.3228   1.0648248271e+02   4.0513245932e+01    0.2085345    0.1178744  80.06  0.001321542    1.399    0.285
        87 -10.5083     12.3082    161.6577   1.0508362477e+02   3.9903253180e+01    0.1242184   0.06194048  65.77  0.000704374    1.692    0.409
        88 -11.8054     10.1101    155.3664   1.0519914526e+02   4.1425501618e+01    0.2389125    0.1350138  85.73  0.001421894    1.430    0.301
        89 -11.6706      4.1318    153.5192   1.0644963139e+02   4.2302528188e+01    0.2280045    0.1127341 -67.24  0.001332516    1.907    0.476
        90 -11.8585      4.3216    137.0946   1.0542776895e+02   4.5876335100e+01    0.2908165    0.1124934 -88.29  0.001421066    2.201    0.546
        91 -10.2423    248.2985    129.6633   4.9600221234e+01   6.9027943096e+00    0.1230366   0.09572924 -47.08 0.0005962718    1.656    0.396
        92 -10.7684      2.6006    126.7868   1.0517293748e+02   4.8320610718e+01    0.1769447   0.08539784  85.89 0.0009513714    1.734    0.423
        93 -11.4037    248.5130    119.0172   4.7168985803e+01   8.2179748208e+00    0.3054543    0.1011961 -33.75  0.001209212    2.606    0.616
        94 -10.7395    248.4869    106.9979   4.4374464698e+01   9.7708297013e+00    0.1932174   0.09160145 -44.87 0.0008100504    2.519    0.603
        95 -11.3380    249.3042     97.9919   4.2114335877e+01   1.0778504183e+01    0.2010468    0.1536776 -23.06 0.0008100349    1.112    0.101
        96 -11.2764    242.7218     93.1510   4.1801839632e+01   1.2710545922e+01    0.2273396     0.150944 -38.98 0.0009719928    1.441    0.306
        97 -10.3907    248.3024     92.6442   4.0946302955e+01   1.1665595446e+01    0.1386073   0.09344294 -49.22 0.0007038796    1.711    0.415
        98 -10.0301    237.3197     90.6408   4.1902666724e+01   1.4146809351e+01     0.144157    0.0979498 -52.40  0.000704385    1.765    0.433
        99 -11.1839    249.4831     87.9825   3.9653518633e+01   1.2033118075e+01    0.2157356    0.1147752 -28.23  0.001028323    1.586    0.369
       100 -10.5888    243.3140     82.6666   3.9106359818e+01   1.3968800973e+01    0.1411758   0.09561441 -51.23 0.0007045905    1.684    0.406
       101 -10.3724    250.2890     80.6580   3.7743861339e+01   1.2808192282e+01    0.1389369   0.09128778 -48.26  0.000548171    1.647    0.393
       102 -11.6119    248.5975     74.4891   3.6401302258e+01   1.3934637664e+01    0.3542548   0.09524908 -32.05  0.001252954    2.846    0.649
       103 -10.3566    244.3062     71.6560   3.6187411804e+01   1.5185705319e+01    0.1440833    0.0927785 -50.47  0.000467552    1.691    0.409
       104 -12.3527      3.0117     49.5495   9.5674722915e+01   6.6493578051e+01    0.4794437    0.1767776 -69.85  0.002230375    2.085    0.520
       105 -10.8170      8.4985     44.0007   9.1795414933e+01   6.7467524719e+01    0.2012043   0.09754129 -65.61  0.001040132    1.611    0.379
       106 -12.1626      2.7082     40.0318   9.3659658756e+01   6.8703558939e+01    0.3840122    0.1405507 -67.82  0.001787278    2.108    0.526
       107 -11.4868     12.4365     37.2088   8.7911262777e+01   6.8748650328e+01    0.3217281    0.1054395 -65.47  0.001313174    2.670    0.626
       108 -11.8900    225.9383    248.2353   7.4072027606e+01  -2.6421415636e+00    0.2534239    0.1338938  25.21  0.001730636    1.486    0.327
       109 -10.7366     27.0995    248.8398   1.0645028842e+02   2.2708618765e+01    0.2112029   0.07747588  52.51  0.001222726    1.789    0.441
       110 -10.1365    203.3199    249.3318   7.7681222996e+01   2.3280091973e-01     0.106886   0.06283911  16.73 0.0005428006    1.694    0.410
       111 -11.6502    212.9418    247.3887   7.5941909339e+01  -8.6523760827e-01    0.2859724    0.1288946  23.41  0.001620728    2.289    0.563
       112 -10.2621    110.3319    248.6723   9.2799912100e+01   1.2966873476e+01    0.1086778    0.0618581  59.14 0.0007051529    1.714    0.417
       113 -10.4446    127.4925    247.5000   8.9821150749e+01   1.0828708597e+01    0.1072824   0.07844467  45.72 -2.560331e-05    1.038    0.037
       114 -11.2050     77.1872    246.6874   9.8191365936e+01   1.7450817984e+01    0.1732008   0.08970316  52.34  0.000923814    1.436    0.303
       115 -11.2718     44.7201    245.0464   1.0345862185e+02   2.1439191237e+01    0.3096198    0.1353035  58.84  0.001741901    1.760    0.432
