#   1 NUMBER                 Running object number                                     
#   2 MAG_AUTO               Kron-like elliptical aperture magnitude                    [mag]
#   3 X_IMAGE                Object position along x                                    [pixel]
#   4 Y_IMAGE                Object position along y                                    [pixel]
#   5 X_WORLD                Barycenter position along world x axis                     [deg]
#   6 Y_WORLD                Barycenter position along world y axis                     [deg]
#   7 A_WORLD                Profile RMS along major axis (world units)                 [deg]
#   8 B_WORLD                Profile RMS along minor axis (world units)                 [deg]
#   9 THETA_WORLD            Position angle (CCW/world-x)                               [deg]
#  10 FWHM_WORLD             FWHM assuming a gaussian core                              [deg]
#  11 ELONGATION             A_IMAGE/B_IMAGE                                           
#  12 ELLIPTICITY            1 - B_IMAGE/A_IMAGE                                       
         1 -10.4289    112.0449     14.4982   3.7289883912e+01   5.5250720122e+01    0.2567387     0.179162   7.74 0.0006649832    1.533    0.348
         2 -11.2245    114.2521      9.3607   3.4655746050e+01   5.5310215612e+01     0.268739    0.2157713  20.78 0.0002649844    1.166    0.142
         3 -10.8797     49.6759     14.3954   5.7830442699e+01   6.6432766751e+01    0.2441045    0.1910682  11.30 0.0006712733    1.220    0.181
         4 -10.2754     45.3326     12.1657   5.8619675061e+01   6.7311852767e+01    0.1967489    0.1413066   7.46 0.0007324164    1.334    0.250
         5 -11.5665    152.3561     13.6400   2.8238105715e+01   4.5582081831e+01    0.3788952    0.2093843  40.24  0.001662111    1.830    0.454
         6 -11.2344     34.5638     13.7280   6.3971153003e+01   6.8320914008e+01     0.266979    0.2032053  -3.63  0.000927911    1.206    0.171
         7 -11.1331     31.5449     11.9347   6.4532172780e+01   6.8911354516e+01     0.304938    0.1385351 -29.31  0.001242866    2.041    0.510
         8 -11.0349    192.1748     11.7922   2.1484326951e+01   3.5249562991e+01     0.200874    0.1618298  40.64 0.0008299868    1.322    0.243
         9 -10.7987    162.9689     12.0007   2.5842938919e+01   4.2987604829e+01    0.2310186    0.1674125 -67.37 0.0008238115    1.653    0.395
        10 -10.6483     27.0301     11.0857   6.6220271134e+01   6.9487406515e+01    0.2731459    0.1392362 -47.27  0.001560068    1.915    0.478
        11 -11.8427     56.5956      9.4589   5.2788351250e+01   6.6162980008e+01    0.3599818    0.2654002   5.32   0.00121011    1.223    0.182
        12 -12.7520    183.8577      3.5898   2.0116311833e+01   3.8279910825e+01    0.5188622    0.3253992  76.17  0.002509711    1.504    0.335
        13 -11.8144    156.9360      8.5126   2.5672590822e+01   4.4913993944e+01    0.2747572    0.1975086  15.62  0.001378881    1.607    0.378
        14  -9.9442    120.1066      9.1899   3.3199099766e+01   5.3984362742e+01     0.175245    0.1629342 -58.49 0.0004836244    1.308    0.235
        15  -9.8945     69.4700      9.0250   4.7782171534e+01   6.4210414835e+01    0.1812795    0.1098517 -23.85 0.0005674264    1.516    0.340
        16 -10.5075      3.6112      8.7941   7.6555643496e+01   7.1644229857e+01    0.1718718    0.1508595 -15.47 0.0008179988    1.312    0.238
        17  -9.5111    213.5484      8.4599   1.7995394398e+01   2.9964997507e+01    0.1409781    0.1240232 -80.89 0.0001765951    1.049    0.047
        18 -10.2101    125.3387      7.8204   3.1485006717e+01   5.2890120246e+01    0.2182558    0.1828353  74.68 0.0003593302    1.347    0.258
        19 -10.4082     98.4122      8.2310   3.8300740593e+01   5.8869713428e+01    0.1819372    0.1159439 -32.63 0.0008552207    1.675    0.403
        20 -11.6285     86.8272      7.2333   4.1234550381e+01   6.1298758887e+01    0.4365451    0.2139683  35.83 0.0009259434    1.971    0.493
        21 -10.9926     22.6757      5.3626   6.5699419647e+01   7.0768905341e+01    0.1807355     0.146316  -5.18 0.0004249781    1.200    0.167
        22 -10.8653     16.5408      5.6701   6.8828951439e+01   7.1251528508e+01    0.1528071    0.1314859  34.82  0.001013566    1.751    0.429
        23 -12.5867    175.1998      3.6783   2.1301301278e+01   4.0568786056e+01    0.4106509    0.3140435  80.99  0.002191206    1.263    0.208
        24 -11.5163    156.3298      3.7290   2.4143376502e+01   4.5522112116e+01    0.5660973     0.184992  41.60  0.001843332    3.512    0.715
        25 -11.3021     38.4810      2.9521   5.7204146442e+01   6.9436635887e+01    0.2795148    0.1734199  26.86  0.000860999    1.646    0.392
        26  -9.5893    203.6615      4.6650   1.8044624481e+01   3.2936336301e+01    0.1482699   0.09686279  40.43 0.0007051579    1.750    0.429
        27 -11.1064    113.8808      1.9835   3.1731429851e+01   5.6109984569e+01    0.4013946    0.1735123  56.29  0.001060784    2.051    0.512
        28  -9.7664    230.1532      1.4520   1.4536876517e+01   2.6450131560e+01     0.193355    0.1204344  74.55 0.0005402251    1.479    0.324
        29  -9.9221    134.9027      4.3452   2.8178932473e+01   5.0901359213e+01    0.2000386    0.1563383  52.78 0.0003532215    1.141    0.124
        30 -12.8297    121.4762    171.4953   7.8383210577e+01   2.3356859041e+01    0.3504685     0.270139  66.56  0.001976296    1.238    0.192
        31 -11.4718     64.8474    250.0590   9.7332698995e+01   1.7817196241e+01     0.292303    0.1492562  52.23  0.001979982    1.431    0.301
        32 -14.8845     63.4001    232.2352   9.6317081780e+01   2.0899114820e+01     4.934707     2.063467  80.97   0.02355884    3.337    0.700
        33 -15.4197     29.8036    236.4812   1.0189011799e+02   2.4203901444e+01     1.352026    0.6673574  82.94  0.009264121    1.708    0.414
        34 -13.3051     26.2190    225.6238   1.0186117299e+02   2.6427775938e+01    0.4762546    0.1844252 -62.01  0.002742655    3.063    0.674
        35 -15.5317     16.9391    236.1723   1.0379987203e+02   2.5620751160e+01     2.856718    0.5539283 -70.10    0.0138218    4.341    0.770
        36 -15.3782      6.6572    244.9861   1.0564785454e+02   2.5223030315e+01     1.066833    0.4495019 -74.91   0.00753259    2.220    0.549
        37 -15.3965      3.3624    233.3586   1.0566266858e+02   2.7424900750e+01     1.325036    0.3191794 -74.44  0.007174895    3.449    0.710
        38 -12.0669     36.1927    175.5036   9.6663325981e+01   3.4768902162e+01    0.3785944    0.2276448  59.70  0.001583413    1.462    0.316
        39 -11.4711    149.5457    173.4571   7.2738238449e+01   1.7692750031e+01    0.2809601     0.205291 -79.82   0.00142371    1.770    0.435
        40  -9.8821     15.3181    173.8819   1.0054007610e+02   3.7156582824e+01    0.1455483    0.1029965 -89.48 0.0004220601    1.086    0.079
        41 -12.0331    106.2837    173.0410   8.1882387767e+01   2.5678041997e+01    0.4511378    0.1736706  43.64  0.001882912    2.389    0.581
        42 -13.5688     88.5428    166.8738   8.4824150323e+01   2.9796143142e+01    0.4892382    0.4246866   8.21  0.002981957    1.728    0.421
        43 -11.1322     29.3748    161.8833   9.6825929858e+01   3.8269696363e+01    0.4200717    0.2036247  84.00  0.002083792    2.062    0.515
        44 -10.6141     29.9374    172.2226   9.7608268977e+01   3.6087311454e+01    0.1873224    0.1448894  59.82 0.0007299262    1.257    0.205
        45 -10.7704     27.1648    168.4760   9.7841635839e+01   3.7128172255e+01    0.3824045    0.2387872 -53.82  0.002437339    1.967    0.492
        46 -11.3923     24.8856    163.3237   9.7863426075e+01   3.8407210336e+01     0.254257    0.1465609  80.77  0.000994634    1.508    0.337
        47 -12.9901     73.0514    181.9363   8.9966690052e+01   2.8940414572e+01    0.5477689    0.3083025  24.16  0.001685659    3.269    0.694
        48 -12.9185    113.7120    159.0170   7.8033294499e+01   2.7302019447e+01    0.6288568    0.2633648  55.20  0.002385962    2.766    0.639
        49 -12.6886    107.5062    162.9760   8.0070388942e+01   2.7550007257e+01    0.4639829     0.164769  47.52  0.001792701    2.656    0.624
        50 -10.8577     17.4916    163.0062   9.9315372725e+01   3.9155822847e+01    0.1703841   0.08577137 -79.92  0.001012543    1.583    0.368
        51 -11.8510     49.6416    159.3533   9.2314566637e+01   3.6628045863e+01    0.5613212    0.2651848  51.33  0.002964231    2.038    0.509
        52 -13.1442     71.4986    159.4876   8.7558846349e+01   3.3835978446e+01    0.4787442    0.2567624  43.65  0.002513432    1.835    0.455
        53 -12.1746     93.4633    156.4247   8.2189874274e+01   3.1251162050e+01    0.4154429     0.256214  19.93  0.001808443    2.978    0.664
        54 -11.5287     62.5884    155.2703   8.8989494304e+01   3.5924455357e+01    0.2896059    0.2075312 -74.58 0.0005406597    1.235    0.190
        55 -11.4570     85.5028    148.9907   8.2859012945e+01   3.4096361221e+01    0.2078504    0.1738297  56.33  0.001258828    1.181    0.153
        56 -14.0732     69.2033    177.0271   9.0194950201e+01   3.0465814383e+01    0.8008044    0.3843367 -55.14  0.004066996    2.293    0.564
        57 -10.5802     77.7875    145.3900   8.4107914312e+01   3.6023128376e+01    0.2608993    0.2188117  22.45  0.001568845    1.583    0.368
        58 -10.8669     93.4848    143.4938   8.0071255728e+01   3.4060024323e+01     0.229646    0.1343157  28.42  0.001035617    2.334    0.572
        59 -11.2504    111.1745    140.8172   7.5352790277e+01   3.1645509237e+01    0.1887398    0.1750629 -20.96  0.001085521    1.335    0.251
        60 -11.3960     59.6325    135.6528   8.6984828855e+01   4.0603708650e+01    0.2627108    0.1814485 -59.19  0.001540813    1.360    0.265
        61 -10.9078     46.8607    131.5581   8.9509670809e+01   4.2997593187e+01    0.2314292    0.1548581 -80.24 0.0006988915    1.314    0.239
        62 -10.3708     58.3249    129.3256   8.6353647887e+01   4.2175642937e+01    0.1247979   0.09146654 -40.10 0.0007048928    1.691    0.409
        63  -9.5000    153.5638    114.7833   5.9368910780e+01   2.8546275885e+01    0.2079686    0.1467197 -55.67 0.0004742689    1.554    0.357
        64 -10.5167      2.9307    111.4128   9.7888608951e+01   5.1122344189e+01    0.1860826    0.1177083 -72.88 0.0003867798    1.182    0.154
        65 -10.0272     58.3439    105.1012   8.2178737563e+01   4.7614953086e+01    0.1791128    0.1387093 -67.47 0.0003349892    1.128    0.114
        66  -9.3076     63.5168     96.5453   7.8959202120e+01   4.8890809800e+01    0.1316896    0.1141522 -54.59 5.722846e-05    1.059    0.055
        67  -9.5735      5.1618     96.0285   9.5547348382e+01   5.4279766393e+01    0.1966994   0.08496626 -50.39  0.001081438    2.108    0.526
        68 -11.1008    131.5376     93.0456   5.9039169910e+01   3.7894975151e+01    0.4068181    0.2161378  47.73 0.0008561404    1.903    0.474
        69  -9.7626    107.9981     89.8297   6.4472650585e+01   4.3348384680e+01    0.2425139    0.1719447  74.58   0.00108712    2.030    0.507
        70 -11.1129     47.5173     80.9539   8.0376902582e+01   5.4167257298e+01    0.3252393    0.1739261 -78.36  0.001269615    2.758    0.637
        71 -10.5972     25.8524     81.8477   8.7337568217e+01   5.5943792099e+01    0.1582104    0.1254824  89.41 0.0004577524    1.345    0.257
        72 -10.3274     54.6084     79.5159   7.7801072637e+01   5.3698302589e+01    0.2210488    0.1559208 -50.51 6.746488e-05    1.208    0.172
        73 -10.5273     53.1147     76.3419   7.7508918033e+01   5.4550157943e+01    0.2316886     0.177037 -55.88 0.0003361304    1.129    0.114
        74 -10.3120     29.4920     80.5465   8.5958569687e+01   5.5935179793e+01    0.1202937    0.0969063 -61.51 -4.441043e-06    1.012    0.012
        75  -9.9341     78.0189     78.2682   7.0125744306e+01   5.0876357238e+01     0.176203    0.1692609 -31.84 0.0002098836    1.073    0.068
        76  -9.5138    201.4470     75.0939   3.8460023286e+01   2.4109515855e+01    0.2239763    0.1515722 -32.73  0.000450159    1.487    0.327
        77 -10.7568     63.9911     69.9147   7.2292099970e+01   5.4586263396e+01    0.1897039    0.1654598 -38.21            0    1.042    0.040
        78 -10.0103      7.8195     68.7360   9.0672094377e+01   5.9925587671e+01    0.1910415    0.1111711 -59.89 0.0005019589    1.267    0.211
        79 -10.0229    151.8079     66.8661   4.6216817806e+01   3.8187207880e+01    0.2272445    0.2061195   6.11 0.0004095525    1.163    0.140
        80 -10.4613    192.0926     66.0272   3.7582827119e+01   2.8003616384e+01    0.2168919    0.2132214  75.42    0.0011601    1.009    0.009
        81 -10.9461     67.0738     65.0594   6.9887513442e+01   5.5174556599e+01    0.1923465    0.1774051 -22.82  0.000293746    1.085    0.078
        82  -9.7951      4.2904     64.5663   9.1089320296e+01   6.0980349856e+01    0.1906629    0.0896681 -50.78 0.0006386555    1.642    0.391
        83 -10.5848     99.3126     62.0512   5.8678946645e+01   5.0570795074e+01    0.3328096    0.2563398 -69.62  0.001382408    1.764    0.433
        84  -9.7857     43.9047     62.7036   7.7102825242e+01   5.8402849517e+01    0.1694383     0.145581 -40.79  0.001136245    1.058    0.055
        85  -9.1665     86.6602     61.3002   6.2350359663e+01   5.2951723862e+01    0.1324982    0.1107368 -87.39 0.0005291267    1.667    0.400
        86  -9.4120     56.6027     60.4369   7.2072063121e+01   5.7454209899e+01    0.1278459    0.1074069 -41.12 6.000511e-05    1.014    0.014
        87 -10.7767      3.5923     59.8364   9.0457982710e+01   6.1990680264e+01    0.2576685    0.1827881  21.65  0.001863229    1.833    0.455
        88  -9.4838     22.0746     58.3244   8.3678358914e+01   6.1189003712e+01    0.1499725    0.1288117 -50.63 0.0003946551    1.101    0.092
        89 -10.0720     78.1584     56.1121   6.3409881379e+01   5.5321390262e+01    0.2030359    0.1648709 -19.35 0.0002925417    1.210    0.173
        90 -10.0571     39.1973     44.6654   7.3591361738e+01   6.2461955127e+01    0.2095558    0.1468017 -42.41 0.0006899013    1.152    0.132
        91 -10.2679    127.0823     43.8422   4.4577866268e+01   4.7905353067e+01    0.2075369    0.2002334 -89.31 0.0002682892    1.188    0.158
        92  -9.1525      7.6159     44.7318   8.5784427403e+01   6.4830121180e+01     0.115923   0.06202275 -36.64 0.0006989095    1.698    0.411
        93 -10.5994     71.3121     42.9516   6.1181995705e+01   5.8788063903e+01    0.1902912    0.1490533 -29.65 0.0004051952    1.125    0.111
        94  -9.9465     95.7472     39.1567   5.1698335566e+01   5.5257113285e+01      0.25627    0.1724625 -13.65 0.0008722588    1.649    0.394
        95 -10.2710     40.0247     36.7941   7.0669434439e+01   6.3851284207e+01    0.2846207    0.1550902  24.57  0.001585919    2.120    0.528
        96 -10.2323     50.2968     31.7746   6.4792563097e+01   6.3591101047e+01    0.3458825    0.2621309 -88.56   0.00180208    2.957    0.662
        97 -10.4947     17.7006     31.8710   7.8165853592e+01   6.6679332810e+01    0.1664412    0.1440437 -23.66 0.0003207573    1.192    0.161
        98  -9.1358      3.7007     31.6721   8.3998322595e+01   6.7555193126e+01    0.1167694   0.05718124 -39.56  0.000569992    1.638    0.389
        99  -9.7879    153.1504     27.8605   3.3005228910e+01   4.3743406220e+01    0.2081633    0.1957519 -84.72 0.0003055291    1.157    0.136
       100  -9.3203    160.5436     27.4531   3.1436402516e+01   4.1876942494e+01    0.1466888    0.1395074  69.89 0.0008064286    1.061    0.058
       101 -10.0311    120.0715     26.2307   3.9865894800e+01   5.2020599716e+01    0.2285555    0.1749828  27.12 0.0006020185    1.281    0.219
       102  -9.0860    154.2564     32.2818   3.4295113526e+01   4.2892809174e+01    0.1460764    0.1084857  26.72 0.0001797849    1.473    0.321
       103  -9.1745    110.7351     24.7526   4.1738232800e+01   5.4291281048e+01    0.2124515    0.1194943  65.37  0.000892398    2.409    0.585
       104 -10.6137     98.5049     23.2870   4.4606865281e+01   5.7045955833e+01    0.2285232    0.2021894   7.44 0.0002082893    1.010    0.010
       105  -9.8767     72.8979     22.8307   5.2701800256e+01   6.1791570313e+01    0.1971922    0.1521191  -0.18 0.0004805572    1.209    0.173
       106  -9.8089     37.9144     22.9041   6.6362001892e+01   6.6494786897e+01    0.1820796    0.1292164 -20.05 0.0003866412    1.232    0.189
       107 -10.4907     65.8688     21.2085   5.4543107099e+01   6.3140325356e+01    0.2753736    0.1497981  32.00  0.001426663    1.911    0.477
       108  -9.6836     85.1379     20.4052   4.7533987520e+01   6.0006229069e+01    0.1721332    0.1254958  56.83 0.0008612529    1.742    0.426
       109 -10.4262      4.9737     19.7167   7.9820221795e+01   6.9682256452e+01    0.1465917    0.1127877 -33.81 0.0004906587    1.098    0.090
       110 -10.8122     21.6868     17.2683   7.1250546839e+01   6.8960546589e+01    0.2611918    0.1441097  28.77  0.001621039    2.148    0.535
       111 -10.8409    183.3307     15.1255   2.3703130935e+01   3.7254239581e+01    0.1968237    0.1873475 -49.38 0.0008112903    1.117    0.105
       112 -14.3211      5.0519    203.5176   1.0408225658e+02   3.2442839111e+01     1.728997    0.6826469 -75.52   0.01080766    2.094    0.523
       113 -11.0792     82.5934    238.3260   9.3629966304e+01   1.7304616185e+01    0.3327932    0.1921122  49.82  0.001000085    1.367    0.268
       114 -11.0651     74.1301    232.1801   9.4537747728e+01   1.9485046838e+01    0.2087288    0.1602705  82.70 0.0008582827    1.189    0.159
       115 -12.1224     75.8294    227.6229   9.3879286849e+01   2.0024151634e+01    0.4403449    0.2351137 -63.14  0.002735944    2.110    0.526
       116 -11.3384     95.7681    227.9400   9.0474886262e+01   1.7117165111e+01    0.5040507    0.3336953 -33.32  0.002617788    3.700    0.730
       117  -9.4996    128.2413     14.4246   3.3389921885e+01   5.1514473359e+01    0.1886855    0.1334195  71.32 0.0006000482    1.605    0.377
       118 -10.5538     94.0565    222.7377   9.0272716809e+01   1.8253512973e+01    0.1598188    0.1210049  59.70 0.0003698499    1.062    0.059
       119 -10.6644     91.5956    228.1898   9.1223041168e+01   1.7690997313e+01    0.2146749    0.1898945 -46.94  0.001579444    1.759    0.431
       120 -10.4834     86.4185    212.7216   9.0657125332e+01   2.1140522532e+01    0.1400676    0.1044582 -65.03 0.0005448152    1.541    0.351
       121 -11.5320    133.0939    203.7413   8.0794570230e+01   1.5228240862e+01    0.2773452    0.1797861 -78.77  0.001474468    2.032    0.508
       122 -11.1872     65.4929    203.1463   9.3571834903e+01   2.5818155346e+01     0.244066    0.1097898  55.57  0.001243885    1.907    0.476
       123 -14.2889     48.0921    245.3725   9.9607919666e+01   2.0647400280e+01     1.701389    0.7254436  86.06  0.009909881    2.529    0.605
       124 -11.4789     89.2827    201.1225   8.8913057486e+01   2.2852867203e+01    0.1759138    0.1484767 -63.42  0.001195828    1.438    0.305
       125 -12.4154    101.5029    199.2159   8.6342954882e+01   2.1332239086e+01    0.3288332     0.231619  78.86  0.001990051    1.391    0.281
       126 -10.9585     50.8238    197.1377   9.5738450553e+01   2.8818980899e+01    0.2091891    0.1220709  77.54 0.0004397983    1.517    0.341
       127 -15.6218     19.6147    215.0651   1.0233339098e+02   2.8965009502e+01     1.905782     1.278239  64.18   0.01509594    1.152    0.132
       128 -13.9336     88.7909    187.1108   8.7398686745e+01   2.5629176312e+01    0.6511931    0.3955373  65.88  0.003614503    1.586    0.370
       129 -12.1903     78.6209    188.8866   8.9631674551e+01   2.6769599715e+01    0.3208326    0.1783285  72.34  0.001686784    1.926    0.481
       130 -14.1179     60.3909    174.0883   9.1675708518e+01   3.2226579677e+01    0.8844087    0.5392759 -81.51   0.00523035    1.500    0.333
       131 -11.1161     53.1795    186.0248   9.4310717438e+01   3.0705191647e+01    0.3799604    0.1602337 -67.48  0.001491593    2.174    0.540
       132 -12.6854    109.4752    181.1087   8.2376651393e+01   2.3522989361e+01    0.3566521    0.2344518  52.95  0.001968093    1.350    0.259
       133 -12.3426    104.5975    187.4072   8.4241996256e+01   2.3092104327e+01    0.3446601    0.1526284  55.41  0.001537817    2.238    0.553
       134 -12.1310     53.2201    179.8041   9.3709050818e+01   3.1949502436e+01    0.3498905    0.3169666  21.41   0.00250636    1.667    0.400
       135 -12.3854     99.2925    189.3096   8.5559605051e+01   2.3573706616e+01    0.2871707    0.2047633  81.81  0.001700455    1.388    0.280
       136 -11.7133     11.5388    180.5883   1.0168408250e+02   3.6176195858e+01    0.3797885    0.2175465  88.15  0.001441124    1.338    0.253
       137 -10.4806      8.4515    178.0377   1.0208290527e+02   3.6946263175e+01    0.2045095    0.1333724 -83.03  0.001146543    1.224    0.183
       138 -12.3110    128.9817    189.4724   7.9582102743e+01   1.8531731536e+01    0.3740685    0.2771963 -24.09  0.001966133    2.232    0.552
       139 -10.6242     24.5232    178.4751   9.9141526262e+01   3.5371374153e+01      0.26415    0.1736224 -86.49  0.001267034    1.200    0.167
       140 -11.2820     28.4318    177.1367   9.8297671667e+01   3.5248076302e+01     0.242179    0.2224187 -84.07 0.0003607914    1.407    0.289
