#   1 NUMBER                 Running object number                                     
#   2 MAG_AUTO               Kron-like elliptical aperture magnitude                    [mag]
#   3 X_IMAGE                Object position along x                                    [pixel]
#   4 Y_IMAGE                Object position along y                                    [pixel]
#   5 X_WORLD                Barycenter position along world x axis                     [deg]
#   6 Y_WORLD                Barycenter position along world y axis                     [deg]
#   7 A_WORLD                Profile RMS along major axis (world units)                 [deg]
#   8 B_WORLD                Profile RMS along minor axis (world units)                 [deg]
#   9 THETA_WORLD            Position angle (CCW/world-x)                               [deg]
#  10 FWHM_WORLD             FWHM assuming a gaussian core                              [deg]
#  11 ELONGATION             A_IMAGE/B_IMAGE                                           
#  12 ELLIPTICITY            1 - B_IMAGE/A_IMAGE                                       
         1 -12.2427    129.9746     19.1114   6.6923752475e+01   4.9067103110e+01      1.25603     1.067661  17.73  0.007162626    1.367    0.268
         2 -11.1263     90.2894     21.4152   7.6354596707e+01   5.7136452916e+01    0.4218394     0.260266  -6.16 0.0008058823    2.005    0.501
         3 -12.2650     39.8351     84.8240   1.1368567777e+02   5.5091618526e+01     2.212478    0.7491648 -41.24  0.008668424    2.766    0.638
         4 -12.6964     52.1528     91.6000   1.1116169746e+02   5.2235630183e+01     3.228822     1.350972 -30.73   0.01110458    3.717    0.731
         5 -13.4342    145.3110     53.4637   7.3659682439e+01   4.1497521526e+01      2.67685     1.552984  67.72 0.0009928289    1.836    0.455
         6 -12.8905    118.0215     52.1177   7.9272728455e+01   4.7742897471e+01     5.016952     2.933153 -70.69   0.01784345    4.204    0.762
         7 -11.7780     54.7142      5.7999   8.1009082184e+01   6.4944311005e+01     1.632711     0.584319  38.14  0.008110462    2.344    0.573
         8 -12.8642     80.8238     50.1870   8.8911322944e+01   5.5364353101e+01     3.839956     2.324943  65.92   0.01625991    3.316    0.698
         9 -13.1633     72.5941     30.9064   8.4795447291e+01   5.9365691314e+01       2.1124    0.6702808  46.55  0.005766126    2.878    0.652
        10  99.0000     67.9036     18.6726   8.1769419522e+01   6.1527945578e+01     1.160107    0.7525094  23.96  0.007156292    1.419    0.295
        11 -11.7536     37.9351     41.3256   1.0101907479e+02   6.3115743698e+01     1.343495    0.6475025  14.32  0.006306814    2.711    0.631
        12 -12.6330     54.2987     35.2950   9.2594541033e+01   6.1764639651e+01    0.8460672    0.7186652  34.98  0.004066696    1.355    0.262
        13 -12.5499     40.4900     20.5475   9.2134813163e+01   6.5563046315e+01       1.6397    0.5893619 -28.08  0.007311149    2.982    0.665
        14 -11.4326     23.7338     28.9397   1.0235119799e+02   6.6510747096e+01    0.9747018    0.2261176 -42.03  0.003905344    4.068    0.754
        15 -11.4771     30.5548     20.3182   9.6063398298e+01   6.6866306756e+01     1.358735    0.3915801 -30.85  0.005718359    3.771    0.735
        16 -12.4724      8.3151     26.0969   1.0819102879e+02   6.8361361586e+01    0.7756391     0.529871  -7.97  0.004325038    1.180    0.153
        17 -11.0405     24.9730      5.5159   9.2196252945e+01   6.9209387382e+01    0.6399442     0.456775  33.89  0.004689935    1.545    0.353
        18 -12.2392    105.9591     34.6865   7.6787490953e+01   5.2543416696e+01      1.59057    0.8300266  31.32  0.007143372    2.309    0.567
        19 -11.9480    113.2969     20.0946   7.0501231384e+01   5.2577244883e+01    0.9215683    0.7101735  20.65  0.005802755    1.429    0.300
        20 -13.1648     98.7682      7.1669   6.9512206750e+01   5.6740369175e+01     0.814724    0.4427535  52.13  0.001266335    1.471    0.320
        21 -12.3422      3.2282     17.3889   1.0726417757e+02   6.9991478924e+01    0.2844554    0.1855187 -10.75 0.0002872555    1.193    0.162
        22 -13.7718      4.0205      9.5412   1.0366295360e+02   7.0943114046e+01    0.7858949    0.4607022 -14.59  0.003259001    1.395    0.283
        23 -12.3580    143.0737     39.1430   7.0142545428e+01   4.3916277071e+01     2.855913    0.9042355  53.20   0.01105176    2.677    0.627
        24 -11.7447     51.0320     24.7862   8.9820168901e+01   6.3567825814e+01    0.4330446    0.2913369  14.23 0.0003516989    1.356    0.262
        25 -10.6544    215.6733     24.2576   5.6610601087e+01   2.9461027991e+01    0.5321064    0.3872734 -61.20  0.002075109    1.230    0.187
        26 -11.1506    212.8948     15.4730   5.5126802251e+01   3.1073006180e+01    0.7624754    0.4708054  55.17  0.004562199    1.859    0.462
        27  -9.8439    186.0349     21.2031   5.9173598495e+01   3.6274554242e+01    0.5069209    0.3725984 -47.44  0.003208798    1.426    0.299
        28  -9.2682    176.1613     15.0074   5.8949642442e+01   3.9143282351e+01    0.2574918    0.1997295 -55.62  0.001536375    1.335    0.251
        29 -11.3411    158.4058     22.9552   6.3272388391e+01   4.2305863621e+01    0.9175808    0.6617233  16.21  0.003147313    2.087    0.521
        30 -12.2416    166.9714     24.2108   6.2346174077e+01   4.0228679938e+01    0.5422366    0.2492091  64.26   0.00050887    1.851    0.460
        31 -11.0218    168.0223     12.7522   5.9432847654e+01   4.1190883481e+01     1.359896    0.5832635 -82.29  0.004415235    5.410    0.815
        32 -11.0362    163.7924      4.8638   5.8077565851e+01   4.2878079605e+01    0.4820104    0.4173498  83.96   0.00246636    1.083    0.077
        33 -11.9985    149.5717     16.7491   6.3003751674e+01   4.4936917098e+01     0.941124    0.5531045  36.09  0.001687893    2.164    0.538
        34 -11.3907    178.1616     27.1384   6.1523814335e+01   3.7365402892e+01     0.556928    0.4046057 -53.76  0.002873999    1.403    0.287
        35 -10.4191    242.6898     12.8484   5.2139788383e+01   2.5302414701e+01    0.4650855    0.2513815 -36.43  0.002781138    2.135    0.532
        36 -11.5972    236.4982     30.8847   5.5926205890e+01   2.4327072134e+01     1.199479    0.6301697 -23.70  0.005318688    3.973    0.748
        37  -9.9805    238.7876     15.1980   5.2856223212e+01   2.5795972711e+01    0.3113299    0.1367229 -64.04  0.001167804    2.161    0.537
        38 -10.4173    231.9328     16.6911   5.3681510385e+01   2.6992344300e+01     0.451675    0.2785573 -40.60  0.002846206    1.732    0.423
        39 -10.5614    233.1551     10.8914   5.2521472987e+01   2.7413668227e+01    0.3287611    0.1908339 -87.08 0.0009799591    1.470    0.320
        40 -10.1088    233.4948      7.4482   5.1874098828e+01   2.7730511244e+01    0.2167076    0.1741474  73.09 0.0009924872    1.390    0.281
        41 -10.4843    202.3582     18.5585   5.6790825098e+01   3.2982110253e+01    0.4520262    0.2933054  56.68  0.002137913    1.649    0.393
        42 -12.0466    112.4429      7.5850   6.6806161621e+01   5.3880381198e+01    0.8467158    0.3548117  68.46  0.002860516    2.550    0.608
        43  -9.4290    230.0998      2.9665   5.1324058247e+01   2.8896000951e+01    0.2991379    0.1442448  64.02    0.0017442    2.013    0.503
        44  -8.8578    221.5041      9.6940   5.3244374948e+01   2.9916559938e+01    0.3253216     0.162931  86.98   0.00112462    1.824    0.452
        45  -9.4884    226.3374      8.2212   5.2572856887e+01   2.9087973823e+01    0.2583809    0.2272032  18.15  0.001846278    1.996    0.499
        46  -9.3239    142.1586     10.7385   6.2550081448e+01   4.7159505646e+01    0.3546438    0.2007362  31.00  0.001372755    2.462    0.594
        47  -8.9807    138.7140      8.5740   6.2501574493e+01   4.8114085871e+01    0.1858953     0.130519  60.50 0.0008675674    1.176    0.149
        48  -9.5135    122.4182     10.1394   6.5693860605e+01   5.1538684261e+01    0.3162285     0.206351  58.56  0.001644508    1.257    0.205
        49 -10.6384    173.5099      8.7456   5.7820300328e+01   4.0358896765e+01    0.2234769     0.190526 -60.89 0.0005304057    1.246    0.198
        50 -10.3336    180.2017      4.5888   5.6125195515e+01   3.9277643314e+01     0.686214    0.2643892  71.68  0.001950242    2.172    0.540
        51 -11.1965    199.3275      5.1235   5.4313737639e+01   3.5069056559e+01      0.48466    0.3648281 -71.50  0.001194265    1.176    0.150
        52  -9.3719    189.8696      7.8624   5.5819245844e+01   3.6841124872e+01    0.4264669    0.2280755  59.03  0.002299209    1.757    0.431
        53 -12.0807     19.8772     13.7288   9.7972978483e+01   6.8887279902e+01    0.8850446    0.6483409  34.52  0.006413966    1.735    0.424
        54 -10.6434     77.3754      9.1822   7.5475804651e+01   6.0723381071e+01    0.2443918    0.2010401  37.93 0.0006062676    1.075    0.070
        55  -8.2043     78.0423      4.1310   7.3455797031e+01   6.1013627229e+01    0.5406587    0.1653756  41.14  0.002378576    2.795    0.642
        56  -9.3967    249.7566      7.2882   5.0676142701e+01   2.4576655053e+01    0.2758107    0.1281961 -64.72  0.001603631    1.843    0.458
        57  -9.6822    207.6011      3.1812   5.3175749926e+01   3.3505067483e+01     0.505971    0.1486949 -50.68  0.002232262    3.255    0.693
        58 -10.6700    217.8954      4.8846   5.2633598102e+01   3.1178779025e+01    0.6005725     0.216098  54.27  0.002705622    3.487    0.713
        59 -10.3255    212.8890      4.1969   5.2919876973e+01   3.2291270540e+01     0.388368    0.1844676  87.16  0.001488323    1.956    0.489
        60 -10.8694    132.2567      4.6194   6.2435876828e+01   4.9865063190e+01    0.4583137    0.2430581  51.36   0.00202771    1.608    0.378
        61 -11.1566    138.9298      2.0638   6.0715563336e+01   4.8611994329e+01    0.3715909     0.248241  67.16 0.0009220815    1.217    0.178
        62  -9.5557    248.6461      1.6439   4.9801859432e+01   2.5415762184e+01    0.1943958    0.1159634  82.29 0.0006384745    1.410    0.291
        63 -10.2629     55.0976    137.6998   1.2058676286e+02   4.1156711951e+01    0.3665275    0.2013778 -52.75  0.001254437    1.598    0.374
        64  -9.2818    183.9718    250.4921   1.0910771975e+02  -5.7112464788e+00    0.2026519    0.1147934  34.72  0.001036023    1.600    0.375
        65  -9.0490    237.4876    135.4636   7.6782614625e+01   6.9857680250e+00    0.1390037    0.1189437 -49.47 0.0003947457    1.011    0.010
        66  -9.6144     86.8847    134.4958   1.1062186264e+02   3.7313025404e+01    0.3832138    0.2644186  34.24   0.00180307    1.556    0.357
        67 -11.2887     46.8493    130.4642   1.2164837519e+02   4.3932448768e+01    0.5505217    0.3842522 -34.91  0.002866274    1.520    0.342
        68  -8.4997     95.1282    132.0453   1.0769498226e+02   3.6506453174e+01    0.2618637    0.1642219 -30.67  0.001075331    1.998    0.499
        69 -10.3940     72.4809    129.8120   1.1381541491e+02   4.0713474478e+01     0.428873    0.2406665 -46.19  0.001060631    1.675    0.403
        70  -9.1573     35.1417    129.9185   1.2505952724e+02   4.5329152739e+01    0.2069387    0.1725397 -88.54 0.0009880607    1.286    0.222
        71 -11.5818     67.2505    123.0936   1.1390735991e+02   4.3092991831e+01     1.035307    0.4061886 -43.82  0.003785797    2.559    0.609
        72 -10.9921     56.4239    126.2966   1.1791064043e+02   4.3782465111e+01    0.5217204    0.3598153 -35.70   0.00263078    1.507    0.337
        73 -10.1245     59.2232    120.9480   1.1590349215e+02   4.4703545122e+01    0.4057866    0.3261804 -16.18  0.001746181    1.401    0.286
        74 -10.8416     40.0464    127.3671   1.2311313622e+02   4.5439843268e+01    0.3275399    0.2718074  63.85  0.001604039    1.417    0.294
        75  -8.4939     80.3444    125.2992   1.1045258668e+02   4.0595701699e+01    0.1525563    0.1123594 -19.61 0.0002947264    1.676    0.403
        76  -9.2446     74.9106    124.5818   1.1191768876e+02   4.1610992548e+01     0.243377    0.2135343  71.74  0.000489654    1.319    0.242
        77  -9.8548     92.2901    118.8969   1.0537608914e+02   4.0115571936e+01    0.6690632    0.2080026 -46.76  0.002129299    3.040    0.671
        78  -9.3226     91.4374    112.0612   1.0391197818e+02   4.1828660482e+01    0.3441442    0.2634192   5.74  0.001303808    1.616    0.381
        79  -8.9990    235.4071    249.1963   9.8923961443e+01  -1.2797105407e+01    0.1554305    0.1067608 -41.74 0.0009444786    1.636    0.389
        80  -8.6968    124.6718    249.6789   1.2131192653e+02   3.8859168614e+00     0.128951    0.1029915  -2.71 0.0004800894    1.689    0.408
        81  -9.3726    108.7489    248.7690   1.2453462576e+02   6.6004832271e+00    0.2198206   0.08306095  46.58 0.0006378918    2.417    0.586
        82  -8.7082     31.3012    247.3240   1.3989042660e+02   1.7772368837e+01    0.1065258   0.08879825 -53.70 0.0004939611    1.634    0.388
        83  -9.3358      3.6246    245.9606   1.4480307407e+02   2.1106572946e+01    0.2406777    0.1010016 -67.24  0.001303962    2.198    0.545
        84 -11.6603     78.2114     61.7214   9.3528527662e+01   5.4029286077e+01     1.048654     0.445415 -27.33  0.001739426    3.389    0.705
        85  -9.8710    142.4997    243.4603   1.1665230338e+02   2.1942909952e+00    0.3297407     0.214035  20.36   0.00139087    1.835    0.455
        86  -9.2307    211.2219    239.5621   1.0185255357e+02  -7.9719910214e+00     0.270003   0.08162433 -33.95 0.0008757614    4.453    0.775
        87 -12.8419    101.7910     53.6382   8.3916834367e+01   5.0890600992e+01    0.9034143    0.6775928  15.54  0.001108947    1.486    0.327
        88  -8.2987    243.2930    239.6237   9.5844205487e+01  -1.2377564909e+01     0.106321   0.09677936 -59.63 0.0007022601    1.739    0.425
        89 -10.4219     14.6506    236.1341   1.4217511368e+02   2.2028608547e+01    0.4500398    0.1999398 -72.22  0.001276384    1.948    0.487
        90  -9.4631     12.8890    232.3347   1.4223609761e+02   2.3035221786e+01    0.2919744    0.1567072  67.81  0.001148808    1.653    0.395
        91 -11.8569     42.6562     50.0263   1.0219435206e+02   6.1187329148e+01    0.8801093    0.4835252  17.62  0.004200036    1.964    0.491
        92  -9.1085    227.3827    231.5194   9.7343798268e+01  -8.9701606959e+00     0.225015    0.1170624  33.01 0.0004574714    1.924    0.480
        93  -8.8912    202.1638    228.9522   1.0178675591e+02  -4.7934188106e+00    0.1812361    0.1767851  24.74 0.0003467803    1.247    0.198
        94  -9.5321     51.0832    226.3306   1.3410120830e+02   1.9891018767e+01    0.4811714    0.2017916 -51.07  0.001628549    2.959    0.662
        95 -12.3155     10.0591    110.7803   1.2940216499e+02   5.1959170058e+01     1.257868    0.6172376 -35.74  0.006264239    2.117    0.528
        96 -12.4556     19.1320     99.5568   1.2433524371e+02   5.3837834873e+01     1.571937    0.8565542 -57.90  0.008366657    1.513    0.339
        97 -12.2501     26.4400     70.7794   1.1485136293e+02   5.9240583087e+01      1.04135    0.7295281  17.32  0.003793537    1.518    0.341
        98  -8.7360    111.0195    224.8333   1.2078860350e+02   1.1277824984e+01    0.2471001    0.1434727  60.37    0.0010828    2.030    0.507
        99  -8.7877     99.0234    224.0000   1.2336021351e+02   1.3416603387e+01    0.2290182   0.07500137  37.01  0.000800545    2.929    0.659
       100  -8.7901     40.8120    221.4248   1.3576669059e+02   2.2307009194e+01    0.1550513    0.1254374  24.17  0.000666377    1.635    0.388
       101  -8.0761    234.3017    219.2763   9.3844938806e+01  -7.9202132035e+00    0.1280961   0.08799821  -6.99 0.0002548048    1.540    0.351
       102 -11.5375      6.3913     55.2464   1.1849455992e+02   6.3733104095e+01    0.9936377    0.6150227 -61.70  0.004553539    1.867    0.465
       103  -9.2492      3.4122    213.7214   1.4271907663e+02   2.8095318843e+01    0.2339804   0.09558457 -81.86   0.00112982    2.097    0.523
       104  -9.2864     26.4789    212.5066   1.3792993815e+02   2.6031625588e+01    0.2327243    0.1043812 -85.89  0.001037843    2.285    0.562
       105 -12.8458     55.8333     69.0943   1.0346825429e+02   5.6201256412e+01     1.327262    0.8998668  21.58  0.007153173    1.498    0.333
       106 -12.4113     37.8524     64.0704   1.0855477056e+02   5.9345292348e+01     1.005193    0.6926827  31.93  0.003705056    1.609    0.379
       107  -8.7664     13.3216    212.3273   1.4063169294e+02   2.7454690598e+01    0.1174643   0.08422788 -52.26 0.0007048139    1.688    0.407
       108  -9.5606    124.0101    205.9779   1.1483567426e+02   1.3312313405e+01    0.2051886    0.1992008  63.47            0    1.024    0.024
       109  -9.8126    244.4526    204.3225   8.9241090944e+01  -6.8248416567e+00    0.2331419    0.1773645  -4.55 0.0008721731    1.323    0.244
       110  -9.0633    132.0209    119.4952   9.4558607574e+01   3.2261780811e+01    0.2339932    0.2067788 -48.48 0.0003904051    1.108    0.097
       111  -8.1314     77.6653    120.2726   1.1008330514e+02   4.2210620225e+01    0.1430798    0.1144573  73.61 0.0002902781    1.598    0.374
       112 -11.6747     43.0343    115.8983   1.1990267807e+02   4.7854080964e+01    0.5613699    0.3881558 -40.30  0.001827826    1.350    0.259
       113  -9.8854    104.4198    116.8353   1.0134750244e+02   3.8389005948e+01     0.520429     0.338244  68.06  0.002084642    2.386    0.581
       114  -9.4504    109.4332    115.1654   9.9506926617e+01   3.7808775983e+01    0.3346203    0.2839819 -86.51  0.001674394    1.415    0.293
       115  -8.6752    233.9836    199.8227   9.0259374220e+01  -4.4960820818e+00    0.2052236    0.1290595 -24.82  0.001047854    1.599    0.375
       116 -10.6173     50.9327    117.7274   1.1779325633e+02   4.6512737424e+01    0.3318201    0.2776799 -34.46  0.001911763    1.155    0.134
       117  -8.7632    117.3197    116.4264   9.7655591100e+01   3.5971105353e+01    0.3073875     0.141559  28.97 0.0009559526    3.452    0.710
       118 -10.3507     82.2921    114.7444   1.0734041460e+02   4.2760901242e+01    0.5163502    0.3052396  20.09  0.001768852    2.236    0.553
       119  -9.3933     97.7093    114.3591   1.0265021320e+02   4.0191716666e+01     0.373299    0.2648406 -19.40  0.001676324    1.809    0.447
       120  -9.0884     63.9807    113.9324   1.1282013430e+02   4.5711282220e+01    0.2223545    0.2031955 -36.38 0.0007812747    1.027    0.027
       121 -10.1042     32.6337    109.4144   1.2189470930e+02   5.0433099567e+01    0.5435567    0.4490926 -24.43  0.002306039    1.234    0.190
       122  -9.5165    132.5765    112.3229   9.2585288735e+01   3.3713489320e+01    0.3652879    0.2679877  80.64  0.001527468    1.892    0.471
       123 -11.0692     77.2996    101.9693   1.0562573871e+02   4.6429063369e+01    0.7919331     0.347884  36.59  0.002611279    2.380    0.580
       124 -11.2547     67.8972    107.0260   1.0990549271e+02   4.6735898641e+01    0.9760396     0.561238  -7.99  0.003552661    3.427    0.708
       125  -9.9413     74.0086    107.4042   1.0806503839e+02   4.5739382604e+01    0.4415597    0.2673072  34.68  0.001698664    1.751    0.429
       126  -9.4765    149.1770    107.1839   8.7216297673e+01   3.1181655609e+01    0.4543811    0.1951303 -36.42  0.001555381    2.708    0.631
       127  -8.6726    104.2869    109.0272   9.9370075583e+01   4.0159306224e+01     0.214051    0.1882475 -46.06 0.0006720209    1.110    0.099
       128  -9.3897    113.6830    107.1763   9.6241532922e+01   3.8729763625e+01    0.2157759    0.1953113  53.10  0.001031489    1.153    0.132
       129  -9.7130    133.9796    103.5624   8.9940954771e+01   3.5259932120e+01    0.5425129    0.2012378 -43.26   0.00183683    2.691    0.628
       130  -8.7044    130.5184    104.5014   9.1063457352e+01   3.5809150561e+01    0.2237856     0.145413  34.99 0.0008417147    1.708    0.414
       131  -9.8575    141.6537    103.1329   8.7945651249e+01   3.3674115559e+01    0.3606714    0.2755694 -46.02 0.0009182345    1.301    0.231
       132  -9.8605    171.5349    102.5294   8.1165224693e+01   2.7101386653e+01    0.3820364    0.2647913  33.42  0.001135494    1.825    0.452
       133  -8.5130    105.4898    102.7312   9.7349771179e+01   4.1289354545e+01    0.1990027    0.1391297 -33.02  0.000919244    1.511    0.338
       134 -12.7707     22.7780     82.2202   1.1918008622e+02   5.7269648629e+01     1.088279     0.684132   9.64  0.004051046    1.785    0.440
       135  -9.7184     63.9163     98.2624   1.0896059597e+02   4.9242182334e+01    0.4518209    0.2956717 -39.08  0.002199106    1.429    0.300
       136 -10.0434     41.7526    108.9880   1.1883230221e+02   4.9599781017e+01    0.2413413     0.208808  46.25 0.0004174813    1.373    0.271
       137  -8.2182      3.3119     93.3413   1.2846670050e+02   5.6276305478e+01    0.1620182    0.1003386 -66.50 0.0009412217    1.450    0.310
       138 -11.1669      4.1804     99.7726   1.2936192005e+02   5.4814502282e+01     0.462533    0.2633969 -53.20   0.00155546    1.344    0.256
       139  -8.9873      9.1727     94.3631   1.2666804974e+02   5.5693915238e+01    0.1797109    0.1632719 -89.12 0.0006510822    1.336    0.252
       140  -8.3360    184.3340    101.3234   7.8363594816e+01   2.4461132226e+01    0.1451765    0.1197208   9.13 0.0003077581    1.708    0.415
       141 -10.5123    114.1752     95.0129   9.2808095864e+01   4.1165013356e+01    0.5176129     0.319859  56.03  0.002256132    1.870    0.465
       142 -10.1644    115.8493    100.7064   9.3911885126e+01   3.9661079034e+01    0.3500046    0.2554612   3.38  0.001387322    1.942    0.485
       143 -10.4626    120.7352     97.4725   9.1716979087e+01   3.9318299835e+01    0.4700015    0.3860166  55.49  0.002408267    1.275    0.216
       144  -9.6646     74.2133     89.4296   1.0320119162e+02   4.9565780084e+01    0.5910764    0.1753456  37.66  0.002007343    3.459    0.711
       145  -9.1331     77.5887     93.5282   1.0325775976e+02   4.8183181383e+01    0.4004992    0.2687936 -11.86  0.001052043    1.980    0.495
       146 -10.3077     81.8443     88.7926   1.0057992252e+02   4.8452863215e+01    0.6943291    0.2992242 -41.57  0.002771881    2.268    0.559
       147  -9.8003     81.7521     80.9867   9.8345275746e+01   4.9999787512e+01    0.4514308    0.2429835 -46.41  0.001465912    1.872    0.466
       148 -10.8752     88.1877     90.8633   9.9192239000e+01   4.6944859525e+01    0.6323658    0.3774257 -46.22  0.002079832    1.649    0.394
       149 -10.0665     92.9078     89.1392   9.7265637110e+01   4.6446708393e+01    0.4437692    0.3552783 -80.43  0.001583529    1.761    0.432
       150  -8.9391    147.9292     98.5103   8.5258225756e+01   3.3208890206e+01      0.21592    0.1472493  50.06 0.0003194037    1.465    0.317
       151 -10.1093    158.8872     96.4529   8.2284429655e+01   3.1142346802e+01    0.4693679    0.3192974  78.78  0.001832359    1.954    0.488
       152  -8.3996    188.5460     94.4743   7.5955966454e+01   2.4807320546e+01    0.1451469    0.1338863 -72.60 0.0002286698    1.013    0.012
       153 -10.9451    124.4939     92.6620   8.9410760809e+01   3.9486042051e+01    0.5880887    0.5069481  47.25  0.002439491    1.154    0.133
       154 -11.1133    119.8382     86.6261   8.8941328192e+01   4.1632010857e+01    0.9434285    0.2797441  48.45  0.002962697    3.412    0.707
       155 -10.0910     91.1290     77.6190   9.4433055397e+01   4.8976449387e+01    0.7104912    0.4268254  19.75  0.003082641    2.247    0.555
       156  -9.1652    101.9247     88.4753   9.4413587474e+01   4.4888867760e+01      0.21071    0.1929774 -29.35 0.0004238571    1.075    0.070
       157  -9.4338     97.1901     71.9447   9.0914139035e+01   4.8858167239e+01     0.362381    0.1876343  38.23   0.00159449    1.929    0.482
       158 -10.2898    101.2259     68.8883   8.8820253289e+01   4.8599943406e+01    0.7524035    0.3629366 -54.93  0.002770996    3.346    0.701
       159 -10.1400    103.4472     92.4007   9.5087659127e+01   4.3817459288e+01     0.349719     0.257238  37.76 0.0007297464    1.369    0.269
       160 -11.4648    108.1857     86.4147   9.2042950299e+01   4.4060506732e+01    0.9004591    0.6296614  20.36  0.004229155    1.760    0.432
       161 -10.1004    105.4011     75.6137   8.9669139616e+01   4.6609632644e+01    0.4200244    0.3199959  55.70  0.001203144    1.432    0.302
       162 -10.6274    103.9147     80.4761   9.1525457925e+01   4.6023492378e+01    0.3690588    0.3402418  16.72 0.0009714839    1.056    0.053
       163 -10.4333     98.5431     77.2669   9.2122634344e+01   4.7652993265e+01    0.4453506    0.3033963  43.99  0.001099215    1.459    0.315
       164  -8.3958    200.4331     90.4932   7.2986720777e+01   2.2894416576e+01    0.1423297    0.1276624 -69.49 6.883153e-05    1.012    0.012
       165  -7.7508    194.6664     90.2701   7.3897993757e+01   2.4208625729e+01    0.1457583    0.1047919 -80.43 0.0002405168    1.591    0.372
       166  -9.9120    124.9426     82.6714   8.6505971248e+01   4.1283995679e+01    0.4553138    0.3468423 -72.68  0.001984371    1.718    0.418
       167  -9.1791     14.2006     76.5164   1.2095973152e+02   5.9107879050e+01    0.2722129    0.1418736  38.01  0.001423661    2.523    0.604
       168  -9.0696      9.7009     76.9484   1.2274063866e+02   5.9333283395e+01    0.2279426    0.1192933 -45.27 0.0008183611    1.483    0.325
       169 -10.8041      6.6842     86.3326   1.2590481994e+02   5.7578088142e+01    0.6137496    0.2713855 -26.06  0.002884914    2.670    0.625
       170  -9.9732      3.0523     83.0796   1.2652153933e+02   5.8478926814e+01     0.415103    0.2661944 -26.18  0.002258159    1.506    0.336
       171  -9.1744      5.6853     78.0992   1.2449103566e+02   5.9354165569e+01    0.2268527    0.1918458 -60.33  0.001484257    1.248    0.199
       172  -9.0171      3.3156     74.3055   1.2451884577e+02   6.0265744814e+01    0.2953418    0.1653282 -33.12  0.001321007    1.559    0.358
       173 -10.4667      7.9688     71.0282   1.2198507428e+02   6.0634178178e+01    0.3795489    0.1890414  10.44  0.001579479    2.297    0.565
       174  -8.4651    153.0270     87.4797   8.1221462090e+01   3.4163831590e+01     0.230169    0.1420156  51.90  0.001032006    1.593    0.372
       175  -8.8822    239.0000     86.0434   6.6443963603e+01   1.5606012280e+01    0.2196943   0.06582148 -41.75 0.0008041441    2.954    0.662
       176  -9.3693    164.4276     85.6408   7.8360895616e+01   3.1896837885e+01    0.2546362    0.2415406  43.93 0.0005678691    1.145    0.127
       177 -10.0507    160.4583     81.8822   7.8196685857e+01   3.3476878755e+01    0.4220945    0.3658942  70.74  0.002313197    1.130    0.115
       178 -10.4556     88.1589     98.5222   1.0132809161e+02   4.5363836816e+01    0.6782581    0.4817481 -23.88  0.003281316    1.596    0.373
       179  -9.3083    186.4243     84.5657   7.3969167870e+01   2.7071569877e+01    0.2637247    0.2534374 -40.95  0.001246294    1.182    0.154
       180  -8.3774     76.5233     84.4694   1.0103844813e+02   5.0191806785e+01    0.1379927    0.1280366 -14.61 6.641693e-05    1.029    0.028
       181 -10.3924    216.5875     80.8016   6.8356649249e+01   2.1081029506e+01    0.4493114    0.2810214 -45.90  0.002198361    1.473    0.321
       182  -9.2337    188.4986     80.1926   7.2569859651e+01   2.7362517961e+01    0.2286229    0.1818932 -83.52  0.000575586    1.280    0.219
       183  -9.3628    179.2775     80.1692   7.4168608188e+01   2.9461958768e+01    0.2722423    0.2001506  70.31 0.0007921419    1.375    0.273
       184  -9.6677    247.8660     75.5208   6.3293938296e+01   1.5607104751e+01    0.2670332    0.1641496 -65.87  0.001047744    1.540    0.351
       185  -8.9137    203.8946     75.7133   6.9082181269e+01   2.4679985389e+01    0.2144019     0.166426  50.54  0.001180933    1.465    0.318
       186  -9.2362    191.8717     74.3962   7.0644785233e+01   2.7578114323e+01    0.4343734    0.2679584 -56.77  0.001336496    1.640    0.390
       187  -8.8816    219.4512     74.7856   6.6666540052e+01   2.1471148068e+01    0.2532274    0.1114835 -46.74   0.00106929    2.041    0.510
       188  -9.2308    214.5803     72.9278   6.6931157968e+01   2.2812261938e+01    0.3889061    0.2425896 -19.12  0.001670247    2.999    0.667
       189  -9.0252     84.5114     74.3728   9.5491074620e+01   5.0753573355e+01    0.2608415    0.1963268   5.69 0.0009528708    1.497    0.332
       190  -9.6153     84.6108     68.1874   9.3552628838e+01   5.1827814245e+01    0.3434813    0.2446646 -24.62  0.001663688    1.454    0.312
       191 -10.0884    250.4872     65.1347   6.1016183786e+01   1.6728927076e+01    0.4750164    0.1095108 -40.17  0.001654441    4.031    0.752
       192  -8.6407    169.1951     70.6028   7.3614658258e+01   3.3382656673e+01    0.1985034    0.1238579  48.47 0.0004387448    1.649    0.393
       193 -10.3908     67.3048     62.3160   9.7330549757e+01   5.5713124882e+01    0.2442995    0.2053651  -1.47 0.0005650793    1.085    0.078
       194  -9.0784    189.0196     49.4908   6.5255350882e+01   3.2039086566e+01    0.2182371    0.1697513 -64.20 0.0007525822    1.228    0.185
       195  -9.9849    185.9786     53.7776   6.6703009875e+01   3.2117621942e+01    0.4766386    0.2929298 -17.87  0.002141485    2.748    0.636
       196  -9.3341    179.1343     59.1538   6.9056105064e+01   3.2888416455e+01    0.4197591     0.275742 -23.37  0.001645262    2.078    0.519
       197 -10.6889    182.0533     51.5657   6.6767982253e+01   3.3329643862e+01    0.5870585    0.3149855 -42.10  0.001429707    1.882    0.469
       198 -10.2138    222.7501     56.6390   6.2434986786e+01   2.3602576953e+01    0.3780561    0.2922622  85.25  0.002333555    1.188    0.158
       199  -9.5379    201.6925     58.2078   6.5466641186e+01   2.7930300693e+01    0.3606851    0.2965614 -21.61  0.002096737    1.644    0.392
       200 -10.3620    174.5423     56.4046   6.9130339167e+01   3.4351673312e+01    0.5313228    0.3306893 -12.36  0.002261143    3.003    0.667
       201  -9.0605     10.5382    192.3347   1.3950279074e+02   3.2383523065e+01    0.2129496    0.1624362  28.70  0.001350692    1.653    0.395
       202  -8.9894    137.6881     59.2255   7.6850239348e+01   4.2380270546e+01    0.2764327    0.1654152  46.36 0.0006958126    1.609    0.378
       203  -9.1487    243.4548     54.9385   5.9807974832e+01   1.9625137742e+01    0.2594895    0.1718524 -72.04  0.001552505    1.347    0.258
       204 -10.4454    195.3202     54.2387   6.5456810272e+01   2.9939198493e+01    0.5041804     0.237736  67.13  0.002275885    2.081    0.519
       205  -8.7858     54.7805     49.8099   9.7579957404e+01   5.9604694861e+01    0.2223965    0.1851896 -22.37 0.0006249376    1.155    0.134
       206 -11.0332     60.1274     50.1616   9.5784368634e+01   5.8768257309e+01     0.798496    0.3517049 -46.35  0.003575349    2.711    0.631
       207  -9.8849     54.8111     45.7841   9.6174461554e+01   6.0211780521e+01    0.2541853    0.2367546  55.16   0.00117078    1.555    0.357
       208  -8.8909     51.5105     53.1986   9.9927577985e+01   5.9524465642e+01    0.1911067    0.1571152 -13.56 0.0005431763    1.055    0.052
       209 -10.1832    173.0623     48.1619   6.7333235348e+01   3.5865684605e+01    0.5330681    0.3342468  72.48  0.002740426    1.548    0.354
       210  -8.7120     16.7376     50.2137   1.1270220477e+02   6.3848988030e+01    0.1665718    0.1029744 -24.70 0.0007577449    1.395    0.283
       211  -8.9941    225.2321     49.1555   6.0620134192e+01   2.4169019462e+01    0.1782666    0.1234663 -75.64  0.001047176    1.308    0.236
       212  -9.7955    198.8212     48.4801   6.3680015171e+01   2.9979804486e+01    0.4543328    0.2792863  39.19  0.002184764    2.477    0.596
       213 -12.8312     19.6087     58.0100   1.1389098965e+02   6.2232816619e+01    0.7783161      0.46612 -10.23  0.004520712    1.748    0.428
       214  -9.3855    229.9368     45.5030   5.9381204163e+01   2.3706231738e+01    0.3677006    0.1806721  82.36  0.001469574    2.270    0.559
       215  -8.8046    221.1814     46.1739   6.0465862212e+01   2.5441590404e+01    0.1787323    0.1638697 -89.64 0.0007325349    1.238    0.192
       216  -8.6818    219.9617     42.5149   5.9854151470e+01   2.6205097417e+01    0.1745461    0.1444521 -83.62 0.0005554017    1.049    0.047
       217  -9.4281      1.4724    187.2666   1.4103004262e+02   3.4372863204e+01    0.3063352    0.1017754 -77.82  0.001285175    2.572    0.611
       218  -9.4753    245.3050    187.1110   8.5815424246e+01  -3.9314232133e+00    0.2120236    0.1907471  26.13 0.0006086705    1.274    0.215
       219  -9.9655    207.1478     46.1094   6.2098330454e+01   2.8471751319e+01    0.4443974    0.2526067  75.71  0.001484416    1.709    0.415
       220 -10.1729    214.0822     42.3723   6.0483859976e+01   2.7480050233e+01     0.454937    0.3053046 -13.10  0.001938247    2.913    0.657
       221  -9.9711    199.1887     32.3057   6.0068945373e+01   3.2042094099e+01    0.3604592    0.3114764  76.91  0.002408646    1.165    0.141
       222 -10.2186    219.4568     34.9881   5.8381865093e+01   2.7315276074e+01    0.6419455    0.3838366  47.20  0.003412886    2.346    0.574
       223 -10.4893    211.4471     32.2334   5.8670477740e+01   2.9378526096e+01    0.5918844    0.3766154  62.19  0.002846466    1.557    0.358
       224  -9.5824    228.2126     31.2211   5.6761756892e+01   2.5972232902e+01    0.2328141    0.1676022 -79.48 0.0006359066    1.148    0.129
       225 -10.2292    225.4075     27.1291   5.6236208723e+01   2.7068471112e+01    0.3962817    0.2437723 -71.14   0.00187879    1.456    0.313
       226  -9.0676    203.6444     41.8500   6.1606662388e+01   2.9822401401e+01    0.1810149    0.1428327 -68.21 0.0001297661    1.138    0.121
       227 -10.4922    202.2508     38.0259   6.0946112492e+01   3.0636144191e+01    0.3147176    0.2670161  77.49 0.0003141099    1.148    0.129
       228  -9.7680    106.2068     44.7115   7.9919371448e+01   5.1237891349e+01    0.3988201    0.2453566  53.19  0.002070743    1.538    0.350
       229  -8.0951      5.7238     40.4826   1.1435020466e+02   6.6335177442e+01    0.1528575   0.09641484   5.64 0.0004659704    1.538    0.350
       230 -10.9722     16.1384     31.3321   1.0657361299e+02   6.6917112327e+01    0.4207358    0.2625454  -2.14  0.002047217    1.473    0.321
       231  -9.4862     21.4101     43.7620   1.0865013308e+02   6.4510556524e+01    0.6318614    0.2660924  16.04  0.002912462    2.761    0.638
       232 -10.4583     12.8820     41.8027   1.1164559642e+02   6.5574862952e+01    0.5750483    0.2513269  12.01  0.001885826    2.601    0.616
       233  -9.6566     21.4615     40.4316   1.0749347183e+02   6.5035815514e+01     0.197661     0.177847 -32.54  0.000778575    1.414    0.293
       234 -10.1410     18.1665     37.4953   1.0788800933e+02   6.5801481746e+01     0.330945    0.3001952  51.47  0.002192952    1.869    0.465
       235  -8.2354    196.5135     45.5513   6.3328916276e+01   3.0900964221e+01    0.1324961    0.1097246 -83.71 7.201171e-05    1.048    0.046
       236  -8.7226    179.8575     44.6374   6.5438448599e+01   3.4789713583e+01     0.193032    0.1848903 -20.18 0.0006332365    1.316    0.240
       237  -8.2684    248.6842     44.7087   5.7376920233e+01   2.0063231524e+01    0.1003881   0.09364856  54.65 0.0001737605    1.596    0.373
       238 -10.1113    194.7867     30.6021   6.0219394286e+01   3.3226969163e+01    0.3967331     0.289156   6.58  0.001955489    2.605    0.616
       239  -9.2650    190.9478     40.0521   6.2820300294e+01   3.2886250847e+01    0.2766136    0.2277564 -17.16  0.001670232    1.689    0.408
       240  -9.4529    192.6526     36.2579   6.1741703754e+01   3.2995108131e+01    0.2573574    0.2155323  76.86  0.001126907    1.108    0.098
       241  -8.9140    225.1919     41.4881   5.9083680378e+01   2.5244436712e+01    0.2244363    0.1052685  63.77 0.0009303431    2.049    0.512
       242  -8.2105    207.7105     41.6670   6.1077299492e+01   2.8956015707e+01    0.1143581   0.09873235  37.61 0.0004156607    1.628    0.386
       243  -8.5481    197.0266     41.5346   6.2364508415e+01   3.1330037339e+01    0.1931955    0.1140619  70.44  0.001016754    1.554    0.357
       244  -8.2235    249.6798     40.6514   5.6543100976e+01   2.0429545394e+01    0.1010566   0.09454826  37.30 0.0007048757    1.738    0.425
       245  -8.9671      7.7010    185.7004   1.3952116488e+02   3.4213844514e+01    0.1568927    0.1055695  50.10 0.0002615305    1.546    0.353
       246  -9.4110      6.0581    182.3573   1.3957859156e+02   3.5151983327e+01    0.2675552    0.1286436 -61.12 0.0009983245    1.780    0.438
       247 -10.0089    173.9234     38.6125   6.4860705118e+01   3.6933815671e+01    0.3192693    0.2071815  73.04  0.001123306    1.420    0.296
       248 -10.6430    180.3803     37.4182   6.3645314975e+01   3.5614687781e+01    0.7183193    0.3957878 -69.18  0.003352127    2.286    0.563
       249 -10.9945     20.0370    183.7963   1.3653122804e+02   3.3533773895e+01    0.5085222    0.2359562  28.77  0.002446216    2.535    0.605
       250  -9.9902      1.6657    178.6767   1.4022748097e+02   3.6390174780e+01    0.4306816    0.1318527 -73.56  0.001783791    2.586    0.613
       251  -8.7887     80.0387    176.7404   1.2072032019e+02   2.7796715705e+01    0.2232044    0.1505162 -42.25  0.000821523    1.662    0.398
       252  -9.1336     24.9794    176.4983   1.3455526002e+02   3.4829982665e+01    0.2211592    0.1871393  39.73 0.0007597727    1.373    0.272
       253 -10.3031    149.1087     23.8246   6.4939552656e+01   4.4315449899e+01    0.4543975     0.174154  60.33 0.0009813802    2.154    0.536
       254  -8.5506     46.2215    170.9807   1.2854637101e+02   3.3880038531e+01     0.189718    0.1014173 -67.01 0.0008662234    1.645    0.392
       255  -9.4141     34.0082    169.4259   1.3144708784e+02   3.5650347892e+01    0.3202947    0.2003018 -18.55  0.001462641    2.737    0.635
       256 -10.0665    247.0512     25.7544   5.4083419775e+01   2.2892113474e+01    0.5044616    0.2066166  75.48  0.002581593    2.344    0.573
       257  -9.5187    235.8444     38.4424   5.7416019338e+01   2.3465847262e+01     0.201447    0.1454536 -55.24 0.0003432583    1.237    0.192
       258  -9.0630    242.6710     34.0102   5.5952704084e+01   2.2689427491e+01    0.2268924    0.1495213 -74.95 0.0006697889    1.275    0.216
       259 -10.0932    247.8682     32.5687   5.5236874116e+01   2.1859891833e+01    0.2937119    0.2267577  58.11   0.00133727    1.704    0.413
       260 -10.8326     16.9633    159.5574   1.3452425557e+02   3.9744244152e+01     1.069396    0.1558981  32.51  0.003536428    5.193    0.807
       261  -9.9678     18.3999    164.7801   1.3479316350e+02   3.8335212963e+01    0.3065397    0.2302857  75.76 0.0007863255    1.329    0.247
       262 -10.5862    246.4006     19.0753   5.2952313292e+01   2.3842164533e+01    0.4864233    0.1869863  71.86  0.001560358    2.382    0.580
       263  -9.9590    240.5214     20.4782   5.3667600068e+01   2.4823673458e+01    0.3294976    0.1400866 -50.77  0.001165065    1.987    0.497
       264 -10.4369     12.6104    165.8117   1.3634685435e+02   3.8589174110e+01    0.4194638    0.2805694 -40.29  0.002380135    1.770    0.435
       265  -9.3331    155.0406     33.2846   6.6462921617e+01   4.1904980373e+01    0.3020198    0.1927691 -25.30  0.001235672    1.940    0.485
       266  -8.5346    138.4613     31.4684   6.8867387549e+01   4.5870962805e+01    0.2248224    0.2011264  87.61 0.0006984766    1.145    0.127
       267  -9.3206     32.6768     33.0312   1.0012082417e+02   6.4944624004e+01    0.1998951    0.1237153 -19.99 0.0007967369    1.473    0.321
       268  -8.7979    183.5393     33.2906   6.2247644481e+01   3.5415574979e+01    0.2335705    0.1301224  50.90  0.001155745    1.915    0.478
       269 -10.2122    182.9208     27.1839   6.0916914009e+01   3.6287976820e+01    0.2510381      0.21356  84.70 0.0003671593    1.034    0.033
       270 -10.8715    134.7395     33.9773   7.0282029827e+01   4.6414088664e+01    0.2779777    0.2422758   3.90 0.0002492043    1.362    0.266
       271  -9.9108    202.4306     26.7379   5.8503823434e+01   3.2012836493e+01    0.4124426    0.2597289 -77.26  0.001691383    1.541    0.351
       272  -9.4057    146.3387     29.1152   6.6816078201e+01   4.4362549970e+01    0.2938085    0.1464743  49.78  0.001424364    1.862    0.463
       273  -9.5873     97.1098     22.0066   7.4823586670e+01   5.5729760750e+01    0.2969104    0.1910081  38.22   0.00110589    1.385    0.278
       274 -10.1924      9.0378    162.4996   1.3685610120e+02   3.9689906533e+01    0.3198667     0.268522  49.83  0.002115363    1.358    0.264
       275 -10.3297      2.2667    160.0467   1.3825456758e+02   4.0803461661e+01     0.536775    0.1987878 -72.63  0.002408407    2.142    0.533
       276  -9.0429     85.1663    154.1452   1.1523548745e+02   3.2705385708e+01     0.234188    0.2061589 -31.69  0.001232306    1.244    0.196
       277 -10.7030     46.1302    145.8566   1.2464814958e+02   4.0209008829e+01    0.6483106    0.4822874 -61.35  0.003183169    1.166    0.143
       278  -9.4989    197.7582     17.8167   5.7116617433e+01   3.4065838076e+01    0.2467276    0.2298496 -22.28  0.001761011    1.492    0.330
       279 -11.1100     35.4930    150.9721   1.2843947265e+02   4.0101564994e+01    0.5530488    0.2807436  35.53  0.002510756    2.168    0.539
       280  -8.8109    188.5038     15.4482   5.7611682709e+01   3.6355731291e+01    0.2034587     0.146204  89.88  0.000501599    1.196    0.164
       281  -9.2418    184.9441     14.0000   5.7691146078e+01   3.7295300450e+01    0.3633088    0.1346666  63.31  0.001702435    2.226    0.551
       282  -9.4741    227.2058     13.0467   5.3398018548e+01   2.8372607231e+01    0.5003563   0.09962089  68.53  0.001905393    4.073    0.754
       283 -10.8383     39.1083    147.2848   1.2686074952e+02   4.0637407748e+01    0.3944112    0.3740726 -51.24  0.001630984    1.141    0.124
       284 -10.1237     38.0667    143.2627   1.2649877759e+02   4.1749083936e+01    0.2846537    0.2333083  -9.60  0.000495529    1.511    0.338
       285 -12.2308     20.4261    147.8171   1.3208467911e+02   4.2324836900e+01    0.7530007    0.5582373 -46.47  0.003660361    1.347    0.257
       286 -10.6103     14.8231    143.5206   1.3301593970e+02   4.3843433372e+01     0.432962    0.2082772 -51.98  0.002128627    1.800    0.445
       287  -9.3261     87.0681    149.0439   1.1368279513e+02   3.3679419906e+01     0.235417    0.2194203 -69.89 0.0006287111    1.027    0.026
       288 -10.2518     66.4120    148.1249   1.1930953603e+02   3.7045599402e+01    0.3575397     0.260021 -53.25   0.00169926    1.258    0.205
       289 -10.3075     29.6544    119.8678   1.2489647245e+02   4.8271039091e+01    0.6938177    0.2706805  43.00  0.002744692    3.297    0.697
       290 -11.4788     24.4360    127.8122   1.2789102878e+02   4.6843848987e+01     1.125331    0.5563412  -2.61  0.004537336    3.674    0.728
       291 -11.9003      5.2301    143.7154   1.3562541475e+02   4.4519165486e+01      1.32468    0.4541801 -69.18  0.005709223    2.275    0.560
       292 -11.0288     18.6831    121.9231   1.2863044129e+02   4.8728396908e+01     0.727042    0.2207726 -56.57  0.001477047    2.380    0.580
       293 -10.4683     13.8985    118.3134   1.2948397158e+02   4.9943558105e+01    0.4663359    0.3535341 -39.76  0.002748529    1.263    0.208
       294 -11.5764     14.2152    131.3585   1.3144940138e+02   4.6828522896e+01    0.7589266    0.5305845  66.37  0.004333499    1.733    0.423
       295 -10.6101     12.6275    125.9126   1.3108402511e+02   4.8246054561e+01    0.3450879    0.3090343  59.21  0.001303313    1.320    0.243
       296 -11.0363     29.9106    142.1022   1.2862063416e+02   4.2860912411e+01    0.5484593    0.3204659 -56.05  0.002820171    1.439    0.305
       297 -10.8798     24.0204    136.2715   1.2938359885e+02   4.4833475025e+01    0.4954811    0.4379413  79.53   0.00316332    1.227    0.185
       298  -9.0933     80.5034    140.5140   1.1376663688e+02   3.6858445388e+01    0.2603892    0.1882138 -29.04 0.0007632874    1.641    0.390
       299  -8.4448     97.8142    140.6064   1.0887633567e+02   3.3950854029e+01    0.2085298    0.1418089  50.15  0.000315748    1.605    0.377
       300  -9.7998     54.4997    132.9965   1.1985054999e+02   4.2392263136e+01    0.3099621     0.190617  19.32  0.001452672    2.016    0.504
       301  -9.4958     49.0735    138.4215   1.2248467524e+02   4.1714885742e+01    0.4353033      0.21124  50.22  0.001776035    2.668    0.625
