#   1 NUMBER                 Running object number                                     
#   2 MAG_AUTO               Kron-like elliptical aperture magnitude                    [mag]
#   3 X_IMAGE                Object position along x                                    [pixel]
#   4 Y_IMAGE                Object position along y                                    [pixel]
#   5 X_WORLD                Barycenter position along world x axis                     [deg]
#   6 Y_WORLD                Barycenter position along world y axis                     [deg]
#   7 A_WORLD                Profile RMS along major axis (world units)                 [deg]
#   8 B_WORLD                Profile RMS along minor axis (world units)                 [deg]
#   9 THETA_WORLD            Position angle (CCW/world-x)                               [deg]
#  10 FWHM_WORLD             FWHM assuming a gaussian core                              [deg]
#  11 ELONGATION             A_IMAGE/B_IMAGE                                           
#  12 ELLIPTICITY            1 - B_IMAGE/A_IMAGE                                       
         1 -13.5455    226.3545      7.4828   3.3150023473e+01   2.8737846338e+01     1.899446    0.9497179  52.62  0.009658911    2.427    0.588
         2 -13.0017    182.9121     51.8864   4.9206921939e+01   3.3451294591e+01    0.9316961    0.8426011  -2.09 0.0008248371    1.300    0.231
         3 -13.1850    195.1200     41.8849   4.4706298430e+01   3.1882487636e+01     1.062316    0.9325446 -57.73  0.003229544    1.091    0.083
         4 -13.4118    202.8665     33.8619   4.1651876445e+01   3.1074389640e+01     1.005657    0.8612038 -21.00  0.001366211    1.377    0.274
         5 -12.7928     51.3666      5.6622   6.5342406585e+01   6.8197468743e+01    0.7471024    0.4835539  43.63  0.004531167    1.562    0.360
         6  -9.9409     89.7957    212.3260   1.0739052499e+02   1.8795028756e+01    0.2494535    0.2003581  77.18 0.0005500105    1.231    0.188
         7 -11.5785    139.7132    247.6525   1.0123536620e+02   4.5841611801e+00    0.7248575    0.4879552  60.40  0.004132762    1.795    0.443
         8 -18.7515     16.0992    191.8429   1.2165713258e+02   3.2124947769e+01     16.10872      4.82213 -80.13   0.06574231    3.135    0.681
         9  -9.7555     81.8436    195.1601   1.0706994370e+02   2.3694483249e+01    0.3621659    0.2643441 -42.56  0.001952348    1.674    0.403
        10 -15.1219     71.4650    147.9136   1.0272369952e+02   3.6472870871e+01     5.697423     2.899797  78.35    0.0106498    4.899    0.796
        11 -11.7393     46.9509    172.1380   1.1269259119e+02   3.3585868639e+01    0.6356226    0.5071082 -41.55  0.002504836    1.517    0.341
        12  -9.4749     51.3000    165.6937   1.1080945388e+02   3.4644075614e+01    0.2207996    0.1701334  72.17 0.0004939297    1.265    0.209
        13  -9.9577     52.6991    163.3141   1.1013999811e+02   3.5060357208e+01    0.2369116    0.1833584 -71.38 0.0003052001    1.167    0.143
        14 -10.0826    187.5788    175.9530   7.9187439788e+01   9.4930693255e+00    0.3662396    0.3150128 -57.83  0.001305247    1.404    0.288
        15  -8.7123    148.6822    175.3673   8.7784273407e+01   1.6910194569e+01    0.2512495    0.1538142 -61.19  0.000599282    2.043    0.510
        16  -9.6342    146.4979    171.9970   8.7638623218e+01   1.8044916846e+01    0.3069099    0.2427172 -67.43  0.001024087    1.496    0.332
        17 -10.1592     84.4647    173.4696   1.0338249868e+02   2.8354367109e+01    0.3065168    0.2433162 -23.71 0.0007076784    1.664    0.399
        18  -8.7752    193.6964    171.0152   7.6884099132e+01   9.2943489642e+00    0.2033754    0.1807198 -28.05  0.000784747    1.105    0.095
        19 -10.2757    240.1803    169.3970   6.7720496146e+01   1.4139373223e+00    0.1666623    0.1272206  48.87  0.000344002    1.664    0.399
        20  -9.6643    185.0864    169.0241   7.8279193379e+01   1.1297026907e+01    0.2223321    0.2113564 -13.25 0.0006679846    1.066    0.062
        21  -9.6513    136.8825    167.3970   8.9051155725e+01   2.0863542142e+01      0.35032    0.2387096  59.81  0.001561504    1.781    0.438
        22 -10.1505    147.8759    186.7159   9.0121647463e+01   1.4664153623e+01    0.2948872     0.212201 -47.10  0.001477871    1.458    0.314
        23 -11.5618     92.3971    151.5446   9.7553730546e+01   3.2445996105e+01    0.7133561    0.5299248 -17.81  0.003354947    1.853    0.460
        24 -10.8741    133.8024    145.3606   8.5172290676e+01   2.6464049152e+01     1.256352    0.3306037 -54.77  0.002905114    5.806    0.828
        25  -8.9400    112.7411    150.8134   9.1886380733e+01   2.9158403857e+01    0.2073383    0.1764756  84.04 0.0004315546    1.325    0.245
        26  -9.2813    174.6950    149.1184   7.6192184130e+01   1.7349902166e+01    0.2579604    0.2131094  54.98 0.0006645432    1.347    0.257
        27 -10.3577    104.8146    138.0402   9.1359035718e+01   3.3646220335e+01    0.5646104    0.3465614 -25.63  0.002179902    2.467    0.595
        28 -10.3619    105.8596    130.8258   8.9450499885e+01   3.5200237102e+01    0.3736785    0.3331137 -64.14  0.001052897    1.129    0.114
        29 -11.0585    185.1439    211.5300   8.6445201964e+01   3.4587640633e+00     0.335585     0.204518  14.00  0.001581872    2.004    0.501
        30 -11.6989     92.6161    137.4935   9.4710016134e+01   3.5861258751e+01    0.2856477    0.2623336 -36.66 0.0002722522    1.126    0.112
        31 -10.7862    107.5774    203.7429   1.0224946310e+02   1.7918025384e+01    0.3445086    0.2354012 -81.13   0.00104627    1.786    0.440
        32  -9.7241     93.4690    205.5565   1.0572094720e+02   1.9697540755e+01    0.2578853    0.2086938  27.35  0.001208223    1.356    0.263
        33 -10.5851    135.5639    128.1021   8.0653808703e+01   3.0054519035e+01    0.5919849    0.1877847 -51.33  0.001691838    3.560    0.719
        34 -10.5236    113.3393    128.9699   8.6898972631e+01   3.4261659712e+01    0.3694805     0.316988  -4.13 0.0009021191    1.349    0.259
        35  -9.1771    160.4718    127.5785   7.4328313059e+01   2.4877629639e+01    0.3252268    0.2264397 -74.15  0.001310155    2.195    0.544
        36  -8.0304     95.2444    127.3325   9.1733070925e+01   3.7907254187e+01    0.1514061    0.1123161 -29.60 0.0003261057    1.546    0.353
        37 -10.2232    100.4318    124.8899   8.9642786350e+01   3.7598501090e+01    0.2876312    0.2382596 -15.08 0.0006123752    1.410    0.291
        38 -10.9808    119.0092    123.0171   8.3865706774e+01   3.4567119107e+01    0.5698332    0.3808717   2.89  0.002179954    2.518    0.603
        39 -10.2622    135.0560    119.4165   7.8596556331e+01   3.2114758938e+01    0.4086471    0.1882161 -43.42   0.00141446    2.145    0.534
        40  -9.1583    108.9680    118.1493   8.5507981421e+01   3.7640300583e+01     0.220884     0.216985 -58.14 0.0003278374    1.036    0.035
        41  -9.9177    231.3323    113.7160   5.7059760467e+01   1.2472471668e+01    0.2624959    0.2397261 -42.41 0.0006892511    1.056    0.053
        42 -10.1152    134.6790    106.4914   7.5256411156e+01   3.5033585993e+01    0.5614867    0.1495812 -47.70  0.001491663    4.057    0.754
        43  -9.0249    167.8647    112.7375   6.8837280415e+01   2.6333484147e+01    0.3086454    0.2022946 -65.89  0.001226498    2.165    0.538
        44 -11.7698    117.1586    107.8011   8.0438480297e+01   3.8418578719e+01    0.9405164    0.7542415 -63.98  0.004523712    1.401    0.286
        45  -9.3926    205.4357    110.2467   6.0611314070e+01   1.8457879098e+01    0.2986374     0.206512  45.85 0.0009803164    1.551    0.355
        46 -11.2245    193.2136    195.3659   8.1839252570e+01   4.9139310619e+00    0.9259161    0.4958528 -61.21  0.003211363    4.340    0.770
        47  -9.6521    131.1715     98.7883   7.4037755622e+01   3.7437576009e+01    0.3138359    0.2404325 -86.33  0.001019599    1.867    0.464
        48  -8.8384    186.9823    186.4759   8.1420943274e+01   7.6203195109e+00    0.2676159    0.1702647  50.04  0.001255928    1.829    0.453
        49 -12.9249    111.7416    204.6352   1.0142289444e+02   1.7067000475e+01    0.9458128    0.4830392 -56.67 0.0009362773    2.088    0.521
        50  -9.5203     96.3773    201.7709   1.0455521468e+02   2.0079959233e+01    0.2093264    0.1695032  47.43 0.0008007088    1.137    0.121
        51 -10.6103    120.0360    186.4550   9.6650152893e+01   1.9631806500e+01    0.2564011    0.2007668 -81.08 0.0004593156    1.494    0.331
        52  -9.5721     91.4585    183.6219   1.0316164856e+02   2.4912433028e+01    0.2443966    0.2297526 -53.30  0.001037081    1.164    0.141
        53 -11.6486    120.9401    196.2887   9.8036915773e+01   1.7338503062e+01    0.5636019    0.2998474 -72.19  0.001441282    2.909    0.656
        54  -8.6257    157.0004     82.4929   6.2943929660e+01   3.4735689667e+01    0.2269986    0.1501099  51.62 0.0004724257    1.513    0.339
        55  -8.5430    184.5055     77.4624   5.5957442784e+01   2.9056155255e+01     0.144728    0.1434073  -9.76 0.0008084264    1.072    0.067
        56  -8.1893     73.3487    199.2508   1.0954844806e+02   2.3962787471e+01    0.1197394    0.1036908 -13.04 0.0001294739    1.588    0.370
        57  -9.5531     62.2767     69.0737   8.7114925384e+01   5.6429049058e+01    0.2224588    0.1928701  14.55 0.0005002939    1.182    0.154
        58  -9.6545    168.3482    233.1184   9.3413793238e+01   2.5499363236e+00    0.2246523    0.1790389  42.63 0.0005033466    1.250    0.200
        59 -11.7905    157.8064    221.5936   9.3827341233e+01   6.2095357232e+00    0.5623127     0.368484 -70.87  0.001816561    2.537    0.606
        60 -10.6917    164.4750    211.9985   9.0860145223e+01   6.8291987402e+00    0.2752214    0.1796468 -45.26  0.001426587    1.683    0.406
        61 -10.8027     99.2638    180.7526   1.0079500290e+02   2.4359949960e+01    0.2968605    0.2488904  40.19  0.000571108    1.180    0.153
        62 -13.5888    104.4674    211.0980   1.0396234333e+02   1.6852727300e+01     2.206464    0.8603634 -47.53  0.008714336    3.107    0.678
        63  -9.4210    189.8520     15.0868   3.8345727602e+01   3.6316387844e+01    0.2082311    0.1578173 -69.06  0.001220514    1.263    0.208
