#   1 NUMBER                 Running object number                                     
#   2 MAG_AUTO               Kron-like elliptical aperture magnitude                    [mag]
#   3 X_IMAGE                Object position along x                                    [pixel]
#   4 Y_IMAGE                Object position along y                                    [pixel]
#   5 X_WORLD                Barycenter position along world x axis                     [deg]
#   6 Y_WORLD                Barycenter position along world y axis                     [deg]
#   7 A_WORLD                Profile RMS along major axis (world units)                 [deg]
#   8 B_WORLD                Profile RMS along minor axis (world units)                 [deg]
#   9 THETA_WORLD            Position angle (CCW/world-x)                               [deg]
#  10 FWHM_WORLD             FWHM assuming a gaussian core                              [deg]
#  11 ELONGATION             A_IMAGE/B_IMAGE                                           
#  12 ELLIPTICITY            1 - B_IMAGE/A_IMAGE                                       
         1 -12.9570    119.5505     38.8134   3.4148228542e+01   5.0408874254e+01     1.049572    0.6776494 -28.37  0.004556948    1.639    0.390
         2 -12.4596    160.0634     29.7136   2.3336628143e+01   4.1107779175e+01     0.484796    0.4262006  40.66 0.0003815989    1.275    0.216
         3 -12.2560    104.8888     12.9945   2.6916711020e+01   5.7351733428e+01    0.5797935    0.4218901 -28.11  0.002009804    1.452    0.311
         4 -12.3449    105.8689     20.8578   3.0113284642e+01   5.6231770740e+01    0.3843946     0.333473 -57.75 0.0007119395    1.258    0.205
         5 -12.2777    114.2559     24.9541   2.9891723854e+01   5.3623829702e+01    0.8051132     0.338341  54.75  0.001931055    2.143    0.533
         6 -11.7299     26.4617     28.2653   6.5782890844e+01   7.0560126500e+01    0.5430794    0.3091215 -47.69  0.001541162    1.589    0.371
         7 -12.0387     20.2292     21.9496   6.6625875161e+01   7.2460483235e+01    0.5915392    0.3098063 -41.29  0.001886288    1.669    0.401
         8 -11.8739    135.5749     22.4822   2.4727645039e+01   4.8398922967e+01    0.9036464    0.3493146  55.79  0.003445723    2.330    0.571
         9 -10.1654    120.9866     11.8714   2.3227113497e+01   5.3350790487e+01    0.4974736    0.1827542  67.42  0.001373799    2.502    0.600
        10 -10.3860    127.3460     11.6551   2.2041409482e+01   5.1715682504e+01    0.3324498    0.2274264 -82.67  0.001523355    1.613    0.380
        11 -10.7053    127.4317     16.2110   2.3787846895e+01   5.1226928788e+01    0.3392492    0.2367438  33.22   0.00105866    1.641    0.391
        12 -11.3187    134.7415     14.8385   2.2042543346e+01   4.9455197849e+01    0.7049394    0.2950174  59.49  0.002854147    2.105    0.525
        13 -12.0000     48.5782     13.0152   4.5545782683e+01   6.9813347039e+01    0.6227781    0.2929237  47.08  0.002909124    2.142    0.533
        14 -11.7446     35.5347     18.1963   5.5334111718e+01   7.1175228621e+01    0.5958369    0.2636335 -32.06  0.002099783    2.390    0.582
        15 -12.9567    164.1421     18.6454   1.9224476620e+01   4.1332305909e+01    0.5260203    0.3195853  41.43  0.002429148    1.993    0.498
        16 -11.4562     68.2801     18.5220   4.0273746672e+01   6.5223452604e+01     0.461291    0.4167665  21.71  0.001670354    1.020    0.020
        17 -10.9059      6.2054     10.3370   7.0572653096e+01   7.5951206970e+01    0.4589497    0.3473325   8.16  0.003014614    1.344    0.256
        18  -9.7220     12.3872      8.3036   6.4669296354e+01   7.5745780300e+01    0.4050361    0.2903619 -78.14  0.002166321    2.840    0.648
        19 -12.0438     16.3932     14.2712   6.5201964966e+01   7.4280653230e+01     0.641893    0.3573962 -23.22   0.00336443    1.972    0.493
        20 -11.5865     22.7290     11.0649   5.9023886643e+01   7.4100302185e+01    0.4411828    0.2881976   0.41  0.001937532    1.725    0.420
        21 -11.4935    228.6886     15.9507   1.2525315589e+01   2.5982778544e+01    0.3927246    0.2430833  71.88  0.001173153    1.691    0.409
        22 -10.8895    225.5038     13.9995   1.2273694131e+01   2.6895243744e+01    0.2879198    0.1777737 -41.42 0.0007646089    1.366    0.268
        23 -10.4141    148.3026     15.9984   2.0429983517e+01   4.5764793057e+01    0.5111323    0.2171968  43.77  0.001891342    2.895    0.655
        24 -11.5034     85.9427     13.7846   3.2060818911e+01   6.1875169474e+01    0.5251991    0.4290658 -42.04  0.001878902    1.348    0.258
        25 -10.4199     87.2150      7.4279   2.8578921908e+01   6.2240735624e+01     0.572201    0.3395745  57.79  0.002597702    1.530    0.346
        26 -11.8173    192.3608      9.1856   1.3526080458e+01   3.5162392505e+01    0.6736502    0.4071379   5.83  0.003046879    2.736    0.635
        27 -10.8218    218.5079      3.8368   1.0252858158e+01   2.9512258378e+01    0.3324122    0.2204619  60.26  0.001290041    1.714    0.417
        28 -11.2044    224.0349      2.6497   9.6358091513e+00   2.8388953711e+01    0.2863341    0.2080338  83.55 0.0003916657    1.358    0.264
        29 -10.9061    211.5096     10.9915   1.2512963712e+01   3.0393412912e+01    0.3119876     0.264828  54.99   0.00123922    1.413    0.292
        30 -11.1029    213.3995      5.7995   1.1066434746e+01   3.0485396066e+01    0.3200416    0.2475681  15.95  0.001862145    1.872    0.466
        31 -11.6323    169.8342      9.2934   1.5645406139e+01   4.0827428852e+01    0.5797461    0.2068598  62.88  0.002283605    2.499    0.600
        32 -11.1746    163.4938      5.8370   1.5218913376e+01   4.2795376161e+01    0.4443886    0.3012441   4.75  0.001914325    2.014    0.504
        33 -10.3396    145.2969      9.7220   1.8656568465e+01   4.7187611040e+01    0.2455195    0.2132273  49.28 0.0003646944    1.211    0.174
        34  -9.6615     66.5177     10.3132   3.6507904805e+01   6.6617110006e+01    0.2871192     0.127607  43.63  0.001251644    2.116    0.527
        35 -10.1744      1.1912      9.2356   7.3988715479e+01   7.6534676713e+01    0.3329526   0.09325398 -57.29 0.0008699243    3.196    0.687
        36 -10.9577      2.3041      2.2442   6.9093293507e+01   7.7722858049e+01    0.3439251    0.1955526 -27.89  0.002043659    1.597    0.374
        37 -11.1032    157.5245      6.4769   1.6067407786e+01   4.4288152128e+01    0.5080072    0.3348319 -23.84  0.002612633    1.644    0.392
        38 -10.4320    151.3245      7.7065   1.7197270673e+01   4.5795380636e+01    0.3677056     0.127048  72.64  0.001350693    2.661    0.624
        39 -11.3801    122.3747      5.3528   2.0379824832e+01   5.3600554699e+01    0.2897742    0.2469776 -23.57 0.0003831506    1.280    0.219
        40  -9.9434     62.3253      7.5630   3.6505605208e+01   6.7812443878e+01    0.2722342    0.1947097  13.78 0.0007665928    1.476    0.322
        41 -10.0965    232.6278      7.2004   1.0211586280e+01   2.6049618744e+01    0.2000836     0.169147 -68.33 0.0008332728    1.091    0.083
        42 -11.4754    233.9274      3.0494   9.1780929186e+00   2.6189821650e+01    0.4561951    0.1902783 -61.18  0.002170756    2.204    0.546
        43  -9.2593     77.8420      7.6050   3.1300897762e+01   6.4411750518e+01     0.276353    0.1951097 -87.76 0.0009502503    2.001    0.500
        44  -9.9998     76.6671      3.6450   2.9547683085e+01   6.5068847028e+01     0.292749     0.178724  24.91  0.001445438    1.820    0.451
        45 -10.0650     73.0060      2.9990   3.0290935496e+01   6.5961585641e+01    0.3146976    0.2504241  40.44  0.001273746    1.131    0.116
        46 -11.4927    184.7082      6.0146   1.3278195936e+01   3.7371608444e+01    0.4604937    0.2554836 -46.64  0.001652107    1.639    0.390
        47 -11.0568    206.1077      2.8859   1.0809659845e+01   3.2472785589e+01     0.405659    0.3046649  87.22  0.002451521    1.251    0.201
        48 -11.9040    133.2227      2.7068   1.7743771408e+01   5.0993947522e+01    0.5996706    0.3117317  77.50  0.002700183    1.827    0.453
        49 -10.9054    141.7227      3.5431   1.6934910042e+01   4.8691842195e+01    0.3716874    0.2542523  77.67  0.001938319    1.339    0.253
        50 -10.2201     41.5424      4.0420   4.3439143685e+01   7.2243057740e+01    0.2816546    0.1828893   8.44 0.0008317954    1.735    0.424
        51  -9.2309     25.8806      3.8107   5.2277427622e+01   7.4793215452e+01    0.1412708    0.1296626 -17.61            0    1.252    0.201
        52 -10.6357     22.0338      3.1032   5.4342872337e+01   7.5432044334e+01    0.1966626    0.1599405 -10.42 0.0004498291    1.033    0.032
        53 -11.1502    113.8068      2.4955   2.0637596267e+01   5.6061304265e+01    0.3921196    0.2448871  79.69  0.001439602    1.597    0.374
        54 -10.8924    105.5366      2.2485   2.2029163445e+01   5.8191980576e+01    0.3491668    0.2440676 -70.90  0.001792822    1.690    0.408
        55 -11.0137    176.8779      5.8585   1.3922606522e+01   3.9358601901e+01    0.3834706    0.1948992  86.73 0.0008734896    1.950    0.487
        56  -9.6692     13.1319      1.8174   5.9921373931e+01   7.6736609556e+01    0.1670067    0.1179321  -9.81 0.0007035433    1.324    0.245
        57 -10.2339    152.5208      1.4548   1.4952700147e+01   4.6042523759e+01    0.2644595    0.1235195  75.77  0.000566556    1.956    0.489
        58 -10.0559     26.8223    126.6374   8.9342277684e+01   4.7074874383e+01    0.3492103    0.1206653 -67.99  0.001397935    2.424    0.587
        59 -11.2262     49.8869    248.3706   9.3657640276e+01   1.8084723539e+01    0.3722905    0.2164526  69.42   0.00243233    1.608    0.378
        60 -10.5736      2.3627    126.0215   9.6945827772e+01   4.9158441846e+01    0.2768369    0.1756292  64.96  0.001390483    1.456    0.313
        61  -8.9254    217.5004    138.5930   4.3114956944e+01   1.0873683002e+01    0.1319375    0.1183845 -12.26 0.0001617384    1.019    0.019
        62 -12.0240    103.7132    122.4296   6.4652796935e+01   3.7007878136e+01    0.3460741    0.3222172  63.94 0.0008470568    1.053    0.050
        63  -9.3391     78.4744    123.4250   7.2397169981e+01   4.1246913879e+01    0.1471351    0.1379408  83.93 9.184399e-05    1.011    0.011
        64 -10.5004     49.2102    123.1879   8.1651326843e+01   4.5512607272e+01    0.3233739    0.2012616  13.91  0.001478184    2.203    0.546
        65  -8.8317     93.3225    129.6685   6.9234745569e+01   3.7196413854e+01    0.1582276    0.1132727  75.36 0.0007049852    1.700    0.412
        66  -9.7682     48.7507    112.8557   8.0031141445e+01   4.8195202666e+01    0.5193598     0.299242 -39.89  0.002140423    2.127    0.530
        67 -10.1797     44.6178    119.8248   8.2610296907e+01   4.6922385363e+01    0.2843006    0.2071155 -88.14 0.0006996431    1.342    0.255
        68 -10.1414     43.5459    116.4869   8.2424557081e+01   4.7897496747e+01    0.2438042    0.1905826 -84.73 0.0006068441    1.200    0.167
        69 -12.5536      2.5724    111.5258   9.5685885342e+01   5.2735737145e+01    0.6776283    0.3484646  71.52 0.0007179773    1.956    0.489
        70 -11.3882      4.8449    105.2370   9.4302912732e+01   5.4168343425e+01    0.4072478    0.3394983  28.85  0.002637077    1.398    0.285
        71  -9.6573     78.9893    114.8001   7.0404381754e+01   4.3291934904e+01    0.2611797    0.2095755 -62.14 0.0008155447    1.203    0.169
        72 -10.2918     35.2772    103.3650   8.3095789797e+01   5.2153320559e+01     0.626063     0.320752   4.81  0.002439286    3.372    0.703
        73 -11.3641     25.4616    107.2228   8.7245077704e+01   5.2123905810e+01    0.6778443    0.3959169 -43.49  0.003331126    1.899    0.473
        74 -11.2666     21.5992    114.4413   8.9565199073e+01   5.0628858069e+01    0.4737818    0.2862716   2.11  0.002004887    2.371    0.578
        75 -11.1190     28.2734    113.1906   8.7118385140e+01   5.0347311012e+01    0.3663206    0.3059468 -14.35  0.001173832    1.513    0.339
        76 -10.0174     67.3533    110.2657   7.3211441758e+01   4.6275678657e+01    0.3136965    0.2526586 -40.74  0.001626469    1.353    0.261
        77  -9.3905    101.9861    109.4837   6.2042854682e+01   4.0383793467e+01    0.2267082     0.151538  40.80 0.0004113563    1.522    0.343
        78 -11.1217     80.0091    108.1558   6.8556433145e+01   4.4752156508e+01    0.4865305    0.3044653  30.61  0.000979404    1.797    0.444
        79 -10.4626     15.5616    108.7386   9.0938826307e+01   5.2558260722e+01    0.2924071    0.2273904  21.78 0.0006772029    1.511    0.338
        80  -9.4387    182.5533    104.4701   4.1275990107e+01   2.3722312208e+01    0.1468511     0.139318 -41.43 0.0001017147    1.017    0.016
        81  -9.8793     85.7697    103.8159   6.5630778820e+01   4.4793297177e+01    0.2204852    0.2055141 -32.95 0.0006355528    1.159    0.137
        82 -11.7898      7.0593     88.9232   9.1575174436e+01   5.8113234383e+01    0.8054454    0.4201869  10.89  0.004031712    2.395    0.582
        83 -11.8162     27.5391     85.0723   8.2682242303e+01   5.7530133451e+01    0.6764527    0.5454673   3.71  0.003945204    1.480    0.324
        84 -10.7106     35.4253     92.8781   8.1093345302e+01   5.4792845177e+01    0.3747052    0.2467196 -72.07  0.001136943    1.409    0.290
        85 -12.0590     42.8675     85.3166   7.6528050909e+01   5.5846143300e+01     0.916394    0.3761957  19.78  0.003216425    3.469    0.712
        86 -11.6230      9.6529     97.5211   9.1688641256e+01   5.5800735226e+01    0.5417744    0.4831619  21.65  0.001674978    1.332    0.249
        87 -12.8439     17.5710    100.3038   8.9117369743e+01   5.4536777054e+01    0.3381657    0.3361741  87.23 0.0004386421    1.177    0.151
        88 -11.4135     23.2230     94.6179   8.6122099009e+01   5.5515169827e+01    0.3727305    0.3317874 -35.94    0.0010621    1.242    0.195
        89 -11.0527     17.7782     90.8465   8.7630573745e+01   5.6905058251e+01    0.4445373    0.2809479  83.86  0.001845011    1.675    0.403
        90  -9.4479     64.8294    101.6501   7.2146456014e+01   4.8806442098e+01    0.2504624    0.1858052 -50.92 0.0003199764    1.309    0.236
        91 -12.2108     68.7277     95.7835   6.9357431923e+01   4.9646834368e+01    0.3461976    0.3051237  33.12 0.0003817831    1.216    0.177
        92 -10.7017     51.8684     99.6914   7.6330897731e+01   5.1129306781e+01    0.6181464    0.2284985 -49.06  0.002103959    2.675    0.626
        93  -9.9521     28.6247     99.6874   8.4918051905e+01   5.3747704478e+01    0.2535611    0.1642095 -52.19 0.0006986583    1.470    0.320
        94 -10.3691     30.5462     96.5287   8.3650458746e+01   5.4364528497e+01    0.3327121    0.1719941 -68.27  0.000840702    1.707    0.414
        95 -10.1977     80.8731     98.1573   6.5789102925e+01   4.7028228954e+01    0.5764435    0.2515199  52.46  0.001965092    2.971    0.663
        96 -10.2834     82.5327     93.4746   6.3981869291e+01   4.7848141101e+01    0.3758404    0.1891225  33.72 0.0009057862    2.242    0.554
        97 -10.9865     79.4883     93.5054   6.5022004473e+01   4.8386049765e+01    0.5733902    0.5208346  87.67  0.003096201    1.145    0.127
        98 -10.7384     42.7901     94.6695   7.8635917345e+01   5.3521950355e+01    0.4072833    0.3424759 -64.93  0.002323788    1.077    0.071
        99 -12.0495    125.7873     94.8093   5.1344496920e+01   3.8616760581e+01    0.2774858    0.2769111  -6.25 0.0002992494    1.045    0.043
       100  -9.5996    121.7636     93.9547   5.2177537737e+01   3.9702797069e+01    0.2386528    0.2172502  -7.90 0.0006691866    1.250    0.200
       101 -11.1164     89.8465     89.7180   6.0494958282e+01   4.7354499793e+01     0.592737    0.3427631 -37.52  0.002420359    1.966    0.491
       102 -10.4350     49.3454     91.3759   7.5413803393e+01   5.3537957414e+01    0.2775036    0.2458797  75.43  0.001147615    1.183    0.155
       103 -10.3798     98.3667     90.9803   5.8135417306e+01   4.5375188627e+01    0.2786949    0.2230561  47.23 0.0003177476    1.268    0.211
       104 -10.0814     65.7934     89.0837   6.8679036317e+01   5.1741173870e+01    0.3833574    0.2556615 -15.52  0.001516375    2.381    0.580
       105  -9.6512    104.3599     87.1104   5.5148977186e+01   4.4990432451e+01     0.256281    0.2109614  32.79  0.000643666    1.314    0.239
       106 -10.5574     80.1613     84.1136   6.2130318813e+01   5.0469811303e+01    0.4178997    0.3764904 -49.38  0.002251635    1.076    0.070
       107 -10.5583     76.4479     80.5659   6.2381994248e+01   5.1958795123e+01    0.7357536    0.2531286 -50.94  0.001950309    2.789    0.641
       108 -10.4727     72.8165     77.8365   6.2869822752e+01   5.3227345069e+01    0.3760433    0.3567488 -32.31  0.002114295    1.065    0.061
       109 -10.9734    143.2066     84.6023   4.4019865795e+01   3.6615944352e+01     0.267254    0.2516262 -48.21 0.0002638966    1.050    0.048
       110  -8.8665    133.3089     84.6858   4.6429610991e+01   3.8957356538e+01    0.1595291    0.1224778 -79.32 0.0003109495    1.629    0.386
       111  -9.5821    121.3427     83.9300   4.9310958837e+01   4.1902121090e+01    0.3459041    0.1360405 -48.61  0.001134107    2.703    0.630
       112 -10.2386    112.9948     82.5312   5.1203889367e+01   4.4087495102e+01    0.2744383    0.2532133 -26.26 0.0003608107    1.148    0.129
       113  -9.9221     66.9279     81.6977   6.6211037302e+01   5.3323467207e+01    0.3695061    0.2824692   3.96  0.001800283    1.712    0.416
       114 -11.2364     53.5780     76.6112   6.9951394811e+01   5.6563156246e+01    0.5917855     0.365297 -61.43  0.002615123    1.584    0.369
       115  -9.2402      1.3501     80.7556   9.2804447494e+01   6.0446578678e+01    0.1749366   0.09210673 -65.08 0.0003132361    1.527    0.345
       116 -10.3255     94.3292     76.8356   5.5089890903e+01   4.9331426511e+01    0.5016348    0.2939424  39.43   0.00173299    1.799    0.444
       117 -11.6979     13.1680     74.1253   8.6689996010e+01   6.1391963331e+01    0.6095913    0.3909018 -83.46  0.002525868    1.533    0.348
       118 -10.0163     14.5068     67.4906   8.4775257008e+01   6.2915510298e+01    0.4424952    0.2005243  13.24  0.002009649    2.708    0.631
       119 -11.7426     85.7012     73.2114   5.6791485830e+01   5.1859827599e+01    0.7954381    0.5202162  39.70  0.003637085    1.586    0.370
       120  -9.9698     92.1547     72.1314   5.4254783531e+01   5.0785634785e+01    0.2331664    0.2057402 -75.31 0.0005878113    1.248    0.198
       121  -8.9216     19.3448     76.2601   8.4388258410e+01   6.0415665369e+01    0.1333169   0.08795138 -36.86 0.0006968861    1.596    0.373
       122  -9.5116    103.3543     74.5965   5.1516965449e+01   4.7880483341e+01    0.3398177    0.2215994  80.11  0.001281748    2.614    0.617
       123 -11.2205     58.6292     77.8604   6.8292185406e+01   5.5529464800e+01    0.4404576    0.3643364 -43.63  0.001811382    1.167    0.143
       124  -9.0452     66.3003     74.6566   6.4341652924e+01   5.5065054623e+01    0.1474548    0.1145739  85.32 0.0003427382    1.676    0.403
       125  -9.7640     28.8230     71.6492   7.9188517669e+01   6.0712598935e+01    0.2727548    0.1604772  46.32  0.001332433    1.986    0.496
       126 -10.9409     35.2988     71.9858   7.6406817846e+01   5.9965054340e+01    0.5179016    0.2370495  36.07  0.002273986    2.329    0.571
       127 -10.3755     41.0129     73.0323   7.4200973994e+01   5.9060426547e+01    0.2360208    0.1870792 -56.89 0.0006619722    1.141    0.124
       128 -11.2150     40.4868     69.0884   7.3339344147e+01   6.0062240391e+01    0.3138976    0.2573596  28.75 0.0009474317    1.333    0.250
       129  -9.6382     24.5040     74.0764   8.1666901714e+01   6.0521306638e+01     0.208637    0.1171564 -65.40 0.0007483687    1.559    0.359
       130 -11.0033      2.0229     71.6635   9.1227283173e+01   6.2640496032e+01    0.3549133    0.1662268 -66.75   0.00115282    1.688    0.408
       131 -10.3691    186.9383     71.1360   3.1619568545e+01   2.8375607794e+01    0.3683399    0.2092258 -37.37  0.001048642    1.638    0.390
       132  -9.2655    153.7664     72.4483   3.8036978195e+01   3.6279005722e+01    0.2172472    0.1405947  45.02  0.000893621    1.648    0.393
       133  -9.0063     19.3117     72.2689   8.3585360742e+01   6.1396375704e+01    0.1324474    0.0870271 -38.65 0.0002626682    1.546    0.353
       134 -11.1427    122.8384     68.8630   4.4093977384e+01   4.4528699278e+01    0.4887366    0.3053839  49.15  0.001580048    1.597    0.374
       135 -11.1819     78.7642     67.7178   5.7395959882e+01   5.4388694068e+01     1.153562    0.5014742 -60.45  0.003520977    3.928    0.745
       136 -10.9656     82.7791     47.5633   4.8382499551e+01   5.7588584903e+01     1.676395    0.9114166  -8.09  0.003948419    7.844    0.873
       137 -12.3919     74.1597     51.1447   5.2986252273e+01   5.8658072416e+01     0.583129    0.3180218 -50.72  0.001485387    1.986    0.496
       138 -11.2204     72.5366     47.5320   5.2149964548e+01   5.9662037661e+01     0.259759    0.2271343 -26.25 0.0006187265    1.123    0.109
       139 -10.3702    219.6398     66.9768   2.5958121667e+01   2.1515632674e+01    0.4618313    0.1994201  69.27  0.001864423    2.872    0.652
       140 -12.3326      5.2767     62.1761   8.8089846539e+01   6.4765912220e+01    0.4461622    0.3912891 -60.39  0.001720219    1.051    0.048
       141 -11.6390      9.7051     62.6616   8.6044720524e+01   6.4394363488e+01     0.600795    0.2409073 -52.32  0.001277431    2.019    0.505
       142 -11.0911     92.4138     63.0414   5.1015721871e+01   5.2599466541e+01    0.6257252     0.356748  64.39  0.002379748    2.560    0.609
       143  -9.3344     52.2048     65.6580   6.7212333923e+01   5.9309264176e+01    0.1865881    0.1328522  19.52 0.0007414848    1.624    0.384
       144  -9.0213     25.5677     65.5144   7.9151487033e+01   6.2494020448e+01    0.1335016    0.1155484 -54.74 0.0001121703    1.011    0.011
       145 -10.0082     58.6578     63.1325   6.3653418069e+01   5.8899401314e+01    0.3612137    0.2726103  85.31  0.001319325    1.905    0.475
       146  -9.3641     65.3864     61.7161   6.0409078422e+01   5.8099167257e+01    0.2080884     0.147443  56.65 0.0005787189    1.710    0.415
       147 -10.0070    157.5111     63.3427   3.4493329733e+01   3.6894554581e+01    0.4320569    0.1666954  49.44  0.001489702    2.681    0.627
       148  -9.2949    154.7513     60.7049   3.4204342233e+01   3.8024847070e+01    0.2095194    0.1903914  79.46            0    1.093    0.085
       149 -10.8059     51.9171     48.2524   6.1125550378e+01   6.3126601903e+01    0.8151984    0.3164267  29.72  0.002635362    3.292    0.696
       150  -9.7751     51.0553     56.4987   6.4613265309e+01   6.1515373124e+01     0.271463    0.1788603  31.86  0.001052981    1.618    0.382
       151 -11.0055     40.5295     56.9699   6.9596520307e+01   6.2851153546e+01    0.5853404    0.3843449 -17.04  0.002840078    1.973    0.493
       152 -12.0087     44.0141     61.3955   6.9439787400e+01   6.1405505075e+01    0.7840315    0.3455484 -41.33  0.001351165    2.361    0.577
       153 -10.4996     50.6915     61.1311   6.6379005328e+01   6.0548050828e+01    0.3295684    0.2568052  51.63  0.001366236    1.486    0.327
       154 -11.4097     44.0403     43.9888   6.3132756967e+01   6.5167989181e+01    0.6277575    0.3063276 -53.69            0    2.088    0.521
       155 -10.9575     39.9715     44.0195   6.5158263437e+01   6.5721178731e+01     0.407454    0.2790197 -14.32  0.001497876    1.766    0.434
       156 -11.0832    234.9320     60.9760   2.2767143708e+01   1.9106999814e+01    0.3299188    0.2516171  79.73  0.001951929    1.478    0.323
       157 -10.8057     32.7324     52.6922   7.1942748981e+01   6.4735678520e+01    0.8347548    0.5138928 -16.77  0.003990269    2.152    0.535
       158 -10.1433     20.5023     55.4781   7.8950789790e+01   6.5301877875e+01    0.2936652    0.2258617 -82.17  0.001713371    1.435    0.303
       159 -11.0349     24.7902     59.6163   7.7962980968e+01   6.3958995827e+01     0.663757    0.1908609  30.63  0.002517148    3.472    0.712
       160 -10.6393     25.1881     56.1981   7.6799309368e+01   6.4716066136e+01    0.4053323    0.2232084 -31.09  0.001483731    2.082    0.520
       161 -10.2179    106.6254     58.7956   4.5066820587e+01   5.0244182959e+01    0.2916263    0.2188202 -68.76 0.0009873036    1.662    0.398
       162  -9.9596     91.8506     57.3117   4.9099277829e+01   5.3839752351e+01    0.2752926    0.2228326  78.69 0.0007606255    1.530    0.347
       163 -10.1636     87.8733     56.6360   5.0176844751e+01   5.4818768735e+01    0.4034756    0.2108371 -36.00   0.00130102    2.004    0.501
       164 -10.9515    117.8447     55.5766   4.0803474258e+01   4.8147637902e+01    0.5215821    0.3212956 -58.09  0.002153022    2.024    0.506
       165 -10.3720    109.6614     40.4227   3.7241314243e+01   5.2628264413e+01     0.574183    0.4081787 -14.17  0.001798526    1.689    0.408
       166 -10.3573    112.3982     50.8058   4.0501215083e+01   5.0287811794e+01    0.3044022    0.2562717 -37.16 0.0007113891    1.204    0.169
       167 -11.1687    116.0286     49.0302   3.8880199682e+01   4.9698784195e+01    0.3349894    0.3276063 -31.97 0.0004343259    1.047    0.045
       168  -8.9985    113.3102    249.3359   8.1510630761e+01   9.8506373843e+00    0.1082318   0.08288191   7.63 0.0005788092    1.681    0.405
       169  -9.7717    237.8709     55.8834   2.1264378536e+01   1.9182140322e+01     0.183433    0.1266783 -52.04  0.001038921    1.287    0.223
       170 -10.0482    158.1015     54.7455   3.1695840711e+01   3.8120879648e+01    0.4872807    0.2672589 -81.52  0.001626458    3.367    0.703
       171  -8.9921     66.7169     55.3242   5.7529818353e+01   5.9209717273e+01    0.1385947     0.114217 -84.86  0.000700092    1.597    0.374
       172  -9.5708      7.8059     55.1290   8.5358246678e+01   6.6294244415e+01     0.234953    0.1632947  36.59  0.001037381    1.682    0.405
       173 -10.3681    246.7904     54.4053   2.0075473309e+01   1.7575400995e+01    0.1600258    0.1159328  54.98 0.0006255662    1.664    0.399
       174 -11.3419     60.8139     48.1092   5.7146724616e+01   6.1698498572e+01    0.7997496    0.3190967 -41.58  0.003083234    2.453    0.592
       175 -10.3709    240.3472     50.6736   1.9806590958e+01   1.9353562756e+01    0.2357844     0.175748  20.54  0.001196969    1.989    0.497
       176  -9.7071      1.8755     49.1352   8.7140586927e+01   6.8007887773e+01    0.1770291    0.1576176 -88.08 0.0007531273    1.216    0.177
       177  -9.8450    146.5798     47.2516   3.1416297442e+01   4.2226007076e+01    0.2537186    0.1868941 -22.76 0.0006049976    1.507    0.337
       178 -10.8229     20.6416     45.8180   7.5973228660e+01   6.7483749505e+01    0.4622691    0.2373742 -39.50  0.001184839    1.852    0.460
       179 -10.3826     26.3321     42.9947   7.1903040928e+01   6.7553714199e+01    0.2336325    0.1866366  -1.51 0.0007418934    1.334    0.250
       180  -9.9710     22.8909     37.7883   7.1881417325e+01   6.9012799983e+01    0.5169729    0.3538631  62.68  0.002268195    2.314    0.568
       181 -10.3853    137.7906     44.7447   3.2304141163e+01   4.4869870898e+01     0.720423    0.2310529  47.40  0.002222269    3.437    0.709
       182 -10.2822    200.6220     45.0789   2.2559585165e+01   2.8916627450e+01    0.3579468    0.1942392  81.48  0.001412485    2.152    0.535
       183  -9.7850     13.6544     46.4601   8.0001325721e+01   6.7907729398e+01    0.2370159    0.1113982 -47.22  0.001156101    1.790    0.441
       184  -8.5856    101.2986     44.6396   4.1239908184e+01   5.3964942481e+01    0.1528505    0.1147376 -69.51 0.0007034753    1.713    0.416
       185  -9.8496    160.5418     43.3236   2.7645357670e+01   3.9183813154e+01    0.3033061    0.1771314  84.58 0.0001336511    2.096    0.523
       186 -10.3022    155.8153     42.3925   2.8136079068e+01   4.0538684987e+01    0.3026984    0.2499905  13.86  0.001543409    1.511    0.338
       187 -10.1662     92.6685     41.7797   4.2698266309e+01   5.6428243137e+01    0.3881812    0.2113584  55.98  0.001621651    1.902    0.474
       188  -9.8335     57.1282     41.7296   5.6082247303e+01   6.3568074969e+01    0.2431889    0.1648926  41.96   0.00124289    1.546    0.353
       189  -9.6310     17.2567     41.9698   7.6586280911e+01   6.8626147660e+01    0.2251482    0.1062664 -39.06  0.001056884    2.028    0.507
       190  -9.9371    231.5227     38.4529   1.7706640751e+01   2.2749919743e+01    0.2837738    0.1139526 -30.40  0.001229994    2.237    0.553
       191 -11.4962     80.0454     34.8672   4.3913347420e+01   6.0335059922e+01    0.8257257    0.5743183 -25.02  0.004133474    1.514    0.340
       192 -10.2343     88.4798     29.2891   3.8604233832e+01   5.9306976291e+01    0.4725216    0.2161151  47.87  0.001939689    2.077    0.518
       193 -11.2721     60.8643     36.3574   5.2063259350e+01   6.3896984439e+01    0.4483074    0.3194139 -17.59  0.001543471    1.574    0.365
       194  -9.4698     70.5450     34.4959   4.7252082603e+01   6.2365890159e+01    0.2239444    0.1735922 -27.01 0.0005512052    1.287    0.223
       195  -9.9404     67.6655     31.9710   4.7206685275e+01   6.3352903521e+01    0.3353331    0.2336903  20.73  0.001221369    1.667    0.400
       196 -11.2091     57.3087     30.7397   5.0972880886e+01   6.5512409514e+01    0.4701337    0.3074766 -22.54  0.001439739    1.669    0.401
       197 -11.5907     48.9137     30.4554   5.4728246940e+01   6.7004908095e+01    0.6466556    0.2689448  35.73  0.001769857    2.567    0.610
       198 -10.7547     43.0317     28.0539   5.6483960054e+01   6.8362544265e+01     0.204129    0.1797155 -11.23            0    1.024    0.024
       199 -11.2855      4.8859     36.1492   8.2018943204e+01   7.0782134483e+01     0.365292    0.3083745 -15.54  0.001759883    1.225    0.184
       200  -8.7977    183.6945     38.2929   2.2741756778e+01   3.3958733447e+01     0.149427   0.09798794 -63.41 0.0003345261    1.578    0.366
       201 -10.9026    176.0197     34.3421   2.2570333306e+01   3.6408109313e+01    0.6198723    0.2920746 -41.54  0.001898531    1.964    0.491
       202  -9.1612    194.4598     38.4633   2.1470185912e+01   3.1274588817e+01    0.1335536    0.1316997 -81.48 0.0008039795    1.151    0.131
       203  -9.4629    131.9171     36.4382   3.0540991824e+01   4.7581949610e+01    0.2132659    0.1255424 -86.07 0.0008067498    2.527    0.604
       204  -9.6469     94.0850     35.8625   3.9768584856e+01   5.7042675966e+01     0.219026    0.1909991 -73.93 0.0006198297    1.342    0.255
       205  -9.1787    229.3590    248.2914   6.0529441636e+01  -5.3936978362e+00    0.1115972   0.06228962   9.27 0.0007028357    1.692    0.409
       206 -12.1654    164.3559     27.6820   2.2076780438e+01   4.0238277255e+01     0.335528    0.2766203 -82.52  0.000440882    1.166    0.143
       207  -9.9387    174.7089    246.5490   6.9641506986e+01   1.7852764089e+00    0.2260135   0.08877899  31.95  0.001136348    2.095    0.523
       208 -11.2874    126.5746    241.8788   7.8166286349e+01   9.1523025384e+00    0.2534808    0.1844488  58.72  0.001093627    1.507    0.336
       209 -11.4608    106.3735     32.7681   3.5011350788e+01   5.4560170478e+01    0.6278121    0.3808888  11.14  0.002446696    2.758    0.637
       210 -11.5133     67.5200    240.9960   8.9761735739e+01   1.7233322474e+01    0.3057711    0.2020069  18.18  0.001119875    2.045    0.511
       211 -11.0996     32.4563     30.9416   6.3560570627e+01   6.9315383229e+01    0.2847413    0.1979518 -46.31 0.0003512226    1.348    0.258
       212 -10.2935     11.8296     30.1787   7.5630412034e+01   7.1591826716e+01    0.3996675    0.1505724 -47.07   0.00184325    2.134    0.531
       213 -10.2293      7.7709     30.3776   7.8299481893e+01   7.1846522379e+01    0.2772476    0.1652317  -9.53  0.001412774    1.908    0.476
       214  -9.5246    230.0170     30.7543   1.5980829104e+01   2.4008659352e+01    0.1713036    0.1508264 -71.59 0.0004336488    1.109    0.098
       215 -11.1557    146.9249    237.8055   7.3739490644e+01   6.8676675793e+00    0.3624437    0.2155599  45.71  0.001883712    1.553    0.356
       216 -10.4195    131.2101    240.5899   7.7118312825e+01   8.6936933849e+00    0.1716979   0.09417708  28.66 0.0009483459    1.661    0.398
       217 -10.3752    197.7175     29.0421   1.8506478670e+01   3.1656112902e+01    0.3265916    0.2205012  69.96  0.001579986    1.487    0.328
       218 -11.2990    188.8745     28.0554   1.9174519011e+01   3.3946797911e+01    0.3764207    0.3174405 -15.08  0.001221836    1.383    0.277
       219 -11.2571    183.2334     25.4807   1.9059832116e+01   3.5663123978e+01    0.5241752    0.2880075  55.81   0.00239341    1.893    0.472
       220 -12.2364    126.2693     28.6896   2.8800911087e+01   5.0073344746e+01    0.5639064     0.426479  79.66  0.002851467    1.369    0.270
       221 -10.0219    239.8266     32.8177   1.5688424619e+01   2.1675244093e+01    0.2737856    0.1792046  47.59  0.001471812    2.018    0.504
       222  -9.6197    150.1976     27.5937   2.4125412183e+01   4.3950415365e+01    0.2103327    0.1232228  56.78 0.0005043804    1.641    0.391
       223 -10.4399    155.6823     24.6928   2.2324335778e+01   4.2857991328e+01     0.431426    0.2412768 -89.80  0.001511864    2.103    0.524
       224 -10.1112    155.8531     20.7253   2.0982564907e+01   4.3267682346e+01    0.3184992    0.1818698  63.17  0.001241901    1.637    0.389
       225 -11.5037    145.9254     23.9315   2.3536829725e+01   4.5509936157e+01    0.7700318     0.242338  53.40  0.002637301    2.968    0.663
       226  -9.0168    167.5003    238.4760   6.9919108461e+01   3.8449344026e+00    0.1178834   0.09233568  26.50 0.0002754681    1.010    0.010
       227  -9.5763     22.8272    126.9167   9.0640463265e+01   4.7370478778e+01    0.1904253    0.1579197 -68.64  0.000404595    1.164    0.141
       228  -9.1294    199.5340    234.9747   6.3632033591e+01  -1.2797925949e-01    0.1517168   0.08447676  -9.48 0.0006048756    2.408    0.585
       229  -9.7973    246.4845    230.5158   5.5212597069e+01  -5.5637171016e+00    0.1074491   0.07884335   5.43 0.0008100998    1.029    0.028
       230  -9.1936     75.5093    224.4919   8.6816205076e+01   1.9165010627e+01    0.1231578    0.0964587  52.36 5.067858e-05    1.012    0.011
       231 -10.3898     90.8057     22.0918   3.4615667869e+01   5.9739163494e+01    0.3354892    0.2590322 -20.80  0.001398945    1.358    0.264
       232  -9.0408    120.7067    223.6522   7.7264249356e+01   1.2935289006e+01    0.1175974   0.09211412   0.13 0.0007030387    1.670    0.401
       233 -10.6910     38.8210     22.1893   5.5693810321e+01   7.0018756312e+01    0.2331534     0.193993 -10.66 0.0004416984    1.104    0.094
       234  -9.7986     49.6679    222.6721   9.2090898894e+01   2.2754730334e+01    0.1033993   0.09171466 -20.83 0.0007051599    1.715    0.417
       235  -9.3814    223.5042     22.3338   1.4450186394e+01   2.6421589614e+01    0.1995915    0.1141934  78.54 0.0006247732    1.799    0.444
       236 -10.9164    179.0956     20.6799   1.8106153932e+01   3.7260058831e+01    0.5201964    0.2505397  43.33  0.002079183    2.782    0.641
       237  -9.7971      5.8057     22.0115   7.6394233495e+01   7.3716157751e+01    0.1889983    0.1574619 -12.81 0.0006504476    1.180    0.152
       238  -9.6574    164.7620    212.0224   6.6727343536e+01   8.1045605798e+00      0.17968    0.1575019  47.83  0.000648275    1.285    0.222
       239 -10.0732     59.7844     23.5455   4.6292303337e+01   6.6207601661e+01    0.2283327    0.1738846 -31.01 0.0005313313    1.294    0.227
       240  -9.6320    152.2821    206.6123   6.8429803245e+01   1.0939336093e+01      0.21156    0.1620272 -62.86  0.001246019    1.730    0.422
       241  -9.3270    216.4959     20.4994   1.4544848953e+01   2.8213456099e+01     0.132223    0.1110939 -60.18 0.0008106832    1.003    0.003
       242  -9.8644     46.9293     19.5250   5.0047062283e+01   6.9148279478e+01    0.2557721    0.2091132 -14.27  0.001550821    1.146    0.127
       243  -8.8698      1.4542     20.4996   7.8875947585e+01   7.4302379688e+01    0.1216713   0.09436188 -39.13 0.0004328461    1.046    0.044
       244  -8.8858     61.5170    206.5002   8.8271646486e+01   2.4487484982e+01    0.1262873    0.1019724  58.22 -2.270207e-05    1.001    0.001
       245 -10.5294      4.3474    204.9169   1.0065180490e+02   3.1016489791e+01    0.2130266    0.1166565 -69.84  0.001290795    1.937    0.484
       246  -9.0832     78.3586    203.7104   8.4208729279e+01   2.2803834803e+01    0.1386759   0.07979091  58.67 0.0005057814    1.687    0.407
       247 -10.7121      6.2742    198.1407   9.9972023953e+01   3.2243831683e+01    0.2250818    0.1201711  87.22  0.001331803    1.633    0.387
       248  -9.7056     16.4505    191.3394   9.7389541911e+01   3.2752722878e+01    0.1650316   0.09334026  80.08  0.000945246    1.546    0.353
       249  -8.9307     53.0002    190.4771   8.8802182945e+01   2.8936701191e+01     0.156984    0.1122989  -3.00 0.0008074785    2.388    0.581
       250 -12.4199      4.5636    184.1763   9.9748154623e+01   3.5375192734e+01    0.6165258    0.3728645  82.26  0.003310187    1.373    0.272
       251  -9.3020     86.0359    185.5204   8.0317062981e+01   2.5491936434e+01    0.2070302    0.1204414  37.41  0.001023683    1.565    0.361
       252  -9.7880     27.9277    175.8613   9.3675128205e+01   3.5054224151e+01    0.1782262    0.1618358 -86.69 0.0006497974    1.220    0.181
       253  -9.6543    120.0635     15.9294   2.5028406757e+01   5.3172488425e+01    0.2265174    0.1565086  32.94 0.0004631197    1.633    0.388
       254 -10.5710    186.8118     15.0257   1.5665739186e+01   3.5932904023e+01    0.2281707    0.1837631  78.26 0.0003176248    1.200    0.167
       255  -8.9122    174.3113     15.6998   1.7132984651e+01   3.9023580884e+01    0.1478232   0.09189183 -62.41 0.0003528207    1.604    0.377
       256 -10.3027     15.8790    174.3059   9.6539293019e+01   3.6578724554e+01    0.2287891     0.140041  80.65  0.001325897    1.407    0.289
       257  -9.6898     74.7880     19.6514   3.8506474994e+01   6.3686815705e+01    0.2569886    0.1893731  15.89 0.0006574632    1.501    0.334
       258 -12.5172      9.5776    165.3828   9.7566533703e+01   3.9178984531e+01    0.5869399    0.4166473 -60.73  0.002406129    1.568    0.362
       259 -10.4807     13.9151    159.1745   9.6051987707e+01   4.0259886472e+01    0.2480248    0.1720053  71.94 0.0007342559    1.213    0.175
       260 -10.6746     18.5849    165.0800   9.5249243901e+01   3.8455741330e+01    0.2723029     0.233354  -2.95  0.001768438    1.633    0.388
       261  -9.7926    204.8731    163.3490   5.0444513178e+01   9.1988643065e+00    0.2126252    0.1714881 -36.09  0.000615591    1.276    0.216
       262 -10.5535     28.1173    161.6369   9.2491218232e+01   3.8346055998e+01    0.2764818    0.2181415 -67.96  0.001708239    1.316    0.240
       263 -11.1499      9.2430    155.2779   9.7026337694e+01   4.1572307515e+01     0.299419     0.189677  84.59  0.001182155    1.334    0.250
       264  -9.7306    103.9989    155.0015   7.1163816362e+01   2.9372929582e+01    0.2709838    0.1991739 -59.56  0.001368353    1.412    0.292
       265 -10.6696     30.5374    152.4399   9.1000069055e+01   4.0308111526e+01    0.3452965    0.2253451  77.54  0.001736651    1.419    0.295
       266 -12.5148     22.5546    149.2780   9.2936254729e+01   4.1856136831e+01    0.6146498    0.3430153 -41.72  0.001824671    2.492    0.599
       267 -11.0863     16.5059    147.9435   9.4516120687e+01   4.2722912448e+01    0.3172155    0.2233647 -88.73 0.0003946619    1.213    0.176
       268 -10.6917      4.0963    153.4176   9.8277706998e+01   4.2414728485e+01    0.2986615     0.157635  49.15  0.001159341    1.685    0.407
       269 -11.1846     47.2231    147.2372   8.5696742070e+01   3.9726151365e+01    0.6753343    0.3779123 -48.69   0.00315896    2.076    0.518
       270  -8.7310    142.6812    152.6962   6.1113393064e+01   2.2710649365e+01     0.146057    0.1145701   1.09 0.0003395921    1.628    0.386
       271  -9.2462     67.0184    149.2131   8.0308536915e+01   3.6637744366e+01    0.1807539    0.1101253  35.35 0.0003510909    1.643    0.391
       272 -11.6470      5.8379    142.1480   9.7082760844e+01   4.4980063144e+01    0.6480558    0.2481345  73.56 0.0003351324    2.771    0.639
       273 -11.2675      2.1321    140.1295   9.7997290975e+01   4.5732128232e+01    0.3951916    0.1876796 -82.53 0.0009109828    1.769    0.435
       274 -10.6399      3.0738    147.4993   9.8197623277e+01   4.3895851334e+01    0.2444413    0.1597443 -84.89 0.0008516778    1.285    0.222
       275 -10.9699     33.1745    144.2817   8.9416191730e+01   4.2034278534e+01    0.2840799     0.240401  85.22 0.0007687316    1.021    0.021
       276 -10.8653     40.1025    138.0814   8.6640899434e+01   4.2827573483e+01    0.3964009    0.2379086 -83.89 0.0008769184    1.612    0.380
       277  -9.7187     39.3790    133.4577   8.6266431986e+01   4.4067931534e+01    0.2133172    0.1381942  21.85 0.0006189045    1.836    0.455
       278 -10.3305     16.2369    140.9998   9.4016675786e+01   4.4439445727e+01    0.2550242    0.1361642  88.92 0.0005198913    1.713    0.416
       279 -11.5885     12.6518    136.0540   9.4645970989e+01   4.5948470231e+01    0.5547503    0.3741794 -63.73  0.003215195    1.429    0.300
       280 -10.1864     79.9263    138.5024   7.4844972718e+01   3.7305834846e+01    0.3182578     0.213143  46.93 0.0009293681    1.451    0.311
       281 -11.5952     22.6873    136.5032   9.1697554682e+01   4.4985525638e+01    0.5818216    0.3400452  49.23  0.003062632    1.641    0.391
       282 -11.1964     29.9436    133.1265   8.9129828898e+01   4.5140862642e+01     0.407972    0.2919283 -45.04 0.0007766184    1.629    0.386
       283  -9.7827     47.4037    134.8039   8.3985878236e+01   4.2799192557e+01    0.2613209    0.1272536 -74.91  0.001115164    2.033    0.508
       284  -9.9446     31.8306    137.5780   8.9068396820e+01   4.3837436056e+01     0.350772    0.1930697  27.33  0.001213485    1.989    0.497
       285  -9.4236    103.8959    131.3238   6.6569323134e+01   3.4881012737e+01    0.2007339     0.185391  48.05 0.0005030051    1.079    0.073
       286  -8.8913     63.0000    130.9599   7.8590451207e+01   4.1720691872e+01    0.2331133   0.07762937 -63.77 0.0007681013    2.877    0.652
       287 -11.2911     10.2365    127.7212   9.4658340995e+01   4.8194231941e+01    0.4972354    0.2731774 -61.51  0.001862893    1.689    0.408
