#   1 NUMBER                 Running object number                                     
#   2 MAG_AUTO               Kron-like elliptical aperture magnitude                    [mag]
#   3 X_IMAGE                Object position along x                                    [pixel]
#   4 Y_IMAGE                Object position along y                                    [pixel]
#   5 X_WORLD                Barycenter position along world x axis                     [deg]
#   6 Y_WORLD                Barycenter position along world y axis                     [deg]
#   7 A_WORLD                Profile RMS along major axis (world units)                 [deg]
#   8 B_WORLD                Profile RMS along minor axis (world units)                 [deg]
#   9 THETA_WORLD            Position angle (CCW/world-x)                               [deg]
#  10 FWHM_WORLD             FWHM assuming a gaussian core                              [deg]
#  11 ELONGATION             A_IMAGE/B_IMAGE                                           
#  12 ELLIPTICITY            1 - B_IMAGE/A_IMAGE                                       
         1 -14.1357    204.9290     92.0989   7.6339201123e+01   2.1442784029e+01      2.04355     1.751172 -12.37  0.006067185    1.153    0.132
         2 -15.7365    197.6008    118.4064   8.4293609280e+01   1.9024195694e+01     4.085324     2.217129  51.83  0.006289752    1.841    0.457
         3 -10.2930    213.0542     45.4379   6.1923848396e+01   2.6043236088e+01    0.3939084    0.2675389 -28.80  0.001538282    1.413    0.292
         4  -9.7926    190.4146     27.3550   5.9650156521e+01   3.4150629777e+01    0.4770704    0.1876155  48.46  0.001703282    2.533    0.605
         5  -9.4572    243.1968      7.6218   4.7953644364e+01   2.2716533361e+01    0.1903282    0.1157941  59.95 0.0008669664    1.692    0.409
         6  -9.8242    210.1478    218.3272   1.0076369469e+02   3.2736831379e+00    0.1606816    0.1242993  20.80   0.00116409    1.159    0.137
         7  -9.6447    182.8695    217.8328   1.0517989067e+02   7.6877329658e+00    0.1786904    0.1293578  28.69 0.0008653626    1.261    0.207
         8  -9.9132    195.2333    215.6872   1.0282689489e+02   5.9501187439e+00    0.2065602    0.1549179 -12.55  0.001430446    1.638    0.390
         9 -10.3491    234.9085    213.1515   9.6052313568e+01  -9.0474882092e-02    0.3758998    0.2206083  -5.01   0.00228979    2.038    0.509
        10  -9.0612    174.6588    211.3312   1.0569010362e+02   9.8190954809e+00    0.1140086   0.08191415  65.35 0.0007051401    1.747    0.428
        11  -9.0863    227.1299    210.1555   9.6816020828e+01   1.4291426862e+00    0.1504902    0.1215006  42.84 0.0009851669    1.352    0.260
        12  -9.0428    196.2817    203.0217   1.0080104434e+02   7.2730150966e+00    0.1602648    0.1336568  30.94 0.0005384606    1.063    0.059
        13 -10.0542    130.9830    203.5121   1.1237626310e+02   1.7933159674e+01    0.1848816    0.0943554  43.86 0.0008374783    1.595    0.373
        14  -9.8622    184.4695    201.9810   1.0267249604e+02   9.3874810264e+00    0.1531913    0.1189887 -35.85 0.0009419176    1.582    0.368
        15 -10.4660    189.9747    200.4484   1.0149153550e+02   8.6531049536e+00    0.3327621    0.1715626  52.19  0.001743162    1.968    0.492
        16 -10.4539    207.6505    188.3233   9.6514142145e+01   7.1270182012e+00    0.8243084    0.5092145  74.94  0.002775184    6.698    0.851
        17  -9.4799    214.1728    199.8347   9.7298613360e+01   4.6522405177e+00    0.3200302    0.2160002  -1.04   0.00197206    1.740    0.425
        18 -10.0353    212.2412    197.0183   9.7168050943e+01   5.2999644676e+00    0.3001579    0.1831705 -41.56  0.001768703    2.128    0.530
        19 -10.1175    195.7910    195.5731   9.9734474224e+01   8.2758816566e+00    0.3219245    0.1929701 -50.29  0.001787189    2.409    0.585
        20 -11.5110    153.1716    194.7741   1.0720827449e+02   1.5656010267e+01    0.5291522    0.2815197  46.52  0.002915054    1.553    0.356
        21  -9.5997    200.0375    192.9336   9.8580904096e+01   7.8757825205e+00    0.2618918    0.1515017 -16.28  0.001360207    2.482    0.597
        22  -9.5723    226.7558    191.4792   9.3846711168e+01   3.4824269172e+00    0.2252722    0.1653892   8.51 0.0008646586    1.311    0.237
        23  -9.6844    116.5228    192.5031   1.1371327048e+02   2.1914174651e+01    0.1180343   0.09658611  57.31 0.0002632995    1.006    0.006
        24  -9.7081    232.6495    189.0209   9.2465802189e+01   2.7635071520e+00    0.3041379    0.1873351  59.52  0.001585285    2.550    0.608
        25  -9.6909    198.4689    184.8523   9.7522899864e+01   9.1799415997e+00    0.3648519    0.1512389  53.31   0.00150044    2.878    0.653
        26 -10.2530    203.9211    175.9395   9.5022331991e+01   9.3677299234e+00    0.3611843    0.2375189  40.56   0.00092766    1.298    0.229
        27 -10.4967    198.1217    178.0278   9.6415915757e+01   1.0142709438e+01    0.6652173    0.3358951 -17.05  0.002749732    3.598    0.722
        28 -10.3277    193.2891    185.3450   9.8517983492e+01   1.0033269183e+01    0.3249833    0.1808615 -32.92  0.001750681    2.132    0.531
        29 -10.1217    194.1432    181.1987   9.7669786614e+01   1.0434732372e+01    0.2278925    0.1932511 -27.08 0.0007935929    1.353    0.261
        30 -11.3108    181.6709    185.6681   1.0064781777e+02   1.2047808482e+01      0.29354    0.2731689 -45.48  0.002049091    1.320    0.243
        31 -11.2378    179.1559    183.8232   1.0080523508e+02   1.2752402305e+01    0.3258354    0.2566286  -2.37   0.00202943    1.547    0.354
        32  -9.8787    247.7119    183.5639   8.9103304255e+01   8.3989615731e-01    0.2428043    0.1894043  42.29  0.001627005    1.397    0.284
        33 -10.7094    188.1901    182.3938   9.8936238574e+01   1.1339682428e+01    0.3088758    0.2267289 -47.90  0.001590595    1.718    0.418
        34  -9.7262    206.8579    181.7681   9.5533001611e+01   8.0861448940e+00    0.2530316    0.1852843 -26.78  0.001568439    1.535    0.349
        35  -9.0700    222.0231    182.4730   9.3072543073e+01   5.3261192612e+00    0.1911903    0.1039751  43.19  0.001029702    1.590    0.371
        36 -11.0860    170.4040    181.9020   1.0210256433e+02   1.4585578474e+01    0.3563423    0.2027165  55.71  0.001829722    1.872    0.466
        37  -9.7831    210.9614    179.5448   9.4434833948e+01   7.6356094283e+00    0.2112707    0.1734046  -9.66 0.0004232554    1.285    0.222
        38 -10.6647    161.6609    176.3535   1.0285098424e+02   1.6984064108e+01    0.2793993    0.1390207  54.85  0.001079561    2.152    0.535
        39 -11.4362    219.9208    175.1663   9.2116956482e+01   6.5778393847e+00    0.3175976    0.1966758  39.81 0.0004616694    1.382    0.276
        40 -13.3693    200.1284    159.7231   9.2695566955e+01   1.2293232526e+01     1.772957     1.097598  26.25  0.009022105    1.730    0.422
        41 -14.5896    173.5030    155.9485   9.6989906426e+01   1.8003023067e+01     2.311348      1.59996  50.99   0.01256798    1.374    0.272
        42 -14.1561    182.0986    140.5387   9.2236701553e+01   1.8772916481e+01     2.389349     1.554464  67.26  0.007816614    2.169    0.539
        43  -9.1655    248.5209    234.4725   9.7150371845e+01  -4.0138916057e+00    0.1471691   0.09348572 -35.10  0.001030326    2.263    0.558
        44 -13.9351    199.3970    144.6475   8.9804651197e+01   1.4627079899e+01     2.293715     1.377773  45.53   0.00946521    1.534    0.348
        45 -11.0500    128.9691    156.3639   1.0611900427e+02   2.6179560313e+01    0.4275531    0.2491725  51.82  0.001946505    1.609    0.378
        46 -11.4430    141.4054    153.1984   1.0297143950e+02   2.4532278448e+01    0.4888094    0.2964301 -45.17  0.002509059    1.834    0.455
        47 -14.1159    198.2666     76.0608   7.3145155104e+01   2.5471558792e+01      2.61914     1.347332  49.88  0.007940783    1.904    0.475
        48 -13.3795    223.5049    138.6741   8.4235708091e+01   1.0631923509e+01     1.050535    0.7338756  13.62 0.0009615775    1.524    0.344
        49 -11.2338    158.1781    147.1997   9.8385125668e+01   2.2427383086e+01    0.3646127    0.2347018 -46.29  0.001158149    1.705    0.413
        50 -10.8783    154.8495    144.4677   9.8543170053e+01   2.3549710712e+01    0.3097758    0.2803369 -18.42  0.001351001    1.247    0.198
        51 -10.7283    114.8358    150.7162   1.0821648615e+02   2.9649097615e+01    0.4048125    0.2476268 -70.09  0.001958519    1.937    0.484
        52 -12.0264    204.6952    128.2918   8.5268606341e+01   1.5981625230e+01    0.5065235    0.3907847 -11.96 0.0007409526    1.366    0.268
        53 -14.4963    181.6513     92.8247   8.0916930252e+01   2.6796764347e+01     3.144032      1.36004  46.19  0.009760098    2.268    0.559
        54 -10.3084    135.6030    141.6668   1.0210446836e+02   2.7714277051e+01     0.371266    0.2161154 -56.60 0.0008275965    1.925    0.481
        55 -10.0916    239.8309    139.2706   8.1650504609e+01   7.3546984278e+00    0.3001736    0.2058796  21.78  0.001633547    1.412    0.292
        56 -10.2811    236.4073    136.2598   8.1555056265e+01   8.4010147371e+00    0.2784022    0.2273673 -28.05 0.0009219841    1.295    0.228
        57 -11.1914    149.5227    136.9603   9.8176864394e+01   2.5932968667e+01    0.4529553    0.3438665  89.07  0.002324422    1.777    0.437
        58  -8.8656    246.9891    137.9953   8.0237566437e+01   6.1478386770e+00    0.1599461    0.1323136  -2.26 0.0004496505    1.080    0.074
        59  -9.0839    222.3405    170.6156   9.0867104941e+01   6.7030674360e+00    0.1722591    0.1539313  74.95  0.001095625    1.638    0.389
        60 -10.6720    155.8606    126.4725   9.4601807471e+01   2.6573927258e+01    0.3207669    0.2859516  59.39 0.0008907488    1.128    0.114
        61  -9.4155    209.3241    168.6687   9.2748505217e+01   9.3352471805e+00    0.2752896    0.1841497 -36.26  0.001560393    1.698    0.411
        62 -10.2416    205.6946    167.3280   9.3139135358e+01   1.0188552704e+01     0.292852    0.2054233  -4.10  0.001629363    1.683    0.406
        63 -11.2913    138.2847    119.4571   9.6955880352e+01   3.1440946524e+01    0.6863219     0.246782 -37.43  0.002222959    3.790    0.736
        64  -9.9422    153.9018    120.0347   9.3585755814e+01   2.8157516141e+01    0.2764258    0.2197476  67.15 0.0003307764    1.409    0.291
        65 -11.8523    149.7353    119.5359   9.4390700073e+01   2.9111631213e+01    0.6778694    0.3459388 -30.34  0.002628453    2.709    0.631
        66 -11.2752    177.4741    222.2482   1.0666004454e+02   8.0187066016e+00    0.5064676    0.2338452  54.02  0.001624264    2.373    0.579
        67 -11.1514    162.6991    114.9055   9.0481324593e+01   2.7231364500e+01    0.4193826    0.2973196 -60.76  0.001371936    1.765    0.433
        68  -9.4316     96.4817    118.0406   1.0671212364e+02   3.9272311914e+01    0.2061834    0.1251877 -57.80  0.001033869    1.595    0.373
        69 -11.9938    229.0885    106.7054   7.5937174704e+01   1.3868684750e+01    0.5688427    0.4747904 -16.08  0.002104278    1.136    0.119
        70 -10.6310    242.1378    108.8943   7.4401363900e+01   1.0803925657e+01    0.3940441    0.1664471  45.47  0.001639829    2.309    0.567
        71  -9.2061    218.6086    166.9528   9.0814340285e+01   7.8435680328e+00     0.227447    0.1574982 -44.26  0.001278092    1.861    0.463
        72 -10.1457    129.9852    106.4205   9.5900381839e+01   3.5647679596e+01    0.2624243    0.1980428 -29.49 0.0003475031    1.530    0.346
        73  -9.7797    101.5989    105.7545   1.0286777877e+02   4.1024584679e+01     0.260424     0.175009 -63.44  0.001316298    1.530    0.346
        74 -10.3346    147.1501    106.4704   9.1877127229e+01   3.2113470817e+01    0.3099449    0.2290377   4.15  0.001429602    1.939    0.484
        75 -10.8494    242.1647    102.3107   7.2816004935e+01   1.1660587256e+01    0.5432851    0.2404109 -29.26  0.002292271    2.106    0.525
        76 -10.2765    129.4818    164.4881   1.0731725946e+02   2.4623883521e+01      0.24677    0.1761663  47.16 0.0008496047    1.247    0.198
        77 -10.2432    126.0038    100.9943   9.5552881435e+01   3.7520026408e+01    0.2394272    0.1985574 -48.30 0.0003357447    1.197    0.165
        78  -9.4958    211.1354    162.6676   9.1294864951e+01   9.7945831245e+00    0.2744118     0.170431  45.99  0.001468363    1.487    0.328
        79  -9.1876    244.0653     94.2506   7.0560255004e+01   1.2309185208e+01    0.2955049    0.1654961   4.33  0.001183582    2.609    0.617
        80  -9.9292    224.8589     85.8892   7.1361542086e+01   1.7712467317e+01    0.2957636    0.2195562  27.91  0.001490072    1.413    0.292
        81 -10.2290    226.0871     90.3508   7.2323467190e+01   1.6809447888e+01    0.3908973    0.2277218  12.67  0.001275481    2.551    0.608
        82 -10.9035    231.2970     91.8487   7.1887320520e+01   1.5428451299e+01    0.4803463     0.362199 -31.39  0.002075185    1.286    0.222
        83  -9.4865    243.0003     89.0062   6.9411606973e+01   1.3223131713e+01    0.2740761    0.1707145   6.60 0.0008414795    2.021    0.505
        84  -9.6335    246.1285     85.9085   6.8187537410e+01   1.2943508268e+01    0.2905767    0.1990459 -34.39  0.001495977    1.402    0.287
        85  -9.2542    123.6107     88.7403   9.2990444093e+01   4.0451111872e+01     0.207321    0.1338177 -53.26 0.0009498108    1.613    0.380
        86 -10.0309    120.1277    158.6927   1.0835370426e+02   2.7260774114e+01    0.2039168    0.1627362  69.18  0.001239841    1.228    0.185
        87  -9.3115    143.3269     84.3528   8.6910289080e+01   3.7121512251e+01    0.2351906    0.1788083  11.82  0.001096191    1.698    0.411
        88 -10.4152    232.4421     81.6976   6.9102177836e+01   1.6548570510e+01    0.3130645    0.2346362 -40.78  0.001073916    1.375    0.273
        89  -9.6083    228.9943     78.4555   6.8770497385e+01   1.7780037021e+01     0.265016    0.1458253  62.45   0.00113486    2.068    0.516
        90 -10.5362    220.5264     81.6012   7.0918640827e+01   1.9320054353e+01    0.3174886    0.3059749  80.64  0.001439744    1.179    0.152
        91 -10.5343    222.3235     76.0211   6.9141340136e+01   1.9675871616e+01    0.4324853    0.2309726 -40.31  0.001524418    1.892    0.472
        92 -11.3132    167.8850     80.3044   8.0247655563e+01   3.2170575822e+01    0.5103053    0.4025755 -26.55  0.001189083    1.289    0.224
        93 -11.6759    238.0249     75.9919   6.6802894654e+01   1.6033946758e+01    0.7055555    0.6594682 -21.83  0.003489023    1.066    0.062
        94 -12.8836    170.5147    141.3008   9.4696676474e+01   2.0995514861e+01    0.8718623     0.709919  37.29  0.004624599    1.148    0.129
        95  -9.4015    133.4782     72.4689   8.5810561977e+01   4.1516860405e+01     0.269536    0.1459742  61.30  0.001038631    2.374    0.579
        96 -10.4481    243.1022     66.1294   6.3533259742e+01   1.6143765850e+01    0.5008348    0.3606652 -89.59  0.002399826    1.903    0.475
        97  -9.6466    194.9426     67.4684   7.1268183173e+01   2.7580531137e+01    0.2628924    0.1951752  62.00 0.0006250487    1.422    0.297
        98 -10.2621    220.3957     65.3390   6.6517613499e+01   2.1600974476e+01    0.3966544    0.2651965 -22.96   0.00188085    1.459    0.315
        99  -8.5912     32.0028     67.2668   1.1517519581e+02   5.8473718629e+01    0.1265918    0.1078313  25.99 0.0003008177    1.450    0.310
       100 -10.7573    201.9672     62.8546   6.8722010516e+01   2.6495465848e+01    0.5058314    0.2163998 -29.75  0.001398175    2.249    0.555
       101 -10.1445    166.4441     65.4700   7.6115525111e+01   3.4994217438e+01    0.2787571    0.2619599 -76.20 0.0007057419    1.175    0.149
       102 -11.5083    214.4184     60.5020   6.6065216053e+01   2.3720747662e+01    0.6377612    0.3189036  53.33   0.00263185    1.972    0.493
       103 -11.5539    181.9126     59.8064   7.1331301925e+01   3.2005096283e+01    0.5327186    0.3581828 -68.48  0.002219659    2.136    0.532
       104  -9.6560    173.8400     61.3484   7.3347405466e+01   3.3807249186e+01    0.2255701    0.1308313  45.55 0.0005338442    1.730    0.422
       105 -11.0205    190.2627     58.3230   6.9373112368e+01   3.0103360089e+01    0.4976351    0.3524199 -57.66  0.002258887    1.698    0.411
       106 -10.1733    122.2272     58.8597   8.4362547686e+01   4.6470569176e+01    0.2993445    0.1913993  23.28  0.001259056    2.153    0.536
       107 -10.4645    226.7043     55.6720   6.2929256617e+01   2.1342955995e+01    0.5781823    0.2843605  41.43  0.002317002    2.291    0.563
       108 -10.7521    206.5112     56.9727   6.6273167231e+01   2.6175921038e+01    0.3748925    0.2335336  65.31  0.001156436    1.736    0.424
       109 -11.2847    202.8777     53.6899   6.5881045139e+01   2.7543922308e+01    0.7787533    0.3088843 -26.49  0.002769442    2.504    0.601
       110 -10.2144    158.8468     55.2839   7.4468240311e+01   3.8508645606e+01    0.2524718    0.1996706 -39.33 0.0002389365    1.275    0.215
       111 -10.6405    213.8130     52.5993   6.3893852598e+01   2.4926892603e+01    0.4569157    0.1821868  64.49  0.001621326    2.754    0.637
       112  -8.7550    249.7458     52.5322   5.9152346392e+01   1.6294147275e+01    0.1805182    0.1356876 -89.93 0.0009377401    1.656    0.396
       113 -10.9622    197.0228     48.0395   6.5113896084e+01   2.9808356773e+01    0.3560027    0.2552499 -63.32  0.001631088    1.706    0.414
       114 -10.1421    195.0230     44.0339   6.4203126920e+01   3.0858987108e+01    0.2555819     0.214497 -20.54 0.0003474928    1.185    0.156
       115 -11.2923    223.4800     45.6553   6.0558614353e+01   2.3398607637e+01    0.7134702    0.3477279  33.36  0.002615534    2.862    0.651
       116  -9.4763    231.5156    222.4650   9.7984819545e+01  -4.5972001784e-01    0.2152373    0.1386667  50.48  0.001401189    1.778    0.438
       117  -9.1531    175.0056     43.6860   6.7488530285e+01   3.6114273010e+01    0.2627767    0.1717933 -26.85  0.001172167    1.524    0.344
       118  -9.6987    163.1308     44.1187   6.9880939345e+01   3.9115742461e+01    0.2447994    0.2048971  21.22 0.0009227952    1.258    0.205
       119 -10.6972    170.9727     48.5061   6.9814359564e+01   3.6470019106e+01    0.4354797    0.2216527  61.35  0.001701166    2.048    0.512
       120  -8.8372    186.8489     41.6010   6.4763566062e+01   3.3310117643e+01    0.2132293    0.1465067  80.74 0.0007311231    1.752    0.429
       121  -9.4610    159.6899     39.2087   6.8884848512e+01   4.0695552900e+01    0.3244356    0.1138259 -35.83  0.001087358    2.699    0.629
       122 -10.8883    168.8721     36.0480   6.6057674337e+01   3.8750181836e+01    0.5147958    0.1814888 -24.95  0.001678541    2.964    0.663
       123  -9.5047    244.5912     35.8682   5.5338148833e+01   1.9428455065e+01    0.3365221    0.1506905  62.19  0.001420907    2.282    0.562
       124  -9.0614    206.4068     36.2119   6.0119448232e+01   2.8895698477e+01    0.2189597    0.1263576 -37.06 0.0009474109    1.676    0.403
       125  -9.3039    234.8251     44.9381   5.8913474573e+01   2.0707304468e+01    0.2320811    0.1895684  14.80  0.001242193    1.333    0.250
       126  -9.0282    175.6897     34.3145   6.4269147710e+01   3.7189930601e+01    0.3323004    0.1442788  42.79  0.001173354    2.527    0.604
       127  -9.0780    142.6717     34.3239   7.0687615033e+01   4.5681202934e+01    0.1540813    0.1157141 -64.00 0.0003887107    1.696    0.410
       128  -9.4849    236.8876     30.6311   5.4756964521e+01   2.1863184989e+01    0.2472152    0.1916597  -5.84 0.0009811876    1.372    0.271
       129  -9.2687    174.8105     30.4061   6.3107460494e+01   3.7916325180e+01    0.2300875     0.127196  50.36 0.0009545588    1.746    0.427
       130  -8.7557    246.1841     28.2208   5.3139405137e+01   1.9897374461e+01    0.2350997    0.1257717  27.54 0.0009411192    2.763    0.638
       131 -10.5443    203.9493    219.4775   1.0193141626e+02   4.1326702541e+00    0.2545242    0.1952947  71.78  0.001659348    2.146    0.534
       132  -9.4133    225.5744     22.9667   5.3854838024e+01   2.5504712688e+01    0.2923274    0.1796317  48.68  0.001374014    1.703    0.413
       133  -9.9901    229.4258    155.8117   8.6803491713e+01   7.2464951931e+00    0.3250988     0.229119 -52.48  0.001007487    2.169    0.539
       134  -9.2973    209.1355     20.8293   5.5121902819e+01   2.9952612914e+01    0.3104187    0.1668082 -80.37  0.001172379    2.710    0.631
       135  -9.7123    182.6869     26.2175   6.0440641237e+01   3.6335510961e+01    0.3408485    0.2605824  80.73  0.001667973    1.428    0.300
