#   1 NUMBER                 Running object number                                     
#   2 MAG_AUTO               Kron-like elliptical aperture magnitude                    [mag]
#   3 X_IMAGE                Object position along x                                    [pixel]
#   4 Y_IMAGE                Object position along y                                    [pixel]
#   5 X_WORLD                Barycenter position along world x axis                     [deg]
#   6 Y_WORLD                Barycenter position along world y axis                     [deg]
#   7 A_WORLD                Profile RMS along major axis (world units)                 [deg]
#   8 B_WORLD                Profile RMS along minor axis (world units)                 [deg]
#   9 THETA_WORLD            Position angle (CCW/world-x)                               [deg]
#  10 FWHM_WORLD             FWHM assuming a gaussian core                              [deg]
#  11 ELONGATION             A_IMAGE/B_IMAGE                                           
#  12 ELLIPTICITY            1 - B_IMAGE/A_IMAGE                                       
         1 -10.8551    110.4278     39.7684   1.3851002858e+01   5.1887112630e+01     1.233689    0.4585394 -33.99  0.004424451    2.761    0.638
         2 -12.4245    119.2395     38.8043   1.1486124591e+01   4.9763468163e+01     1.002647    0.6336139 -21.83  0.003511834    1.909    0.476
         3 -12.0259    164.6284     18.0540   3.5770009585e+02   4.0687478544e+01    0.5720623    0.3244771  41.83   0.00263442    2.411    0.585
         4 -12.6171    164.2767     27.2401   4.5400027297e-01   3.9744264685e+01    0.4383855    0.3611617  86.04 0.0007836777    1.134    0.118
         5 -12.9205    111.4172     26.7642   8.5614812683e+00   5.3390477099e+01     1.489871    0.6524433  40.01  0.005257769    3.126    0.680
         6 -12.5269    105.7775     19.9637   6.9919645318e+00   5.5664108484e+01    0.3569082    0.3098099 -80.76 0.0003981721    1.156    0.135
         7 -12.0686     58.3411     29.2980   2.6325336207e+01   6.5880371498e+01    0.8462502    0.3778427 -27.84  0.001490624    2.928    0.658
         8 -11.5556     20.4767     21.5643   4.4466078963e+01   7.3779646555e+01    0.5770043    0.3610836 -28.35  0.001783842    1.661    0.398
         9 -11.8179    104.6646     12.6983   4.1725534888e+00   5.6727457347e+01    0.4641952    0.3696134  -6.59  0.001499487    1.507    0.337
        10 -10.9362    134.3039     21.4256   2.5141838740e+00   4.8037404890e+01     0.675123    0.3725596 -46.31  0.003124054    1.801    0.445
        11 -11.4134    127.3647     16.3563   1.7465461025e+00   5.0397961583e+01    0.5887708    0.3961956  -9.57  0.001331553    1.914    0.478
        12 -11.1547    135.2780     14.5248   3.5997524111e+02   4.8519412453e+01    0.6470901    0.2520466  67.38   0.00261426    2.240    0.554
        13  -9.6557     12.3299      2.0044   3.8308705834e+01   7.8251059487e+01    0.2254136    0.1693229  -9.41  0.001041358    1.261    0.207
        14  -9.3683      5.7237      9.9937   5.0396173844e+01   7.7623933902e+01    0.6683213    0.3942738 -40.24  0.003748338    1.542    0.351
        15 -10.9820      9.4847     19.3636   5.2215062976e+01   7.5439282142e+01     0.421501    0.2578993 -16.20  0.001208589    1.765    0.433
        16 -10.5110     13.1874      8.5216   4.2384815006e+01   7.7066005630e+01    0.3707926    0.3073941 -72.42   0.00226028    1.848    0.459
        17 -11.7416     16.0487     14.0668   4.3564054102e+01   7.5729308960e+01    0.7045382    0.3515326 -31.96  0.003317585    2.185    0.542
        18 -11.9743     22.8678     10.7016   3.5879386191e+01   7.5353044709e+01    0.6061149    0.4170365  10.75   0.00228184    1.547    0.354
        19 -11.6637     36.2081     17.9429   3.1511187852e+01   7.1990629592e+01    0.5988122    0.4290062 -42.54  0.002061622    1.531    0.347
        20 -12.3496     48.7541     12.8266   2.1496075102e+01   7.0286159697e+01    0.7048805    0.2873445  50.26  0.002957192    2.216    0.549
        21 -10.9647     85.5711     14.8398   9.4429346480e+00   6.1422995717e+01    0.6149784    0.3660668  13.65   0.00263557    2.529    0.605
        22 -10.7461     88.8041      8.0711   5.4111343050e+00   6.1284799608e+01    0.3204209    0.2830127 -44.27  0.001108142    1.242    0.195
        23 -11.2323    242.2726     15.0737   3.5147681641e+02   2.4177188411e+01    0.2074336    0.1958593 -46.12 0.0002436122    1.342    0.255
        24 -11.6038    228.0795     15.0273   3.5219855925e+02   2.6882128397e+01    0.3965794    0.1903243 -66.96  0.001380911    1.969    0.492
        25  -9.8138    218.8810     13.2577   3.5231472055e+02   2.8908049725e+01    0.2052579    0.1544965  10.11  0.001243061    2.128    0.530
        26 -10.9673    191.2644     10.8896   3.5347819238e+02   3.5110755567e+01     0.475574     0.245313 -14.87  0.002220188    2.678    0.627
        27 -10.5163    223.6002      2.4517   3.4965157105e+02   2.9030873167e+01    0.2625911    0.1989301 -89.04  0.000666616    1.315    0.239
        28 -11.5257    212.0953      9.4245   3.5181454372e+02   3.0704394901e+01    0.4972202    0.3304228  -1.45  0.002525212    2.412    0.585
        29 -10.7384    218.4788      3.4458   3.5010986680e+02   2.9970862104e+01    0.2482103    0.2039094 -87.10 0.0009046296    1.246    0.198
        30 -10.2827    120.5886     11.4786   9.5603046266e-01   5.2667005985e+01    0.3215447    0.2055036 -88.40  0.001125238    1.573    0.364
        31 -11.5599     63.8999      9.0494   1.2982087282e+01   6.7343501488e+01    0.4227794    0.3164634 -35.35  0.000720634    1.480    0.324
        32 -11.4795    168.6033      9.4086   3.5481083574e+02   4.0596741653e+01    0.5954283     0.214594  68.14  0.002504187    2.506    0.601
        33  -9.6450    144.9865      9.7644   3.5719364075e+02   4.6478374811e+01    0.2220112     0.176872  34.28 0.0005279628    1.567    0.362
        34  -9.7735     77.9919      7.4131   7.7543499506e+00   6.4083711599e+01    0.2047148    0.1852815 -70.47 0.0005135351    1.215    0.177
        35  -9.7894     76.2895      3.0311   5.9041360224e+00   6.4906776400e+01    0.3665408      0.20051  64.58  0.001757179    1.598    0.374
        36  -9.7942      1.2282      7.3766   5.3379420949e+01   7.8518598826e+01    0.2475957    0.0941902 -57.93 0.0007597093    2.709    0.631
        37 -10.1782      1.8957      2.1721   4.9179904337e+01   7.9425304502e+01    0.2320484    0.1471182 -34.14 0.0008208684    1.428    0.300
        38 -10.9716    184.9034      6.1776   3.5268648285e+02   3.7034439095e+01    0.3516085    0.1981838 -60.53  0.001648532    1.553    0.356
        39  -9.9144    157.5036      6.5068   3.5491887679e+02   4.3613600433e+01     0.230508    0.1727889 -29.72  0.001326717    1.433    0.302
        40 -10.5469    153.9963      6.2752   3.5516854732e+02   4.4515100059e+01    0.3008743    0.1849641 -72.49  0.001547849    1.539    0.350
        41  -9.7858    122.0000      6.4219   3.5883466229e+02   5.2765148114e+01    0.2801864   0.07918948 -21.75 0.0009373209    3.956    0.747
        42 -10.6476    247.0579      5.5295   3.4931238292e+02   2.4266124636e+01    0.1918441    0.1193875 -75.93 0.0005039271    1.477    0.323
        43  -9.8661    175.8627      5.8807   3.5324398588e+02   3.9187104590e+01    0.1881802    0.1688953  67.43 0.0005805396    1.281    0.219
        44 -10.1010    128.8649      4.8547   3.5736885128e+02   5.1104880247e+01     0.225509    0.1869582 -44.64            0    1.250    0.200
        45 -11.5755    137.9055      4.0131   3.5603979046e+02   4.8828005681e+01     0.572365    0.2275254  70.09 0.0003683343    2.165    0.538
        46 -11.5435    133.8147      2.3866   3.5592136129e+02   5.0027031423e+01    0.6453067    0.2455112  78.85  0.002570391    2.425    0.588
        47 -10.7972     41.2641      3.9984   1.9394143983e+01   7.2924175652e+01    0.3912499    0.2092174  31.27  0.001707199    2.037    0.509
        48 -10.1147    235.5761      4.2263   3.4951365866e+02   2.6522335453e+01    0.1418349   0.09842291 -25.40  0.000636035    1.571    0.364
        49  -9.7663    165.2540      3.9009   3.5348950838e+02   4.1935212223e+01    0.1924016    0.1422323  29.52 0.0009563127    1.884    0.469
        50 -10.9005    113.6495      2.2234   3.5836879310e+02   5.5315312562e+01     0.467385    0.2508534 -86.71  0.002101548    1.965    0.491
        51  -9.1016     30.4856      4.5023   2.6008533417e+01   7.4971523901e+01    0.1757916    0.1188948 -40.14 0.0009727502    1.697    0.411
        52 -10.2480     28.8766      1.4430   2.4718274159e+01   7.5656976871e+01    0.2177189    0.1371156  44.27 0.0003955509    1.461    0.316
        53 -10.9761    205.6507      2.0024   3.5041069030e+02   3.2798302078e+01    0.4120593    0.1790451 -88.09 0.0008690843    2.280    0.561
        54 -10.0078    105.3733      1.8227   3.5944272464e+02   5.7519407740e+01    0.2671632    0.1705783 -83.30 0.0009610001    1.616    0.381
        55  -8.9685     33.7787      1.9555   2.2044555958e+01   7.4664768553e+01    0.1576154    0.1023066 -24.10 0.0007729346    1.626    0.385
        56  -9.6523    152.4046      1.4176   3.5379856742e+02   4.5349494584e+01    0.2525402    0.1152906  79.57 0.0005399565    1.975    0.494
        57  -9.7987    124.2679      1.3814   3.5665554559e+02   5.2598923307e+01    0.2423226    0.1120767  71.59 0.0005777059    1.860    0.462
        58  -9.3280     82.2505      1.2412   3.5388108491e+00   6.3552863122e+01    0.1861751    0.1056128  74.56 0.0004757119    1.667    0.400
        59  -8.6936     52.5155      1.5622   1.2640044635e+01   7.0733237781e+01    0.1314415    0.1161217  45.84   0.00013954    1.035    0.034
        60 -12.5868      2.7987    111.5874   7.6524109234e+01   5.2982704996e+01     1.103254    0.3965825 -69.31   0.00348858    2.352    0.575
        61  -9.7968     79.0350    114.9937   4.7808657651e+01   4.3102940728e+01    0.2306814    0.2281878  -1.38 0.0004946546    1.064    0.060
        62 -10.2111     58.6561    115.0185   5.5120621528e+01   4.6397488783e+01      0.26878    0.2077894  46.16 0.0003333517    1.283    0.221
        63 -10.8689     35.2672    103.0381   6.2033540796e+01   5.2618130052e+01     0.747754    0.3139709  12.22  0.001858575    3.461    0.711
        64 -10.7234     24.4744    102.4764   6.6501462790e+01   5.3860187437e+01    0.3724271    0.2655051  58.14  0.001008511    1.480    0.324
        65 -11.6014     22.0779    114.0824   6.9145158775e+01   5.0946424545e+01    0.5556146    0.3315616  -0.41  0.002258499    2.154    0.536
        66 -12.2783     27.3668    111.4810   6.6673509268e+01   5.1164672020e+01     1.048036    0.5633374  88.02  0.003148424    2.162    0.537
        67  -8.8348    104.5268    112.5245   3.8969770953e+01   3.8855207791e+01       0.1558    0.1509524  68.89 5.277004e-05    1.026    0.025
        68  -9.9150     48.9475    111.8872   5.8187664234e+01   4.8585076662e+01    0.2791376    0.2075756  30.23  0.000645157    1.365    0.268
        69 -11.9246     79.4003    108.0042   4.6012281672e+01   4.4787738661e+01    0.6825439      0.41253  30.35  0.002839032    1.768    0.434
        70  -8.8138    120.2920    108.6732   3.3446160619e+01   3.6437417458e+01    0.1565187     0.123422 -88.90  0.000446781    1.620    0.383
        71 -10.0529    106.0427    107.3255   3.7170912310e+01   3.9746186109e+01    0.2256999    0.2048614  48.32 0.0005625795    1.085    0.078
        72  -9.0355     45.6752    105.3115   5.8183912657e+01   5.0759945675e+01    0.1955769    0.1534938 -86.27 0.0007648335    1.344    0.256
        73 -11.1811     49.8283    101.6179   5.5719964922e+01   5.1179386499e+01    0.8074247    0.4486782 -35.77  0.002903596    2.300    0.565
        74 -10.1161     85.9739    103.4460   4.2577386131e+01   4.4683690427e+01    0.2992139     0.230138 -43.99 0.0007350806    1.349    0.258
        75 -10.5005     91.9132    102.2192   4.0257572846e+01   4.3816607196e+01    0.4990954    0.3787926  -8.08  0.002188837    1.850    0.460
        76  -9.4329     56.9840    103.0030   5.3162929673e+01   4.9786182505e+01    0.2514348    0.1802046  70.49 0.0008856569    1.686    0.407
        77 -12.0070     68.0472     95.0570   4.6866466432e+01   5.0026463505e+01    0.6522892    0.5295599  16.52  0.001866156    1.386    0.278
        78 -10.1181     67.2658     81.3747   4.3273491543e+01   5.3505170578e+01    0.4065006    0.3071604   9.27  0.001871215    1.668    0.400
        79 -12.5146     61.0092     83.4569   4.6464240084e+01   5.4094642839e+01    0.3269965     0.301251 -72.73 0.0003376518    1.120    0.107
        80 -10.3972     58.0697     77.9516   4.6074871660e+01   5.5924788183e+01    0.3141868    0.2181435 -53.40 0.0005010056    1.428    0.300
        81 -11.8525     79.5251     93.4397   4.2123939249e+01   4.8334148171e+01    0.8312282      0.77096  19.20  0.003753552    1.140    0.123
        82 -12.0949     76.0681     79.3799   3.9197367125e+01   5.2311782200e+01    0.9898528    0.6762989  72.83 0.0009111729    2.138    0.532
        83 -11.0971     23.1186     94.3773   6.5768405383e+01   5.6152598959e+01    0.4856072    0.3208803 -29.78  0.001786566    1.741    0.426
        84 -11.0171     36.3982     91.2292   5.9187864490e+01   5.5624070683e+01    0.6167086    0.5355375  67.73  0.002128164    1.216    0.178
        85 -10.5760     19.1238     87.7116   6.6457228011e+01   5.8267057083e+01    0.7007337    0.3923431 -64.54  0.003254099    1.610    0.379
        86 -11.4113     28.1286     85.1989   6.1711430728e+01   5.8107487168e+01    0.5263427    0.4448496 -24.04  0.001107278    1.262    0.208
        87 -11.6919      9.1409     97.0000   7.2385874316e+01   5.6508482538e+01    0.4678203    0.4012086  53.67 0.0003517133    1.201    0.167
        88 -12.3066    210.4731     98.1224   1.2851307855e+01   1.9503155812e+01    0.2378254    0.2160299 -35.56 0.0003012033    1.052    0.049
        89  -9.3114    132.9519    100.0000   2.7824882505e+01   3.5502630576e+01    0.2538136   0.08701875  48.15 0.0008003612    2.928    0.658
        90  -9.9574     30.0277     96.9721   6.3162602824e+01   5.4798348830e+01    0.4545753    0.1400458 -49.70   0.00149237    3.159    0.683
        91  -9.9155    249.6680     95.6736   7.6206391423e+00   1.3122711662e+01    0.1137302   0.08384664  -3.89 0.0007051245    1.711    0.416
        92  -8.8148    140.6749     95.6648   2.4788393595e+01   3.4632710463e+01    0.1549646    0.1218937   6.74 0.0007051282    1.716    0.417
        93 -10.4183     43.0075     94.2488   5.6945624463e+01   5.4022192703e+01     0.431998    0.3322514  22.34  0.002172036    1.372    0.271
        94 -10.3276     43.4764     90.4806   5.5874207481e+01   5.4944481788e+01    0.2450387    0.2276676 -67.66 0.0001658385    1.051    0.048
        95  -9.8371     16.0891     95.0670   6.9034900193e+01   5.6546462636e+01    0.2343285    0.1524232  61.54  0.001128785    1.681    0.405
        96  -9.3633    125.5431     93.9383   2.8014302805e+01   3.8414307622e+01    0.2227559    0.1513757 -44.08 1.263859e-05    1.474    0.322
        97  -9.2807    121.6228     93.2694   2.8855484522e+01   3.9440799134e+01    0.2154901    0.1473038 -34.60 0.0006381705    1.594    0.373
        98 -10.4512     49.7020     90.5951   5.3194692463e+01   5.4062341859e+01    0.4860937    0.3699452  85.15  0.002331807    1.565    0.361
        99  -9.7965     52.1744     86.8372   5.1162403953e+01   5.4658747049e+01    0.2199856     0.199495  81.15 0.0003918941    1.175    0.149
       100 -11.4033     45.1343     84.1090   5.3557011380e+01   5.6361905059e+01    0.5423329    0.4448183  66.25  0.001854718    1.367    0.268
       101 -10.5081     98.1480     90.5997   3.4945535329e+01   4.5211842067e+01    0.2722654    0.2638299  83.23 0.0004501888    1.031    0.030
       102 -10.0359     10.8627     89.9072   7.0673539517e+01   5.8289619936e+01    0.2200485    0.1487872  61.33 0.0004539223    1.599    0.374
       103 -11.2770      5.3925     88.3139   7.3011274037e+01   5.9038817425e+01    0.7213824    0.4054859  10.91  0.003461987    1.980    0.495
       104 -10.1057     66.4051     88.6572   4.5755856246e+01   5.1895297353e+01    0.3842836     0.273081   3.90  0.001336138    1.967    0.492
       105 -11.4032    113.4369     83.5838   2.8225882680e+01   4.3317047111e+01    0.6107205    0.3865206  75.77  0.002311688    2.451    0.592
       106  -9.8378    104.4798     86.8423   3.1843817272e+01   4.4656908843e+01    0.2486224    0.2185042  15.19 0.0006349015    1.310    0.237
       107 -10.3071     90.6692     85.4854   3.5863618282e+01   4.7948329678e+01     0.384234    0.3204056 -87.39  0.001856249    1.409    0.290
       108  -9.0638    138.9845     85.5197   2.2320219230e+01   3.6978479241e+01    0.2270293    0.1490037  53.98 0.0006913357    1.536    0.349
       109  -9.6989    143.3790     84.1453   2.0943060314e+01   3.6208160788e+01    0.2310947    0.2058306  44.20 0.0005357392    1.179    0.152
       110  -8.6351    151.2597     83.6457   1.9134307775e+01   3.4460439349e+01    0.1534357    0.1104958 -66.04 0.0002076456    1.615    0.381
       111 -10.6975      2.4744     80.6755   7.3442341395e+01   6.1199903196e+01    0.5780445    0.2903084 -86.28  0.001912191    1.985    0.496
       112 -10.6075      1.8552     71.3458   7.2471769868e+01   6.3655787982e+01    0.4163273     0.202585 -66.70  0.001932211    1.756    0.430
       113  -9.1752    162.2519     81.1929   1.6318439290e+01   3.2350619085e+01    0.1874668    0.1565715 -69.29 0.0003034616    1.249    0.199
       114  -9.8856    119.4364     79.1897   2.5227891887e+01   4.2804130245e+01    0.4524039    0.2396619 -59.86  0.001459906    2.673    0.626
       115  -9.6667    102.9386     79.3604   2.9983016802e+01   4.6592797259e+01    0.2659778    0.2090064 -56.56 0.0006048758    1.338    0.252
       116 -11.0476     89.1731     77.1146   3.3718619264e+01   5.0117257473e+01    0.5294217    0.3551383  50.60  0.001577952    1.494    0.331
       117 -10.7933     94.5916     75.2225   3.1277316573e+01   4.9335865490e+01    0.5551851    0.4093776 -75.82  0.002030191    1.782    0.439
       118 -10.9744     53.4023     76.1888   4.7596065668e+01   5.7110882247e+01    0.4741372    0.3944584 -80.40  0.002425152    1.363    0.266
       119  -9.9181     38.1055     85.1718   5.7033803079e+01   5.7000696035e+01    0.4020719    0.2097039  12.79  0.001568815    2.482    0.597
       120  -9.7747     46.6039     75.0417   5.0371835659e+01   5.8425776775e+01     0.393676    0.2094153 -36.05  0.001343788    2.299    0.565
       121 -10.8505     14.2067     74.0278   6.6384923630e+01   6.2233153009e+01    0.4172308    0.2755735 -78.52  0.001665595    1.509    0.337
       122  -9.6968    102.8575     74.3056   2.8365354619e+01   4.7653618340e+01    0.2768466    0.2152299 -58.62  0.001310422    1.384    0.277
       123 -10.2722     17.1200     99.9286   6.9282712908e+01   5.5165036971e+01    0.3256775    0.1948082 -64.53  0.001297057    1.514    0.340
       124 -11.2156     27.5138     73.3562   5.9316134016e+01   6.1232648252e+01    0.4694738    0.3239882 -12.47  0.001185185    1.717    0.418
       125 -10.6065     35.2453     71.4565   5.4873672321e+01   6.0837420336e+01    0.5317315    0.2369241  41.27  0.001897092    2.391    0.582
       126 -10.3071     41.2212     72.6004   5.2231811949e+01   5.9783271635e+01    0.5341679     0.279834  13.42  0.001128211    2.623    0.619
       127 -11.3347     40.3777     68.8226   5.1524289385e+01   6.0823881315e+01      0.57727    0.2718245  32.45  0.002357573    2.109    0.526
       128  -9.9570     86.2583     69.6049   3.2195393321e+01   5.2349933375e+01    0.3607623    0.2886369  23.45  0.001735878    1.434    0.303
       129 -10.4776     80.5399     71.7480   3.4996792603e+01   5.3111522844e+01    0.4250438     0.343569 -35.90  0.001678825    1.309    0.236
       130  -9.4142     78.2047     67.3937   3.4351774625e+01   5.4534070820e+01    0.2217972    0.1408784  53.73 0.0009475922    1.677    0.404
       131  -9.6020    153.6167     72.2230   1.5410353197e+01   3.5898911784e+01    0.4028783    0.1192854  57.31  0.001268084    3.418    0.707
       132 -10.9868    122.5206     68.4658   2.1020259355e+01   4.4101151746e+01    0.4984425    0.2578879  48.70  0.001411267    1.922    0.480
       133  -9.6685     13.5796     67.5048   6.5395531455e+01   6.3954086024e+01    0.4847671    0.1682311  11.45  0.001721809    3.445    0.710
       134 -10.0693    101.9896     66.8280   2.6097735157e+01   4.9341389145e+01    0.3641293    0.2481992 -28.92 0.0003919648    1.719    0.418
       135 -10.4443    105.4573     63.5084   2.3917344271e+01   4.9150754591e+01    0.3284365    0.2543139  43.40  0.001185031    1.306    0.234
       136 -12.5980      7.2807     63.3411   6.8088031069e+01   6.5424173325e+01    0.9883198    0.2822186 -41.93 0.0004238735    3.561    0.719
       137 -12.5487      4.4536     61.4097   6.9352203912e+01   6.6067832164e+01    0.6120357    0.2576989 -46.65 4.388611e-05    2.122    0.529
       138  -8.9961     51.5135     65.5817   4.5051301235e+01   5.9931806367e+01    0.1442286    0.1411886   8.69 9.264422e-05    1.020    0.019
       139  -9.6899    202.1096     63.1299   5.6625564118e+00   2.6335902992e+01    0.2700168    0.1642735 -30.69  0.001389833    1.584    0.369
       140 -11.2782     92.8133     62.6127   2.7482669780e+01   5.2295163234e+01     0.515406    0.3160691  65.56 0.0009804775    2.035    0.509
       141 -10.0575     50.6839     56.4418   4.2155888235e+01   6.2131875968e+01    0.4165095    0.2794914 -61.26 0.0008416871    1.712    0.416
       142 -12.3645     43.7559     60.7925   4.7203669669e+01   6.2251245933e+01    0.7835422    0.4634133  25.93  0.002202496    1.790    0.441
       143 -11.3902     39.5178     56.6933   4.7966373581e+01   6.3814228678e+01    0.3287474    0.2401752  30.59 0.0006727009    1.375    0.273
       144 -10.3907    159.0998     62.6674   1.1650372165e+01   3.6142314744e+01    0.3279624    0.2315335  44.11 0.0008136681    1.618    0.382
       145  -9.8634     58.2474     62.4981   4.0848686365e+01   5.9481529985e+01     0.303239    0.2592472  74.75  0.001570283    1.400    0.286
       146  -9.5911     64.8220     61.0366   3.7415598713e+01   5.8579749383e+01    0.3679019    0.3561782 -62.04  0.001779033    1.084    0.077
       147  -9.5648    150.8863     60.8481   1.2559231592e+01   3.8423647134e+01    0.2098513     0.197997  20.18 0.0005166084    1.238    0.192
       148 -10.0169    113.7335     60.7181   2.0664571089e+01   4.7649568496e+01    0.3253044    0.2696186 -79.95  0.001312108    1.338    0.253
       149 -10.8478     88.5001     52.8249   2.5216758723e+01   5.5136739127e+01    0.9008496    0.2648055 -37.70  0.002707276    3.711    0.731
       150 -11.7603     75.3396     55.6165   3.1044775533e+01   5.7554139093e+01    0.7619437    0.3730091 -47.19   0.00300632    2.158    0.537
       151 -10.4184     50.0110    249.2593   7.2691746197e+01   1.6552836744e+01    0.1611595   0.07983452  30.47 0.0008950262    1.571    0.364
       152 -10.5179    124.9254     56.6270   1.6512920477e+01   4.5569909307e+01    0.3857452     0.315322  -8.56  0.001214589    1.539    0.350
       153 -10.4158    127.0051     50.7545   1.4050583304e+01   4.5991736598e+01    0.4914118    0.2637748 -28.85  0.001603801    2.115    0.527
       154 -11.1802    117.5966     55.5285   1.7874766659e+01   4.7589023747e+01        1.209    0.6548082 -77.34  0.003402557    4.904    0.796
       155 -11.2743    117.0147     47.9112   1.5308076951e+01   4.8973582810e+01    0.4735632    0.3153553  41.22 0.0003729789    1.663    0.399
       156  -9.3780    172.7383    247.0146   4.6883414350e+01   2.2806173313e+00    0.1262233   0.09179476 -29.55 0.0006515491    1.513    0.339
       157 -10.9339     32.0313     52.6464   5.0661896448e+01   6.5754328591e+01     1.198488    0.4905545  14.46  0.003747006    4.293    0.767
       158 -10.8022     25.9899     59.0000   5.6216864167e+01   6.4961511756e+01    0.6689548    0.2171516  28.72  0.002441613    2.945    0.660
       159 -10.8503     25.3711     55.5098   5.5492931351e+01   6.5866351660e+01    0.4226871    0.2670553 -23.67   0.00139754    1.831    0.454
       160 -10.0617    106.5541     58.0640   2.1672810039e+01   4.9879942356e+01    0.2761667    0.2070621  73.11 0.0003656194    1.468    0.319
       161 -11.2970     72.7049     46.6807   2.8414624460e+01   5.9820834283e+01     0.649685    0.3872566 -62.18  0.002575146    2.557    0.609
       162  -9.8615    237.8718     55.8470   4.1847787219e-01   2.0308695545e+01    0.1695876    0.1440732 -31.56 0.0003901151    1.216    0.178
       163 -10.4255    157.1435     54.3402   9.5285756034e+00   3.7892586291e+01    0.4891253    0.3030188 -77.02  0.001827092    2.059    0.514
       164 -10.2086    155.1167     48.7960   8.1899378992e+00   3.9203842664e+01    0.2998341    0.2050899 -24.20  0.000792473    1.669    0.401
       165  -9.2529     33.7469     56.6318   5.1086890154e+01   6.4610987658e+01    0.2043503     0.123945  37.63 0.0009524702    1.701    0.412
       166  -9.1859     67.4361     55.0184   3.3987971624e+01   5.9318709794e+01    0.2144357    0.1454956 -42.84 0.0005470004    1.512    0.338
       167 -10.5201     59.6220     49.7489   3.5249105629e+01   6.1922400636e+01    0.7614354    0.3856371 -61.30  0.002661463    3.308    0.698
       168 -10.0468     61.5094     46.5000   3.3018378331e+01   6.2190735006e+01    0.3882792     0.254242 -27.51  0.001774348    1.799    0.444
       169  -9.2574    201.8413     52.7108   3.1269922038e+00   2.7821652201e+01    0.1876843    0.1582498  48.30  0.000680305    1.444    0.307
       170  -9.4875     54.9054     50.6171   3.7805276093e+01   6.2631083995e+01     0.295667    0.1976964 -27.82 0.0009423816    1.754    0.430
       171 -10.6893    243.1515     50.7870   3.5891631467e+02   1.9986037284e+01    0.3134915      0.17914 -85.17  0.001783585    2.198    0.545
       172 -10.2673    146.1859     43.8384   8.1061172924e+00   4.2144287534e+01    0.4589357    0.1429487 -42.02  0.001114942    2.980    0.664
       173  -9.3519    188.8807     49.1980   3.6903823011e+00   3.1135967513e+01    0.2088722     0.154588 -62.39 0.0004758238    1.264    0.209
       174  -8.6743    137.3365     49.2964   1.1458120548e+01   4.3593217496e+01    0.1482854    0.1121565  32.38 0.0007030534    1.651    0.394
       175 -10.2250     82.6924     47.1808   2.4927560339e+01   5.7492116131e+01    0.4076142    0.2621154 -12.67  0.001409383    2.415    0.586
       176  -9.6881     27.1729     47.4371   5.1642227810e+01   6.7541488938e+01    0.2687486    0.1800624  -4.17  0.001312525    1.768    0.434
       177 -10.4574     46.8746     48.6944   4.0999780138e+01   6.4436239202e+01    0.2573526    0.1917888  19.36 0.0006415867    1.433    0.302
       178 -12.4356     41.3288     44.3368   4.2126953476e+01   6.6251075958e+01     1.029694     0.379567  34.90  0.001842977    2.695    0.629
       179 -10.8084     20.3120     46.1053   5.5465145639e+01   6.8600061610e+01    0.4358777     0.235594 -36.72   0.00200865    1.895    0.472
       180 -11.0694     26.5531     42.7128   5.0210768417e+01   6.8672227321e+01    0.4238149    0.2828044  48.60 0.0004886641    1.827    0.453
       181 -10.3822     22.9019     37.1291   5.0297472343e+01   7.0322845259e+01    0.4681174    0.1939289  38.81  0.001619945    2.610    0.617
       182  -9.1780    220.4912     48.4863   2.8598530319e-01   2.4529946456e+01    0.1261128    0.1021472 -51.77 5.239987e-05    1.007    0.007
       183  -9.6279     52.0429     47.9969   3.8098216091e+01   6.3686206685e+01    0.2307716    0.1714313  -4.71 0.0005733545    1.697    0.411
       184 -10.1763     12.9584     46.6924   6.0453835334e+01   6.9126473737e+01    0.3797933    0.1607826 -41.84  0.001598339    2.265    0.558
       185  -8.9662      2.2425     48.6108   6.8066795120e+01   6.9351536366e+01    0.1755269    0.1169141 -11.25  0.000856846    1.571    0.363
       186  -8.7265    161.6818     47.2666   6.7253873931e+00   3.7804511781e+01    0.1453443   0.09926175 -69.46 0.0003276464    1.555    0.357
       187  -9.7002    199.7182     44.9562   1.4206696446e+00   2.9296211771e+01    0.3174992    0.1566884  85.65  0.001409389    2.555    0.609
       188  -9.8907    138.7046     44.1701   9.5154502012e+00   4.3997524168e+01    0.3238352    0.1856244  35.94   0.00130155    2.481    0.597
       189 -10.3218    145.2303     49.8549   1.0181776008e+01   4.1516835916e+01    0.3401325    0.2512497  -2.91 0.0008888498    1.920    0.479
       190 -10.1528    156.0344     42.5223   6.1405812658e+00   3.9854147824e+01    0.2713327    0.2094544 -34.56 0.0009162984    1.325    0.245
       191 -10.3545     56.1768     41.5523   3.3267657129e+01   6.4180420590e+01    0.3775751    0.2320955  54.45  0.001260281    1.871    0.466
       192 -10.3003     18.0860     40.6045   5.4947368576e+01   7.0075840343e+01    0.2800382    0.1855359 -42.90 0.0009112951    1.393    0.282
       193  -9.2604     99.2162     41.3860   1.7387114456e+01   5.4474617025e+01    0.2142304    0.1374111  70.79 0.0007204068    1.716    0.417
       194  -9.0623     91.1228     41.1569   1.9659239850e+01   5.6503403178e+01     0.198726    0.1710845 -81.50 0.0004094354    1.299    0.230
       195  -9.0745     68.5343     41.5191   2.7826307120e+01   6.1652250465e+01    0.1442879    0.1380805  39.63 5.022729e-05    1.028    0.027
       196 -10.5525     10.0260     31.2948   5.7183808434e+01   7.2877977248e+01    0.4952464    0.3030946 -30.12   0.00180938    1.602    0.376
       197  -9.3713      6.4835     30.5491   5.9661374200e+01   7.3316111725e+01    0.2105883    0.1566078 -11.09  0.000685714    1.309    0.236
       198  -9.7331      4.2117     39.7879   6.4435636279e+01   7.1354393617e+01    0.3683396    0.1744227  50.20  0.001536973    3.057    0.673
       199 -10.7809      3.7817     35.2762   6.3388395724e+01   7.2425847495e+01    0.3922085    0.3167512 -39.98  0.002200138    1.083    0.076
       200 -10.4992     79.7205     38.2306   2.2133426465e+01   5.9691410466e+01     0.483286    0.3328026  79.72  0.001851678    2.000    0.500
       201 -10.6923     78.4114     34.1350   2.0744629596e+01   6.0642653192e+01    0.6381582    0.4387242  23.55  0.002961412    1.840    0.457
       202  -9.7135     97.6587     50.0079   2.1234142083e+01   5.3453221547e+01    0.2379355    0.2004474  69.47 0.0004383306    1.200    0.167
       203 -10.3225     61.1956     35.6910   2.8228607096e+01   6.4223378913e+01    0.4814536    0.2894419 -23.13  0.001886282    2.123    0.529
       204  -9.3095     70.6824     33.6324   2.3336212059e+01   6.2500752572e+01    0.2523236    0.1930478  17.82 0.0007685164    1.536    0.349
       205  -9.4446     67.7229     31.9716   2.3696931077e+01   6.3425903222e+01    0.4698916    0.2496829  34.01  0.001791341    2.244    0.554
       206 -10.6247    153.3775     35.9124   4.4943534434e+00   4.1395647153e+01    0.2706214    0.2311561 -62.29 0.0006939819    1.090    0.082
       207  -9.4246    220.0064     35.4573   3.5732864246e+02   2.6218570631e+01    0.1696803    0.1371892 -66.02 0.0003699699    1.105    0.095
       208  -9.7618    217.0004     32.0319   3.5676710522e+02   2.7230168646e+01    0.2371531    0.1501384 -57.55 0.0003386715    1.355    0.262
       209 -11.3764    174.6920     31.9994   6.4709407995e-01   3.6644511989e+01    0.6722721    0.5145349 -64.85  0.001759967    1.184    0.155
       210 -10.9791    125.9303    240.4681   5.5448077537e+01   8.9657955728e+00    0.2633989     0.167036  57.67  0.001443154    2.306    0.566
       211 -10.4716     76.2099    239.7366   6.6250608169e+01   1.5275020237e+01    0.2077202    0.1858893 -55.06  0.001320175    1.411    0.291
       212 -10.5446    157.0221     28.9896   1.8620705609e+00   4.1341073469e+01    0.3316372    0.2749839 -67.00 0.0003933727    1.100    0.091
       213  -9.9239    249.7428     38.9658   3.5599009595e+02   2.0220376351e+01    0.1952194    0.1404679 -67.00 0.0003694886    1.303    0.233
       214 -11.2405     67.8249    240.2865   6.8168963967e+01   1.6164335070e+01    0.2679348    0.1911929   6.58  0.001108386    1.692    0.409
       215 -10.5087    131.9205    240.4934   5.4190648728e+01   8.2031990267e+00    0.1905918   0.09628392  29.27 0.0007886958    1.570    0.363
       216 -10.3888    239.8813     32.5753   3.5528951547e+02   2.2720071651e+01     0.327781    0.1713019  61.05   0.00188715    2.309    0.567
       217 -10.8709    146.9091    237.8324   5.0766703900e+01   6.7116118765e+00    0.3396126    0.2563979  63.78  0.002064213    2.213    0.548
       218 -11.5325     48.9758     30.0581   3.1217851952e+01   6.7635404730e+01    0.7438841    0.3391351  37.43  0.002523466    2.215    0.549
       219  -9.6621    135.5699     30.5051   5.4564957762e+00   4.6635250080e+01    0.2250251    0.2039696 -80.42 0.0005921959    1.025    0.024
       220 -12.1709    127.0513     28.4706   6.1907863391e+00   4.9101987598e+01    0.7424077    0.3920175  79.58  0.001539839    2.064    0.516
       221  -9.4066     36.2840     30.9454   3.8770795210e+01   6.9715165440e+01     0.186127    0.1639502 -25.96 0.0004897114    1.113    0.101
       222  -9.7934     13.8333     22.5779   5.0225171805e+01   7.4358027236e+01    0.2107822    0.1960012 -31.44 0.0006266445    1.145    0.127
       223 -11.6652     26.4936     27.8298   4.3482354088e+01   7.1775146916e+01    0.4932795    0.3492941 -61.11  0.002116593    1.759    0.431
       224  -9.4497     15.5418    233.6985   7.9482588691e+01   2.2905293865e+01    0.1883585    0.1040136 -76.71  0.001117349    2.025    0.506
       225  -8.7388    189.7285    229.6517   4.1339132104e+01   2.5712421417e+00    0.1177922   0.07264429  -4.82 0.0004694859    1.625    0.385
       226 -10.7219    189.0248     27.1767   3.5789561302e+02   3.3859919272e+01    0.3586245    0.2884727  43.30  0.001648312    1.599    0.375
       227 -11.0999    183.4778     25.6944   3.5801448899e+02   3.5311842286e+01    0.3483497    0.2182635 -56.30  0.001493199    1.430    0.301
       228 -10.5377    229.6232     27.3327   3.5481569923e+02   2.5251019098e+01    0.2302692    0.1926656  58.60  0.000888422    1.535    0.349
       229  -9.8004    200.5227     28.0080   3.5710836257e+02   3.1188145777e+01    0.1539533    0.1096253   7.92 0.0004159705    2.277    0.561
       230 -10.3245    155.7827     24.6000   6.6448966532e-01   4.2167639738e+01    0.2475779     0.131806  80.07 0.0005625646    1.868    0.465
       231 -11.2690    148.9021     22.4355   8.4121657869e-01   4.4157588625e+01    0.5184093    0.1997548  65.05  0.002083471    2.328    0.571
       232 -10.5429    150.8337     27.3830   2.1675827595e+00   4.3094572881e+01    0.3606347    0.1907351  52.61  0.001526028    2.001    0.500
       233 -11.1595    144.2230     25.5214   2.4697241122e+00   4.5002688084e+01    0.5897825    0.3072468  89.44  0.002468504    2.215    0.548
       234  -9.8088    250.5778     27.0170   3.5349888422e+02   2.1410454020e+01    0.1620114   0.08721858 -35.30 0.0003018498    1.488    0.328
       235  -9.4497     97.7668     25.9309   1.1347631674e+01   5.7018322494e+01    0.1967452    0.1870698  86.71 0.0005756551    1.058    0.055
       236  -9.9095     45.4345     24.9925   3.0353966862e+01   6.9159629319e+01    0.3070183    0.1583215 -26.04 0.0009962179    2.483    0.597
       237  -9.1090     86.0044     23.6880   1.3502196377e+01   6.0270157161e+01    0.1955659    0.1615092  53.03 0.0002320061    1.112    0.101
       238 -10.4969    169.5104     23.0130   3.5864582907e+02   3.8946960278e+01    0.2703746    0.1784228  77.18  0.000621865    1.445    0.308
       239  -9.1212     44.6836    215.2976   7.1730612301e+01   2.3666450088e+01    0.1363002   0.07454696  52.82 0.0007016689    1.610    0.379
       240  -8.6144    164.3056    211.3263   4.3511377787e+01   8.5015919427e+00    0.1286995   0.08529083  -2.91 0.0007035233    1.648    0.393
       241 -10.8398      9.3286    211.0724   8.0070035085e+01   2.8051676717e+01     0.257939    0.1436746  38.87  0.001483684    1.419    0.296
       242  -8.9768    171.4879    208.5138   4.1632173741e+01   7.9570739646e+00    0.1266174    0.1019469   6.43 2.413879e-05    1.043    0.042
       243  -9.5348     40.2425    207.2615   7.2265627198e+01   2.5855748507e+01    0.1926372   0.09536392  83.55 0.0008877779    2.408    0.585
       244 -10.3237      4.9529     22.3574   5.7590972775e+01   7.5204346275e+01    0.4213286    0.2195734  20.98  0.002158598    1.911    0.477
       245 -11.4314      5.9650    199.3518   8.0451488271e+01   3.0878157794e+01    0.4508432     0.161984 -61.62  0.001963448    3.171    0.685
       246 -10.0922      1.4058    199.7669   8.1598180390e+01   3.1155252530e+01    0.1610855    0.1036557 -74.45 0.0009494057    1.654    0.395
       247 -10.0574     15.9816    190.2026   7.7469588770e+01   3.2084164841e+01    0.2466306    0.1363322  68.65   0.00127599    1.684    0.406
       248 -10.8142      9.5266    182.0408   7.8786932640e+01   3.4540928942e+01    0.7068919     0.187792  35.94  0.002863226    2.663    0.624
       249 -10.8033    178.5385     20.8631   3.5715789825e+02   3.7016114491e+01    0.4283063    0.2362565  46.65  0.002022283    2.372    0.578
       250 -10.4385     68.7357     20.3335   1.7436407232e+01   6.4871282175e+01    0.3770779    0.3114726 -21.52  0.001479989    1.312    0.238
       251 -11.7032      6.4184    186.2177   7.9809174367e+01   3.3818023604e+01    0.3622164    0.2399372  65.78  0.001932356    1.296    0.228
       252 -11.9566      2.6278    183.3749   8.0699469781e+01   3.4776933904e+01     0.615299    0.2350482 -80.57  0.002756089    2.504    0.601
       253  -9.7881    216.6943     19.9927   3.5399422376e+02   2.8644470374e+01    0.1720686    0.1288042 -48.32 0.0003776824    1.101    0.091
       254  -9.6455     46.1762     19.9828   2.7107615712e+01   6.9805814562e+01    0.2455669    0.1830194  41.69  0.001351962    1.252    0.201
       255  -9.8111     74.8244     19.0002   1.4653335105e+01   6.3595975734e+01    0.2175031    0.1744071  26.06 0.0006995794    1.332    0.249
       256  -8.8597    139.6779    182.7025   4.4228585564e+01   1.7159906994e+01    0.1397848    0.1013293  -2.19 0.0005382079    1.622    0.383
       257  -9.1173    175.5131    179.5319   3.5942570668e+01   1.2075276293e+01    0.1298156    0.1150476   2.69 0.0001524406    1.047    0.045
       258 -10.6193     15.9432    173.4393   7.6534879689e+01   3.6056532130e+01    0.2677543    0.1593368  71.28  0.001287117    1.577    0.366
       259 -12.0372      8.9017    166.7351   7.8179018547e+01   3.8281468461e+01    0.8693669    0.3085377  21.35   0.00355573    2.790    0.642
       260  -9.7294    211.0621     15.9971   3.5342111715e+02   3.0244863880e+01    0.1767342    0.1452148 -57.35            0    1.052    0.050
       261 -10.2572    186.7959     14.9479   3.5486408651e+02   3.5717440427e+01    0.2107262    0.1678231 -83.59 0.0006742071    1.140    0.123
       262  -9.4547    147.7159     15.5699   3.5877426617e+02   4.5201334652e+01     0.276305    0.1129722  67.33  0.001146545    2.181    0.541
       263 -12.8143     12.7712    160.8981   7.6686357171e+01   3.9423324770e+01    0.9218873    0.5745616 -22.36  0.004023337    2.314    0.568
       264  -9.4244    196.1463     14.1194   3.5395972588e+02   3.3680366414e+01    0.1743327    0.1583973 -73.19  0.000412125    1.157    0.136
       265 -11.7082     16.8245    148.2101   7.4514127476e+01   4.2325432124e+01    0.7411091     0.256247 -88.46  0.002593846    3.256    0.693
       266 -11.1535     21.2204    150.5603   7.3286719000e+01   4.1336702971e+01    0.2639509    0.2341544 -61.52  0.000495574    1.218    0.179
       267 -11.3196     24.0018    147.9976   7.2158011907e+01   4.1747893236e+01    0.3411006    0.2827651 -89.13 0.0006884124    1.135    0.119
       268 -10.6283     18.2017    165.0113   7.5329924864e+01   3.7933922369e+01    0.3698482    0.2019643 -63.58  0.001801462    1.866    0.464
       269  -8.8421    156.6957    165.6941   3.7302612418e+01   1.7585265068e+01    0.1408034     0.102745  -3.39 0.0005830733    1.602    0.376
       270 -10.5782    205.0494    162.8284   2.7324414634e+01   1.0262934098e+01    0.2145403    0.1627632 -26.56 0.0006209746    1.165    0.142
       271 -10.4597    215.1374    161.0403   2.5300119611e+01   9.0370241441e+00    0.2163095    0.1661997   3.00 0.0008294912    1.265    0.210
       272 -10.6780     28.1582    160.4761   7.1959139447e+01   3.8145658341e+01    0.2887629    0.2279998  76.50  0.001628895    1.180    0.153
       273  -9.1997     98.6765     10.6677   4.4800406803e+00   5.8488340359e+01     0.148372    0.0951104  39.06 0.0007050412    1.705    0.413
       274 -10.6287      9.5887    155.1523   7.7298000509e+01   4.1124922100e+01    0.3118659    0.1850017  79.23  0.001574427    1.584    0.369
       275  -9.5944    104.5118    154.5126   4.8116625548e+01   2.9014108042e+01    0.3021858    0.1495595 -55.73  0.001206271    2.152    0.535
       276 -11.0108      4.3287    153.3395   7.8820727352e+01   4.1970672232e+01    0.2795516    0.2005074  46.29 0.0009329804    1.269    0.212
       277 -11.0627     47.0848    147.5514   6.4538564062e+01   3.9389550859e+01    0.7631083    0.4088863 -50.92    0.0032939    2.015    0.504
       278  -9.1882     55.4957    152.5091   6.2493045007e+01   3.7050624628e+01    0.1449899     0.135731  60.38 0.0008105203    1.021    0.020
       279  -9.1606     61.4743    151.5338   6.0464000390e+01   3.6496937109e+01    0.1466504    0.1367515  58.19 0.0001488342    1.008    0.008
       280 -12.2766      3.3949    142.3146   7.8488021886e+01   4.4855776223e+01    0.8075925    0.4635016  54.80  0.004078182    1.605    0.377
       281 -11.6563     12.2747    135.4660   7.5010381496e+01   4.6019460895e+01    0.7370141    0.3584192 -52.80  0.003250346    2.155    0.536
       282 -10.5397     33.1335    143.8823   6.8714633434e+01   4.1925617137e+01      0.31111    0.2603441  70.80 0.0008452708    1.120    0.107
       283 -11.4286     40.5563    138.0619   6.5481268320e+01   4.2648399909e+01    0.3633249    0.3018511  81.71   0.00052311    1.170    0.145
       284 -10.8595     30.3438    132.6546   6.8370900343e+01   4.5183053362e+01    0.5758927    0.2539551 -47.77  0.002233781    2.554    0.608
       285 -11.4798     24.3613    136.2194   7.0879801583e+01   4.4809851678e+01    0.5177321    0.3859415 -30.31  0.002690406    1.632    0.387
       286 -11.2306     20.6466    133.9152   7.1944732662e+01   4.5753145820e+01    0.3412834    0.3174331 -31.82   0.00140226    1.228    0.186
       287  -9.8794    104.1324    147.3020   4.6849447111e+01   3.0753764527e+01    0.2607853    0.2167287 -69.19 0.0003558065    1.323    0.244
       288  -9.2652    103.9699    130.7157   4.3445453505e+01   3.4686416048e+01    0.2133663    0.1866512  38.54 0.0003394621    1.114    0.103
       289 -10.5423     22.9510    125.9125   7.0255170648e+01   4.7687218524e+01    0.5775642    0.2508467  56.37  0.002205361    2.595    0.615
       290  -9.6469     26.7114    127.0348   6.9003203230e+01   4.7040493760e+01    0.2487388    0.1939529  40.80  0.000274172    1.261    0.207
       291  -9.3679     27.3180    123.7259   6.8367707852e+01   4.7870852538e+01    0.2196784    0.1873297  64.71 0.0003118967    1.130    0.115
       292 -10.9577     11.2196    124.9129   7.4479515413e+01   4.8895320356e+01    0.5566995     0.283289 -44.55  0.002440251    2.222    0.550
       293 -10.6147    104.9950    122.4654   4.1258884336e+01   3.6435304831e+01    0.3614443    0.3032854  55.25  0.000962495    1.215    0.177
       294  -9.7880     49.0134    122.6820   6.0134550922e+01   4.5704860809e+01    0.3434722    0.2318954  -4.15  0.001495908    2.054    0.513
       295 -10.0789     43.4032    117.0449   6.1268079995e+01   4.7916340130e+01     0.482223     0.223581 -80.44  0.001611348    2.720    0.632
       296 -10.5107     12.5481    110.7464   7.2551241065e+01   5.2595455460e+01    0.6099799    0.2499228 -79.57  0.002410701    2.328    0.570
       297 -11.1097     16.4854    108.9717   7.0746122656e+01   5.2782118648e+01    0.4979126    0.3219022  88.21    0.0019419    1.545    0.353
       298 -11.5945      7.9287    114.9442   7.4809783685e+01   5.1780843026e+01    0.3196611    0.2386933 -58.66  0.001752109    1.305    0.233
