#   1 NUMBER                 Running object number                                     
#   2 MAG_AUTO               Kron-like elliptical aperture magnitude                    [mag]
#   3 X_IMAGE                Object position along x                                    [pixel]
#   4 Y_IMAGE                Object position along y                                    [pixel]
#   5 X_WORLD                Barycenter position along world x axis                     [deg]
#   6 Y_WORLD                Barycenter position along world y axis                     [deg]
#   7 A_WORLD                Profile RMS along major axis (world units)                 [deg]
#   8 B_WORLD                Profile RMS along minor axis (world units)                 [deg]
#   9 THETA_WORLD            Position angle (CCW/world-x)                               [deg]
#  10 FWHM_WORLD             FWHM assuming a gaussian core                              [deg]
#  11 ELONGATION             A_IMAGE/B_IMAGE                                           
#  12 ELLIPTICITY            1 - B_IMAGE/A_IMAGE                                       
         1 -13.0484      4.5695     49.9527   2.9208238852e+02   7.1721970519e+00   0.07321552   0.03820416 -74.22  0.006297284    2.411    0.585
         2 -13.5015      4.4197     10.9489   2.9184326294e+02   7.6215714877e+00    0.1096235   0.07442676 -47.75   0.01159487    1.463    0.317
         3 -13.7354    202.8354      9.3292   2.8953602456e+02   6.4494470425e+00   0.07988006   0.05716793 -25.61  0.008394158    1.637    0.389
         4 -13.3174    189.9577     27.6490   2.8979846815e+02   6.3167038797e+00   0.05873439   0.05556248 -60.58  0.006057003    1.055    0.052
         5 -10.6405    198.2430    245.2147   2.9104768445e+02   3.7644410765e+00   0.01773662  0.009338168 -83.87  0.001368752    3.134    0.681
         6 -10.0795    249.1210    249.8766   2.9049021366e+02   3.4052651978e+00   0.01074478  0.009134675  57.86  0.001247043    1.262    0.208
         7 -11.2331    139.7680    250.0045   2.9175149425e+02   4.0600444112e+00   0.02316881  0.009789545  23.82  0.001869039    2.563    0.610
         8 -11.1658    125.2084    250.1357   2.9192027331e+02   4.1457675571e+00   0.02582395  0.008954081  27.52  0.001941188    2.893    0.654
         9 -10.1130     98.9854    249.4857   2.9221887666e+02   4.3102627172e+00   0.01750747  0.006596799  40.00  0.001369943    2.642    0.622
        10 -10.5600    102.4128    248.1586   2.9217117000e+02   4.3050329590e+00   0.01126724    0.0102759  46.42 0.0006093471    1.120    0.107
        11  -9.4324     67.3212    250.1444   2.9258839081e+02   4.4920635572e+00  0.009657309   0.00855997 -66.94  0.001148315    1.140    0.123
        12  -9.8923     37.3478    249.8374   2.9293252560e+02   4.6746476330e+00   0.01747022   0.01034778  38.63  0.001718311    1.681    0.405
        13 -11.0110     29.9283    250.0074   2.9301922529e+02   4.7169733518e+00    0.0230077   0.01669901  26.33  0.001974107    1.389    0.280
        14 -11.4445     34.9286    245.1537   2.9293174889e+02   4.7430474741e+00   0.03932171   0.02287499 -24.18  0.003435533    2.461    0.594
        15 -13.5967      4.0444    186.2566   2.9292732021e+02   5.6058783267e+00    0.1357149   0.05046906 -59.25   0.01059456    2.547    0.607
        16 -15.1534     18.0764    168.3160   2.9265490119e+02   5.7288738087e+00    0.3894396    0.1581808 -76.15   0.02432698    4.687    0.787
        17  -9.3487    234.3179    237.6437   2.9058528968e+02   3.6348990713e+00  0.007094918  0.005000373  65.57 0.0007045351    1.752    0.429
        18 -10.2741     83.6792    244.2622   2.9236346285e+02   4.4620031974e+00   0.02013643   0.01241052  74.32  0.001784563    2.452    0.592
        19 -13.5257      3.0281    223.9973   2.9317050986e+02   5.1770892423e+00    0.1788509   0.05868119 -68.57   0.01144443    4.196    0.762
        20  -9.0172     74.9821    243.4950   2.9245914885e+02   4.5228541159e+00  0.009864699  0.006393943  31.15 0.0006373029    1.526    0.345
        21 -10.5670    173.4194    221.7481   2.9118936305e+02   4.1835147312e+00   0.02350869   0.01576193  69.49  0.002297342    1.974    0.494
        22  -9.8560     94.6153    242.1705   2.9222438111e+02   4.4206641315e+00   0.01014096   0.00563926 -50.08 0.0009531226    1.761    0.432
        23  -8.7767    152.5076    212.9503   2.9137644058e+02   4.4102689090e+00  0.009426909    0.0064933 -61.72 0.0003105981    1.446    0.308
        24 -12.4499     26.0993    203.0741   2.9277562666e+02   5.2805532842e+00   0.03457966   0.01626516  46.39  0.002002848    2.392    0.582
        25 -11.3589     67.2461    199.3292   2.9227717293e+02   5.0778651152e+00   0.01940535   0.01176822 -39.32  0.001102995    1.805    0.446
        26 -10.1006    193.2331    195.3540   2.9079807230e+02   4.3683228887e+00   0.03464732   0.01694787 -88.92  0.002085987    5.384    0.814
        27 -11.6188     72.6612    191.3809   2.9216572917e+02   5.1370323341e+00   0.01539391   0.01188003 -39.60 0.0005060696    1.337    0.252
        28 -14.4268     57.2411    213.6012   2.9248045872e+02   4.9732735140e+00    0.4686856          nan  37.13   0.02089211    8.198    0.878
        29  -8.7313    104.8251    180.7973   2.9172896856e+02   5.0663714289e+00   0.00874765  0.007432294  63.42 0.0003575697    1.285    0.222
        30 -13.2035     69.1908    176.4471   2.9211396197e+02   5.3298080000e+00   0.02790852   0.01413987 -40.32  0.001875437    2.252    0.556
        31 -10.7897     81.7489    178.5690   2.9198188521e+02   5.2302236041e+00   0.01194507   0.01093914 -39.36 0.0003403096    1.093    0.085
        32  -8.5469    171.8335    173.8277   2.9091217515e+02   4.7446237589e+00  0.009148711  0.007603716  60.96   0.00042382    1.317    0.241
        33 -11.7287     88.8586    169.0605   2.9184117545e+02   5.2971694176e+00    0.0299175   0.02712422  -4.56  0.003636341    1.153    0.133
        34 -10.2635    192.9604    156.6825   2.9056247849e+02   4.8149749130e+00     0.019561   0.01254064  72.58  0.001313367    2.218    0.549
        35  -9.8227     18.7491    241.5721   2.9309662143e+02   4.8808538594e+00  0.009546154  0.005887732  39.90 0.0008899028    1.629    0.386
        36  -9.0032    103.2693    148.5623   2.9154829855e+02   5.4468874855e+00   0.01176293  0.007153551 -41.54 0.0009483838    1.747    0.428
        37 -11.8829     89.3353    152.1482   2.9173147150e+02   5.4890770005e+00   0.01430893   0.01154479 -28.54 0.0006083067    1.336    0.251
        38 -12.8642     66.0422    142.8585   2.9194355481e+02   5.7354903581e+00   0.06716905   0.03793508  74.11  0.002951087    3.173    0.685
        39  -8.5179    192.0245    144.0050   2.9049495066e+02   4.9664710578e+00  0.007807962  0.007613894 -50.80 0.0004330837    1.018    0.017
        40  -8.6664    182.0381    144.5601   2.9061365675e+02   5.0201269428e+00  0.009503598  0.004881751  50.12 0.0004781299    2.325    0.570
        41  -9.5242    110.8503    137.6853   2.9139358262e+02   5.5266719742e+00   0.01638173  0.008865756 -40.26  0.001479816    2.063    0.515
        42  -9.3258    174.5223    137.6297   2.9065761047e+02   5.1450511208e+00    0.0147519  0.008842038  63.01  0.001290741    2.318    0.569
        43 -10.6658     98.5309    135.0678   2.9151985261e+02   5.6306541265e+00   0.01456497   0.01066015 -38.02 0.0008022415    1.441    0.306
        44  -9.8912    183.9182    238.5004   2.9117147891e+02   3.9276889494e+00   0.01040404  0.006568274  25.49  0.001038563    1.611    0.379
        45  -9.4879    167.5033    131.4775   2.9070065146e+02   5.2580305340e+00   0.01382497  0.009197972  54.23   0.00074569    1.724    0.420
        46  -8.6301    116.6691    129.7142   2.9127713111e+02   5.5835392587e+00  0.006875073  0.004990761 -23.57 0.0005832349    1.616    0.381
        47 -13.8136     48.6000    225.3181   2.9265220927e+02   4.8899249118e+00   0.05640087    0.0463626 -87.19  0.004857171    1.355    0.262
        48  -9.1310     70.8986    124.6791   2.9177534119e+02   5.9157602590e+00  0.009552884   0.00802109  36.62 0.0007631022    1.194    0.163
        49  -9.3072    107.9510    124.1421   2.9134352616e+02   5.6999635523e+00  0.009417171  0.009030884 -14.82 0.0002830883    1.054    0.051
        50  -9.4780    154.5901    120.1013   2.9077951794e+02   5.4665302699e+00   0.01544364  0.008683894  50.45  0.001406553    2.062    0.515
        51 -12.5744     42.6417    234.0954   2.9277487822e+02   4.8243947544e+00   0.02060643   0.01601409 -33.81 0.0007676241    1.371    0.271
        52  -9.8074    100.4169    152.6293   2.9160634243e+02   5.4171515168e+00    0.0160425   0.01193456 -43.45 0.0009811594    1.363    0.266
        53 -13.5721      8.8727    206.5892   2.9299626215e+02   5.3428225470e+00   0.07029939   0.05097256 -55.28  0.004125998    1.348    0.258
        54 -10.4497    168.0776    113.2924   2.9058161427e+02   5.4638121043e+00   0.01563862   0.01249424  61.61 0.0008727928    1.399    0.285
        55  -9.2484    203.3167    111.5273   2.9016377842e+02   5.2721298527e+00   0.01237707  0.007219309 -41.81 0.0008219965    1.831    0.454
        56 -10.1867     53.1266    109.6995   2.9188859850e+02   6.1945543455e+00      0.01218  0.009405628 -79.67  0.001249678    1.436    0.304
        57  -9.6507    155.5091     75.9806   2.9049603909e+02   5.9685540484e+00   0.01024121  0.006466997 -60.91 0.0009259876    1.569    0.363
        58  -9.4344     19.3292     67.0893   2.9201710653e+02   6.8869561813e+00   0.01786918   0.00682249  42.31   0.00138057    2.753    0.637
        59 -11.6246      2.9313     61.7268   2.9217400958e+02   7.0465139212e+00   0.01959365   0.01736003  80.26    0.0012793    1.230    0.187
        60 -10.3692     19.6257     57.2977   2.9195325015e+02   6.9978415135e+00    0.0478429  0.005748929  39.04   0.00237944    6.607    0.849
        61 -10.5060     81.2262    248.7444   2.9241929626e+02   4.4250494786e+00   0.01442816   0.01350647  56.00  0.001708315    1.104    0.094
        62 -10.0734     46.1513    248.3006   2.9282146943e+02   4.6397875792e+00   0.01960865   0.01064625  57.84 0.0009130659    2.551    0.608
        63 -10.0165    238.4993    247.9826   2.9060086875e+02   3.4908586830e+00   0.01045559  0.006467524 -60.99 0.0007471808    1.602    0.376
