#   1 NUMBER                 Running object number                                     
#   2 MAG_AUTO               Kron-like elliptical aperture magnitude                    [mag]
#   3 X_IMAGE                Object position along x                                    [pixel]
#   4 Y_IMAGE                Object position along y                                    [pixel]
#   5 X_WORLD                Barycenter position along world x axis                     [deg]
#   6 Y_WORLD                Barycenter position along world y axis                     [deg]
#   7 A_WORLD                Profile RMS along major axis (world units)                 [deg]
#   8 B_WORLD                Profile RMS along minor axis (world units)                 [deg]
#   9 THETA_WORLD            Position angle (CCW/world-x)                               [deg]
#  10 FWHM_WORLD             FWHM assuming a gaussian core                              [deg]
#  11 ELONGATION             A_IMAGE/B_IMAGE                                           
#  12 ELLIPTICITY            1 - B_IMAGE/A_IMAGE                                       
         1 -13.2185    173.7917     89.9454   4.5263571653e+01   2.8354043942e+01     2.733335     1.978029   9.92   0.01194458    1.884    0.469
         2 -13.3307    200.1945     55.7412   3.0734378749e+01   2.7434154460e+01     4.889835      2.27305 -16.92   0.01628141    3.414    0.707
         3 -14.7349    233.8369    101.9241   3.7287370009e+01   1.2209837693e+01      6.90501     1.310486 -42.39   0.01697864    5.767    0.827
         4 -15.6406    242.6652     81.1062   3.0864327420e+01   1.3471660139e+01     5.837057     3.232318  43.59   0.02617982    2.037    0.509
         5 -10.9152    163.1739     53.9407   3.6946099009e+01   3.7021160744e+01    0.9320733    0.3796248 -29.81  0.003331511    2.607    0.616
         6 -14.0679    220.1484     26.6751   2.0102085285e+01   2.6325848687e+01     3.797205     1.873468 -12.43   0.01454674    3.172    0.685
         7 -14.7617    245.8860     32.9646   1.8786247317e+01   1.9419101600e+01     8.022691     2.266154 -23.42   0.02234265    5.787    0.827
         8 -11.1960    140.8716     18.8751   2.9980214205e+01   4.7170142838e+01      1.32193    0.4719955 -11.62  0.003462834    6.375    0.843
         9 -10.5986    203.3830     18.3780   1.9936757038e+01   3.1469252388e+01    0.6949391    0.4678431  37.11  0.003056015    1.753    0.430
        10 -11.7087    118.9271      9.9060   3.1371867032e+01   5.3257621101e+01     0.772986    0.5820413  37.78  0.003530555    1.193    0.162
        11  -9.0083    200.7652     12.3783   1.8621578643e+01   3.2781136586e+01     0.377618    0.2121033  41.43  0.001718318    2.074    0.518
        12  -7.9053    238.6282     11.1837   1.4336017619e+01   2.3660264928e+01    0.1608204    0.1235441 -18.01 0.0005870237    1.534    0.348
        13 -11.8379    247.7894     15.5421   1.4519812414e+01   2.1057320656e+01    0.5226463    0.3294317  50.27   0.00127655    1.832    0.454
        14  -9.1610    191.4694      6.9339   1.8243050591e+01   3.5687621550e+01    0.3758596    0.2700018 -56.30  0.001344464    1.468    0.319
        15  -8.4577     93.3263      6.3255   3.6288023466e+01   5.9080709449e+01    0.1395764   0.08454939  22.54 0.0007049433    1.695    0.410
        16  -9.1757    246.2854      2.2810   1.1624245115e+01   2.2840249693e+01    0.4419646    0.1531413  56.98  0.001841751    2.942    0.660
        17 -14.2753    234.6434     39.6515   2.1671073415e+01   2.1193734763e+01     2.760771     1.537831  10.66  0.009227378    4.602    0.783
        18 -10.1884    238.1478    197.2599   5.7173724784e+01  -2.9516151645e+00    0.5256434    0.3040402  57.58  0.002469533    2.762    0.638
        19  -8.6408    249.7771    250.1250   6.4119830159e+01  -1.0716241957e+01    0.2296147    0.1059536  23.63  0.001251322    2.126    0.530
        20  -9.3259    233.6927    196.1719   5.7746759631e+01  -2.0445801744e+00    0.2958652    0.1866442  46.13  0.000530803    1.621    0.383
        21  -7.6796    114.3064    192.7447   8.0152150355e+01   2.0038565592e+01    0.1280338   0.08754507  67.73 0.0004817068    1.514    0.340
        22  -8.9805      6.9646    189.9170   1.0043097242e+02   3.4205742232e+01    0.1541863    0.1132982  81.94 0.0003736432    1.035    0.034
        23 -10.5379    221.4473    186.3321   5.8075003970e+01   1.4976889977e+00    0.4093238    0.3247625  44.23  0.001135647    1.291    0.225
        24 -10.8218    214.9872    185.3610   5.9069211215e+01   2.8313135724e+00    0.4783762    0.3946682 -39.51  0.002871062    1.400    0.286
        25  -9.5534    210.1377    187.8963   6.0444927854e+01   3.3549873778e+00    0.1929437    0.1809046  57.71  0.000861144    1.301    0.231
        26 -10.9680    239.7570    176.9909   5.3000649499e+01  -4.9777212303e-01    0.9160505    0.6558577 -89.88  0.003839473    3.968    0.748
        27  -9.0838    237.1862    249.5706   6.6071803470e+01  -8.8346549771e+00    0.1638997   0.07970666  31.54 0.0005594385    1.643    0.391
        28  -9.0233    151.3302    248.3074   8.0393323438e+01   4.8175995600e+00    0.1998097    0.1492764  51.78 0.0002397062    1.112    0.101
        29  -9.2411    180.0319    242.4092   7.4694815654e+01   9.6678457675e-01    0.3541376    0.2191334  60.24  0.001639234    2.024    0.506
        30  -8.1151    152.3338    243.8915   7.9693104861e+01   5.2717925486e+00    0.1496523     0.129547  44.29  0.000412712    1.122    0.109
        31  -8.7717    158.5951    161.7968   6.5669857447e+01   1.7893110957e+01    0.1944311    0.1364094 -58.53 0.0009473857    1.649    0.394
        32  -8.1939     97.1160    162.3175   7.9291792217e+01   2.8974876277e+01    0.1768929    0.1490705  58.05 0.0004170502    1.131    0.116
        33 -12.6573    249.4845     43.6210   2.0929857155e+01   1.7233404421e+01    0.7062281     0.300741 -25.43 0.0006975689    2.615    0.618
        34  -9.2011    198.3735    152.8902   5.5641033024e+01   1.1339941675e+01    0.2604802    0.2454962  78.71 0.0008325495    1.249    0.199
        35 -10.2946    201.1382    150.1357   5.4501191981e+01   1.1238204263e+01    0.4094484    0.3350587 -68.35  0.001292003    1.622    0.384
        36 -12.0153    194.0275    156.9145   5.7359866969e+01   1.1543288708e+01    0.9452267    0.8137255 -70.89  0.002994006    1.478    0.324
        37  -7.9909    137.4045    156.2389   6.9200943923e+01   2.3146887057e+01     0.192297    0.1345708 -63.48 0.0004783328    1.607    0.378
        38 -10.1087    188.9665    147.4626   5.6335332126e+01   1.4276268929e+01    0.5868365    0.3521401 -72.47  0.001872716    4.465    0.776
        39  -7.7910    183.6379    153.2984   5.8684274241e+01   1.4344808170e+01     0.145409    0.1158296  82.86 0.0007034069    1.716    0.417
        40 -11.7401      2.8444    145.8421   9.8062164862e+01   4.3386313803e+01    0.8216177    0.3289411 -80.56  0.004435132    2.039    0.510
        41 -12.7807      9.2466    143.4241   9.6487410874e+01   4.3411697306e+01     1.028078    0.8942085 -27.29  0.007125407    1.662    0.398
        42 -13.5123    249.8737     57.8031   2.4268553369e+01   1.5231104430e+01    0.8256713     0.454855 -23.47 0.0008260674    1.994    0.498
        43  -9.3664    133.0000    143.0316   6.7567702521e+01   2.6717741633e+01    0.9904614    0.1678548 -52.13  0.002006705    8.778    0.886
        44 -10.7702     67.8509    144.2111   8.3213389104e+01   3.7176591163e+01     1.839576      0.87833 -72.01  0.008328157    2.233    0.552
        45 -11.8663     53.3255    133.8093   8.5137365094e+01   4.1284280904e+01    0.7367301    0.6143981 -53.77  0.001852681    1.252    0.201
        46 -11.1857     37.1515    136.7486   8.9438310551e+01   4.2384167958e+01    0.3787114    0.2846508  42.20 0.0009171754    1.499    0.333
        47 -13.1191     45.2124    134.0925   8.7153390499e+01   4.2130359710e+01     2.031997      1.29161   3.53   0.01029937    2.960    0.662
        48  -9.3610    189.5791    137.1025   5.3882190743e+01   1.6020827177e+01    0.2827088      0.21026  39.24 0.0005634527    1.317    0.240
        49  -7.1618    105.4477    137.5285   7.2992998148e+01   3.2947488459e+01    0.1374755    0.1307572 -77.51 3.516829e-05    1.039    0.038
        50 -10.4170    182.1720    133.8383   5.4650467287e+01   1.8243972236e+01    0.4922281    0.2122867 -32.25  0.001717022    2.818    0.645
        51  -9.2209    217.0946    145.9146   5.0532923265e+01   8.6244606162e+00    0.2639655    0.2032202 -21.99 0.0007193284    1.310    0.237
        52 -11.6695    184.5286    123.3942   5.1680172842e+01   1.9665119198e+01    0.7624273     0.715032  38.55   0.00415794    1.049    0.047
        53  -9.1809    225.4638    129.0910   4.5187161422e+01   9.6314266783e+00    0.3252866     0.252222 -59.88  0.001249713    1.648    0.393
        54  -9.9240    160.9896    128.4783   5.7958637912e+01   2.3914988925e+01     0.497622    0.2962292 -55.57  0.002019929    1.995    0.499
        55  -9.9311    164.1097    124.9956   5.6438610575e+01   2.3919685317e+01    0.4371456    0.3064073 -21.64  0.001017672    1.768    0.434
        56 -10.7602    141.2151    110.7745   5.8217255426e+01   3.1759568649e+01    0.5151241    0.4790698 -50.75   0.00190917    1.079    0.073
        57  -9.5164    134.6090    102.1941   5.7616308260e+01   3.4916464191e+01    0.2795325     0.269014 -33.70 0.0006410961    1.030    0.029
        58 -10.0968    135.8581    118.5042   6.1416817023e+01   3.1284846351e+01    0.4742212    0.2748766 -43.79 0.0006298096    1.729    0.422
        59 -10.7007    134.8451    110.9109   5.9798248988e+01   3.3073870836e+01    0.8368297     0.295984 -44.70  0.002819873    2.804    0.643
        60  -7.8920    116.2036    129.2219   6.8662767597e+01   3.2841055382e+01    0.2281902    0.1100233 -60.18 0.0006922832    2.458    0.593
        61 -10.8259    212.3062    138.8672   4.9842897249e+01   1.0804455818e+01    0.7191491    0.5164356 -87.80  0.003107548    2.530    0.605
        62  -9.8619    202.8865    119.9346   4.7176006294e+01   1.6142090569e+01    0.5628691    0.2850882 -54.07  0.002018455    2.848    0.649
        63  -9.7280    136.2369    127.5823   6.3453282964e+01   2.9309854355e+01    0.6133413      0.15062 -47.81  0.001728514    4.163    0.760
        64  -8.5859    192.2792    143.9885   5.4896980282e+01   1.4193982456e+01     0.200235    0.1850123 -17.46 0.0003588916    1.092    0.085
        65  -8.2889     92.8542    122.1437   7.3047213144e+01   3.8431224231e+01    0.1861011    0.1604894 -33.08 0.0004371335    1.299    0.230
        66  -9.4883    215.0031    116.8217   4.4152161048e+01   1.3956546193e+01    0.4520467    0.3222497 -72.08  0.001806749    2.148    0.535
        67 -10.0711    129.4627    115.4485   6.2241201295e+01   3.3228178744e+01    0.4399303    0.2917787  72.28  0.001844234    2.223    0.550
        68  -9.1748    206.9512    178.9594   5.9333079533e+01   5.3235950966e+00    0.1991068     0.170618  86.22 0.0009402804    1.678    0.404
        69 -10.5115    197.5480    176.6416   6.0675842268e+01   7.5116147511e+00    0.5067244    0.3827386 -82.19  0.002487251    2.257    0.557
        70 -11.3179    126.3974    110.1635   6.1707380844e+01   3.4956326877e+01     1.356778    0.6744189  25.23  0.004110718    4.300    0.767
        71  -7.4591    193.3035    113.2992   4.7409019641e+01   1.9511380065e+01    0.1532894    0.1175378  12.64 0.0007002805    1.587    0.370
        72  -9.7477    154.0217    170.4369   6.8288153247e+01   1.7150351239e+01    0.2303762    0.2142669 -51.12 0.0002967227    1.161    0.138
        73 -11.0997    125.9674    104.0384   6.0265092718e+01   3.6324310616e+01    0.7139161    0.4945486  71.52  0.003141162    2.021    0.505
        74  -9.9230    212.3520    167.7234   5.6073891393e+01   6.0470946816e+00     0.403574    0.2817043  68.68  0.001907776    2.216    0.549
        75  -9.9998     69.6787    109.2773   7.6555068856e+01   4.4720046558e+01    0.2262334    0.2037994 -67.60 0.0002640077    1.027    0.027
        76  -8.3090    109.4449    109.4615   6.5883667076e+01   3.8359128615e+01    0.1427142    0.1365506 -52.31 4.393571e-05    1.014    0.014
        77  -8.6247    209.7359    164.1502   5.5831111040e+01   7.1377877212e+00       0.2717    0.2217888  89.31  0.001171982    1.861    0.463
        78 -10.4057    142.5824     96.8445   5.4231312344e+01   3.4271058467e+01    0.7627409    0.3188762 -42.02  0.001451605    2.372    0.578
        79  -8.9843    119.6737     95.1867   5.9556289048e+01   3.9420064841e+01    0.4422727    0.2019743 -50.79  0.001366451    2.315    0.568
        80  -9.1646    157.9510     88.8964   4.8429657023e+01   3.2305650864e+01    0.4591853    0.2169372 -30.45  0.001621943    2.472    0.596
        81  -9.6065    195.7907     79.4491   3.8042846729e+01   2.4816586894e+01      0.43699    0.3344089  82.58  0.001303241    1.596    0.374
        82  -9.7590    188.3911    169.2097   6.1005832117e+01   1.0563376558e+01    0.3474564    0.1770425 -37.93  0.001517432    2.124    0.529
        83  -8.7559    170.8170     74.5925   4.1548623648e+01   3.1779785688e+01    0.2771525    0.2103178 -32.63 0.0006024814    1.332    0.249
        84  -8.4133    157.2197     74.3300   4.4393499827e+01   3.5120601834e+01    0.4288263    0.2201321  30.19  0.001438646    3.055    0.673
        85  -8.4793    152.4512     68.9945   4.3865608825e+01   3.7186272340e+01    0.2298764    0.1477202 -36.25 0.0004868535    1.559    0.359
        86  -7.5789    145.5672     69.7606   4.5684851249e+01   3.8675646492e+01    0.1599691    0.1103058  26.01 0.0006889701    1.748    0.428
        87  -7.4774    106.6845     69.2627   5.5594069426e+01   4.7102787032e+01    0.1342081    0.1148835 -88.92 0.0001589482    1.543    0.352
        88 -10.3916    172.9826     66.1781   3.8652640467e+01   3.2649796515e+01    0.5807725    0.2557603 -39.28  0.002162366    2.255    0.556
        89 -11.2182    167.6571     59.5577   3.7751011263e+01   3.5034655052e+01    0.8505354    0.4215684 -45.37  0.003297038    2.204    0.546
        90  -7.7682    172.3093    237.6186   7.5397597526e+01   2.8748801672e+00    0.1262299   0.09910094  40.10 0.0008457205    1.019    0.019
        91  -8.2807    169.6518    235.3331   7.5557914327e+01   3.6310412198e+00    0.2498421    0.1415039  60.31  0.001288394    2.240    0.554
        92  -9.3219    183.1680     56.0161   3.3733292367e+01   3.1687678981e+01    0.3030973    0.2250047 -31.88 0.0008032112    1.369    0.270
        93  -8.5826    108.0236     56.9034   5.1238739931e+01   4.9084999031e+01    0.2076709    0.1935678  -3.26 0.0003566729    1.010    0.010
        94  -8.5399    177.3322     52.3127   3.3708678378e+01   3.3714885856e+01    0.1571463    0.1122954  26.48 0.0004856227    1.678    0.404
        95  -9.9284    188.7181     45.5477   2.9727093263e+01   3.1796122643e+01    0.7444164    0.2118189 -36.36  0.002405426    3.237    0.691
        96  -8.9987    185.6740     46.6587   3.0561357711e+01   3.2414894054e+01    0.3447404    0.1902688 -23.51  0.001319151    2.032    0.508
        97 -11.2962    152.4285     47.3313   3.7098289307e+01   4.0663198004e+01    0.6463723    0.6343808  -0.91  0.003694611    1.042    0.040
        98 -11.6487    141.6066     43.1694   3.8097795996e+01   4.3883677847e+01    0.7252532    0.6225666  10.11  0.003693038    1.211    0.174
        99  -7.7159    176.4726     45.5045   3.1828228803e+01   3.4915835734e+01    0.1487672    0.1395705  37.38 1.417891e-05    1.069    0.065
       100  -8.0107    196.7419     27.6021   2.3368256897e+01   3.2081186666e+01    0.3366371    0.1790212  74.90  0.001427439    2.025    0.506
       101 -10.0249    194.1499     41.1886   2.7601435262e+01   3.1010151189e+01    0.5138284    0.3976729   9.42  0.001624805    1.607    0.378
       102  -9.6585    200.7913     29.6761   2.3384671459e+01   3.0801071156e+01    0.5219232    0.2886489  -5.83  0.002050937    2.862    0.651
       103 -11.4911    134.2747     38.1595   3.8072580967e+01   4.6324821672e+01    0.5627542     0.482434  76.31  0.003060097    1.363    0.266
       104  -7.7199    104.2954     41.3103   4.6886180002e+01   5.2388632348e+01    0.1421207    0.1020231   8.98 0.0002646374    1.593    0.372
       105  -9.0415    198.9827     35.5716   2.5285604039e+01   3.0519810247e+01     0.322151    0.2151147  -9.96  0.000602292    1.892    0.472
       106  -9.1234    138.3888     66.9848   4.6543793378e+01   4.0817321375e+01    0.2702901     0.210478  37.96 0.0003922002    1.293    0.227
       107  -9.0598    184.0949     32.4630   2.6652308903e+01   3.4710269731e+01     0.325984    0.2035401 -25.07 0.0007799584    1.718    0.418
       108  -8.4130    193.2171     33.1364   2.5446784779e+01   3.2296230153e+01    0.2168277    0.1872965  28.95 0.0007943737    1.279    0.218
       109  -8.4684    155.0375     30.2938   3.1046151813e+01   4.2343399399e+01    0.2282937    0.2042274 -22.34 0.0005568645    1.171    0.146
       110 -10.1283    119.3279    235.0233   8.4434836654e+01   1.1844593308e+01    0.2028974    0.1866774  76.97 0.0004515237    1.219    0.180
       111  -9.0301    247.4810    234.5070   6.2044053708e+01  -8.8132971336e+00     0.116476   0.08733203  19.49 7.037211e-05    1.004    0.004
       112  -8.1061    160.1080     27.1064   2.9067302618e+01   4.1466803100e+01    0.1903558    0.1650739 -67.55 0.0003616955    1.294    0.227
       113  -8.6980    165.4643    232.1754   7.5875134982e+01   4.7764304957e+00    0.2267051    0.1563106  59.79  0.000688124    1.550    0.355
       114  -9.3736    127.5416     22.4727   3.4083381179e+01   4.9914203906e+01    0.2672308    0.1033214  46.67  0.001032392    2.353    0.575
       115 -10.0690    135.2365     18.9205   3.1144107931e+01   4.8517052004e+01    0.3063103    0.2357774  11.27 0.0008768143    1.391    0.281
       116  -8.6888     70.7320    226.0055   9.2026848731e+01   2.0395596711e+01    0.1790611    0.1282077  55.74 0.0003574872    1.166    0.142
       117  -8.8399    143.1476    222.5918   7.8643447580e+01   9.9765126835e+00    0.1766994    0.1631124  79.02 0.0003761931    1.187    0.158
       118  -8.1918    233.7085    216.3126   6.1331115692e+01  -4.6050918353e+00    0.1039834   0.09595601  60.56 0.0002556721    1.590    0.371
       119  -9.4044      3.2779    205.2050   1.0192808805e+02   3.1668069667e+01    0.1674742    0.1335126  81.37  0.000355932    1.216    0.178
       120  -9.9466    248.4146    202.0425   5.6302124154e+01  -5.2651162750e+00    0.3125472    0.2257372  24.27  0.001361478    1.170    0.145
       121  -9.6807    192.1815    193.4928   6.4846324693e+01   5.8476100998e+00    0.7723938    0.3914575 -61.84  0.002443051    5.887    0.830
       122  -9.2231    228.2997    191.9097   5.7901997984e+01  -5.2394014861e-01    0.2920621    0.2434933 -83.04  0.001207501    2.106    0.525
