#   1 NUMBER                 Running object number                                     
#   2 MAG_AUTO               Kron-like elliptical aperture magnitude                    [mag]
#   3 X_IMAGE                Object position along x                                    [pixel]
#   4 Y_IMAGE                Object position along y                                    [pixel]
#   5 X_WORLD                Barycenter position along world x axis                     [deg]
#   6 Y_WORLD                Barycenter position along world y axis                     [deg]
#   7 A_WORLD                Profile RMS along major axis (world units)                 [deg]
#   8 B_WORLD                Profile RMS along minor axis (world units)                 [deg]
#   9 THETA_WORLD            Position angle (CCW/world-x)                               [deg]
#  10 FWHM_WORLD             FWHM assuming a gaussian core                              [deg]
#  11 ELONGATION             A_IMAGE/B_IMAGE                                           
#  12 ELLIPTICITY            1 - B_IMAGE/A_IMAGE                                       
         1 -14.7990    158.7385     47.5066   8.0888534122e+01   3.9590592708e+01     1.282325     1.122099 -25.66  0.003702338    1.211    0.174
         2 -14.8689    171.1909     15.9873   6.8626639690e+01   4.0164740761e+01     1.204077     1.070361  25.03  0.004115094    1.253    0.202
         3 -14.1804    187.7647     13.2091   6.5564601334e+01   3.6056215788e+01     1.132477     0.603024 -80.64  0.004570459    2.387    0.581
         4 -13.3433    198.2604      7.1403   6.2655365549e+01   3.3916059136e+01    0.5832144    0.3626955 -38.06  0.002977153    1.639    0.390
         5 -11.2277     13.6503    240.3684   1.5045422292e+02   2.4883171005e+01    0.1842724   0.07908943  87.77  0.001152728    2.066    0.516
         6 -19.9510     89.6086    221.6003   1.3560381976e+02   1.8866228659e+01     8.334793     6.201018  58.28   0.04799664    1.068    0.064
         7 -11.7150    151.8223    249.7493   1.2694770054e+02   4.5258432984e+00    0.2905528    0.1569228  35.57  0.001122401    1.567    0.362
         8 -10.4272     21.0549    194.7687   1.4675975830e+02   3.2585836655e+01    0.1373021     0.105898  74.75 0.0002546132    1.050    0.048
         9 -12.5163    202.0721    166.4216   1.0337908138e+02   8.3648848567e+00    0.6450563    0.4937146   3.77  0.003308672    1.438    0.305
        10 -13.1356    204.4045    175.4540   1.0476688460e+02   6.4198534153e+00    0.5587249    0.4679863  24.63  0.001159527    1.062    0.059
        11 -12.3402    196.9511    176.4710   1.0645456814e+02   7.7210286251e+00    0.3881188    0.3216909  43.04   0.00106955    1.180    0.153
        12 -13.8937    192.4544    163.8340   1.0478662111e+02   1.0771948811e+01     1.349977    0.5729483 -49.48  0.002144085    3.186    0.686
        13 -13.0685    230.4167    168.1346   9.8336747795e+01   2.5458012038e+00    0.4703207    0.2755931 -34.36  0.002332657    1.730    0.422
        14 -12.8492    207.3067    228.1416   1.1366564212e+02  -1.7354596300e+00    0.3082588    0.1925995 -22.18   0.00144742    1.905    0.475
        15 -10.1542     30.2654    224.3610   1.4687208157e+02   2.5970724225e+01   0.09237871   0.07620482 -65.30 0.0006987882    1.640    0.390
        16 -12.5609    115.7971    248.2006   1.3335749659e+02   1.0433423065e+01    0.3957281    0.2274195 -40.12  0.002174275    2.975    0.664
        17 -10.3818      6.5987    161.6181   1.4750207490e+02   4.0715393137e+01    0.1661228    0.1091288  23.83  0.000631131    2.001    0.500
        18 -10.2679     39.5977    250.8901   1.4678204004e+02   2.0314873137e+01   0.09083544   0.05439209  38.64 0.0002194743    1.723    0.420
        19 -10.6112    176.9127    154.9415   1.0617915353e+02   1.5645517355e+01    0.2204266    0.2075291  49.00 0.0004886448    1.096    0.088
        20 -13.6349    161.3282    152.9157   1.0920940922e+02   1.9358142075e+01    0.4972182    0.4622003  77.38  0.001765378    1.182    0.154
        21 -10.0768     18.2518    153.6761   1.4428091106e+02   4.1479289209e+01    0.2087339    0.1235268 -65.57 0.0006852527    1.519    0.342
        22 -10.4646     17.6915    150.6590   1.4414681838e+02   4.2189452539e+01    0.2439443    0.1110925 -55.67  0.001274714    2.227    0.551
        23 -12.3700    174.1053    148.5777   1.0539892183e+02   1.7453522570e+01    0.4348465    0.3423862 -54.16  0.001345859    1.453    0.312
        24  -9.6940     23.5878    149.7550   1.4266974128e+02   4.1879148582e+01    0.1090953   0.08379947 -40.14 0.0004596899    1.712    0.416
        25 -10.1864      7.8485    149.1863   1.4630892583e+02   4.3292966259e+01    0.1584753    0.1086468 -66.63  0.001063785    1.353    0.261
        26 -11.2746    171.8409    138.1375   1.0352387238e+02   1.9966053238e+01    0.2291733    0.2121556  74.50 0.0004919627    1.197    0.164
        27 -10.8393     27.9529    138.0624   1.4037611041e+02   4.4113535573e+01    0.1786991    0.1512588 -86.02 0.0003746507    1.044    0.042
        28 -13.0737    160.5590    128.0563   1.0370277100e+02   2.4506911844e+01    0.5030187    0.4301492 -67.08  0.001866611    1.344    0.256
        29 -11.4175     24.5737    215.7192   1.4738143279e+02   2.8174135734e+01    0.1518271     0.109477  54.83 0.0002902765    1.228    0.185
        30 -13.1569     11.5821    205.8152   1.4917456671e+02   3.1334672271e+01    0.3722222    0.2754127  25.61  0.002458839    1.927    0.481
        31 -11.0404    167.4413    112.6905   9.8224426484e+01   2.5965132103e+01    0.3393379    0.2615191 -85.48  0.001324898    1.795    0.443
        32 -10.9358     24.7787    202.8522   1.4656496681e+02   3.0615727917e+01    0.1483367    0.1154066  83.34 0.0002644705    1.119    0.106
        33 -10.8803    205.3648    110.2397   8.9684161274e+01   1.7374127808e+01    0.3219842    0.2080555  45.74 0.0009972692    1.542    0.352
        34 -12.0654     30.0350    104.8470   1.3533213528e+02   5.1548188892e+01    0.3597099    0.2230554   1.05 0.0009040256    2.379    0.580
        35 -11.6566     41.2414     94.7771   1.2998140081e+02   5.2827587573e+01    0.3696826    0.3005571  -4.19  0.002287274    1.499    0.333
        36 -10.7861    124.7539     95.2463   1.0416566046e+02   3.9344887502e+01    0.2148279    0.1833233   2.95  0.001055179    1.348    0.258
        37 -12.4716     50.9452     91.7853   1.2614895540e+02   5.2480392646e+01    0.3388175    0.2732564   2.09 0.0008823919    1.491    0.329
        38 -11.4949      3.5110     89.8589   1.4139308989e+02   5.6738462107e+01    0.2302639     0.167495 -16.28  0.001559116    1.739    0.425
        39 -10.6588    142.9807     81.5206   9.5297847643e+01   3.7890679533e+01    0.2434952    0.2118997 -35.43 0.0004758544    1.174    0.148
        40 -10.6156    103.9239     82.0034   1.0631729870e+02   4.6415768989e+01    0.2158998    0.2082264  -0.12 0.0003731872    1.021    0.020
        41 -14.5608    148.0071     62.2978   8.8035578536e+01   4.0062936805e+01      1.40563     1.177497  10.97  0.003890837    1.338    0.252
        42 -12.0333    127.4713    245.8796   1.3097754744e+02   8.9759605859e+00    0.3081252    0.2402713  43.25  0.001272644    1.114    0.103
        43 -13.3318    162.8894     38.4546   7.7150610276e+01   3.9744804880e+01    0.4804294    0.4609467  35.80 0.0008128547    1.069    0.064
        44  -9.9504     21.5899     60.1763   1.2945185449e+02   6.2135329154e+01    0.1667192   0.08696096 -50.23 0.0002056217    1.499    0.333
        45 -11.2397     13.4522     59.9477   1.3262929515e+02   6.2716833398e+01    0.1770233    0.1599028  53.60 0.0004157808    1.412    0.292
        46 -19.1660     75.4616     97.0062   1.1938702008e+02   4.8075703209e+01     18.56969    0.8379159 -54.18   0.02533147   19.150    0.948
        47 -11.9421    163.3619    243.7290   1.2407337136e+02   3.4871164606e+00    0.3023696    0.2404472 -36.21  0.001640049    1.636    0.389
