#   1 NUMBER                 Running object number                                     
#   2 MAG_AUTO               Kron-like elliptical aperture magnitude                    [mag]
#   3 X_IMAGE                Object position along x                                    [pixel]
#   4 Y_IMAGE                Object position along y                                    [pixel]
#   5 X_WORLD                Barycenter position along world x axis                     [deg]
#   6 Y_WORLD                Barycenter position along world y axis                     [deg]
#   7 A_WORLD                Profile RMS along major axis (world units)                 [deg]
#   8 B_WORLD                Profile RMS along minor axis (world units)                 [deg]
#   9 THETA_WORLD            Position angle (CCW/world-x)                               [deg]
#  10 FWHM_WORLD             FWHM assuming a gaussian core                              [deg]
#  11 ELONGATION             A_IMAGE/B_IMAGE                                           
#  12 ELLIPTICITY            1 - B_IMAGE/A_IMAGE                                       
         1 -14.6696     68.3303    144.3051   1.0299021164e+02   3.7799609020e+01     4.743561     2.612563  72.70  0.002973789    3.043    0.671
         2 -14.4201    214.8846     26.6134   3.8543691888e+01   2.9171102517e+01     1.280621     1.013691  17.51  0.007427101    1.857    0.462
         3 -14.5244    202.7744     38.8561   4.2927660124e+01   3.0461996379e+01     2.061131      1.51471  33.21  0.007509971    1.816    0.449
         4 -12.9145    240.1921      3.4631   3.1308716459e+01   2.6204319393e+01     0.744391    0.3593704  77.78  0.004088928    1.935    0.483
         5 -11.0237     56.1122      5.7973   6.3500838612e+01   6.7386277770e+01    0.3102538     0.184178  55.09  0.001293129    2.140    0.533
         6 -10.0944      2.0000      3.5064   9.0414290550e+01   7.4446155478e+01    0.2305482   0.05093958 -47.20 0.0009357357    3.943    0.746
         7  -9.8310     53.5309    220.0330   1.1598228849e+02   2.2017361850e+01    0.2888064    0.1496403  58.58 0.0004673084    1.795    0.443
         8 -11.3007    139.7959    248.7989   1.0136331707e+02   4.3833091180e+00    0.2994334    0.2036519 -44.08  0.001801296    1.777    0.437
         9 -12.0750    117.1665    248.0905   1.0580303692e+02   7.8776210059e+00    0.5361906    0.3387604 -56.39  0.003160697    1.882    0.469
        10 -14.4704     84.8091    221.9179   1.0957718578e+02   1.7518483890e+01     4.443118    0.8695787  42.60  0.006202768    3.876    0.742
        11 -15.8255      7.5507    157.8126   1.2101709119e+02   4.0660996216e+01     5.795389     1.849336 -76.51  0.005591678    2.569    0.611
        12 -10.2608     44.3079    219.3457   1.1782024612e+02   2.3251172789e+01    0.2990849    0.1647491 -75.91  0.001290916    1.733    0.423
        13 -11.3295     48.4868    217.5284   1.1681348707e+02   2.3144954082e+01    0.6159468     0.388804  51.43   0.00304586    1.368    0.269
        14 -14.2574     41.0325    200.6952   1.1695696130e+02   2.7640432415e+01     2.026812    0.9098949  60.76   0.00739551    2.324    0.570
        15 -14.0237     57.5473    240.4649   1.1685243244e+02   1.7437436340e+01    0.8502154    0.3895068  53.66  0.003436424    1.870    0.465
        16 -11.3923    109.3343    201.5118   1.0152554996e+02   1.8116134431e+01    0.3949279    0.2846521 -42.28  0.001336716    1.618    0.382
        17 -12.6118    207.2957    194.7898   7.8896501643e+01   2.6261760781e+00    0.9247919    0.5191571  -2.95  0.003612723    3.115    0.679
        18 -11.3567    195.3940    199.1541   8.2107146605e+01   3.8782132666e+00    0.5513402    0.3196653  55.14  0.002143413    2.650    0.623
        19 -11.2562    192.3090    193.2849   8.1629108897e+01   5.4403925806e+00      0.98126    0.5972046 -72.21  0.002870425    6.595    0.848
        20 -14.1917     50.3114    191.1480   1.1396437023e+02   2.8733624689e+01     1.575508     1.081102  74.49  0.007125212    1.389    0.280
        21  -8.5684    161.2631    199.6598   8.9435369828e+01   9.6890518309e+00    0.1317608    0.1111206  80.08 0.0003664563    1.592    0.372
        22 -10.7318     61.1503    198.6365   1.1226927947e+02   2.5706300432e+01    0.2423916    0.2004999 -66.13 0.0005668099    1.264    0.209
        23 -16.0828      7.4967    242.5803   1.2614068945e+02   2.2487106622e+01     1.792924     1.482866  72.01   0.01464832    1.212    0.175
        24  -8.8982    120.2022    194.0561   9.7854872007e+01   1.7942185047e+01    0.1742682     0.111729 -54.68 0.0004157285    1.647    0.393
        25 -12.8876     25.4308    228.1997   1.2215295692e+02   2.3500986973e+01    0.5132318    0.2440872  69.69  0.001745186    1.949    0.487
        26  -9.0698     72.3604    188.2592   1.0844010414e+02   2.6597949818e+01    0.1786134    0.1186415 -82.42  0.000375609    1.554    0.357
        27 -12.9417     21.6617    222.1284   1.2250431632e+02   2.5113312416e+01    0.4866239    0.4005162 -28.96  0.001231327    1.979    0.495
        28  -9.1565     80.4687    183.9405   1.0590419069e+02   2.6466305799e+01    0.1999031     0.130365 -68.70 0.0007315913    1.522    0.343
        29  -9.1048     69.3837    183.2399   1.0852021660e+02   2.8169970907e+01    0.1880987    0.1201218 -82.38 0.0007397032    1.633    0.388
        30  -9.9242     99.4427    180.8116   1.0075997477e+02   2.4317806113e+01    0.2529902    0.1993155  31.40 0.0006125085    1.329    0.247
        31 -11.6182     42.6709    177.2674   1.1431300713e+02   3.2839499810e+01    0.6705468    0.3821146  30.80  0.003464846    1.921    0.479
        32 -10.4240    143.9838    178.6000   8.9516897035e+01   1.7089086302e+01    0.2885852     0.205007 -31.08   0.00137169    1.614    0.380
        33 -10.0642    188.1445    174.9279   7.8857574595e+01   9.5837207506e+00    0.5860083     0.199563 -50.11  0.001819702    3.937    0.746
        34  -9.6530    149.3818    177.0536   8.7948130100e+01   1.6420310833e+01    0.2009851    0.1848023 -49.10 0.0004556702    1.141    0.124
        35 -12.8270     86.9139    154.4152   9.9581570010e+01   3.2604291406e+01     1.853368    0.8390316 -61.87  0.007259214    2.215    0.549
        36 -12.4951     79.6476    161.0393   1.0267610819e+02   3.2069190113e+01    0.6435262    0.4296202  71.51 0.0004452382    1.811    0.448
        37 -13.7418     67.7995    156.6127   1.0515919110e+02   3.4813000526e+01    0.6414255    0.5551631 -21.41  0.002180597    1.421    0.296
        38 -13.1595      7.9081    188.2100   1.2316260414e+02   3.3643239184e+01    0.6117516     0.302463 -57.86  0.003342812    2.120    0.528
        39 -11.0714    133.6711    144.2196   8.4949765065e+01   2.6752197408e+01     1.221099    0.2949262 -54.20  0.002659965    6.483    0.846
        40 -10.5420    174.5487    149.0244   7.6203417273e+01   1.7399154175e+01    0.2736893    0.2657458  55.20 0.0007718175    1.125    0.111
        41 -12.1084     66.0440    175.4576   1.0833030655e+02   3.0457357317e+01    0.4490152    0.2834478 -36.92  0.001799256    2.173    0.540
        42 -12.0939     70.7670    170.4751   1.0644498078e+02   3.1023862820e+01    0.3476061    0.2614564 -42.95  0.001856913    1.526    0.345
        43 -11.0608     80.9825    140.8819   9.8737017426e+01   3.6851276318e+01    0.3134784    0.2448401  66.40 0.0005512605    1.434    0.303
        44 -10.8041    101.3739    139.6861   9.2680690918e+01   3.3848802630e+01    0.5476165     0.345992 -23.07  0.002151561    2.461    0.594
        45 -12.3255     88.4243    139.6815   9.6362106041e+01   3.5999275101e+01    0.2961271    0.2521906 -43.01   0.00051813    1.191    0.160
        46 -10.2433    105.9196    130.7929   8.9425817571e+01   3.5197309702e+01    0.3587409    0.3158583 -64.45  0.001536286    1.148    0.129
        47 -10.1047    110.7393    130.1719   8.7913988962e+01   3.4462812391e+01    0.3351477    0.2658995  -2.26  0.001573337    1.600    0.375
        48 -11.7912     44.1747    129.4636   1.0758562212e+02   4.4408062753e+01    0.3186091    0.2477957  71.63  0.001275225    1.409    0.290
        49 -10.9164     97.9612    126.2652   9.0688772938e+01   3.7699436960e+01    0.3305324    0.2609515 -13.20  0.001582652    1.572    0.364
        50  -9.4308     34.8056    171.8422   1.1565509463e+02   3.4957098048e+01    0.1856547    0.1525125 -71.00 0.0004155053    1.159    0.137
        51  -9.4419    116.7788    124.4269   8.4837681193e+01   3.4673761163e+01    0.2173495    0.1504499  25.46 0.0009407219    1.685    0.407
        52 -10.8504    135.7575    127.7043   8.0504988642e+01   3.0104547318e+01    0.6016605      0.19288 -48.02  0.001817055    3.127    0.680
        53 -10.5271    137.5523    168.0414   8.9014941841e+01   2.0594292169e+01    0.3602543    0.3055862  71.76  0.001251583    1.363    0.266
        54  -9.9887    230.3183    166.3179   6.8817414259e+01   3.5681943650e+00    0.1415634   0.09773101  -2.70            0    1.658    0.397
        55  -9.4565     87.1480    120.7518   9.2656715589e+01   4.0852185366e+01    0.3343287    0.2045021  69.23  0.001253219    2.811    0.644
        56 -10.0232    107.2668    119.0609   8.6231287423e+01   3.7745269758e+01    0.2284031    0.2145709  29.04 0.0003395675    1.101    0.092
        57 -10.9463     40.1124    113.6196   1.0612655209e+02   4.8747945772e+01    0.2368428    0.1711379 -74.22 0.0005963086    1.325    0.245
        58  -9.1496    167.9956    112.8203   6.8829529870e+01   2.6287217591e+01     0.254587    0.1860058  84.04  0.001072179    2.019    0.505
        59  -9.6447    134.7036    112.4509   7.6862591785e+01   3.3732134414e+01    0.2954663    0.1399592 -44.12  0.001078939    2.075    0.518
        60 -10.1702    205.3975    110.0696   6.0574790180e+01   1.8498497291e+01    0.3037129    0.2242023  44.32 0.0008729973    1.458    0.314
        61 -11.5213     33.3310    108.4136   1.0741207375e+02   5.0657224120e+01    0.3366248    0.2863988 -87.58  0.002057058    1.227    0.185
        62 -11.9757    245.3607    108.0912   5.3685590482e+01   1.0697135209e+01    0.3214114    0.2341729 -24.31  0.001761065    1.384    0.277
        63  -9.1125    138.8327    105.7958   7.3978508439e+01   3.4275819500e+01    0.2127307    0.1878432 -88.07  0.000521801    1.330    0.248
        64  -9.5376    134.5814    105.3145   7.4958382260e+01   3.5307750157e+01    0.3089226    0.1495199 -47.40  0.001136116    2.091    0.522
        65 -14.9723      9.6273    207.6949   1.2399787291e+02   2.9260002674e+01     1.546591     1.146217 -47.94  0.004288146    1.859    0.462
        66 -10.4536     42.4152    103.7557   1.0344934647e+02   5.0926541829e+01     0.244365    0.1994709  66.53 0.0006508683    1.466    0.318
        67 -10.9413     36.1980    100.9445   1.0502039247e+02   5.2208093253e+01    0.3133378    0.2365969 -79.77  0.001221861    1.397    0.284
        68 -10.3744    241.4935    101.5126   5.2761781997e+01   1.2519548358e+01    0.1372475    0.1191816 -41.09 0.0001633636    1.000    0.000
        69 -11.8284    243.1195     92.5453   5.0517666707e+01   1.3651380334e+01    0.3497269    0.1547115 -44.98  0.001516658    2.007    0.502
        70 -15.9954     39.3384    248.8904   1.2084544842e+02   1.7996902848e+01     10.89032     3.293615  25.54   0.02247106   17.722    0.944
        71  -9.1752    125.2274     92.2394   7.3760474642e+01   4.0095493398e+01    0.2089764    0.1838949 -84.22 0.0005041286    1.364    0.267
        72 -10.2086     52.9663     90.5486   9.6720389713e+01   5.2904779482e+01    0.2346794    0.1667482 -52.19 0.0005989147    1.247    0.198
        73  -9.0104     17.6066     90.2683   1.0954641253e+02   5.6219592953e+01    0.1222635   0.09022576  63.07 0.0006983208    1.720    0.419
        74  -9.3711    156.3124     88.4439   6.4814158847e+01   3.3787800133e+01    0.2722866    0.1793309 -57.75 0.0006180073    1.815    0.449
        75  -8.9819     75.4003     85.2088   8.7262977770e+01   5.1025428597e+01    0.1930752    0.1337502 -58.59 0.0003805362    1.569    0.363
        76  -9.8292    112.3728     81.8334   7.4277553308e+01   4.4947368648e+01    0.4441629    0.2751232  71.36  0.001588128    3.124    0.680
        77  -9.6483    159.4738     82.0703   6.2273149902e+01   3.4225108231e+01    0.2303556    0.1495264 -37.14 0.0004370304    1.537    0.350
        78 -10.8561    243.3181     78.0017   4.7221052966e+01   1.5890312345e+01     0.195452    0.1549288 -45.56 0.0006304317    1.088    0.081
        79  -8.9619    184.5437     76.9578   5.5813508504e+01   2.9132404445e+01    0.1947851    0.1325485  -3.96 0.0005035324    2.287    0.563
        80  -9.5702     52.0500     64.2325   8.9561294112e+01   5.8795558800e+01    0.2238128    0.1787793  45.15 0.0007225294    1.573    0.364
        81  -9.5325    187.3053    151.6580   7.4025542974e+01   1.4285343102e+01    0.1473584     0.121044 -79.12 0.0007041437    1.684    0.406
        82 -10.6311     13.4296     59.7924   1.0459743199e+02   6.3340789788e+01    0.2292362    0.1875335 -57.71 0.0004307438    1.187    0.157
        83  -9.5083     36.0468    233.8953   1.2049926254e+02   2.1232280550e+01    0.1799101     0.113434  64.58 0.0004791087    1.302    0.232
        84 -12.8552    193.3544     45.3925   4.5876100927e+01   3.1834760370e+01    0.8454355     0.509882  53.02  0.001293816    1.697    0.411
        85 -11.3630     59.3931    230.3669   1.1566954789e+02   1.9185578719e+01    0.2862641    0.2050131 -74.46 0.0004145828    1.425    0.298
        86 -11.0845    138.9457     44.6800   5.5243992776e+01   4.5235967755e+01    0.3306689    0.2592898 -83.00 0.0005627685    1.582    0.368
        87 -10.1789    142.5805     39.9423   5.2925156234e+01   4.4997835793e+01    0.2554778    0.1978738  60.99 0.0003502874    1.227    0.185
        88 -10.5384      2.2496     24.9304   9.9503549128e+01   7.0876955090e+01    0.1927175     0.164481 -19.19 0.0006036235    1.214    0.177
        89  -9.5476    189.4979     14.9773   3.8356609856e+01   3.6412420270e+01    0.1814264    0.1262173 -32.10  0.000540602    1.543    0.352
        90 -10.7694     49.0496    224.4991   1.1726879993e+02   2.1632031046e+01    0.2789143    0.1759242 -59.45  0.000362606    1.787    0.440
        91  -9.9136     59.4789    220.4302   1.1478223357e+02   2.1201116859e+01    0.2759133    0.2107141  18.28  0.001263373    1.758    0.431
