#   1 NUMBER                 Running object number                                     
#   2 MAG_AUTO               Kron-like elliptical aperture magnitude                    [mag]
#   3 X_IMAGE                Object position along x                                    [pixel]
#   4 Y_IMAGE                Object position along y                                    [pixel]
#   5 X_WORLD                Barycenter position along world x axis                     [deg]
#   6 Y_WORLD                Barycenter position along world y axis                     [deg]
#   7 A_WORLD                Profile RMS along major axis (world units)                 [deg]
#   8 B_WORLD                Profile RMS along minor axis (world units)                 [deg]
#   9 THETA_WORLD            Position angle (CCW/world-x)                               [deg]
#  10 FWHM_WORLD             FWHM assuming a gaussian core                              [deg]
#  11 ELONGATION             A_IMAGE/B_IMAGE                                           
#  12 ELLIPTICITY            1 - B_IMAGE/A_IMAGE                                       
         1 -12.4369     75.0484     51.4033   9.2723153913e+01   5.7263563210e+01     1.416199     0.877634 -59.43  0.006779689    1.877    0.467
         2 -10.3731     65.0099      8.9190   7.8486905348e+01   6.6257466866e+01    0.5855443    0.4846889  63.76  0.003537726    1.724    0.420
         3 -12.1860     60.5044     45.3289   9.5966855298e+01   6.0642100203e+01     1.067734     0.543873 -48.27  0.005131707    1.733    0.423
         4 -11.7662    120.0889     57.3508   8.0692740749e+01   4.7476211820e+01     2.121943     1.226348 -70.32   0.00660916    4.299    0.767
         5 -12.0756    124.7254     27.7085   6.8452578072e+01   5.1195013052e+01    0.9362196    0.7387136   7.25   0.00346699    1.376    0.273
         6 -12.9236    120.1147     38.6712   7.3911377972e+01   5.0659151824e+01    0.8923376    0.6049589 -61.06  0.002583014    2.030    0.507
         7 -10.8628    138.6704     32.3524   6.6974498668e+01   4.7105780717e+01    0.7931085    0.6494258 -60.89  0.004018472    1.419    0.295
         8 -11.0034    138.0467     21.9357   6.3143118657e+01   4.8639922821e+01     1.064864    0.3186691  45.52  0.003280791    3.455    0.711
         9  -9.8322    147.3738     16.3124   5.9136706492e+01   4.6889417543e+01    0.5009341    0.4552296  55.20   0.00277227    1.057    0.054
        10 -10.9411      5.1073     34.0295   1.1616976128e+02   6.8128913036e+01    0.8349186    0.2834015 -45.32   0.00414376    2.368    0.578
        11 -10.9328      4.9490      9.1121   1.0857425275e+02   7.3128785412e+01    0.8028523    0.3056868 -61.93  0.004008024    2.414    0.586
        12 -11.4791      3.6169      1.7675   1.0633463189e+02   7.4570335978e+01     0.404725    0.1884359   7.50  0.002292812    2.710    0.631
        13 -12.5176     18.8804     22.6474   1.0613444938e+02   6.9595861684e+01    0.8195064    0.6165919  35.39  0.004439618    1.697    0.411
        14 -10.9267      9.6648     21.9540   1.1055878835e+02   7.0355312165e+01    0.3294816    0.1815508 -52.70  0.001307455    1.354    0.262
        15 -11.5963     26.1748     27.4833   1.0430564691e+02   6.8052375620e+01    0.4798048    0.3860256 -63.92   0.00183183    1.324    0.245
        16 -12.0865     22.2485     11.5503   9.9936713673e+01   7.1418108756e+01    0.7518314    0.4231603 -45.62  0.004512365    1.415    0.293
        17 -12.0658     69.2280     18.9543   8.1780514123e+01   6.4052196476e+01    0.9659317     0.567739  31.92  0.004251863    1.842    0.457
        18 -11.5773    178.7632     21.0594   5.5585673211e+01   3.7960828657e+01    0.7536457     0.365831  43.34  0.002930464    2.244    0.554
        19 -12.3582    104.8475     13.0761   6.7401816075e+01   5.7756316192e+01    0.6113586     0.435022 -31.74  0.003197743    1.421    0.296
        20 -12.6285    113.5922     24.9207   7.0168612648e+01   5.4211219645e+01    0.9118876    0.4330053  53.95  0.001872141    2.079    0.519
        21 -11.5910    163.9890     27.6896   6.0236035571e+01   4.1132323780e+01    0.6361809    0.4064232 -12.54 0.0003857988    1.793    0.442
        22 -11.4914    199.0607     28.3281   5.5021126997e+01   3.1683805018e+01    0.6887723    0.4394331 -10.26  0.001501676    1.841    0.457
        23 -12.4752     16.4378     13.1347   1.0375351881e+02   7.1605723611e+01    0.5449288    0.4028106 -52.62 0.0009959257    1.234    0.189
        24 -12.5891     43.7032     46.8575   1.0309050921e+02   6.2400916348e+01    0.8692307    0.6983786  69.58  0.003296709    1.674    0.403
        25  -8.5954     87.2455      7.2972   6.9818510725e+01   6.2265286343e+01    0.6072047    0.3344357  50.14   0.00295325    1.795    0.443
        26 -11.3563     85.7284     14.0458   7.3573025611e+01   6.1711499949e+01    0.8366575    0.3915763 -36.87  0.003704033    2.112    0.526
        27 -10.5499     91.3064     21.2584   7.5095280516e+01   5.9577280788e+01     0.585969    0.4128096  -9.72  0.003024627    1.510    0.338
        28 -10.8771     41.4086      4.6224   8.6583227894e+01   7.0464818113e+01    0.6093876    0.2404028 -28.12  0.002560516    2.906    0.656
        29 -12.1039     48.1140     12.9709   8.7731947396e+01   6.8248890813e+01    0.7423278    0.4667506  26.95  0.003596794    1.733    0.423
        30 -11.1184     33.0802     12.8430   9.4890469342e+01   7.0119287435e+01    0.2243828    0.2050518  54.45 0.0005590093    1.579    0.367
        31 -12.2108    238.1728     16.1027   4.7205971991e+01   2.3088376620e+01    0.8671468    0.5185155  63.09  0.003239972    1.703    0.413
        32 -11.7786    133.5229     15.3213   6.1495057445e+01   5.0581117196e+01     1.348201    0.4869956  67.81  0.004382411    3.355    0.702
        33 -10.3584    127.2372     11.8166   6.1411133953e+01   5.2558685132e+01    0.4518894    0.2731296  82.25  0.001486965    2.278    0.561
        34 -11.0755    165.1038     17.6704   5.6549559614e+01   4.2020979256e+01     0.492135    0.3051487  31.96  0.001289611    1.868    0.465
        35 -10.6810    124.8253     20.5769   6.5557770801e+01   5.2116310763e+01    0.9499494    0.5572022  89.46  0.003471256    3.249    0.692
        36 -10.6275    186.3673     15.2829   5.2633405150e+01   3.6550482676e+01    0.3134694    0.2793291  69.93 0.0006322963    1.083    0.077
        37 -10.1011    191.6680     16.4225   5.2305145706e+01   3.5005388959e+01    0.3997559    0.3099229   6.94  0.002020825    1.507    0.336
        38 -11.6767    192.5858      6.9973   4.9236823206e+01   3.5725314642e+01    0.8022491    0.5028756  22.61  0.003517123    2.065    0.516
        39 -10.2042    225.9099     15.6544   4.8237541418e+01   2.6161164171e+01    0.3745399    0.2050346 -30.53 0.0009726867    1.710    0.415
        40  -9.8080    141.6019     12.2845   5.8681355130e+01   4.8841566786e+01    0.2519817      0.19443  -1.18 0.0006005715    1.398    0.285
        41 -11.7994     36.0915     17.6345   9.5590090350e+01   6.8941190284e+01    0.6541676    0.2276944 -39.01  0.002820332    2.590    0.614
        42 -11.4553    211.6388      9.9340   4.8051641119e+01   3.0401992965e+01    0.5211189    0.3515618  17.95  0.001342427    1.932    0.482
        43 -11.6829    246.0042      7.8980   4.4430392801e+01   2.2060647164e+01    0.4657161     0.413793 -14.03  0.002896086    1.233    0.189
        44 -10.9626    242.1776      3.8970   4.3706484682e+01   2.3364422236e+01     0.371548    0.2852665  66.07  0.002155518    1.357    0.263
        45  -9.0292    157.2852      9.3127   5.4822873515e+01   4.5006155324e+01    0.4864423          nan -30.84  0.001080705    6.927    0.856
        46 -10.0081    168.7700     10.0807   5.3341365712e+01   4.1840035506e+01    0.3222583    0.1864803  52.50  0.001435146    1.629    0.386
        47  -8.9910    162.8686     10.1514   5.4249009779e+01   4.3423210890e+01    0.2415901    0.1620377  31.86  0.000851055    1.646    0.393
        48  -9.4722    162.9195      6.0079   5.2768745502e+01   4.3817828552e+01    0.2444657    0.2067285 -20.57 0.0005538524    1.244    0.196
        49  -9.8461    185.1517      7.4798   5.0275489716e+01   3.7674656090e+01    0.3386459    0.2019583 -42.83  0.001268965    1.701    0.412
        50 -10.0763    151.8582      7.5265   5.5046821745e+01   4.6631983802e+01    0.4817249    0.2257052  59.46    0.0011895    1.907    0.476
        51 -10.0017      1.2949      7.2901   1.1000735540e+02   7.3671222080e+01    0.1850142   0.07417513 -56.72  0.000222258    1.849    0.459
        52  -9.8899    232.9227      7.2941   4.5335377774e+01   2.5274812674e+01     0.226788    0.1545463 -73.74  0.001176589    1.506    0.336
        53 -11.2570     75.3006      4.4849   7.2353541898e+01   6.4978960712e+01    0.6191737    0.4827568  52.88  0.003138527    1.472    0.321
        54 -10.3808    175.6656      5.1131   5.0696917256e+01   4.0462080620e+01    0.4414949    0.2955246 -89.21  0.002064654    1.621    0.383
        55  -9.9060    122.5288      1.3226   5.7976969758e+01   5.4801794084e+01    0.4395347    0.1234819  64.50  0.001415858    3.462    0.711
        56  -9.3987    115.4877      6.0817   6.1598360621e+01   5.6057804928e+01    0.3083581    0.1912453  10.95 0.0009617922    1.902    0.474
        57 -10.7641    111.3456      1.6092   6.0560161106e+01   5.7499767787e+01    0.5819694    0.1913773  60.80  0.002110592    2.863    0.651
        58 -10.4638    105.3441      1.5174   6.1962268493e+01   5.8920360145e+01    0.3214808    0.2050862  61.29  0.001000525    1.600    0.375
        59 -10.9704    218.8771      3.1336   4.5423303201e+01   2.9203500982e+01    0.3270032    0.3204681 -75.40  0.001061112    1.081    0.075
        60 -11.4059    223.9875      1.7313   4.4591774087e+01   2.8040194279e+01    0.8388206    0.3841647 -81.63  0.003277944    2.769    0.639
        61 -11.4704    205.5135      2.4406   4.6476596603e+01   3.2730409163e+01    0.5005003    0.2787283  87.86   0.00123752    1.917    0.478
        62 -10.2082    142.5290      3.3753   5.5037766488e+01   4.9493401716e+01    0.3902774    0.2740901  62.72  0.001922835    1.335    0.251
        63 -11.9602    133.5599      2.6384   5.6357602663e+01   5.1889624245e+01    0.4550545    0.2715149  57.01 0.0009480654    1.523    0.343
        64 -10.2038     82.0789      1.3512   6.8453580295e+01   6.4010785490e+01    0.1822421    0.1183642  49.38 0.0003793528    1.535    0.348
        65  -9.7574    169.4642      2.9165   5.0767495567e+01   4.2341682630e+01    0.3451636    0.2183088 -68.31  0.001065376    1.879    0.468
        66  -9.4214    157.4976      2.5044   5.2309099182e+01   4.5601044587e+01    0.2629988    0.2344754  22.96  0.001469609    1.161    0.139
        67  -8.8787    161.6317      1.0000   5.1168817043e+01   4.4625738470e+01    0.3841116    0.1497366  68.99  0.001429766    2.387    0.581
        68 -10.3971     12.9319      1.9974   1.0075383111e+02   7.3892434621e+01    0.2390954    0.1638886   0.01  0.001047777    1.574    0.365
        69  -9.8787    214.9360    151.4996   8.4623886368e+01   9.8099472189e+00    0.2045007    0.1757353 -12.73 0.0006337467    1.164    0.141
        70 -11.2204     62.6020    149.8778   1.1714021446e+02   3.7350256671e+01    0.4582936    0.3656581  65.99  0.002380123    1.110    0.099
        71  -9.4139     85.4561    149.9969   1.1182860659e+02   3.4208295305e+01    0.1895463    0.1190135 -66.85 0.0005465543    1.575    0.365
        72 -10.1370     55.7891    149.4480   1.1867103769e+02   3.8274921875e+01    0.2342809    0.2054993 -59.19  0.001575157    1.367    0.268
        73  -9.8307    239.8561    146.8143   7.9373239905e+01   5.6637486898e+00    0.2056003    0.1587656  14.69 0.0006234312    1.190    0.160
        74 -11.0172    249.4838    142.7573   7.6973401984e+01   4.3942549864e+00    0.5733757    0.2463889 -30.94  0.002600808    2.230    0.552
        75 -10.6652     33.0781    144.1565   1.2339468173e+02   4.1859691443e+01    0.2662769    0.1902929  78.03 0.0007650746    1.168    0.144
        76  -9.1574    104.5189    142.1079   1.0609696490e+02   3.2871694523e+01    0.1881682    0.1289121 -60.99 0.0003813707    1.484    0.326
        77 -10.1157    133.4436    140.4312   9.9025260070e+01   2.8032689103e+01    0.2801856    0.2633816  12.53  0.001065009    1.216    0.178
        78 -12.0059     29.9210    132.9414   1.2307375755e+02   4.4568691527e+01    0.6970382    0.4119406 -80.19  0.002788167    1.420    0.296
        79 -11.3671     24.1559    136.8639   1.2482643799e+02   4.4243777293e+01    0.3380669     0.237845 -65.19 0.0003420328    1.402    0.287
        80 -11.1800     20.9977    134.3384   1.2535717564e+02   4.5057662203e+01    0.2440746    0.2122579  87.27 0.0003972765    1.164    0.141
        81  -8.6916    186.5102    139.4970   8.7446048822e+01   1.7439386417e+01    0.1423702    0.1304716  28.31 -6.183952e-05    1.005    0.005
        82 -10.4355     80.3695    136.1868   1.1099747467e+02   3.7898219195e+01    0.4132017    0.3229433  -2.00  0.002260611    2.082    0.520
        83 -10.3473     47.2583    135.2043   1.1906554398e+02   4.2320696225e+01    0.4099226    0.1912782 -63.07  0.001756528    1.922    0.480
        84  -9.0070     44.3099    132.7045   1.1950120249e+02   4.3187228041e+01    0.2046546    0.1442066  59.76 0.0006088935    1.343    0.255
        85 -10.9452     71.7255    134.1661   1.1284215159e+02   3.9548321542e+01    0.4954906      0.41258 -19.36  0.002838682    1.767    0.434
        86  -9.0111    216.6318    135.1739   8.0822425577e+01   1.1847578056e+01    0.1910822    0.1257547 -17.38 0.0006040526    1.654    0.395
        87 -10.0019     93.3865    135.2262   1.0762291394e+02   3.6138945735e+01     0.188888    0.1207989 -73.75  0.000713412    1.679    0.404
        88  -9.4892     87.2973    135.3317   1.0914568082e+02   3.7058492211e+01    0.1253744    0.1032287 -30.32 0.0006320383    1.642    0.391
        89  -9.9396     62.4164    131.4062   1.1478541778e+02   4.1370633676e+01    0.3620523    0.1937492 -45.99  0.001751836    2.350    0.574
        90  -8.8506    103.9583    131.0224   1.0425999968e+02   3.5309307404e+01    0.1643887    0.1508729  85.71 0.0005914319    1.020    0.019
        91 -10.6849     92.8859    129.4285   1.0674040001e+02   3.7471745575e+01    0.3427284    0.2634936  75.57  0.001403522    1.347    0.258
        92  -9.6585     78.5453    128.5408   1.1023749808e+02   3.9833796422e+01    0.6347684    0.1161698 -60.13  0.001846235    5.058    0.802
        93  -9.5373     81.6908    125.6884   1.0894877793e+02   4.0005846445e+01    0.3702036    0.2444509  58.27  0.001792291    1.556    0.357
        94  -9.4085     84.3619    123.2816   1.0783286738e+02   4.0139555175e+01     0.217049    0.1901248  28.70 0.0008772661    1.355    0.262
        95  -9.4264    108.5382    146.0339   1.0581487180e+02   3.1383326215e+01    0.2007363    0.1664484  53.40 -4.882313e-05    1.124    0.110
        96 -10.4808     18.4244    125.0468   1.2516060476e+02   4.7276392056e+01    0.3239936    0.1462805 -67.58  0.001221061    1.828    0.453
        97 -10.5080     45.8600    120.2851   1.1754224922e+02   4.5774042005e+01    0.3808289    0.2270547  77.35  0.001351299    1.816    0.449
        98 -11.0106     55.8768    123.1124   1.1528939868e+02   4.4011368299e+01    0.4335133    0.3352482  25.15  0.001053285    1.631    0.387
        99  -9.1122     50.1914    122.5974   1.1671234492e+02   4.4781969539e+01    0.1903981    0.1638573 -45.96 0.0008797088    1.401    0.286
       100  -9.7301      2.2306    125.5895   1.2917384278e+02   4.8338335508e+01    0.2488077    0.1332833  82.79  0.001221722    1.547    0.353
       101 -11.6021    104.7310    121.7422   1.0226905098e+02   3.7171072225e+01    0.4636529    0.4076473  75.73  0.001405674    1.112    0.101
       102 -10.8311     33.2050    119.6305   1.2080538598e+02   4.7188937986e+01    0.3322624    0.2455692 -81.29  0.001153516    1.117    0.105
       103  -9.8443      4.3762    121.1387   1.2832884782e+02   4.9147285106e+01    0.2475855    0.1490893  79.86  0.001074306    1.389    0.280
       104  -9.1738    221.1918    120.4114   7.6651907597e+01   1.3080096384e+01    0.1901899    0.1363156  60.57 0.0007016554    1.647    0.393
       105  -9.2033     72.8463    119.8563   1.1027436286e+02   4.2565410018e+01    0.1912688    0.1708653 -44.67 0.0007384142    1.303    0.232
       106  -9.3252    148.4866    119.5235   9.1093730796e+01   2.9130394979e+01    0.1459687    0.1403787  43.21 2.204907e-05    1.025    0.024
       107  -9.6028     81.8898    117.6364   1.0746005826e+02   4.1763560545e+01    0.2325947    0.1734731 -66.90 0.0003448488    1.261    0.207
       108  -9.7936    113.5197    116.0017   9.8812492102e+01   3.6829876895e+01    0.2463131    0.1994146  26.78 0.0005031781    1.446    0.308
       109 -11.5281      2.5445    112.1628   1.2809536813e+02   5.1200844341e+01    0.5033325    0.2740105  58.65  0.002471391    1.791    0.442
       110 -11.9627      3.8042    105.1877   1.2717323018e+02   5.2642669785e+01    0.3439009     0.294663  87.98 0.0007721437    1.143    0.125
       111  -9.5533     88.1879    114.6312   1.0519294957e+02   4.1468738710e+01    0.2941912    0.1472009  49.65 0.0006965809    2.102    0.524
       112 -10.3094     67.1397    112.1960   1.1049805018e+02   4.5058690550e+01    0.4953618     0.277564 -73.17  0.002418087    1.820    0.450
       113 -10.1583     36.3430    114.5536   1.1934185533e+02   4.8025766416e+01    0.2506306    0.1511208  79.39 0.0008222235    1.711    0.415
       114 -11.7752     49.3577    100.6412   1.1357740080e+02   4.9837710313e+01     1.407424    0.5549237 -52.74   0.00126476    2.336    0.572
       115 -12.4353     52.8194     74.4815   1.0720306372e+02   5.5376989912e+01     0.952095     0.272724 -58.62  0.001585978    2.966    0.663
       116 -10.8869     58.5002     78.3505   1.0621342433e+02   5.3827090801e+01    0.9516671    0.6126819 -78.64  0.004842702    1.820    0.450
       117 -10.5634     46.8409     74.4380   1.0923133650e+02   5.6056519205e+01    0.4180728     0.197635 -62.17  0.001998444    1.836    0.455
       118 -11.9939     79.1984     95.3215   1.0365957511e+02   4.7169824242e+01    0.7536823    0.5023749 -40.42  0.003830648    1.653    0.395
       119 -11.3766     89.4090     90.2422   9.9436858287e+01   4.6688425229e+01    0.7718827    0.4285693 -32.04  0.003115811    2.656    0.624
       120 -11.8893     35.3670     92.5419   1.1644272019e+02   5.3096476237e+01     1.574119    0.8484712 -83.76  0.006898241    1.945    0.486
       121 -10.9493     79.7651     83.1057   1.0056131427e+02   4.9805372141e+01    0.6576421     0.527995 -83.39  0.002790378    1.396    0.284
       122 -12.1065     73.1858     77.8510   1.0129092225e+02   5.1953502639e+01     1.348976    0.9304007 -20.71  0.006619141    2.057    0.514
       123 -11.2485     18.9066    106.0856   1.2311270199e+02   5.1417301873e+01    0.3393692    0.2759884 -61.01  0.001250762    1.259    0.206
       124 -12.5970     20.6825     95.4173   1.2131023281e+02   5.3672202927e+01    0.8126888    0.6553783 -57.05  0.005691941    1.253    0.202
       125 -12.5286     17.5387     90.3972   1.2159945252e+02   5.5029264859e+01    0.7188725    0.4083215 -28.16 0.0008886322    2.648    0.622
       126 -11.5038     43.3220     85.3410   1.1266687484e+02   5.3961501165e+01    0.4951234    0.4562408  25.52  0.002577497    1.308    0.236
       127 -10.7864     37.4838     85.9923   1.1466135836e+02   5.4387096042e+01    0.4225122     0.260898  69.38  0.002263922    1.993    0.498
       128 -12.3668      9.8877     95.3473   1.2448516613e+02   5.4436067959e+01    0.6570215    0.3392009 -80.36  0.001470142    1.572    0.364
       129 -12.3531      7.8933     89.4566   1.2441443555e+02   5.5868210193e+01    0.5337814    0.4140873  75.67  0.001579657    1.250    0.200
       130 -11.8581     22.1746    114.1580   1.2311128468e+02   4.9366528678e+01    0.8259541    0.3523235  13.00  0.003592431    4.417    0.774
       131 -12.5507     24.7881    108.4014   1.2174812906e+02   5.0435277187e+01     1.039158    0.6970304 -29.77  0.006193095    2.175    0.540
       132  -9.3964    126.8370    113.8089   9.4953651648e+01   3.4736526466e+01    0.2176886    0.2013828   1.90 0.0008203288    1.248    0.199
       133 -10.6852    107.6345    111.9846   9.9456006176e+01   3.8767932761e+01    0.6808436    0.3739079 -72.90  0.002517073    2.892    0.654
       134 -10.8208    101.9347    110.2608   1.0058765865e+02   4.0153620017e+01    0.4160041     0.358673  57.74  0.001814924    1.159    0.137
       135  -9.5176    103.3714    106.1781   9.9287874744e+01   4.0791757669e+01      0.25785    0.2302673  86.86 0.0006340028    1.133    0.117
       136 -11.2575    170.4302    110.2379   8.3957048910e+01   2.6063483159e+01    0.5548329    0.4236335  25.66  0.002484093    1.467    0.318
       137  -9.8493     94.2864    111.4863   1.0290724345e+02   4.1183076114e+01    0.2914021    0.2183362 -79.72  0.001532864    1.448    0.309
       138  -9.6413     48.9898    112.0554   1.1551814249e+02   4.7286336535e+01    0.2258513    0.1726737  44.64  0.001047384    1.403    0.287
       139  -9.4434     82.0630    102.7157   1.0444713652e+02   4.5077864434e+01    0.2123369    0.1876933 -61.77 0.0004666704    1.074    0.069
       140 -11.3310     79.7626    108.7367   1.0633511624e+02   4.4071628115e+01    0.6380603    0.4348135  50.64  0.002840438    1.519    0.342
       141 -10.8741     85.6718    104.5844   1.0382295611e+02   4.4102557174e+01    0.6204734    0.3830053 -28.75  0.002091232    2.614    0.617
       142 -10.0790     90.3005    104.4779   1.0250153725e+02   4.3388704215e+01    0.3782598     0.312588  -2.50  0.001527384    1.658    0.397
       143 -10.0670    130.4348    109.3151   9.2996209351e+01   3.4940973263e+01    0.3269938    0.2632025 -36.31  0.001683827    1.335    0.251
       144 -10.1567    120.1085    109.1488   9.5566317745e+01   3.7035463454e+01    0.2170853    0.2004304  -8.64 0.0007601009    1.257    0.204
       145 -10.6886    157.5945    106.3551   8.5801002323e+01   2.9682655767e+01    0.4154877    0.3064092  -5.76  0.001418165    1.868    0.465
       146 -10.9484    143.3298    106.2123   8.9083574065e+01   3.2856415980e+01    0.3723504    0.3082025  75.86  0.001155063    1.382    0.276
       147 -11.7884    145.8916    100.2499   8.6939842997e+01   3.3472141313e+01    0.5486858    0.4835486 -21.14  0.001627347    1.233    0.189
       148 -10.1209     57.7219    102.3894   1.1142811573e+02   4.8473955900e+01    0.3130235    0.1637896 -74.32  0.001233861    1.992    0.498
       149 -10.0894     57.3348     97.5688   1.1065027725e+02   4.9617884966e+01    0.2846493    0.2125027 -71.58 0.0009616874    1.201    0.167
       150  -9.4690     61.4129    101.3032   1.1014698512e+02   4.8266390602e+01    0.3114599    0.1604376  55.17   0.00142525    2.344    0.573
       151 -11.4619     67.5715     96.3561   1.0734352437e+02   4.8589843269e+01    0.4550498    0.3196436 -26.20 0.0006132966    2.006    0.501
       152 -10.0132    120.9210    101.0609   9.3389160573e+01   3.8577949767e+01    0.2333125    0.1855158  -6.13  0.001133031    1.715    0.417
       153  -9.5436     96.0348     99.9604   9.9872072331e+01   4.3432798561e+01    0.2015968    0.1691087 -11.19 0.0003726509    1.552    0.356
       154  -9.5010    210.0993     97.6882   7.3001777018e+01   1.9007298939e+01    0.2630221    0.2006242 -40.04  0.001090903    1.337    0.252
       155  -9.5493    140.4912     96.4903   8.7248087723e+01   3.5404522700e+01    0.4000511    0.2496067  31.65   0.00168237    1.956    0.489
       156 -10.6123    137.7915     93.6718   8.7153353301e+01   3.6556482165e+01    0.4166709    0.2896432  30.10 0.0008404773    1.699    0.411
       157 -11.2409    125.0023     93.3632   9.0325889746e+01   3.9348678079e+01    0.6848692      0.37664  42.83  0.001300306    1.860    0.462
       158 -10.2571    117.5614     93.0991   9.2226411002e+01   4.0917981171e+01     0.435326    0.2894455  23.11  0.001470839    2.102    0.524
       159 -10.4351    122.0128     88.9206   8.9907325934e+01   4.0881597197e+01    0.4865163    0.2895591  37.87  0.002107555    1.833    0.454
       160 -10.8509    119.9872     85.4889   8.9494457277e+01   4.2004523399e+01    0.4470679    0.2878937  44.42  0.001561907    1.584    0.369
       161  -9.6242    160.1745     93.3111   8.1770041751e+01   3.1541750252e+01    0.4607756    0.2574238  68.62  0.001649589    2.750    0.636
       162 -10.7336    152.8058     92.1152   8.3121914591e+01   3.3477657912e+01    0.5283782    0.3619733  48.46  0.002154529    1.440    0.306
       163 -11.7487    102.1775     90.1750   9.5714815785e+01   4.4481088444e+01    0.4873196    0.4029408 -33.12 0.0005959753    1.309    0.236
       164  -8.8254    223.0341     93.0245   6.9622734882e+01   1.6738082594e+01    0.1696883    0.1604744   7.75 0.0003868015    1.026    0.026
       165 -11.2180    113.5798     83.3106   9.0633746833e+01   4.3754209737e+01    0.7825103    0.3256158 -40.68  0.002861608    2.496    0.599
       166 -11.9065    109.3331     80.4695   9.1016641161e+01   4.5183935903e+01    0.9073398    0.6411841  73.19  0.003144987    1.955    0.489
       167  -9.2558    211.6212     88.1535   7.0251003737e+01   2.0121587677e+01     0.212102    0.1382468 -16.75 0.0007820794    1.703    0.413
       168 -10.3468    183.7971     85.9427   7.4748078810e+01   2.7184447730e+01    0.6783515    0.2348501 -40.07  0.002229793    2.855    0.650
       169 -11.3971    142.7857     84.1182   8.3245441010e+01   3.7306526172e+01     0.584198    0.3952524  38.41  0.001085359    1.566    0.362
       170 -10.4692    165.7675     83.4250   7.7760178247e+01   3.2008113505e+01     0.432593    0.3654799 -61.36  0.001741684    1.323    0.244
       171 -10.9023    127.1393     82.9830   8.6875497330e+01   4.1005658338e+01    0.4097373    0.3590246  49.62  0.002166335    1.155    0.134
       172  -8.8701    239.6674     82.6547   6.4450321942e+01   1.4457559025e+01    0.1502818    0.1036041  16.83 0.0007049933    1.762    0.432
       173  -9.6098     22.7396     73.0725   1.1725712559e+02   5.8547532817e+01    0.4342217    0.2102415  52.20  0.001493749    2.651    0.623
       174 -11.8197     14.0644     74.7694   1.2049523141e+02   5.8764410326e+01    0.4772813    0.3725148 -62.51  0.002651465    1.109    0.098
       175 -12.1121     14.1814     66.2747   1.1907962168e+02   6.0649002454e+01     0.786315     0.300808 -82.75 0.0004332525    3.304    0.697
       176 -11.7992      1.9335     71.4671   1.2412126168e+02   6.0177455588e+01    0.7253044    0.1343752 -70.81  0.002786174    3.523    0.716
       177 -10.6390     10.2728     62.6270   1.1987135221e+02   6.1689774670e+01    0.2010394    0.1686352 -40.49 0.0007052791    1.292    0.226
       178  -9.3207    170.3870     77.6705   7.5106291874e+01   3.1886178072e+01    0.2371302    0.1845309 -71.80  0.000859471    1.622    0.383
       179 -10.1869     98.1896     62.8866   8.8939419773e+01   5.0924072916e+01    0.5121527    0.3390332 -10.61  0.002166826    2.401    0.584
       180  -9.8831    142.6888    249.4398   1.1241275098e+02   8.7925909656e+00    0.2164984    0.0749253  45.17  0.001134642    2.071    0.517
       181 -10.5371     93.6774     76.4443   9.4469919835e+01   4.8949396182e+01    0.5377968    0.3560799  28.32  0.001900399    1.835    0.455
       182 -11.6848     85.5932     73.6202   9.6169919841e+01   5.0937143631e+01    0.6990244    0.5759823  45.17  0.003520155    1.307    0.235
       183 -10.6701     78.6417     67.1670   9.6535549629e+01   5.3439812269e+01    0.5460855    0.4425726  56.61  0.002613534    1.419    0.295
       184 -11.0294     91.3506     62.5842   9.0984242268e+01   5.2246688837e+01    0.4018592    0.3447543  55.95   0.00109957    1.301    0.231
       185 -11.5812     89.4327     57.5773   8.9954580982e+01   5.3596772215e+01    0.5931768     0.498658  53.16   0.00203076    1.331    0.249
       186  -9.8820     33.1918     77.3728   1.1448160375e+02   5.6730842852e+01    0.2152436    0.1470449 -63.78 0.0004884588    1.202    0.168
       187 -12.0832      5.2986     62.5653   1.2167356624e+02   6.1971447481e+01     0.549568    0.3183496 -54.75   0.00284662    1.428    0.300
       188 -10.0247    134.8430     77.5195   8.3274169421e+01   4.0379852839e+01    0.4363039    0.1901581  56.13   0.00151709    2.673    0.626
       189  -9.9987    126.8883     76.9663   8.5166112867e+01   4.2253109213e+01    0.2413984    0.2168102  47.38 0.0003095545    1.128    0.113
       190 -12.0350    186.4832     70.6840   6.9869601229e+01   2.9019453644e+01    0.9263551     0.678098 -31.71  0.003278658    1.357    0.263
       191  -9.7266    184.2711     61.2820   6.7479154474e+01   3.1053713848e+01     0.367022    0.2730592 -14.65  0.001180857    1.484    0.326
       192  -9.5582    151.3118     73.6873   7.8113083020e+01   3.7248108963e+01    0.3810874    0.1987191  40.93  0.001463746    2.082    0.520
       193 -12.0990     40.7996     70.0250   1.1033491053e+02   5.7669671063e+01    0.5189193    0.2579922 -60.71  0.001151317    1.673    0.402
       194 -11.3087     32.4982     71.8223   1.1363262884e+02   5.8040865859e+01    0.4940164    0.2669697  27.60  0.002410077    2.204    0.546
       195  -9.9875    123.4458     73.0281   8.4882676177e+01   4.3773033406e+01    0.2788645    0.2239803  52.25 0.0003514167    1.283    0.221
       196 -11.8948    122.5645     68.3224   8.3644405572e+01   4.4876282134e+01    0.9005596    0.3925468  46.06  0.003375957    2.332    0.571
       197  -9.9802    161.9825     70.6190   7.4783219803e+01   3.5180385472e+01    0.3545997    0.2712667  80.26  0.001181409    1.615    0.381
       198 -10.7210    171.6268     67.1169   7.1691725769e+01   3.3353081717e+01    0.6592267    0.3659098 -42.45  0.002680727    1.839    0.456
       199 -11.4269    219.7909     66.6700   6.3152062263e+01   2.1323594107e+01    0.7126538    0.3368603  59.54  0.002520515    2.187    0.543
       200  -9.5738    208.3904     68.1155   6.5324039047e+01   2.3916974519e+01    0.2601795    0.1994728  43.24 0.0007601776    1.339    0.253
       201  -9.8280     21.7617     65.5596   1.1621674148e+02   6.0297296986e+01    0.3046088    0.1897093  70.01  0.001079575    2.059    0.514
       202  -9.1609     25.7446     65.2998   1.1471796991e+02   6.0055913163e+01    0.1601892    0.1335838 -55.14 0.0002354533    1.096    0.088
       203  -9.7374    192.5105     65.7901   6.7340033332e+01   2.8257021901e+01    0.2933177    0.2328043 -72.16 0.0008987965    1.514    0.340
       204  -9.5560    174.9067    246.8747   1.0685579653e+02   4.3261123937e+00     0.230676    0.1217249  38.14 0.0009977603    1.409    0.290
       205 -10.8386     23.2226     37.1528   1.0881185469e+02   6.6331267690e+01    0.4448441    0.3083428  72.97  0.001677813    2.216    0.549
       206 -12.3929     52.7338     30.8741   9.3679120487e+01   6.4493493428e+01     1.036731    0.3289719  35.32  0.001106742    3.573    0.720
       207 -11.4534     23.1403     47.3200   1.1164046914e+02   6.4189651241e+01    0.6251557    0.4103849   6.99  0.002360369    1.955    0.489
       208 -10.9248     33.9593     43.2604   1.0599616840e+02   6.4139044694e+01    0.6452709    0.2603988 -48.58  0.003078741    1.986    0.497
       209 -11.1215     58.1980     61.8778   1.0204694826e+02   5.7495528301e+01    0.5033838    0.3960965 -86.03  0.002091067    1.555    0.357
       210 -12.5519     49.6707     60.4032   1.0473880634e+02   5.8846783151e+01     0.593892    0.4415604  55.12  0.001333887    1.660    0.398
       211 -11.8615     25.6061     55.6645   1.1267697695e+02   6.2192826122e+01    0.8580621    0.6502137  15.45  0.005080082    1.633    0.388
       212 -10.6695     33.4755     58.3009   1.1027300316e+02   6.0956420926e+01    0.3926553    0.2059566 -34.05 0.0006605939    2.279    0.561
       213 -11.5124     39.8290     55.5442   1.0713081616e+02   6.0955290652e+01    0.5119792     0.369781  68.29  0.002940825    1.884    0.469
       214  -9.9643    199.0881    244.5194   1.0264642931e+02   9.6366017698e-01      0.17517   0.08020449  41.26  0.001034491    1.600    0.375
       215 -10.2590    106.1495     63.4497   8.6718514616e+01   4.9261298029e+01     0.425369     0.281903 -49.79  0.001619651    1.527    0.345
       216 -10.2036    106.0007     57.8046   8.4875399941e+01   5.0383276649e+01    0.3713478    0.1812279 -49.54  0.001316113    2.214    0.548
       217  -9.2905    198.1771     62.9456   6.5531026130e+01   2.7246212811e+01    0.2651023    0.1559478 -53.46   0.00106945    2.045    0.511
       218 -10.9299    159.3435     61.7319   7.2577776760e+01   3.7343653117e+01    0.6212702    0.4130474  21.98  0.002570013    2.023    0.506
       219 -11.1161    157.5354     54.8461   7.0735896688e+01   3.8925007290e+01    0.5356318    0.4201994 -42.82  0.002226281    1.302    0.232
       220 -11.3001    155.1314     49.6414   6.9516457086e+01   4.0359751454e+01     0.424978    0.3192269  -9.15 0.0004711954    1.530    0.346
       221 -10.5838    113.2558     60.8909   8.3804707060e+01   4.8294029091e+01    0.4180736    0.2768869 -39.88  0.001482253    1.465    0.317
       222 -10.0235    130.9732    240.7569   1.1350754159e+02   1.1623922765e+01     0.227012   0.08595193  40.59   0.00119359    2.050    0.512
       223 -10.4615    127.4968    241.0362   1.1411982427e+02   1.2093284525e+01    0.1915697    0.1087186 -58.74  0.001257302    2.329    0.571
       224 -11.2997    113.1098     49.7169   7.9956824099e+01   5.0377708354e+01    0.6740049    0.4210548  27.55  0.002568832    2.036    0.509
       225 -12.5594    116.7187     42.8796   7.6424949147e+01   5.0752718405e+01    0.9799169    0.6757468 -85.33  0.004065417    2.547    0.607
       226 -10.5239    149.1601    238.0518   1.1015422549e+02   9.2710537069e+00    0.2945388     0.127139  36.07  0.001338944    2.082    0.520
       227  -9.4648    147.4290     60.6293   7.4887186505e+01   4.0491071946e+01    0.3733722    0.1521611  58.59  0.001249834    2.737    0.635
       228  -8.9778    199.3333    235.3015   1.0141896286e+02   1.8985092503e+00    0.1138565   0.06946452  22.20 0.0007034871    1.655    0.396
       229  -9.6734    143.3362    235.6687   1.1088752952e+02   1.0463037771e+01    0.1138326   0.07095201  61.97 0.0007052132    1.734    0.423
       230  -9.6738     15.1187    233.7910   1.3203211187e+02   2.7001915033e+01    0.1659873     0.111017  88.58   0.00112805    1.378    0.274
       231 -10.6686    145.3382     24.7248   6.2695466550e+01   4.6415595423e+01     0.702517     0.400671  50.43  0.003040807    1.660    0.397
       232 -11.4429    140.1294     43.9024   7.0867082794e+01   4.5033063034e+01    0.7596881    0.4711155  37.92  0.001279901    1.742    0.426
       233 -10.9617    147.6934     31.6034   6.4754049747e+01   4.4906135892e+01    0.2965173    0.2959974  25.65 0.0008509968    1.043    0.042
       234 -11.1608    135.9863     55.1305   7.5789238766e+01   4.4205505329e+01    0.9128504    0.6614742 -42.71  0.004069414    1.399    0.285
       235 -10.2567    157.0751     20.6590   5.8973317086e+01   4.3825784752e+01    0.5900747    0.2700721  54.86  0.002053757    1.994    0.499
       236 -10.4354    146.0189     52.2914   7.2430653238e+01   4.2233650081e+01    0.4441892    0.2936487  48.02  0.001206917    1.492    0.330
       237 -11.4715    146.0032     46.9839   7.0607890663e+01   4.3086305172e+01    0.7311625    0.4142897 -16.70  0.002842248    2.254    0.556
       238 -10.0667    101.3545     56.4136   8.5799721266e+01   5.1579102391e+01    0.3732635     0.233325 -71.03  0.001422363    3.002    0.667
       239  -9.3189      2.0673     56.1355   1.2184782103e+02   6.3535512173e+01    0.1664984    0.1190967 -53.42 0.0005365633    1.223    0.182
       240  -9.7808    188.1098     55.1554   6.4933739732e+01   3.0983826927e+01    0.3229819    0.1942892  55.22  0.001389636    1.631    0.387
       241  -9.9791     67.0495     54.6368   9.6656988614e+01   5.7822391418e+01    0.2492259    0.1789709 -63.40   0.00073706    1.526    0.344
       242  -9.8496    249.0300     53.0211   5.5684807140e+01   1.6238003897e+01    0.2963094    0.2054273 -56.52  0.001521278    1.568    0.362
       243 -10.0356    244.7197     50.4100   5.5511666597e+01   1.7550758571e+01    0.2874647    0.2120965 -35.83   0.00153942    1.237    0.192
       244 -11.0414    240.2292     50.2844   5.6007563270e+01   1.8612848254e+01    0.4483398    0.3403677  -7.93  0.001891178    1.431    0.301
       245 -11.2636    202.2612     47.1824   6.0240184071e+01   2.8438401913e+01    0.7117585    0.4866771 -34.65  0.003365926    1.418    0.295
       246  -9.8724    176.9427     43.8010   6.3335221847e+01   3.5543710309e+01    0.3760741    0.2810716 -84.41  0.001608788    1.633    0.387
       247 -10.2661     13.5970     46.7184   1.1545041457e+02   6.4967972847e+01     0.551246    0.1748116 -38.01  0.002184161    3.937    0.746
       248  -9.9683     17.8750     41.6264   1.1240292774e+02   6.5780802569e+01    0.3173202    0.1956032 -35.29  0.001931562    1.609    0.378
       249  -8.9924    215.6285     49.2861   5.8910784923e+01   2.4740770769e+01    0.1551977    0.1080516 -65.54 0.0007019017    1.710    0.415
       250  -9.5711     91.1168     47.9444   8.6027546877e+01   5.5149556082e+01    0.2970444    0.1756621 -45.20  0.001380693    1.638    0.389
       251 -10.3214      3.4356     45.5678   1.1942206843e+02   6.5760463779e+01    0.7895224    0.1829983 -58.51  0.003539306    2.596    0.615
       252 -10.0705    242.6219    231.6143   9.3982020757e+01  -4.1965745377e+00    0.2227667    0.2111199 -83.37  0.001757079    2.052    0.513
       253 -10.5726    197.3391    232.1028   1.0132331937e+02   2.5549186031e+00    0.2112267    0.1208769  34.10  0.001328681    1.365    0.267
       254  -9.6651     23.5642    231.7449   1.3063859896e+02   2.6497029964e+01    0.1522839   0.08082545  52.61  0.001145923    1.335    0.251
       255  -9.8264    247.4753    231.0925   9.3157381863e+01  -4.8439618630e+00    0.1415923   0.09567632 -14.53 0.0008420583    1.577    0.366
       256  -9.3026      9.8204    227.4201   1.3263157576e+02   2.8511956513e+01    0.1104185   0.07862844  41.93 0.0003725213    1.565    0.361
       257 -11.2252     31.1276     28.5479   1.0236227641e+02   6.7394103735e+01    0.4386961    0.3759562 -73.77   0.00136582    1.428    0.300
       258  -9.8974    234.4417    222.7476   9.3943998813e+01  -2.1569719636e+00     0.139135   0.09389629  -3.13 0.0004323669    1.542    0.352
       259  -9.4893      9.6398    217.8008   1.3232179006e+02   3.0098212440e+01     0.133847   0.06513408  80.62  0.000628216    1.640    0.390
       260 -11.0651     60.6764     36.1919   9.2538955879e+01   6.2398754861e+01    0.3693402    0.2051277 -40.55  0.001036746    1.595    0.373
       261 -11.0371    174.0906     48.1097   6.5240950076e+01   3.5675970112e+01    0.6335388    0.4270536  69.02  0.002546191    1.595    0.373
       262  -9.7089    193.3320     45.6961   6.1176875217e+01   3.0966036435e+01    0.2450041    0.1921643 -82.93 0.0009444631    1.472    0.321
       263 -10.5084    162.5570     44.1785   6.6151219961e+01   3.9267867301e+01     0.391603    0.3045439  -2.32  0.001596515    1.475    0.322
       264 -11.5776    156.1149     41.7569   6.6621015639e+01   4.1296387266e+01    0.4269865    0.4231771  10.31 0.0009252115    1.019    0.019
       265 -10.7461    153.2575     36.2266   6.5272148338e+01   4.2828072235e+01     0.321926    0.2996902  87.81  0.000572656    1.147    0.128
       266 -10.1743    233.2377     45.1414   5.5479333357e+01   2.0924777664e+01    0.3642421    0.1899657  53.54  0.001259342    1.974    0.493
       267 -11.1914    154.2635     25.5710   6.1262042039e+01   4.3975820749e+01    0.7441425    0.3882768  45.95    0.0030237    1.903    0.474
       268  -9.8386    101.3197     44.0603   8.1349303336e+01   5.3859504793e+01    0.3079557    0.2398469 -59.96  0.001089011    1.558    0.358
       269 -10.9575     94.3457     41.5581   8.2580697745e+01   5.5693856536e+01    0.6080219    0.3274456  46.98  0.002695968    1.958    0.489
       270 -10.8241    189.1036     41.5691   6.0578297454e+01   3.2638251241e+01    0.5373385    0.2310979 -22.52  0.000827349    2.591    0.614
       271  -9.8358     86.4957     30.9550   8.0895066321e+01   5.9017973235e+01     0.566808    0.2117658 -28.26  0.001894527    3.498    0.714
       272 -10.9084     81.0580     39.8711   8.6379034179e+01   5.8462588383e+01    0.5806507    0.3753567  48.18  0.002815323    1.748    0.428
       273 -10.8420     77.6796     34.3142   8.5361966538e+01   6.0046980294e+01    0.4184745    0.2809597  40.24  0.001031359    1.590    0.371
       274 -10.2850     81.7291     31.1998   8.2636129356e+01   5.9863551130e+01    0.4453957    0.2805982 -55.53  0.002081722    2.123    0.529
       275 -10.1068    231.5820     39.1043   5.4044643149e+01   2.2073280490e+01    0.3154204    0.2213207 -42.12  0.001176994    1.344    0.256
       276  -9.9289    165.3636    212.4083   1.0419879627e+02   1.0132073061e+01    0.2161731    0.1399799  64.69  0.001218947    2.027    0.507
       277  -9.1768    217.7061     38.9798   5.5705585411e+01   2.5544049315e+01    0.2070747    0.1846575 -36.08 0.0005125177    1.082    0.076
       278  -9.3030    152.5857    207.7647   1.0590504280e+02   1.2906626667e+01    0.1411931    0.1159005 -74.89 0.0005924506    1.569    0.362
       279 -11.5367    183.3446     25.0435   5.6210226306e+01   3.6265808893e+01    0.7692912    0.3512199  49.82  0.002982213    2.161    0.537
       280 -11.3906    176.1000     36.4643   6.1094455659e+01   3.6770629779e+01    0.7308146    0.4864634 -64.15   0.00242842    1.873    0.466
       281 -10.4036    176.1803     30.0955   5.8981226863e+01   3.7571995338e+01     0.413425    0.2700357  49.25   0.00141639    1.508    0.337
       282  -9.6129    133.5281     37.2053   6.9977949244e+01   4.7683344632e+01    0.3966001     0.268473 -74.03  0.001649941    2.294    0.564
       283  -9.7366    206.8311     37.0180   5.6574732751e+01   2.8581168185e+01    0.2461238    0.2177284  73.38 0.0007624906    1.143    0.125
       284 -10.5478    240.8062     32.4323   5.1248013271e+01   2.0640497252e+01    0.5643728    0.3365964 -36.63  0.002767649    1.512    0.339
       285  -8.7752     61.4525    207.4667   1.2282703782e+02   2.6344281521e+01    0.1112076    0.0814559  65.01 0.0001754409    1.023    0.023
       286 -12.2772    106.0049     20.1265   7.0201559871e+01   5.6591767453e+01    0.3230574    0.2629835 -21.65 0.0003558457    1.198    0.165
       287 -12.0627    105.7152     33.1026   7.5735037307e+01   5.4761785003e+01    0.6192944    0.3766881   9.38  0.001507063    2.637    0.621
       288 -10.9216      4.9116    202.9546   1.3255770061e+02   3.3048054521e+01    0.5518433   0.09523913 -69.61  0.002461838    4.842    0.793
       289  -9.6953    248.2102     33.5007   5.0773488483e+01   1.8774684119e+01    0.2712392    0.1841123 -28.01  0.001424266    1.367    0.268
       290 -10.9113    160.2775     29.3829   6.1497747125e+01   4.1903578574e+01    0.5736998    0.2417322 -21.20   0.00140801    2.704    0.630
       291 -12.3347      5.2369    185.2032   1.3179060002e+02   3.6205994281e+01    0.6979983     0.347113  77.14  0.004431105    1.567    0.362
       292 -10.4582     68.5795     32.7995   8.8111447255e+01   6.1829718262e+01    0.4184641    0.2891526  32.23  0.002293817    1.566    0.361
       293 -10.0451    238.6326    204.0791   9.0317047356e+01  -9.0196499817e-01    0.2176221    0.1312032  -6.27  0.001288723    1.852    0.460
       294  -9.1725    216.6960     32.0652   5.3861070964e+01   2.6647481589e+01    0.2010347    0.1776472 -26.87 0.0003815786    1.127    0.112
       295 -10.7158    189.2482     28.9247   5.6583899387e+01   3.4219771828e+01    0.6262338     0.347083 -19.20  0.002614896    1.972    0.493
       296  -9.5247    221.9967    205.7596   9.3323670172e+01   1.5798538889e+00    0.1649832    0.0817399  40.59 0.0008937779    1.648    0.393
       297  -9.4881    210.9715     30.1441   5.4014492804e+01   2.8349314097e+01    0.2646558    0.2034441 -30.76 0.0009002756    1.272    0.214
       298  -9.5483    221.2761     29.4717   5.2580879541e+01   2.5790135715e+01    0.2570546    0.1895657 -29.35  0.000576995    1.313    0.238
       299  -9.9424    182.2683     32.2974   5.8723454770e+01   3.5665957224e+01    0.2869006    0.2115249  35.77 0.0007871338    1.472    0.320
       300 -10.7155     98.5133     27.7087   7.5654137083e+01   5.7130253629e+01    0.4624746    0.2716878 -45.81 0.0008724151    1.912    0.477
       301 -10.0630    230.5122     27.4877   5.1006661944e+01   2.3709953135e+01    0.3536541    0.2098047 -32.51  0.001215656    1.558    0.358
       302  -9.7717    250.5369     26.1386   4.8673527578e+01   1.9070074541e+01    0.3390176    0.1207063 -26.19 0.0009478317    2.567    0.610
       303 -10.5846     16.6903    204.1987   1.3059454880e+02   3.1762459399e+01    0.2066976     0.110325  89.35  0.000933244    1.572    0.364
       304 -10.4020    214.2178     24.3962   5.1953517286e+01   2.8179801424e+01     0.355893    0.3044102 -63.74  0.001260184    1.162    0.139
       305  -9.4363    215.6806     20.6841   5.0719121269e+01   2.8219190222e+01    0.2461141    0.1994665  51.10  0.000733654    1.290    0.225
       306  -9.3234    169.1765     23.8199   5.8015387213e+01   4.0217636887e+01    0.2153105     0.170253  33.07 0.0006657391    1.338    0.253
       307 -10.6970    245.6072    200.8725   8.8663580458e+01  -1.6614536657e+00    0.2066387    0.1269836  28.56 0.0006423685    1.314    0.239
       308 -10.1799     81.3749     19.2153   7.7469187018e+01   6.1827934641e+01    0.4143895    0.2085041  45.09  0.001053962    2.032    0.508
       309  -8.7032    207.4750    201.4794   9.5106206514e+01   4.4888854613e+00    0.1228948   0.09741823  28.91 0.0001603739    1.002    0.002
       310  -9.5912     86.2885     23.6773   7.7817873537e+01   6.0214594713e+01     0.270902    0.1813987 -35.06 0.0001878667    1.431    0.301
       311  -9.9745    233.9708    197.2301   8.9927397227e+01   5.8542585177e-01    0.2851627     0.167238 -24.08  0.001486276    1.845    0.458
       312 -10.1249    242.2838     22.2963   4.8449682543e+01   2.1432831395e+01    0.2410735    0.2150997 -76.09 0.0005499863    1.109    0.099
       313  -9.7089     16.4889    192.1992   1.3006833759e+02   3.3926468893e+01    0.1770281    0.1554456 -29.86  0.001427344    2.020    0.505
       314 -10.6494     47.0830     18.6751   9.0911954288e+01   6.7431401280e+01    0.3223214    0.2606724  -2.71  0.001279453    1.225    0.184
       315 -10.0065     38.7492     21.6683   9.6076810017e+01   6.7912538501e+01     0.337969    0.1712826 -42.35  0.001291537    1.638    0.390
       316  -9.7943    169.6226    191.4707   1.0037340404e+02   1.2414898104e+01    0.3320859     0.150985  34.30   0.00103937    2.254    0.556
       317  -9.7758    239.1967    185.2545   8.6975670051e+01   1.0727851201e+00    0.3551912    0.1919981  10.71  0.001720151    2.442    0.591
       318  -9.1968    223.1968     22.1984   5.0328918793e+01   2.6134546745e+01    0.1981781    0.1537632 -61.97 0.0006882519    1.295    0.228
       319 -10.4038    212.6963    182.4173   9.0967058278e+01   5.9939319314e+00    0.2659022    0.2457644   3.82  0.001816685    1.192    0.161
       320 -10.0299    249.8924    179.9887   8.4290575541e+01  -1.0520827145e-01    0.2669994    0.1258959 -20.38  0.001335087    2.293    0.564
       321  -9.7121    100.9821    175.9974   1.1190617930e+02   2.6661014072e+01    0.1753468    0.1467485  63.72  0.001143735    1.005    0.005
       322 -10.0171     51.9555    173.5075   1.2191550768e+02   3.3796541568e+01    0.3349165    0.1500884  88.92  0.001624687    2.608    0.617
       323  -8.8499      1.4572     20.5782   1.1435489502e+02   7.1063734101e+01    0.1126181   0.08336816 -50.86 0.0002312151    1.021    0.021
       324  -9.5092     28.3210    175.9997   1.2690268138e+02   3.5845730926e+01     0.158262    0.1133155  82.76 0.0007895028    1.107    0.097
       325 -10.0950    211.2497     18.8729   5.0691612485e+01   2.9564166012e+01    0.2450721    0.2138113  51.88  0.000315919    1.191    0.160
       326  -9.8227    206.5616     18.1183   5.1006215453e+01   3.0870523765e+01    0.4417479    0.2080495 -54.36  0.001696069    2.486    0.598
       327  -8.8713    230.4680    175.4929   8.6636666316e+01   3.7260249028e+00    0.1275921    0.1042814  18.62 4.178358e-05    1.006    0.006
       328  -9.3121     57.2788    174.9944   1.2094709868e+02   3.2872332772e+01    0.1582954     0.125168  80.43 0.0004170379    1.066    0.062
       329  -9.7581    247.3656    173.9879   8.3573258057e+01   9.9401590347e-01    0.3763843    0.1250293  31.65  0.001353414    3.882    0.742
       330 -10.7275     36.0383    170.6594   1.2496720705e+02   3.6112780751e+01    0.3240631    0.1671047  82.70  0.001884705    1.812    0.448
       331 -11.8775      9.9290    166.4086   1.2998683086e+02   3.9391539511e+01      0.50638    0.3296928 -82.97  0.002686876    1.300    0.231
       332 -10.7556     13.8998    157.9733   1.2868363368e+02   4.0735979781e+01    0.3694143    0.1604685 -83.92  0.001954536    1.924    0.480
       333  -9.7647    220.1041     12.6604   4.7976933026e+01   2.7943835533e+01    0.3684779    0.1401368  62.44  0.001405527    2.446    0.591
       334  -8.9769    197.6522    167.8347   9.1019937382e+01   1.0777212487e+01    0.1672135    0.1227183 -44.84 0.0007566859    1.633    0.388
       335 -10.1833     40.3792    165.8052   1.2367690386e+02   3.6626318347e+01    0.2545029    0.1242791 -66.87  0.001454891    1.931    0.482
       336 -10.1579     18.7655    165.2351   1.2813204870e+02   3.8859377448e+01    0.2228569    0.2058599  48.20  0.001831731    1.440    0.305
       337  -9.9087    188.9339    164.0418   9.1949308505e+01   1.3016633311e+01    0.2830175     0.194856 -23.14 0.0009366245    1.702    0.413
       338  -9.8048    208.5631    162.3317   8.7954520698e+01   9.4943671564e+00    0.4304113     0.125957 -37.47  0.001554039    3.671    0.728
       339  -9.7337    204.9738    163.0330   8.8746720036e+01   1.0079989350e+01    0.2614777    0.1725515  35.04 0.0006139395    1.365    0.267
       340 -10.2835     28.2935    162.6969   1.2598223419e+02   3.8481372080e+01    0.3309881    0.1236952 -73.43   0.00172348    2.307    0.567
       341  -9.6882     79.8803    160.1455   1.1446338723e+02   3.2908365130e+01    0.2605823    0.1603216 -74.56  0.001451431    1.632    0.387
       342 -10.0224    246.3945    158.7693   8.0766459590e+01   2.9658124226e+00     0.181116    0.1096461 -13.83 0.0009592482    1.699    0.411
       343  -9.5528    215.3987    158.3027   8.5925576863e+01   8.7565394320e+00    0.2448083    0.1255638 -26.59  0.001054502    2.175    0.540
       344  -8.9498    223.7659    156.9746   8.4185565547e+01   7.3470632914e+00    0.1674675     0.106262 -27.71 0.0008783865    1.625    0.385
       345 -10.5948    104.9679    154.2816   1.0797093545e+02   3.0292485258e+01    0.4016667     0.319252 -82.27  0.002388149    1.283    0.221
       346 -11.0224     31.4159    153.0312   1.2455052426e+02   4.0157438825e+01    0.5371453    0.2490097 -89.29  0.002860687    2.060    0.514
       347 -10.0696      8.7983    155.9506   1.2962940550e+02   4.1562586220e+01    0.2211259    0.1156769 -70.11  0.001410539    1.727    0.421
       348 -10.8067     10.8023    127.1898   1.2722061534e+02   4.7398778485e+01    0.4914868    0.2082777 -67.57  0.001950289    1.940    0.484
       349 -12.1449     22.7145    149.2803   1.2617902023e+02   4.1750671794e+01    0.5705935    0.3512191 -50.17   0.00218066    2.112    0.526
       350 -11.0132     15.3697    147.8938   1.2770280347e+02   4.2671980596e+01    0.3376055    0.2170594  60.65  0.001177505    1.349    0.259
       351 -11.5815     12.4787    139.0862   1.2772618832e+02   4.4743340531e+01    0.7180293    0.3807906  89.10  0.004397547    1.556    0.358
       352 -10.3697     70.8580    152.1519   1.1550708709e+02   3.5801972249e+01    0.2974657    0.2105511  58.80  0.001804728    1.284    0.221
       353 -11.8068      3.7456    147.4283   1.3020787740e+02   4.3679214668e+01    0.6120465    0.3769965 -89.52   0.00363801    1.248    0.199
       354 -11.4444      4.2353    142.0265   1.2978016945e+02   4.4752688989e+01     0.326606    0.2757306  33.59  0.001855831    1.530    0.347
       355 -11.7449      3.9322    136.7863   1.2952059593e+02   4.5862914124e+01    0.2249963    0.1623294 -80.62 0.0002213804    1.180    0.153
       356  -9.8943     42.9518    148.2906   1.2151272575e+02   3.9972218565e+01    0.3641138    0.2123916  61.04  0.002148858    1.587    0.370
       357  -9.8516     48.1042    151.7217   1.2068060455e+02   3.8683220936e+01    0.2742911    0.2246129  61.43 0.0009947423    1.154    0.133
       358 -10.1791     47.9839    147.9725   1.2031837123e+02   3.9489027666e+01    0.2678221    0.1955216  89.06  0.001035836    1.170    0.146
       359  -9.9631     46.4975    144.5338   1.2029901344e+02   4.0386875686e+01    0.2718667    0.2207923  19.24  0.001409336    1.705    0.414
