#   1 NUMBER                 Running object number                                     
#   2 MAG_AUTO               Kron-like elliptical aperture magnitude                    [mag]
#   3 X_IMAGE                Object position along x                                    [pixel]
#   4 Y_IMAGE                Object position along y                                    [pixel]
#   5 X_WORLD                Barycenter position along world x axis                     [deg]
#   6 Y_WORLD                Barycenter position along world y axis                     [deg]
#   7 A_WORLD                Profile RMS along major axis (world units)                 [deg]
#   8 B_WORLD                Profile RMS along minor axis (world units)                 [deg]
#   9 THETA_WORLD            Position angle (CCW/world-x)                               [deg]
#  10 FWHM_WORLD             FWHM assuming a gaussian core                              [deg]
#  11 ELONGATION             A_IMAGE/B_IMAGE                                           
#  12 ELLIPTICITY            1 - B_IMAGE/A_IMAGE                                       
         1 -11.3880      6.8737     17.5162   1.1278936654e+02   6.9683948696e+01    0.3406266      0.20953 -31.76  0.001192633    1.265    0.209
         2 -11.4510     33.9454     18.7619   1.0126157517e+02   6.6911647121e+01    0.3075459    0.2679794 -87.10  0.001988101    2.758    0.637
         3 -11.7109     58.4435     16.7911   9.1029125320e+01   6.3816538969e+01    0.2980072    0.1942731 -13.57 0.0008168133    1.475    0.322
         4 -10.5724     43.8260     16.7645   9.6449439408e+01   6.5922106291e+01    0.3172445    0.2306311  61.32  0.001787915    3.062    0.673
         5 -12.3053    113.4340     15.6409   7.5006925528e+01   5.3627392718e+01    0.4557278     0.211331  56.15  0.001316322    1.845    0.458
         6 -11.4081     11.1946      2.8522   1.0458283842e+02   7.1249247875e+01    0.2711665    0.1902661  -6.28  0.001355388    1.031    0.030
         7 -12.0756     25.8174     13.6653   1.0260396520e+02   6.8470488790e+01    0.2841822    0.2224122 -15.83  0.001100908    1.190    0.160
         8 -11.8037     19.2120      8.2729   1.0323611718e+02   6.9824479879e+01    0.3686621     0.259204  19.24  0.001303091    1.369    0.269
         9 -11.2103     80.2513     14.6624   8.3156791349e+01   6.0356534575e+01    0.3144833    0.2058288  48.62  0.001046725    1.443    0.307
        10 -11.7329     74.6988      9.3811   8.2754122486e+01   6.1868421360e+01    0.4134338    0.2087978 -33.99  0.001297403    2.278    0.561
        11 -10.5460     76.7942      4.3884   8.0175311479e+01   6.1937013111e+01    0.2052882    0.1572971  35.18 0.0003672127    1.077    0.071
        12 -11.3654     74.0102      2.2463   8.0130775826e+01   6.2619645159e+01    0.2705743    0.1521077  37.85  0.001606893    1.459    0.315
        13 -11.3067     86.3593     14.1189   8.1207678355e+01   5.9271906305e+01    0.2776012    0.1540784  40.36  0.001375948    1.535    0.348
        14 -11.4109     65.8781     13.1722   8.7035668578e+01   6.3014152374e+01     0.335809    0.2118295   1.34  0.001303312    1.657    0.396
        15 -11.8313     49.4863      9.4661   9.1223460034e+01   6.5949621710e+01    0.3935579    0.3376647  34.70  0.002364701    1.440    0.306
        16 -10.7975    148.9958     11.9888   6.7128376372e+01   4.5943659217e+01     0.250091     0.092739  47.30  0.001025529    2.605    0.616
        17 -10.6978     33.3753     11.5301   9.8462999799e+01   6.7867209707e+01    0.2394028      0.12517  17.31  0.001229943    1.932    0.482
        18 -11.9411    211.2820      9.7166   5.8697527774e+01   3.1577828994e+01    0.2658059    0.1806076 -84.14 0.0007767756    1.288    0.224
        19 -12.2949    208.9384      5.1844   5.7945380624e+01   3.2593093019e+01    0.2713287     0.196778 -75.21 0.0003255063    1.209    0.173
        20 -10.8327     87.4074      8.0791   7.8660711792e+01   5.9631874743e+01    0.2777551    0.1656107  16.45  0.001502666    1.868    0.465
        21 -10.4685      4.9757      9.8945   1.1064024330e+02   7.0883374263e+01    0.3214481   0.09163229 -40.95  0.001623343    2.838    0.648
        22 -10.9351     40.1616      7.4249   9.3918342632e+01   6.7464690775e+01    0.2031455    0.1227618 -22.83 0.0009762989    1.543    0.352
        23 -10.8562    175.4355      7.7259   6.2222839125e+01   4.0127141671e+01    0.1485825    0.1261614   1.14 0.0009389869    1.588    0.370
        24 -11.0735    107.4812      7.3971   7.3537874820e+01   5.5640330800e+01    0.2259879    0.1859636  59.01 0.0007928147    1.175    0.149
        25 -11.4871     24.6745      6.9925   1.0022105029e+02   6.9400115591e+01     0.213338    0.1531333 -30.45 0.0005764468    1.513    0.339
        26 -10.5386    248.4578      7.4880   5.5048555147e+01   2.3709488179e+01    0.1197317   0.09016667 -76.61 0.0001460653    1.004    0.004
        27 -10.4489     62.2431      6.7113   8.5596424702e+01   6.4247717246e+01    0.1902908    0.1698877  19.37   0.00141578    1.248    0.199
        28 -11.1540    191.4466      5.5295   5.9814572932e+01   3.6587942663e+01    0.1990037    0.1639792 -88.73 1.567015e-05    1.042    0.040
        29 -11.5393    194.9800      3.7137   5.9018285259e+01   3.5947278178e+01    0.3064483    0.1534773  72.55  0.001401789    1.671    0.401
        30 -11.8049    217.9463      3.2440   5.6704221832e+01   3.0765425985e+01    0.2525153    0.2200465  68.03    0.0010853    1.327    0.247
        31 -11.8402    180.8124      2.6121   6.0316107170e+01   3.9350801708e+01    0.3079939    0.2475016  65.09  0.002006535    1.167    0.143
        32 -11.2565    160.7548      3.0369   6.2931024850e+01   4.4009053037e+01    0.2997953     0.231917 -85.50  0.001365564    1.275    0.216
        33  -9.8086    141.3230      4.2848   6.6147539025e+01   4.8411834665e+01    0.1298102   0.07953991  42.98 0.0002852087    1.598    0.374
        34 -11.5691     32.2045      3.4908   9.5414075337e+01   6.8904765455e+01    0.3461708    0.2169505  35.74  0.002071883    1.653    0.395
        35 -10.8178     90.8368      2.5466   7.5718993398e+01   5.9428606798e+01    0.2767719    0.1605232  51.40  0.000684171    1.444    0.308
        36 -10.4583     81.3127      1.6293   7.7842729411e+01   6.1330334601e+01     0.196448    0.1331041  60.14 0.0004857203    1.603    0.376
        37 -10.9919     49.2207      1.9038   8.8058245724e+01   6.6733181459e+01    0.1937751    0.1281591  27.67 0.0003128142    1.234    0.190
        38  -9.3216    123.7207      3.3433   6.8905743473e+01   5.2462746289e+01    0.1169827   0.09073247 -70.62 0.0003458239    1.630    0.386
        39 -10.0448      1.2987      2.1594   1.0914995759e+02   7.2168104518e+01    0.1248465   0.07577982 -37.74 0.0008985488    1.606    0.377
        40 -11.0894    231.3609      5.0775   5.5930722322e+01   2.7613866884e+01    0.2454071    0.1988126  18.43  0.001232095    2.172    0.540
        41 -10.0454     59.1918    234.7740   1.3843260250e+02   1.8096134468e+01     0.140606     0.125026  89.89 0.0002128542    1.257    0.204
        42 -10.9995    144.5255    248.4726   1.2324796755e+02   2.0042167119e+00    0.3794579    0.2537237 -16.38  0.001581719    2.772    0.639
        43 -11.4716    146.3876    242.3207   1.2201579292e+02   2.7771543974e+00    0.2842721    0.2768294  52.42  0.001568598    1.136    0.120
        44 -11.4340    143.4739    238.4441   1.2205139269e+02   3.9838258668e+00    0.6430131    0.2112623  47.64  0.002380381    2.891    0.654
        45 -10.6545    118.5366    250.5189   1.2863544543e+02   5.9712631248e+00      0.25644    0.1340137  45.33 0.0006385533    1.596    0.374
        46 -10.5705    115.3227    249.6801   1.2916175191e+02   6.6498296386e+00    0.2090907     0.154587  64.05  0.001093824    1.252    0.201
        47  -9.8718     98.6147    249.6982   1.3240118050e+02   9.3182437160e+00    0.1937858    0.1427019  34.42 0.0006805092    1.515    0.340
        48 -10.3356     95.6236    247.7805   1.3276641059e+02   1.0150018052e+01    0.2526333    0.1966656 -77.40  0.001604223    1.344    0.256
        49 -10.7415     91.8861    250.2566   1.3374726387e+02   1.0256180471e+01    0.1800508    0.1346023  63.38 0.0003676302    1.108    0.098
        50 -13.8637      3.2888    193.8475   1.4575843981e+02   3.3274931573e+01     1.812382    0.3257723 -72.91  0.005444319    4.059    0.754
        51 -14.0777      8.4122    214.9586   1.4630384580e+02   2.8245912380e+01     1.023479    0.6897935  86.35    0.0048187    1.113    0.102
        52 -13.7212     16.1213    189.3153   1.4281993356e+02   3.3099232917e+01     2.678744    0.5589195 -70.36  0.008880713    3.614    0.723
        53 -13.0675     18.6149    212.9477   1.4426944997e+02   2.7638309998e+01     1.022833    0.3810398  86.62  0.004202815    3.332    0.700
        54 -13.7848     21.1999    198.4744   1.4258752151e+02   3.0538213455e+01     1.519944     0.756314  58.36  0.008218867    1.919    0.479
        55 -12.6900     46.6194    245.3604   1.4166435488e+02   1.7628034899e+01    0.3539817    0.2977295  81.47  0.002571589    1.204    0.169
        56 -12.8914     43.5125    236.2829   1.4149415780e+02   1.9846659963e+01    0.7209876     0.430785 -52.35  0.004089933    2.294    0.564
        57 -12.7483     21.0377    223.7414   1.4462794999e+02   2.5089925661e+01    0.4945983    0.3396891 -69.40  0.002433253    1.466    0.318
        58 -13.2588     40.1614    246.6384   1.4290582540e+02   1.8194400384e+01    0.6511124     0.392605  67.41  0.001541739    1.340    0.254
        59 -13.7844     36.0591    232.5218   1.4255568460e+02   2.1538360179e+01    0.7273784    0.6071078 -51.15  0.003597976    1.752    0.429
        60 -13.7984     30.1645    216.3756   1.4234984956e+02   2.5635020029e+01    0.9041412    0.5602761 -45.48  0.004329355    2.508    0.601
        61 -13.1011     28.2057    235.1768   1.4417128112e+02   2.1924712229e+01    0.7344289    0.3219362  88.20  0.001800904    2.309    0.567
        62 -14.6827     13.0284    230.7081   1.4653047499e+02   2.4510303910e+01    0.8996828    0.6798267  31.56  0.004996046    1.856    0.461
        63 -12.7832     37.6913    224.5090   1.4159943726e+02   2.3013174004e+01    0.4063705    0.2435005  46.57  0.001856149    1.574    0.365
        64 -13.6029     37.2623    219.0610   1.4121537050e+02   2.4226262862e+01    0.8219682    0.6197901  14.82  0.004134303    2.247    0.555
        65 -13.7316     19.5075    237.5358   1.4585585954e+02   2.2433512133e+01    0.6379243    0.4306633  67.80  0.004455178    1.145    0.127
        66 -13.2608     12.9800    238.8719   1.4705298815e+02   2.2875974893e+01    0.4252276    0.2406935  42.46  0.001918663    1.788    0.441
        67 -14.4210     26.1774    246.3577   1.4529904504e+02   1.9932264184e+01    0.6963929     0.557696  37.77  0.003731931    1.677    0.404
        68 -14.0653      3.0071    245.2068   1.4905531378e+02   2.2676587912e+01    0.6416008    0.3473347 -86.57  0.002892803    1.462    0.316
        69 -13.8695      9.0497    249.6404   1.4832677736e+02   2.1198987571e+01    0.3569841    0.1983849 -78.21   0.00150189    1.567    0.362
        70 -14.6440     14.4460    246.5650   1.4727337118e+02   2.1210403027e+01    0.5137707    0.3415135 -86.16  0.003685508    1.263    0.208
        71 -12.4358    142.8387    232.1420   1.2126165144e+02   5.2713588192e+00    0.3781666    0.2646603  40.57  0.001057905    1.280    0.219
        72 -10.6744    232.0272    231.5910   1.0342762420e+02  -9.7204310886e+00    0.3834664    0.1903409 -20.33  0.001423591    2.722    0.633
        73 -10.4180    219.1894    232.0075   1.0591006496e+02  -7.7905370058e+00    0.3034316     0.167481 -38.31  0.001573408    1.897    0.473
        74 -10.8867    243.1562    230.1571   1.0113878162e+02  -1.1166589225e+01    0.3055911    0.2185248 -59.69  0.001328088    2.560    0.609
        75 -12.1103    238.2608    229.7733   1.0195885735e+02  -1.0389898780e+01    0.2452807    0.1865492  22.41 0.0003334002    1.190    0.160
        76 -10.4399    186.8564    231.0795   1.1208063538e+02  -2.2683635771e+00    0.2858866    0.1828401  37.67  0.001344007    1.400    0.286
        77 -11.0986     81.0499    230.9588   1.3377626913e+02   1.5744373186e+01    0.2575331     0.164485  46.11 0.0007984269    1.421    0.296
        78 -11.4309     74.4782    230.4254   1.3502703048e+02   1.6832461243e+01    0.2750224    0.2164563 -54.14 0.0005376872    1.585    0.369
        79 -10.5533     57.9564    229.6463   1.3818562987e+02   1.9328433156e+01    0.4171936    0.2084586  72.96  0.001596388    2.239    0.553
        80 -11.6477     94.4138    229.0472   1.3085182778e+02   1.4071238445e+01    0.3833021    0.2708152  70.98 0.0005636695    1.360    0.265
        81 -10.9760    249.0529    227.6676   9.9637011342e+01  -1.1660692855e+01    0.2499372    0.1543582 -42.17 0.0006763224    1.827    0.453
        82 -10.2352    173.8250    227.5249   1.1413282542e+02   6.3256900381e-01    0.2861753    0.1803473  20.80   0.00135695    1.949    0.487
        83 -10.6826    163.7886    226.3225   1.1600680488e+02   2.6402505283e+00    0.4401407    0.2235292 -30.24  0.001709154    3.263    0.694
        84 -10.9646    132.2471    226.5406   1.2264461480e+02   8.2193477544e+00    0.3722647    0.2321955 -60.53  0.001029189    1.802    0.445
        85 -10.4617    130.7075    220.6789   1.2209897783e+02   9.6693995898e+00    0.2107234    0.2027965  83.45  0.001182988    1.110    0.099
        86 -10.6819    134.0063    218.9485   1.2112927002e+02   9.4340251837e+00     0.295611    0.2442328 -26.51 0.0009134011    1.565    0.361
        87 -11.2768    106.9496    223.8595   1.2759199303e+02   1.3108499477e+01    0.4467106    0.2691829  51.72  0.001368423    1.497    0.332
        88  -9.9027    111.0598    227.3433   1.2719648458e+02   1.1701830817e+01    0.1945469    0.1753945 -66.57 0.0004274963    1.239    0.193
        89 -10.0085    111.7106    223.7304   1.2657249523e+02   1.2336288593e+01      0.18497    0.1514202  48.17 0.0001898012    1.139    0.122
        90  -9.6402    225.1384    225.3705   1.0360647354e+02  -7.7088543787e+00      0.16602    0.1122359  43.32 0.0001307472    1.585    0.369
        91 -11.1174    122.4149    224.3025   1.2439288451e+02   1.0385749631e+01    0.3582176    0.2502868  23.22  0.001303572    1.866    0.464
        92 -10.0005     71.4949    225.5427   1.3509976250e+02   1.8294566695e+01    0.2230146   0.09426712  49.79  0.001015325    2.102    0.524
        93  -9.7103    228.2175    224.0165   1.0278358576e+02  -7.9851784960e+00    0.1570473   0.09812541 -34.58 0.0003388662    1.597    0.374
        94 -11.3337     93.2201    221.7463   1.3019786271e+02   1.5794083356e+01    0.4208631    0.3111483 -22.93  0.001456954    2.451    0.592
        95 -10.3354     73.1334    217.5116   1.3387406185e+02   1.9784111848e+01    0.2196162    0.1236932  37.10  0.000531963    1.874    0.466
        96 -11.0071     77.8449    221.8432   1.3339849418e+02   1.8149560166e+01    0.3547533    0.1964409  85.21 0.0002437185    2.222    0.550
        97 -10.7608     77.2319    217.6245   1.3303569689e+02   1.9153359171e+01    0.2917094    0.2119571  84.81 0.0009742337    1.294    0.227
        98 -10.4688    148.3579    222.7356   1.1866419792e+02   6.0974137262e+00     0.285446    0.2051176 -21.76  0.001013428    2.007    0.502
        99 -11.0766     84.8522    221.4204   1.3190185069e+02   1.7176144305e+01    0.2106941      0.18978 -74.71 0.0003662719    1.234    0.190
       100 -11.1591    196.5089    219.9729   1.0821751720e+02  -2.0382423016e+00    0.2443377    0.2180901 -81.86 0.0008542744    1.509    0.337
       101 -10.8449     62.6076    219.8003   1.3627962627e+02   2.0787615482e+01    0.2061074    0.1509146  58.69 0.0004741926    1.201    0.168
       102  -9.8512    237.0679    219.5546   1.0032832110e+02  -8.6757619138e+00    0.1791719     0.115772  35.13 0.0003595013    1.514    0.340
       103 -10.8814    217.4944    217.5183   1.0363857977e+02  -5.2109328515e+00    0.3044078    0.2125448  -6.86  0.001088017    1.634    0.388
       104 -10.8719    217.2045    212.8085   1.0282356242e+02  -4.3795077284e+00    0.2311779    0.1837739 -49.43 0.0003743413    1.496    0.332
       105 -10.9680    163.1930    217.2525   1.1462421359e+02   4.4591292260e+00    0.3457245    0.1997339  31.73   0.00056663    1.807    0.446
       106 -10.8967    112.3116    217.5197   1.2557971234e+02   1.3536401563e+01    0.3788496    0.2567367  14.54  0.001713444    2.515    0.602
       107 -11.5554    107.4110    216.2168   1.2645013090e+02   1.4646598572e+01    0.5096421    0.3877291 -12.54  0.002253293    2.286    0.563
       108 -11.3223    101.3191    215.3118   1.2763605815e+02   1.5859652332e+01    0.4739622    0.3487858 -45.95  0.002560968    1.663    0.399
       109 -12.0646    118.1340    212.1998   1.2354042121e+02   1.3662769900e+01    0.2576119    0.2325665  57.96 0.0002954225    1.052    0.049
       110 -10.8654    113.9393    211.1306   1.2429897411e+02   1.4624790662e+01    0.3286022    0.2009447  41.68 0.0009395611    1.546    0.353
       111 -10.7477    107.7630    209.9906   1.2548619547e+02   1.5935232150e+01     0.299403     0.188809 -81.42 0.0008739544    1.924    0.480
       112 -12.2329     80.3606    208.8322   1.3130095663e+02   2.0622976236e+01    0.6405436    0.3251756 -84.30  0.002313283    2.627    0.619
       113 -10.6380     85.7654    211.3685   1.3046022427e+02   1.9225611271e+01    0.2556255    0.2072658  82.80  0.000418248    1.117    0.105
       114 -10.9311     89.1183    217.9024   1.3057646482e+02   1.7269221658e+01    0.2112625    0.1767611 -88.52 0.0003562043    1.121    0.108
       115 -11.4540     84.8926    215.7952   1.3120600050e+02   1.8387276073e+01    0.4471479    0.2778707  28.32   0.00161494    2.102    0.524
       116  -9.7316    176.5270    216.9733   1.1177659865e+02   2.0732053909e+00    0.1881955    0.1174226 -19.83 0.0008085116    2.426    0.588
       117  -9.9842    141.9723    217.0112   1.1911421037e+02   8.3900521594e+00    0.1815224    0.1642546   7.44  0.000334003    1.300    0.231
       118 -11.7318    145.9395    215.2523   1.1797598135e+02   8.0213394606e+00    0.2547146    0.2475385 -33.63 0.0003963401    1.150    0.131
       119 -11.2113    193.1446    214.3113   1.0787899487e+02  -4.4448891491e-01    0.3157367     0.195638 -49.31 0.0009186272    1.829    0.453
       120 -11.7844    126.1257    215.6447   1.2232212442e+02   1.1522186663e+01    0.3311583    0.2155377  47.02 0.0003869396    1.397    0.284
       121 -11.2543     59.0084    216.0374   1.3661461658e+02   2.2101645745e+01    0.1945042    0.1612739  64.26 0.0003073448    1.129    0.114
       122 -11.1862     59.2686    212.0643   1.3613855087e+02   2.2941686435e+01    0.3646037    0.2453799  72.97   0.00208279    1.362    0.266
       123 -10.3770    231.7000    214.3516   1.0035870250e+02  -7.0174787783e+00    0.3246424    0.2289657 -62.60  0.001334073    2.432    0.589
       124 -11.5538    226.9126    209.8982   1.0042184066e+02  -5.5170436310e+00    0.3420315    0.2448294  53.36  0.001189345    1.813    0.448
       125 -10.0318    199.7428    214.0388   1.0649532726e+02  -1.5696590975e+00    0.1810798    0.1676379 -13.28 0.0004670991    1.093    0.085
       126 -10.5369    161.7285    212.8682   1.1418526159e+02   5.5813580553e+00    0.3790921    0.1669021  47.13  0.001511412    2.209    0.547
       127 -10.1813     94.9820    212.5382   1.2862685662e+02   1.7502055531e+01    0.2033574    0.1247931  42.74 0.0004560334    1.548    0.354
       128 -10.9354     69.7837    211.7872   1.3391365690e+02   2.1530755512e+01    0.2957636    0.1930363  70.93 0.0009357419    1.481    0.325
       129 -11.9957     66.7699    206.3231   1.3391339594e+02   2.3184686061e+01     0.351871    0.2112193  66.98  0.001260955    1.682    0.405
       130 -10.0045    250.6536    210.6927   9.6234533917e+01  -9.3793531453e+00    0.1628318    0.1071883 -38.34 0.0007942238    1.505    0.336
       131 -10.6475    185.3353    187.7435   1.0444479745e+02   6.0721129935e+00    0.3694436    0.1993143  37.71  0.001299274    1.866    0.464
       132 -11.1599    184.0913    209.9881   1.0895392890e+02   1.9913778267e+00    0.2084263    0.1959347 -17.47 0.0003613221    1.098    0.089
       133 -13.2777    188.7369    196.4943   1.0544785612e+02   3.6924509281e+00    0.7373528    0.3938913 -37.89 0.0008025083    1.995    0.499
       134 -10.9459    236.2740    208.2444   9.8363760552e+01  -6.7689729009e+00    0.4260294    0.2137311  44.53  0.002013214    2.198    0.545
       135 -11.5772    241.4438    204.4973   9.6706849822e+01  -6.9882819785e+00    0.2705464     0.216918   3.51 0.0002247085    1.176    0.149
       136 -12.0993    243.1611    200.1599   9.5563790218e+01  -6.5588481977e+00    0.4023185    0.2492832  35.18  0.002156646    1.650    0.394
       137 -12.1710     52.1593    201.7857   1.3650961480e+02   2.6193611135e+01    0.3882809    0.2322195 -60.65 0.0006684799    1.646    0.393
       138 -10.9071     52.0159    208.0266   1.3720954657e+02   2.4805148844e+01    0.2814767    0.2058253  61.10  0.001140019    1.227    0.185
       139 -10.4289     48.0302    206.0373   1.3782788685e+02   2.5761633481e+01    0.2003667    0.1585442  80.89 0.0008138095    1.031    0.030
       140 -12.4180    183.2988    204.3140   1.0807268831e+02   3.2124450690e+00    0.2975717    0.2548995 -40.05 0.0002635203    1.224    0.183
       141 -10.8607    200.0636    205.2287   1.0479059917e+02  -5.0121573788e-02    0.2383407    0.1800161 -55.42  0.001252409    1.593    0.372
       142 -10.6825    195.2932    206.3183   1.0596552085e+02   6.1812587544e-01    0.1407078     0.105171  -0.34 0.0003365299    1.605    0.377
       143 -11.3987    184.1119    198.7811   1.0685774028e+02   4.1271740171e+00    0.2697531    0.2131986 -42.17 0.0003825556    1.314    0.239
       144 -10.8612    145.0802    205.4738   1.1652678776e+02   1.0191296671e+01    0.3189896    0.2025664 -43.96 0.0005228727    1.746    0.427
       145 -10.7830    129.4903    206.0014   1.2006693285e+02   1.2963526828e+01    0.2013548    0.1873194 -84.80  0.001163817    1.093    0.085
       146 -10.4937    130.9345    203.0000   1.1925190224e+02   1.3347218078e+01    0.4152255    0.1830695  49.80  0.001606768    2.284    0.562
       147 -12.3250     96.4271    202.8552   1.2696519634e+02   1.9423140036e+01    0.4240546    0.2958954 -80.92  0.001133792    1.499    0.333
       148 -10.5956    218.7088    204.5125   1.0096538605e+02  -3.2242046430e+00    0.2115333    0.1941536 -19.21 0.0002423613    1.105    0.095
       149 -11.1566    116.6379    204.6147   1.2271051156e+02   1.5574937263e+01     0.325545     0.252342  24.17  0.001136642    1.587    0.370
       150 -11.0637    121.4890    203.5069   1.2144998715e+02   1.4954174187e+01    0.5805659    0.2659451  51.12  0.002314557    2.222    0.550
       151 -10.9796    121.4273    199.6536   1.2084086513e+02   1.5816348755e+01    0.2737459    0.2419448 -88.98 0.0006020098    1.122    0.109
       152 -11.4031      5.4915    203.7093   1.4605795288e+02   3.0928140109e+01    0.3159834    0.1923634 -56.25  0.001411395    1.906    0.475
       153  99.0000     41.2550    197.5690   1.3836823000e+02   2.8510649143e+01     3.470219     1.213427 -85.50   0.01034256    5.518    0.819
       154 -10.2642     58.8550    203.8794   1.3531961992e+02   2.4832911427e+01    0.2264936    0.1602905  61.99 0.0008314501    1.286    0.223
       155 -10.2071    235.1366    203.1623   9.7603340584e+01  -5.7559387834e+00    0.1932105     0.155746  -0.44 0.0002879149    1.183    0.155
       156  -9.6327     74.2206    203.6438   1.3197775894e+02   2.2713933471e+01    0.1356544    0.0896351  82.51 0.0006850785    1.559    0.359
       157 -11.0010    211.5765    207.5271   1.0292944104e+02  -2.5087887011e+00    0.2904611    0.2325771 -15.38  0.001651769    1.259    0.206
       158 -11.1156    211.0715    192.5008   1.0011704445e+02   2.7300509456e-01     0.235387    0.1942345 -54.56 0.0004490234    1.405    0.288
       159 -10.8202    209.0346    201.9891   1.0237497832e+02  -1.0806864917e+00     0.246462    0.1954967 -31.07 0.0008824118    1.251    0.201
       160 -12.0344    205.5074    197.1644   1.0214338197e+02   4.3395366863e-01    0.4186915    0.3731187 -54.24 0.0009688018    1.291    0.225
       161 -11.4434    206.8602    191.6908   1.0079394030e+02   1.1986932737e+00    0.2461996    0.2365253  -2.41 0.0003342154    1.062    0.058
       162 -11.2818    170.6255    199.2099   1.0981591215e+02   6.6200085846e+00    0.4995207    0.3071578 -65.25  0.001496693    2.312    0.567
       163  -9.6250    150.0000    201.0513   1.1466795954e+02   1.0190681636e+01    0.2358704   0.08347298 -50.49 0.0008099435    2.995    0.666
       164 -10.5117    101.7618    200.5189   1.2542569061e+02   1.9062895380e+01    0.3458605    0.2465313 -49.94   0.00178361    1.557    0.358
       165 -10.6082     86.6220    199.6206   1.2870171265e+02   2.1739686431e+01    0.3370011    0.1277226 -63.58  0.001295765    2.664    0.625
       166 -11.1049     67.0672    184.9185   1.3113208747e+02   2.8101885422e+01     0.363932    0.1869821 -68.52 0.0004363036    1.826    0.452
       167 -11.2974     68.7106    200.9852   1.3284899543e+02   2.4121540300e+01    0.7747335    0.3124024  57.81 0.0001667266    3.026    0.670
       168 -10.7887     48.0686    181.3752   1.3504463039e+02   3.1446899834e+01    0.2155952    0.1800061 -55.47 0.0004717329    1.343    0.255
       169 -10.6790     52.5734    171.8946   1.3277096044e+02   3.3146463790e+01     0.247352    0.1947034 -31.26 0.0007713899    1.741    0.426
       170 -11.7121     61.0356    187.2046   1.3282070134e+02   2.8395569315e+01     0.395921    0.2794099 -51.00  0.001438214    1.587    0.370
       171 -10.9786     61.2216    180.7594   1.3192726141e+02   2.9897796153e+01    0.4855852    0.3254314 -49.04  0.002551641    1.675    0.403
       172 -11.6380     54.5697    181.0233   1.3350736495e+02   3.0712834984e+01    0.3890176    0.2652931  80.46  0.001396738    1.457    0.314
       173 -10.9310     54.6079    175.5014   1.3277343263e+02   3.2024129419e+01    0.3319579    0.2563941 -17.15  0.001792265    2.037    0.509
       174 -11.2832     71.6189    194.6812   1.3140060763e+02   2.5156505811e+01    0.3226835    0.2577195  47.51   0.00110564    1.282    0.220
       175 -12.1776     66.1521    191.1389   1.3216930604e+02   2.6764921384e+01    0.3841026    0.3647216 -78.38  0.001250578    1.226    0.184
       176 -11.5266     69.4949    190.5372   1.3133225594e+02   2.6431290221e+01    0.2910939    0.2028063 -82.26  0.001049094    1.358    0.264
       177 -11.2056    177.5758    199.0742   1.0829876986e+02   5.3153524288e+00    0.2628297    0.1981743  39.69 0.0003134904    1.265    0.209
       178 -12.5133    109.0899    197.3363   1.2327429084e+02   1.8528302336e+01    0.4432831     0.300267  70.73 0.0007860833    1.673    0.402
       179 -10.5585     76.0368    198.7418   1.3094687791e+02   2.3565959976e+01    0.2098543    0.1598962  73.69 0.0005116368    1.220    0.180
       180 -10.7706    223.9908    197.9959   9.8691469983e+01  -3.0079960212e+00    0.1666476    0.1495126  -5.76 0.0006559138    1.007    0.007
       181  -9.9170    116.6729    198.0352   1.2165726852e+02   1.7032332290e+01    0.1965727    0.1746531 -80.34 0.0004338531    1.114    0.102
       182 -11.4179    214.9084    196.8996   1.0022983268e+02  -1.2186063966e+00    0.2517835    0.1861873  41.72  0.001349302    1.384    0.277
       183 -10.8280    139.9221    194.9603   1.1584262448e+02   1.3415198667e+01    0.3264089    0.2108176 -44.36  0.001223253    1.691    0.408
       184 -10.2809     82.4600    196.0858   1.2914722755e+02   2.3203761229e+01    0.1982898    0.1271468 -67.01 0.0003535713    1.497    0.332
       185 -10.7418    250.4307    194.2007   9.3119614117e+01  -6.7408150328e+00    0.2149433    0.1613726 -21.65 0.0005294379    1.201    0.167
       186 -12.9920    246.2407    190.8025   9.3190457138e+01  -5.5134093657e+00    0.5577276    0.3996761  10.64 0.0008269145    1.545    0.353
       187 -12.5371     53.9770    192.9667   1.3511330163e+02   2.7984210971e+01    0.4511077    0.2865441  48.23   0.00130712    1.541    0.351
       188 -10.0478    126.3320    194.1650   1.1880354761e+02   1.6143884244e+01    0.2070914    0.1337415 -67.05 0.0009399326    1.732    0.423
       189 -10.2923    113.7992    194.0797   1.2167125966e+02   1.8439445158e+01    0.2174435    0.1790654  72.81 0.0004174004    1.201    0.167
       190 -11.1775    216.8858    192.8575   9.9047689636e+01  -8.4612069401e-01    0.2165041    0.1784911  -6.16  0.000567847    1.231    0.187
       191 -10.6168    163.0756    192.9541   1.1028576408e+02   9.3669651011e+00    0.2436812    0.2029546  39.98            0    1.155    0.134
       192 -10.4190    163.7205    188.9932   1.0938437067e+02   1.0072410702e+01    0.3447412    0.2362468 -60.19  0.001419281    1.673    0.402
       193  -9.6886    170.7106    192.3035   1.0848652411e+02   8.0092632143e+00    0.1429879    0.1160189  81.47 0.0002916681    1.567    0.362
       194  -9.7552    148.4961    192.5113   1.1345855262e+02   1.2300824613e+01    0.1463559    0.1407245  35.00 -0.0001113025    1.070    0.065
       195 -10.7336     85.6197    190.4254   1.2761688494e+02   2.4029519176e+01    0.5422012    0.2791797  87.58  0.001893421    3.519    0.716
       196 -11.3319    120.3502    190.1694   1.1949892336e+02   1.8148270420e+01    0.3567936    0.2597746 -66.88  0.001150505    1.429    0.300
       197 -10.3597    177.9594    189.4953   1.0636877832e+02   7.1635822765e+00    0.2667016    0.2102049 -66.91  0.001333318    1.534    0.348
       198 -11.6206    130.6641    189.0117   1.1690173162e+02   1.6492072882e+01    0.2973995    0.2145508  49.37 0.0001596479    1.332    0.249
       199 -10.3670     91.4560    189.9153   1.2618812336e+02   2.3215128134e+01    0.1989434    0.1773901  63.31 0.0001153037    1.088    0.081
       200 -11.4971     86.9205    171.4611   1.2433710261e+02   2.8346406666e+01     0.355277    0.2702407 -70.84  0.001500986    1.244    0.196
       201 -12.1012     83.8485    175.9203   1.2581699896e+02   2.7756750786e+01    0.6151789    0.3314458 -48.92  0.000394182    1.982    0.495
       202 -11.9943     78.4799    174.0727   1.2682985460e+02   2.9030009915e+01    0.6304514    0.4150957  11.03  0.002751932    2.661    0.624
       203 -11.8308     78.4273    188.7216   1.2903327259e+02   2.5541200972e+01    0.6496894    0.3818873  75.55  0.002088011    2.127    0.530
       204 -11.9991     75.0736    180.2661   1.2859283959e+02   2.8052100026e+01    0.3464806    0.2545709 -80.51 0.0008285832    1.291    0.226
       205 -11.4721     70.9900    178.9892   1.2937633230e+02   2.8955644119e+01    0.2937104    0.2520581  -6.31   0.00101196    1.669    0.401
       206 -10.5969    105.4342    187.4592   1.2253091465e+02   2.1438280387e+01    0.2289475    0.2148627  85.89 0.0005686998    1.057    0.054
       207 -11.9330    104.8603    183.0755   1.2193686742e+02   2.2565545207e+01    0.4953608    0.2743528  48.44  0.002175663    1.777    0.437
       208 -10.6585    107.5427    180.4966   1.2085534239e+02   2.2702736630e+01    0.2815618    0.2264479 -19.03  0.001392351    1.757    0.431
       209 -11.6904    104.1508    178.1848   1.2127192391e+02   2.3846147648e+01    0.3738385    0.2347887 -57.70   0.00129672    1.560    0.359
       210 -10.8409    101.0104    176.0081   1.2165681250e+02   2.4909500015e+01    0.2141257    0.1944383  83.62            0    1.023    0.022
       211 -11.7565    231.6448    183.1442   9.4299288548e+01  -1.7322061365e+00    0.4273531    0.2957966 -62.29  0.002066014    2.113    0.527
       212 -11.4094     26.9265    179.3161   1.3955731751e+02   3.4311273359e+01    0.3708334    0.2533529 -72.19  0.001220259    1.228    0.185
       213 -12.2048     31.7271    176.4216   1.3817454794e+02   3.4484478491e+01    0.3738242    0.3176661 -85.08  0.002479106    1.082    0.076
       214 -11.5644     33.7434    184.4120   1.3859832021e+02   3.2402267064e+01    0.3214777    0.2237576 -54.92  0.001154274    1.552    0.356
       215 -11.0137     29.8253    183.7778   1.3938735543e+02   3.2973809551e+01    0.2484829    0.1647227 -83.70 0.0006113976    1.259    0.206
       216 -10.5647    176.4094    184.3787   1.0568803673e+02   8.5196111468e+00    0.3415805    0.2398278 -12.33  0.001496651    2.045    0.511
       217 -11.4308    156.8711    184.1295   1.0997296096e+02   1.2471421044e+01    0.4360943    0.3947531 -11.30  0.001789359    1.250    0.200
       218 -10.7458     89.1018    184.1355   1.2585238581e+02   2.4958152877e+01    0.3603386    0.2278393  74.76 0.0009814322    1.923    0.480
       219 -11.2523    225.5037    184.0257   9.5624479712e+01  -7.9963912188e-01    0.2782774    0.1831073  29.29 0.0004828247    1.634    0.388
       220 -10.9285    117.3180    180.8243   1.1857365464e+02   2.0862636758e+01    0.5710877    0.2711503  55.98  0.002087018    2.592    0.614
       221 -11.0676    122.9452    183.4760   1.1771382067e+02   1.9204694611e+01    0.2965548    0.2433203  89.57 0.0005870755    1.303    0.232
       222 -10.6578    190.9032    180.9634   1.0189806338e+02   6.3368852333e+00    0.3548352    0.2848933 -85.93  0.001744869    1.714    0.417
       223  -9.7233     92.4372    180.7663   1.2452405537e+02   2.5216641093e+01    0.1972466    0.1280706 -51.28 0.0008653171    1.596    0.373
       224 -11.1900     40.4335    178.3480   1.3642175962e+02   3.3068546764e+01     0.392739    0.2935179  85.77  0.002365499    1.182    0.154
       225  -9.7612    147.0000    177.9826   1.1102821449e+02   1.5797233253e+01    0.2526047   0.08646938 -49.98 0.0008083063    2.983    0.665
       226 -10.4388    136.4886    176.5457   1.1321153014e+02   1.8204999815e+01    0.2612509    0.1391739 -41.57  0.000854375    2.135    0.532
       227 -10.6758    121.6318    176.6288   1.1677353469e+02   2.1041946108e+01    0.5182815     0.279128  22.89  0.001773905    3.306    0.697
       228 -10.9976     95.0567    176.6845   1.2321983316e+02   2.5757939482e+01    0.2455271    0.1929101 -77.58 0.0003123298    1.245    0.197
       229 -10.3924    220.9852    176.5008   9.4941135535e+01   1.4048182575e+00    0.2116255    0.1387998  43.56  0.001032782    1.600    0.375
       230 -12.3523      8.6790    183.3293   1.4383550287e+02   3.5137295954e+01    0.4309806      0.32942  72.85  0.002981533    1.182    0.154
       231 -10.0350    249.8217    175.1376   8.9441906470e+01  -3.4530598278e+00     0.179792    0.1410281 -11.01 0.0002648158    1.292    0.226
       232 -10.0923    166.9804    175.4942   1.0596327065e+02   1.2300354396e+01    0.2292796    0.1471914  43.18 0.0008012044    1.533    0.348
       233 -10.7080    131.8422    174.6709   1.1395268646e+02   1.9544502712e+01    0.3043164    0.2315398 -10.62  0.001121747    1.966    0.491
       234 -10.4487    189.7534    174.5170   1.0080374853e+02   7.8711385087e+00    0.3732205    0.1441953  46.54  0.001307043    2.658    0.624
       235 -11.8676    172.3162    173.5618   1.0437481671e+02   1.1622926993e+01    0.2929026    0.2640217 -34.19 0.0001654496    1.139    0.122
       236 -10.5097    143.5870    173.9499   1.1102501705e+02   1.7389667520e+01    0.2493633    0.2104157  30.36 0.0005959269    1.274    0.215
       237  -9.8543    116.1613    174.0963   1.1762562283e+02   2.2656938905e+01    0.2067664    0.1687902  88.23  0.000411397    1.305    0.234
       238 -11.1471    159.9939    172.0207   1.0682611110e+02   1.4489023540e+01    0.2824003    0.2165584  44.20 0.0003323252    1.285    0.222
       239 -10.3302    156.6950    172.3525   1.0765061524e+02   1.5092008385e+01    0.3007925    0.2115819 -70.83  0.001319959    1.797    0.444
       240 -11.2656     72.0080    170.1420   1.2779973831e+02   3.0941322127e+01    0.2885276    0.2680449 -28.73  0.001535386    1.345    0.256
       241 -12.1278     61.9810    170.8192   1.3035314122e+02   3.2180895283e+01    0.3431601    0.2695535  57.57  0.001398042    1.279    0.218
       242 -10.7865     66.2362    170.0065   1.2919529470e+02   3.1794421976e+01    0.3523738    0.1877967 -67.53  0.001299405    1.742    0.426
       243 -10.2858    101.5054    170.0357   1.2048124567e+02   2.6256209404e+01    0.2248644    0.1880338  49.99 -7.360055e-05    1.199    0.166
       244 -10.0972    108.6812    168.9791   1.1851004786e+02   2.5240350142e+01    0.2068073    0.1816648 -67.56 0.0003334855    1.101    0.092
       245 -10.3293      1.8188    168.7326   1.4401521893e+02   3.9008783211e+01    0.1659101    0.1272401 -70.54 0.0003961722    1.190    0.159
       246 -10.3500      2.8358    163.2175   1.4329115311e+02   4.0183832470e+01    0.4099714    0.1011883 -70.90 0.0009225276    2.939    0.660
       247 -10.0385    120.0349    168.0548   1.1553100740e+02   2.3363064346e+01    0.2422558    0.1792351  78.89  0.001111762    1.628    0.386
       248  -9.9696    114.0060    168.5150   1.1710555394e+02   2.4380424491e+01    0.2310145    0.1467519  41.64  0.001031294    1.586    0.370
       249 -10.5722     48.3930    167.7455   1.3321276113e+02   3.4657334735e+01    0.2272104    0.1724862  85.62 0.0007143561    1.234    0.190
       250 -12.2521      9.8574    164.3551   1.4183156993e+02   3.9362246521e+01    0.3830343    0.1871002 -65.21 0.0008078552    1.634    0.388
       251 -10.0375    186.3513    167.3138   9.9998423727e+01   1.0050516810e+01    0.1565142    0.1194796   2.21 0.0007046186    1.728    0.421
       252 -10.8109     40.8151    166.3820   1.3485499685e+02   3.5867645592e+01    0.2639512    0.1965043 -67.90   0.00156305    1.170    0.145
       253 -11.4668     50.1905    162.9778   1.3211260711e+02   3.5588329140e+01    0.4410194    0.2280807  72.68 0.0009514504    2.833    0.647
       254 -10.4866     44.7806    161.6303   1.3325732193e+02   3.6554895708e+01    0.2603298    0.1897093 -53.27  0.001484806    1.380    0.275
       255 -12.0399    145.1169    163.1315   1.0843992086e+02   1.9549468747e+01    0.6879396    0.3476012  51.59  0.001998915    2.133    0.531
       256 -13.2423    137.5348    154.4497   1.0841578353e+02   2.3113933645e+01    0.4999172    0.3853768 -86.37  0.001301743    1.596    0.373
       257 -10.4270     56.8808    168.0883   1.3120038903e+02   3.3514354192e+01    0.2352541    0.1767056 -89.77            0    1.260    0.206
       258 -11.2648    159.1729    164.6324   1.0546081679e+02   1.6296354126e+01    0.2813881    0.2424853 -54.15 0.0004260723    1.171    0.146
       259  -9.8849     35.9545    165.0289   1.3584536339e+02   3.6725405295e+01    0.1477392    0.1291464  85.59 0.0003721897    1.099    0.090
       260 -10.0536    104.6755    164.0093   1.1857802833e+02   2.7152206427e+01    0.2082429      0.18158 -69.70 0.0003098805    1.097    0.088
       261 -10.7428    100.8652    163.8080   1.1950061613e+02   2.7870885670e+01     0.308156    0.2162326  30.43  0.001085445    1.651    0.394
       262 -10.2145    202.8667    162.1297   9.5449217156e+01   7.7211338687e+00     0.288979    0.1659681 -48.11  0.001236175    1.758    0.431
       263 -10.2487     87.1294    162.6123   1.2276315859e+02   3.0462209345e+01    0.2430559    0.1870489 -75.82 0.0005021318    1.270    0.213
       264 -10.0415    242.7410    160.9788   8.7751790662e+01   2.6421436354e-01    0.1803762    0.1085153 -38.53 0.0004220141    1.495    0.331
       265 -12.2551    107.3760    158.1559   1.1676220930e+02   2.8081475691e+01    0.2944776    0.2556774 -67.73 0.0002895748    1.107    0.097
       266 -12.3251     34.2306    158.1617   1.3538372169e+02   3.8545259734e+01    0.3416589    0.2329484  67.43 0.0002626466    1.546    0.353
       267  -9.5117     18.6680    160.6853   1.3942072669e+02   3.9453874026e+01    0.1236388   0.08116776 -48.00 0.0007045922    1.683    0.406
       268  -9.5043     66.3316    158.6820   1.2739954663e+02   3.4535192211e+01    0.1467114   0.09985884  75.09 0.0006191553    1.689    0.408
       269 -11.7056    225.5099    153.2298   8.9161254608e+01   4.9328731872e+00    0.6301854    0.2923498 -34.76  0.001675099    2.216    0.549
       270 -11.1208    207.8464    154.4456   9.2776512808e+01   8.2408647661e+00    0.5622984     0.245868 -55.77  0.001812047    3.412    0.707
       271 -10.4098    190.1555    157.1231   9.6970084676e+01   1.1381194932e+01    0.2047498    0.1791581  76.56 0.0004069515    1.310    0.236
       272  -9.7512      1.5143    157.1142   1.4300812993e+02   4.1675663785e+01    0.1737519   0.09211933 -75.55 0.0003215408    1.451    0.311
       273 -10.5479    155.7900    156.0108   1.0437613087e+02   1.8941303732e+01    0.2167354    0.2048675 -57.00 0.0004799375    1.053    0.051
       274 -10.3159     85.3298    154.9775   1.2184561959e+02   3.2613866440e+01    0.2040623    0.1788654 -64.86 0.0005956182    1.070    0.066
       275 -10.0003     44.5176    154.5287   1.3231771752e+02   3.8296703541e+01    0.1342638    0.1133682 -76.60 0.0001595608    1.004    0.004
       276 -12.3239     19.0547    153.4809   1.3850011927e+02   4.1107912226e+01    0.3586751    0.2636939 -46.92 0.0003683922    1.498    0.332
       277 -10.3795     10.0095    153.7396   1.4069373831e+02   4.1803296307e+01    0.1639035    0.1416469 -89.00 0.0005087085    1.133    0.118
       278 -10.5608     82.0600    166.4869   1.2471161892e+02   3.0319607664e+01    0.3146296    0.1497453  28.77  0.001213323    2.770    0.639
       279 -10.3673     35.7763    153.0372   1.3431398963e+02   3.9609322851e+01    0.2707535    0.1289878  56.70  0.001192153    2.621    0.618
       280 -10.9841    249.3576    151.3193   8.4621889645e+01   8.0915361301e-01    0.2512996    0.2141624 -49.72 0.0003928731    1.171    0.146
       281 -11.0257    187.4293    150.7562   9.6122397030e+01   1.3295184961e+01     0.460498    0.3044415   5.24 0.0009258229    2.817    0.645
       282 -10.7224    113.1787    154.2290   1.1448624740e+02   2.7959031640e+01    0.3751289    0.2477432 -74.02  0.001282233    1.836    0.455
       283 -10.8038    194.7790    168.0188   9.8374839995e+01   8.1773583741e+00    0.2648181    0.2074814  41.09 0.0007269855    1.294    0.227
       284 -11.1219     92.2826    147.5410   1.1858573659e+02   3.3293246488e+01    0.2781419    0.2374341 -35.07 0.0004845077    1.312    0.238
       285 -10.5110     36.3194    147.9442   1.3346067199e+02   4.0772576444e+01    0.2156584    0.1982731  -1.88 0.0009430441    1.400    0.286
       286 -10.1125     15.1926    148.1999   1.3881461345e+02   4.2673184435e+01    0.1816169    0.1347341 -63.96 0.0005844743    1.164    0.141
       287  -9.4585    196.2466    146.3456   9.3288739664e+01   1.2320223610e+01    0.1504333    0.1181288 -12.60 0.0003888896    1.575    0.365
       288 -10.6500    163.9996    145.6835   1.0013769143e+02   1.9484599796e+01    0.2279648    0.2079027  46.46 0.0007591124    1.109    0.098
       289 -10.4509    231.3728    145.1771   8.6364699718e+01   5.3103019313e+00    0.1999279    0.1231099 -48.74 0.0001841908    1.579    0.367
       290 -11.4694     52.6007    144.3541   1.2863127632e+02   3.9808348811e+01    0.2374194    0.2052693 -72.90 0.0005378432    1.010    0.010
       291 -11.4289     22.8392    144.4917   1.3643662975e+02   4.2890076433e+01    0.2999135    0.2168006  49.90  0.000929619    1.547    0.354
       292  -9.6055     84.9253    143.8564   1.1982401208e+02   3.5392920061e+01    0.1942869    0.1603238  89.72            0    1.284    0.221
       293 -10.9138     14.5752    143.2065   1.3836248011e+02   4.3889286603e+01    0.2201922    0.1788931 -80.64 0.0005634239    1.057    0.054
       294 -10.1505    226.3223    142.9907   8.6781123793e+01   6.7249470660e+00    0.2061856    0.1724087 -40.81 0.0004468781    1.102    0.092
       295 -11.2295    105.0933    142.1919   1.1406196369e+02   3.2350464238e+01    0.3941572    0.2550737  59.36 0.0008607671    1.829    0.453
       296 -12.5059    132.5885    140.6423   1.0656001397e+02   2.7354667780e+01    0.3207154    0.2820331 -62.77 0.0005433853    1.132    0.117
       297 -11.3147     93.0730    141.8545   1.1721612708e+02   3.4541724942e+01     0.277594    0.2109337 -62.24  0.001385093    1.257    0.205
       298  -9.6067     62.5579    140.4656   1.2526344061e+02   3.9487508657e+01    0.1401765    0.1233519 -65.06 0.0001143625    1.024    0.024
       299 -11.2526     35.7193    138.5553   1.3222280838e+02   4.3079104330e+01    0.2652536    0.1779263 -59.47 0.0005456837    1.262    0.207
       300 -10.2497     18.0270    140.0556   1.3708500795e+02   4.4344960377e+01    0.2022269    0.1302137  71.95  0.001134503    1.749    0.428
       301 -11.3642     54.6292    139.0963   1.2718680430e+02   4.0833113740e+01    0.2268836      0.18012  52.81  0.001290588    1.379    0.275
       302 -10.0550     41.4454    139.2020   1.3078540695e+02   4.2327319387e+01    0.1795885    0.1562723  80.73 0.0006255195    1.181    0.153
       303 -12.3274     44.2776    135.8396   1.2946495458e+02   4.2824810157e+01    0.2739788    0.2243362  69.57 0.0004080523    1.330    0.248
       304 -10.2433     41.8056    131.4047   1.2939937903e+02   4.4152454225e+01    0.2335541    0.1681801 -55.67 0.0008930136    1.208    0.172
       305 -12.5957     77.4075    135.2275   1.2015205455e+02   3.8653216666e+01    0.2949613    0.2660458 -61.51  0.000421177    1.019    0.019
       306  -9.7112    101.4661    133.5919   1.1314885829e+02   3.5067443758e+01    0.1482863    0.1426929 -66.20 2.321591e-05    1.019    0.018
       307  -9.8839    142.5399    132.4939   1.0214640061e+02   2.7126384058e+01     0.156072    0.1535329 -40.04  0.000111251    1.051    0.048
       308  -9.6038    134.9892    132.5016   1.0403910602e+02   2.8736898649e+01    0.2274446    0.1410727  19.99 0.0008105199    2.671    0.626
       309 -10.8102     22.6728    131.1947   1.3463062597e+02   4.6031594834e+01    0.2456576    0.1715188  82.67 0.0007215906    1.557    0.358
       310 -10.7342     48.0633    130.8255   1.2754506544e+02   4.3599861052e+01    0.2751763    0.2199678  -3.21  0.001576677    1.622    0.384
       311 -10.0320     51.3266    128.3173   1.2616335151e+02   4.3819885707e+01     0.222507     0.154321 -54.11  0.001199723    1.263    0.208
       312 -12.2454    156.6781    128.9090   9.7858060252e+01   2.4817607851e+01    0.2796752    0.2789579   8.53 0.0003492094    1.049    0.047
       313 -10.2718    147.4568    129.9644   1.0032581715e+02   2.6626705466e+01    0.2441559    0.2037701  46.90 0.0005750178    1.211    0.175
       314  -9.3558    113.2785    130.6688   1.0927511033e+02   3.3559284328e+01    0.1547247    0.1201958 -89.43 0.0004921514    1.602    0.376
       315 -11.9008    195.9396    133.5791   9.0408705990e+01   1.5012146186e+01    0.2842719    0.2500493 -45.37 0.0003227188    1.095    0.086
       316 -11.3169    123.0862    129.0269   1.0627719336e+02   3.2002451512e+01    0.2487742    0.2237781  47.12 0.0003342877    1.136    0.119
       317 -10.5506     15.5371    128.7968   1.3621461823e+02   4.7167005132e+01    0.2596799    0.1746032   7.07 0.0008783998    2.053    0.513
       318 -11.1204      1.4423    128.2821   1.3988736109e+02   4.8267743950e+01    0.2056389    0.1017268 -69.67 0.0002561949    1.538    0.350
       319 -10.3644     67.0870    128.6283   1.2172237944e+02   4.1730817884e+01    0.2846068    0.1408991  29.21  0.001204448    2.395    0.582
       320 -11.2737     62.7750    127.2601   1.2268164202e+02   4.2640377704e+01    0.3034161    0.1692197 -49.48  0.001415675    1.631    0.387
       321 -10.2091     35.2742    128.5715   1.3074775350e+02   4.5494387832e+01    0.1622116    0.1254441  -5.46 0.0009434167    1.703    0.413
       322 -11.8482     92.0566    126.1785   1.1408278303e+02   3.8473117976e+01    0.2856042    0.2247092 -59.54 0.0003274693    1.223    0.182
       323  -9.9548    103.0665    125.6804   1.1088756331e+02   3.6649392110e+01    0.1961154     0.190564  29.39 0.0002551502    1.092    0.084
       324  -9.8069     29.4891    126.2932   1.3199538464e+02   4.6579634246e+01    0.1993978    0.1177263  26.10  0.001057233    2.047    0.512
       325 -10.1645     20.2409    125.8793   1.3450636069e+02   4.7472797200e+01    0.1890654    0.1448283 -84.91 0.0008379834    1.259    0.205
       326  -9.8722    141.0891    125.1455   1.0071048387e+02   2.9098244477e+01    0.2118223     0.183812  88.16  0.001032034    1.284    0.221
       327 -10.8727    127.1458    123.6812   1.0390800356e+02   3.2396921468e+01    0.3109882    0.2106066 -60.74   0.00101071    1.623    0.384
       328 -10.3736     54.9951    124.5258   1.2438455016e+02   4.4281202995e+01    0.2626593    0.1605403 -46.54 0.0007530701    1.533    0.348
       329 -10.7606      8.8240    124.6697   1.3745758438e+02   4.8606056305e+01    0.2563633    0.1734869  71.23 0.0009486399    1.714    0.416
       330 -10.6311     81.2871    124.0415   1.1666882511e+02   4.0734782655e+01     0.238234    0.2032468  51.22 0.0001847941    1.269    0.212
       331 -10.0237      3.0562    124.0306   1.3892561525e+02   4.9131800172e+01    0.1970632    0.1240612  76.03  0.001144999    1.830    0.454
       332  -9.5506    108.4523    123.4971   1.0887938527e+02   3.6156645617e+01    0.1520691    0.1446866 -39.59 0.0003105472    1.057    0.054
       333 -11.2525     68.4398    122.3469   1.2002316745e+02   4.3037549475e+01    0.3514462    0.2480001 -37.37  0.001789957    1.490    0.329
       334 -10.9074     63.2321    122.5591   1.2158911263e+02   4.3696906437e+01    0.3315646    0.1471425  28.96   0.00134808    2.686    0.628
       335  -9.6375     38.2858    123.3513   1.2899595136e+02   4.6423783841e+01    0.1377488   0.08477807 -41.26 0.0007021324    1.661    0.398
       336 -10.7673     14.0840    122.3354   1.3568533428e+02   4.8766952616e+01    0.2032107    0.1316796 -59.07 0.0003877755    1.232    0.189
       337 -12.0591     20.4447    118.2743   1.3326692750e+02   4.9213896657e+01    0.5479388    0.2845809  -1.99  0.002523567    3.312    0.698
       338  -9.6094    249.5512    122.4125   7.8480932609e+01   5.9629359098e+00    0.1362508    0.1212977 -42.61 1.013262e-05    1.051    0.048
       339  -9.6819    158.6684    121.6566   9.5597231987e+01   2.5951049474e+01    0.1625132    0.1279477   1.36 0.0007050759    1.754    0.430
       340 -10.7301     83.9256    119.4481   1.1486096847e+02   4.1397456588e+01     0.376612    0.2512011  42.84  0.001340552    1.609    0.379
       341 -11.2468     30.5634    119.4623   1.3054568168e+02   4.8075731558e+01    0.3509491    0.1927704  50.80  0.001743747    2.330    0.571
       342 -10.5178     93.2080    118.5401   1.1196683714e+02   4.0065804246e+01     0.291872    0.2340332 -86.82 0.0008600157    1.519    0.342
       343 -10.3716     54.9788    117.6508   1.2300591740e+02   4.5902678362e+01    0.1791566    0.1683275 -47.57 0.0005549197    1.081    0.075
       344 -10.5645      2.5223    117.5039   1.3820395458e+02   5.0640075435e+01    0.3345335    0.1503707  59.55  0.001470588    3.614    0.723
       345 -10.0334     69.9761    117.2618   1.1846015158e+02   4.4016094306e+01    0.1829755    0.1795889 -19.48 0.0001934317    1.101    0.092
       346  -9.8310    156.1749    116.1642   9.4793140099e+01   2.7697639559e+01    0.2055966    0.1797571 -86.20 0.0002646576    1.253    0.202
       347  -9.6266     47.4129    115.4706   1.2482237769e+02   4.7295101825e+01    0.1336759    0.1152226 -63.06 3.758673e-05    1.063    0.059
       348 -10.9011     33.9828    114.9189   1.2872961741e+02   4.8809607078e+01    0.1924161    0.1637516 -65.49 0.0003331135    1.065    0.061
       349  -9.4894    126.2763    114.6647   1.0185808286e+02   3.4604063054e+01     0.155649    0.1224433 -83.48 0.0006997717    1.607    0.378
       350 -10.8152     87.8609    113.7957   1.1236892636e+02   4.2064308843e+01    0.2184785    0.1896921 -29.95 0.0004639811    1.183    0.155
       351 -10.0965     95.3899    112.2136   1.0978642313e+02   4.1137165936e+01    0.2119923    0.1373795 -58.45 0.0007623317    1.603    0.376
       352  -9.9691     48.7962    111.8418   1.2366123104e+02   4.7978723365e+01    0.1706652    0.1511344  77.12 0.0005749826    1.301    0.232
       353 -10.7920     20.8672    109.6497   1.3170052041e+02   5.1148505855e+01    0.2321703    0.1557766 -68.78 0.0007228074    1.299    0.230
       354  -9.9782     85.0228    109.2434   1.1208644368e+02   4.3568059776e+01    0.2283176    0.1637517  69.67 0.0007416991    1.966    0.491
       355 -10.6300     36.9527    107.8728   1.2647736982e+02   5.0138219488e+01    0.3769502    0.1663244 -67.03   0.00133244    2.315    0.568
       356 -10.3989     27.0152    107.7585   1.2950184059e+02   5.1073718284e+01    0.1680626    0.1408487 -53.92 0.0002157225    1.034    0.033
       357  -9.6361    170.7075    107.6839   8.9342835377e+01   2.6098122141e+01    0.1528641    0.1257654   5.03 0.0001946476    1.599    0.374
       358  -9.4583    111.7217    107.6533   1.0397203688e+02   3.9110013242e+01    0.1535449    0.1182256 -14.48 0.0004326025    1.635    0.388
       359 -11.1376     91.2294    105.5588   1.0931071825e+02   4.3354641292e+01    0.4610795    0.2447122  51.78    0.0018643    2.354    0.575
       360 -10.5087     63.9412    105.9969   1.1770450727e+02   4.7438801787e+01    0.2036542    0.1814284 -49.36 0.0003445349    1.025    0.024
       361 -10.2866     54.6139    105.6926   1.2053176361e+02   4.8700101474e+01    0.2536791    0.1093766 -52.13  0.001087559    1.970    0.492
       362  -9.3796      3.6833    111.7146   1.3706251988e+02   5.1868805297e+01    0.1209643   0.07032533 -44.92 0.0003707291    1.586    0.369
       363 -11.6370     29.0644    103.5676   1.2806953579e+02   5.1840672578e+01    0.2296864    0.1786491 -50.66 0.0003147327    1.072    0.068
       364 -11.1450    234.0637    102.4907   7.6488644073e+01   1.2675776462e+01    0.2566194    0.1898663 -45.37  0.000397859    1.224    0.183
       365 -11.5874     75.6557    102.0751   1.1312380181e+02   4.6644545174e+01    0.3504499    0.2719084  -7.51  0.001139242    1.547    0.353
       366 -10.8456    135.2962    101.1769   9.5946308297e+01   3.5559605002e+01    0.2707437    0.2451596  59.17 0.0004944992    1.126    0.112
       367  -9.9756     39.5058    102.5642   1.2458687521e+02   5.1083122697e+01    0.1302081    0.1104152 -49.26 5.887669e-05    1.011    0.011
       368 -10.7775    189.9075    100.9845   8.3715646871e+01   2.2904391156e+01     0.258774    0.2169696  86.35 0.0006385028    1.275    0.215
       369  -9.8741    176.7376    100.8156   8.6304951244e+01   2.6046114721e+01    0.2070502     0.174941 -88.09  0.001022752    1.287    0.223
       370 -10.5691     85.0173     99.7460   1.0965602697e+02   4.5677866919e+01    0.2769819    0.1713942 -37.06  0.001275887    1.642    0.391
       371 -10.4458     67.8908     99.4411   1.1487622936e+02   4.8358832479e+01    0.3123675    0.1590493 -38.82  0.001351019    2.013    0.503
       372 -10.2204     45.3688    100.8222   1.2234846251e+02   5.0857951678e+01     0.221864   0.09609246  31.26  0.000750226    2.575    0.612
       373 -10.4749     19.1061    103.5710   1.3115624521e+02   5.2649641255e+01    0.2138519    0.1491255 -72.11  0.001293256    1.343    0.256
       374 -11.1980      9.7154     99.3566   1.3330640620e+02   5.4235045201e+01    0.2760386    0.1962228  12.45  0.001516441    1.753    0.430
       375 -10.2023      4.5805     97.5189   1.3457940564e+02   5.4949155531e+01    0.2141671    0.1329703 -58.01 0.0005372382    1.221    0.181
       376 -11.4635      5.8121     93.9697   1.3358655887e+02   5.5646487176e+01    0.3166377      0.19554  28.22 0.0003402551    2.001    0.500
       377 -12.2646    105.3417     97.7871   1.0311849187e+02   4.2474981207e+01    0.4679407    0.3215748  57.71 0.0004607975    1.749    0.428
       378 -11.7194     55.1978     97.1277   1.1834173508e+02   5.0538255004e+01    0.2652633    0.2123503 -74.74 0.0002525873    1.454    0.312
       379  -9.5551    162.5230     97.5326   8.8491442767e+01   3.0051864612e+01    0.1541498     0.148251 -87.50 5.731475e-05    1.018    0.018
       380  -9.9999    118.8920     96.6944   9.9029673650e+01   4.0001842841e+01    0.2062136    0.1941791  44.17 0.0004449771    1.076    0.071
       381 -10.0398     23.6606     96.2892   1.2833570432e+02   5.3906691839e+01    0.1159171   0.09139519  75.16 0.0007022301    1.642    0.391
       382  -9.6539    110.7192     95.2919   1.0090049535e+02   4.1949367125e+01    0.1426254    0.1187298 -87.00 0.0001607261    1.530    0.346
       383 -11.1610     34.3992     93.3225   1.2422033042e+02   5.3620943324e+01    0.3263799    0.2181504 -55.37  0.001724903    1.268    0.211
       384 -11.7971    113.6490     91.2308   9.8937872360e+01   4.2193713779e+01    0.2577853    0.2505076  75.65 0.0002930874    1.105    0.095
       385 -11.5439     25.0422     91.6160   1.2692391353e+02   5.4811977200e+01    0.2043328    0.1527446 -66.41  0.001195325    1.291    0.225
       386  -9.5027    172.0353     90.0235   8.4472384939e+01   2.9234054754e+01    0.1769575    0.1690707  84.04            0    1.012    0.012
       387 -10.2980    124.9356     97.7081   9.7686417132e+01   3.8523959129e+01    0.2471217     0.200619 -32.04 0.0001543505    1.279    0.218
       388 -11.4311     88.7678     88.0098   1.0529458943e+02   4.7525397985e+01    0.4080806    0.3147138 -29.64  0.001406182    1.295    0.228
       389 -11.5938     77.9841     87.7364   1.0857698454e+02   4.9357537836e+01    0.5692875    0.3285666 -13.45  0.002030566    3.259    0.693
       390  -9.8042    150.8098     89.3959   8.8945447875e+01   3.4381756952e+01    0.2192059    0.1391706  40.92 0.0005725964    1.667    0.400
       391 -11.5492     63.7075     87.3795   1.1308137325e+02   5.1526882246e+01    0.3605882    0.2490731  45.63 0.0001102168    1.725    0.420
       392 -10.5302     68.4584     86.4629   1.1128090322e+02   5.1052731236e+01    0.2207468    0.1312844  33.25 0.0001239375    1.802    0.445
       393 -11.0995     20.7665     88.6152   1.2770402663e+02   5.5793874732e+01    0.2126494    0.1534588 -34.76  0.001306966    1.286    0.223
       394 -10.1820      2.7160     88.1348   1.3353838346e+02   5.7070118663e+01    0.3007042   0.07354276 -62.63  0.001238218    2.877    0.652
       395  -9.4592    164.2845     87.6973   8.5482012609e+01   3.1520852440e+01    0.1525467    0.1173755 -77.65 0.0001885356    1.557    0.358
       396 -10.2088    132.5919     82.6838   9.1455414175e+01   3.9819297823e+01    0.2002639    0.1759362 -85.42 0.0006274883    1.313    0.238
       397 -10.0477    131.4627     86.4834   9.2831392837e+01   3.9347983926e+01    0.2406869    0.2155078  43.02 0.0007215136    1.105    0.095
       398 -10.9916    127.5270     85.5221   9.3568593723e+01   4.0397107625e+01    0.2827373    0.2640136  11.43 0.0007003946    1.112    0.101
       399 -10.5871     31.1124     84.6763   1.2334261231e+02   5.5772722530e+01    0.2851597    0.1847992 -26.65  0.001154793    1.600    0.375
       400 -11.3841     26.9993     85.2739   1.2487925666e+02   5.6004638118e+01    0.2520449    0.1788406 -44.44  0.001086857    1.155    0.134
       401 -10.4295     10.5141     85.5202   1.3048221687e+02   5.7165019377e+01    0.2180611    0.1621263   1.65  0.001460614    1.591    0.372
       402 -11.6660    154.2516     79.4960   8.5423179855e+01   3.5410300109e+01    0.4982646    0.2483102 -44.27  0.001374013    2.056    0.514
       403 -10.0534     48.1091     85.5353   1.1778510682e+02   5.3863620065e+01    0.1715965    0.1274833  22.34 0.0004723803    1.490    0.329
       404  -9.6637    144.4533     84.5402   8.9083789222e+01   3.6777347344e+01    0.1489255    0.1460071  61.83 0.0001284334    1.003    0.003
       405 -10.9078     20.0971     82.0824   1.2651637925e+02   5.7224750407e+01    0.2058787    0.1689551  18.88 0.0006028168    1.443    0.307
       406  -9.7152    136.4981     81.6048   9.0171898631e+01   3.9143381537e+01    0.1481223    0.1416558  44.19 7.051801e-05    1.026    0.025
       407 -11.1532    113.9664     80.2530   9.5662897554e+01   4.4275810250e+01    0.2471906    0.2096425 -36.66 0.0008568609    1.180    0.153
       408 -10.9364     77.0477     80.5207   1.0681562454e+02   5.0965128052e+01    0.2530783    0.1882559 -41.54 0.0003516346    1.262    0.208
       409 -10.2394     43.5932     80.5111   1.1802382530e+02   5.5406254125e+01     0.325751    0.2125013  51.97  0.001708864    2.231    0.552
       410 -11.3924     52.8243     82.8982   1.1550156052e+02   5.3858043190e+01    0.3221995    0.1830262  35.92  0.001308606    1.964    0.491
       411  -9.4001     82.2690     80.2554   1.0507328445e+02   5.0175858915e+01    0.1323684    0.1019085  -8.69 0.0006818098    1.450    0.311
       412 -11.0478      3.0045     78.1215   1.3154330346e+02   5.9146529746e+01    0.2435646    0.1814745 -54.49  0.001701227    1.062    0.059
       413 -10.9358      1.7298     73.4502   1.3103577181e+02   6.0166904945e+01    0.2731737    0.1399947 -59.82  0.001601499    1.534    0.348
       414 -11.0874      3.7991     68.4046   1.2921693090e+02   6.1066805123e+01    0.2927457    0.1809211 -32.54  0.001382477    1.441    0.306
       415 -10.1058      1.3001     65.7237   1.2952971956e+02   6.1729314569e+01     0.179407   0.09638375 -63.21 0.0002373332    1.659    0.397
       416  -9.7279     12.3838     79.4911   1.2860343269e+02   5.8305065503e+01    0.1208005   0.09016556 -47.55 0.0001153257    1.044    0.042
       417 -11.3286     57.5641     68.1179   1.0965441631e+02   5.6176701810e+01    0.2240436    0.2063504 -18.82 0.0003241431    1.112    0.101
       418 -10.6788     48.4693     73.9724   1.1455218816e+02   5.6176017958e+01    0.1971154    0.1750647  38.86 8.048046e-05    1.372    0.271
       419 -12.3262     58.4476     74.3813   1.1120747851e+02   5.4859851870e+01    0.3597878    0.2950017  49.35 0.0001582812    1.549    0.354
       420 -11.7069     53.1380     74.3940   1.1304325789e+02   5.5533350354e+01    0.2648183    0.2024929 -34.72  0.000271418    1.143    0.125
       421 -11.0775     28.7790     74.4527   1.2166065178e+02   5.8085510489e+01    0.2775062    0.1582076 -48.85 0.0002816308    1.427    0.299
       422 -10.5611    101.0665     75.2339   9.7826731179e+01   4.7778366522e+01    0.2061142    0.1794657   8.51  0.000295389    1.170    0.145
       423 -10.3522     68.9578     73.9509   1.0752376712e+02   5.3479563325e+01    0.1954427    0.1765973 -26.08 0.0003751448    1.056    0.053
       424 -11.0520    116.2421     72.2233   9.2628558237e+01   4.5273899419e+01    0.3754895     0.253947   2.71  0.001622182    2.237    0.553
       425 -10.2847     84.3786     71.8152   1.0185983028e+02   5.1433567051e+01    0.2355675    0.1947085 -11.64 0.0002627931    1.208    0.172
       426 -11.5635     88.0636     69.1219   9.9865962328e+01   5.1287591243e+01    0.3015006    0.2232123  16.23 0.0009548549    1.476    0.322
       427 -10.1946     35.2878     70.6788   1.1833170794e+02   5.8234338133e+01    0.3112319    0.1272343 -44.58  0.001330087    2.013    0.503
       428 -10.3498     42.3846     71.1031   1.1589924478e+02   5.7422026199e+01    0.2425501    0.1577197  16.45 0.0008900005    1.703    0.413
       429 -10.3346    107.3872     70.2543   9.4475959990e+01   4.7440472238e+01    0.2623638     0.158786  35.01  0.000678261    1.723    0.419
       430 -10.1530     53.2696     69.3027   1.1151503310e+02   5.6503133227e+01      0.22497    0.1366185 -43.19  0.000631619    1.464    0.317
       431 -10.2180    130.1956     68.1131   8.7768109162e+01   4.2957254327e+01    0.1914083    0.1702426 -89.71 0.0003365755    1.295    0.228
       432 -10.6946     26.8686     67.6508   1.2058396810e+02   5.9599322838e+01    0.2059075    0.1608386 -42.46 0.0005002164    1.081    0.075
       433 -10.7833     26.0000     63.0807   1.1966580027e+02   6.0554357306e+01     0.273029    0.1492121 -57.73  0.001485464    1.840    0.456
       434  -9.9849     37.5230     72.4856   1.1801935556e+02   5.7656676605e+01    0.2183909    0.1542681   4.96 0.0008801888    1.563    0.360
       435  -9.4551    111.6773     65.6991   9.1863379313e+01   4.7356429442e+01     0.145452    0.1076644  12.43 0.0006067343    1.630    0.387
       436 -11.7164     17.1993     62.2521   1.2275772182e+02   6.1411475529e+01    0.4357771    0.2791525 -51.46  0.002387975    1.321    0.243
       437 -10.6170     11.6575     62.8527   1.2500165010e+02   6.1680777238e+01    0.3040111     0.185934 -79.61  0.001607386    2.688    0.628
       438 -11.2650    216.2579     61.3157   6.9721584979e+01   2.3607821235e+01    0.2356139    0.1978978 -73.27 0.0002984586    1.070    0.066
       439  -9.9323    121.4933     62.8405   8.8361145202e+01   4.5753007545e+01    0.2864242    0.1019385  52.71 0.0009891964    2.871    0.652
       440 -11.3563     78.1779     61.1176   1.0045791579e+02   5.4381907761e+01    0.3497423     0.241161 -16.17  0.001074996    1.586    0.369
       441 -10.0140     78.9906     56.0594   9.8525324968e+01   5.5097938339e+01    0.1861035    0.1805586 -26.45  0.000375526    1.232    0.188
       442 -11.2970     74.0342     52.5441   9.8971151187e+01   5.6484600404e+01    0.3800013    0.2157522  52.03  0.001146321    2.386    0.581
       443 -10.0113     53.8075     62.3645   1.0921099431e+02   5.7727189497e+01    0.1729248    0.1131924  16.23 0.0009465266    1.653    0.395
       444 -11.3758      1.9641     61.1941   1.2824478494e+02   6.2575144259e+01    0.3764197    0.1216004 -43.89  0.001537786    2.244    0.554
       445 -11.7291      6.0402     59.9389   1.2639986393e+02   6.2588342251e+01    0.3026114    0.1920489 -44.55  0.001416856    1.188    0.158
       446 -11.3107    119.6433     84.7831   9.5442125099e+01   4.2229407409e+01    0.3158278    0.2089099  57.03  0.001430053    1.695    0.410
       447 -10.0232     39.4507     60.2464   1.1380377560e+02   5.9794336197e+01    0.2465613   0.09683634 -44.23  0.001140136    2.145    0.534
       448 -12.0466     27.9618     56.0894   1.1691166936e+02   6.1684193347e+01    0.4391266     0.358871 -57.00  0.001520667    1.443    0.307
       449 -10.7121     20.3931     56.9718   1.2009379752e+02   6.2162670150e+01     0.236333    0.1615539  25.16   0.00101689    1.689    0.408
       450 -10.0660    107.0095     57.6680   9.0606282495e+01   4.9631085687e+01    0.1994863    0.1694234  40.44  0.000529178    1.133    0.118
       451 -10.3378    181.2235     55.5240   7.3656324881e+01   3.2845067262e+01     0.296356    0.1604285 -51.53  0.001290629    1.991    0.498
       452  -9.5778     58.4361     56.5995   1.0571153977e+02   5.8136216939e+01    0.1271989    0.1073132 -11.22            0    1.028    0.028
       453 -11.0700     46.9142     53.4503   1.0887546606e+02   6.0159035297e+01     0.325761    0.1568354 -36.10  0.001630925    1.888    0.470
       454 -11.1908     42.0888     52.0587   1.1023472442e+02   6.0961942205e+01    0.3343737    0.1846152 -49.81  0.001014122    1.882    0.469
       455 -10.6142    119.0044     54.1723   8.6286892174e+01   4.7657571832e+01    0.2496511    0.1771698 -14.19  0.001248229    1.677    0.404
       456 -10.7378     92.9803     54.4665   9.3615944124e+01   5.2874520541e+01    0.2435897    0.1793106 -13.87 0.0005012075    1.455    0.313
       457 -11.5128      2.0187     50.7960   1.2563344587e+02   6.4525926512e+01    0.6103418          nan -51.79  0.002155866    4.488    0.777
       458 -10.0242    129.6488     50.3974   8.2494578325e+01   4.5863623146e+01     0.305174    0.2004698 -83.91  0.001270562    2.738    0.635
       459 -10.4595     33.0463     51.3068   1.1346791146e+02   6.2054679403e+01    0.1613948    0.1364861  -9.23 0.0004845776    1.119    0.106
       460 -11.3240     11.0464     50.4802   1.2193540362e+02   6.4033088937e+01    0.2017812    0.1503358 -33.65  0.001296786    1.023    0.022
       461 -11.0067     18.9788     49.7163   1.1853351634e+02   6.3590142269e+01    0.2299273    0.1747544  -1.24 0.0001897109    1.304    0.233
       462 -12.1548     13.8916     46.1148   1.1950588535e+02   6.4610694246e+01    0.4360517    0.2732086  32.65  0.002796029    2.023    0.506
       463  -9.3795    107.7124     50.2899   8.8012590184e+01   5.0619398772e+01    0.1259204    0.1091297 -82.02 0.0002252537    1.538    0.350
       464  -9.5634     87.3074     50.3530   9.3961302066e+01   5.4556278807e+01    0.1398004   0.09647703   4.85 0.0001716198    1.716    0.417
       465  -9.4270     82.3042     50.6520   9.5632476030e+01   5.5396877056e+01     0.122602    0.1072026 -76.66 0.0007041047    1.696    0.410
       466 -10.3073    151.7798     49.3790   7.7385339146e+01   4.0860438187e+01    0.2057438    0.1182851  49.21 0.0004103439    1.638    0.389
       467  -9.8018     74.2245     48.5994   9.7553863044e+01   5.7076545080e+01    0.1813886    0.1121485  27.67 0.0005164822    1.626    0.385
       468 -10.0782    164.1859     54.1995   7.6337649530e+01   3.7177998334e+01    0.1928394    0.1575738 -88.35 0.0002543597    1.297    0.229
       469  -9.7841    122.5721     46.1936   8.2864621313e+01   4.8039401850e+01    0.1739735    0.1322058 -11.31 0.0004120878    1.516    0.340
       470 -12.2528     61.8870     44.8116   1.0046179744e+02   5.9572227236e+01    0.2583433    0.2116121 -15.35  0.000341277    1.082    0.076
       471 -10.9583    164.0064     43.3641   7.3379439654e+01   3.8758165539e+01     0.286301    0.2224129 -53.85   0.00154198    1.370    0.270
       472 -10.5845     34.8075     44.6654   1.1059810744e+02   6.3003669990e+01    0.1750004    0.1694605  58.18   0.00030349    1.580    0.367
       473 -10.2595    199.4893     43.9440   6.7944812085e+01   3.0115039836e+01    0.2001784    0.1660093  79.22 0.0003448524    1.089    0.081
       474 -10.7599    141.1149     43.2441   7.7766393888e+01   4.4226036295e+01    0.2698413    0.2067707 -36.92   0.00147334    1.414    0.293
       475  -9.6671     80.4510     44.4667   9.4081558039e+01   5.6651286722e+01    0.1295589    0.1135623   6.98 0.0003526293    1.011    0.011
       476 -10.8256     55.6413     41.9822   1.0170292281e+02   6.0895020515e+01     0.379665    0.1819755 -20.66   0.00164378    2.858    0.650
       477 -10.4724     26.0278     44.0889   1.1392060874e+02   6.3962589883e+01    0.1722195    0.1342383 -21.46 0.0003065113    1.017    0.017
       478 -11.0880     20.4755     41.4268   1.1531904070e+02   6.4897010889e+01    0.3191127     0.147668 -51.14  0.001716675    2.113    0.527
       479 -10.7973     23.7528     38.9795   1.1314353882e+02   6.5014510514e+01    0.2957535    0.2503805 -35.89  0.001191853    1.297    0.229
       480 -10.5718     86.1236     42.9939   9.1786423021e+01   5.5857676727e+01    0.1896067    0.1734131   9.06 0.0004430486    1.080    0.074
       481 -10.2849     69.9343     41.6867   9.6556229586e+01   5.8808606263e+01     0.204129    0.1527424 -14.77  0.000347447    1.265    0.209
       482 -10.2258     38.0378     40.4410   1.0786074342e+02   6.3336757723e+01     0.292621    0.1484594  10.73  0.001429666    2.580    0.612
       483 -12.2070      8.2902     39.4851   1.1980383650e+02   6.6143277372e+01    0.4419215    0.2091407  14.42  0.002550734    2.312    0.567
       484  -9.9582    175.1679     38.1905   7.0108582044e+01   3.6744407099e+01     0.187434    0.1478646 -82.14 0.0003765938    1.290    0.225
       485 -11.2268    239.6779     36.5039   6.1507514597e+01   2.1949263303e+01    0.2735655    0.1956968  67.04  0.001643821    1.424    0.298
       486 -10.3274     41.0407     36.2889   1.0518270179e+02   6.3632103485e+01    0.1844237    0.1616746 -50.04 0.0009868502    1.622    0.383
       487  -9.8021     31.4346     37.7573   1.0956133169e+02   6.4468592988e+01    0.1176926   0.09450149 -15.38 0.0003311673    1.043    0.042
       488 -10.0368     29.3778     34.7354   1.0932537909e+02   6.5149080244e+01    0.1594621    0.1299553 -41.81 0.0006827279    1.446    0.309
       489 -11.9872    166.3440     37.9138   7.1480464193e+01   3.8913094773e+01    0.2601523    0.2249262 -85.82 0.0002503339    1.146    0.128
       490 -11.0428    126.9567     40.0433   7.9882920910e+01   4.7893222738e+01    0.2220126    0.1521926  26.51 0.0006474876    1.677    0.404
       491 -10.9719     60.5819     33.7636   9.6899111269e+01   6.1376070659e+01    0.2644063    0.2093363 -33.46  0.001411965    1.379    0.275
       492 -10.0804     55.4798     33.9924   9.8829745493e+01   6.2086827678e+01    0.2190167    0.1083328 -40.01 0.0009496017    2.088    0.521
       493  -9.9526     55.3954     30.2023   9.7423339389e+01   6.2619415516e+01    0.2019739    0.1724063 -77.32 0.0009857314    2.287    0.563
       494 -10.2469     35.9125     34.7010   1.0664442425e+02   6.4460657731e+01    0.1590707    0.1219256   4.87 0.0004741746    1.171    0.146
       495 -10.0800    120.6945     34.3002   7.9495037448e+01   5.0009944871e+01    0.1984597    0.1344985 -31.58 0.0006925232    1.609    0.379
       496  -9.8695    117.7310     33.3036   7.9868065201e+01   5.0779462153e+01    0.2006986    0.1583975  48.91 0.0003524898    1.139    0.122
       497  -9.6495     96.6675     34.3313   8.5650682733e+01   5.5024302749e+01    0.1227906    0.1042839 -79.29 0.0007052127    1.725    0.420
       498 -10.2397     92.0044     33.6915   8.6748906918e+01   5.6009338639e+01    0.1796583    0.1468467  33.98 0.0002167957    1.099    0.090
       499 -12.0099     78.8733     33.0137   9.0470813766e+01   5.8503713603e+01    0.5051847    0.2427778  46.52   0.00246121    2.040    0.510
       500 -11.1889    142.8799     31.1926   7.3808997383e+01   4.5333938287e+01    0.2927657     0.176034  23.95 0.0008119197    2.418    0.586
       501 -10.9215    103.1538     32.8688   8.3378773640e+01   5.3906992119e+01    0.2318692    0.2042582  -4.38 0.0007495456    1.157    0.136
       502 -10.8811    106.4837     31.5199   8.2048869895e+01   5.3385529836e+01    0.2379499    0.2100487 -38.78 0.0009604183    1.313    0.239
       503 -10.5408      5.3083     32.6547   1.1890744161e+02   6.7474806682e+01    0.2111492    0.1393081  -9.58  0.001306811    1.384    0.277
       504 -10.0033    183.1575     31.8726   6.7269696007e+01   3.5619766814e+01    0.1716684    0.1483593  48.14            0    1.286    0.223
       505 -10.0723    206.2719     31.5893   6.4143460366e+01   3.0157028298e+01     0.174612    0.1107455  61.94 0.0002784244    1.490    0.329
       506 -10.5172    232.9848     32.2508   6.1307713101e+01   2.3981459666e+01    0.2056164      0.16052 -58.96 0.0003325077    1.164    0.141
       507 -10.6722     31.9099     27.3854   1.0553621065e+02   6.5974064555e+01    0.2838249    0.1594279 -53.09  0.001473849    2.952    0.661
       508  -9.4590    122.6667     28.3300   7.7117387228e+01   5.0279320491e+01    0.1303308    0.1014059 -77.08 0.0003776632    1.723    0.420
       509 -11.5161    100.6772     27.1399   8.2045764699e+01   5.5087741668e+01    0.3588325    0.1969926  43.50  0.001839967    1.602    0.376
       510 -11.0367    187.0104     27.0291   6.5521128889e+01   3.5286538326e+01    0.1998655    0.1711997  81.32 0.0003358059    1.019    0.018
       511 -10.4430     76.4938     27.5040   8.9179325264e+01   5.9608534130e+01    0.1235625    0.1064077  15.59 7.006885e-05    1.051    0.048
       512 -10.2957     38.9680     27.2046   1.0257931179e+02   6.5191861798e+01    0.1618051    0.1318532  50.80  0.001065541    2.024    0.506
       513  -9.8812     17.4994     27.1103   1.1160018298e+02   6.7421149369e+01    0.1580177   0.08804187 -37.62 0.0006623144    1.491    0.329
       514  -9.9384    158.6647     30.2748   7.0678162447e+01   4.1703938412e+01    0.1620835    0.1296142 -17.68 0.0007864754    1.516    0.340
       515 -10.0585    168.6400    249.1733   1.1857293925e+02  -2.1871889506e+00    0.1545738    0.1191525 -30.10 0.0002186048    1.550    0.355
       516 -10.6792      1.8112     25.1793   1.1795265355e+02   6.8888980395e+01    0.1749895    0.1224471 -34.85 0.0006945253    1.145    0.127
       517 -12.8986      8.4800     23.5349   1.1431711338e+02   6.8681910926e+01    0.3356677    0.1818074  21.96  0.001224233    1.938    0.484
       518 -10.3769     65.5221     24.4834   9.1629707995e+01   6.1809189925e+01    0.2275669    0.1107447 -28.82  0.001051024    2.061    0.515
       519 -10.3881     91.7200     24.5723   8.3560794858e+01   5.7150243848e+01    0.3247948    0.1179358  54.28  0.001319371    2.834    0.647
       520 -10.4701     61.8015     23.7853   9.2639612689e+01   6.2481757355e+01    0.1918751    0.1404819   6.22 0.0006843336    1.232    0.188
       521  -9.6538    118.9818     22.9408   7.6187912275e+01   5.1684406534e+01    0.1561693    0.1308654  47.37 0.0002958042    1.039    0.037
       522 -11.0499     17.0208     22.9322   1.1023886037e+02   6.8077888116e+01    0.2542038    0.1433986  23.79 0.0008676738    1.813    0.448
       523 -10.7183    114.1394     20.8605   7.6591612765e+01   5.2954499561e+01    0.1819152     0.169322  82.77 0.0005936863    1.253    0.202
       524 -12.2408    164.6895    244.1855   1.1861396927e+02  -6.8628941426e-01    0.3381432    0.2397271 -48.87 0.0004782561    1.644    0.392
       525 -10.6242    218.4588     19.5281   6.0095229048e+01   2.8830265259e+01    0.1278213    0.1037476 -83.90 4.713717e-05    1.002    0.002
       526 -10.7667    182.3918     18.7016   6.4069481649e+01   3.7344531439e+01    0.2303719     0.196585  64.21 0.0005925653    1.153    0.132
       527 -10.0815     92.5421     19.0796   8.1342785697e+01   5.7582768107e+01    0.1747475    0.1187805 -22.24  0.001011947    1.576    0.366
       528  -9.9672    139.7882     18.0023   7.0455523099e+01   4.7497024383e+01    0.1530054    0.1068607 -25.71 0.0004106168    1.657    0.397
       529 -11.1584    168.3248    239.8312   1.1722247637e+02  -5.6570300068e-01    0.3400737    0.2321574 -49.68  0.001883027    1.701    0.412
       530 -12.7365    127.9536    240.7947   1.2552647650e+02   6.2063170909e+00      0.35955    0.2866548  73.09 0.0005270445    1.295    0.228
       531 -10.7244    130.9390     16.8348   7.1758717531e+01   4.9640164035e+01    0.3841435      0.14051  48.93  0.001620861    2.329    0.571
       532 -12.4587     84.3421    238.1490   1.3391123620e+02   1.3777220794e+01     0.418986    0.2638668  35.43 0.0003900749    1.742    0.426
       533 -11.5507    112.5263    234.3404   1.2781174718e+02   1.0047106537e+01    0.9046897    0.3415191  32.37  0.003175262    3.686    0.729
       534 -12.6033    109.0796    245.0201   1.2982869661e+02   8.5376055299e+00    0.6664732    0.3261668  50.32  0.001692525    1.772    0.436
       535 -11.2176     88.1520    231.4370   1.3240508230e+02   1.4560045274e+01    0.5026776    0.2781052  76.49  0.002225046    2.288    0.563
       536 -10.0998    200.5123     16.5194   6.1348148771e+01   3.3311449881e+01    0.1287823    0.1072745  86.53 0.0007267034    1.029    0.028
       537 -10.8217    114.7945    243.7925   1.2854873842e+02   7.8377343409e+00    0.2357746    0.1604817  56.60 0.0007490682    1.301    0.231
       538 -12.2216    117.6358    235.8198   1.2696166145e+02   8.9015307563e+00    0.7207536    0.4147301 -34.45  0.003124833    3.143    0.682
       539 -11.5842    102.1342    234.3130   1.2992194342e+02   1.1758452457e+01    0.3668344    0.2684264 -84.26 0.0005962075    1.436    0.303
       540 -11.9523    100.4741    241.9990   1.3116990564e+02   1.0502670557e+01    0.3232326    0.3124578  32.70  0.001149259    1.346    0.257
       541  -9.8819     96.3094     15.3266   7.8992942265e+01   5.7214892101e+01    0.1315185   0.08094514  26.60 0.0004574964    1.658    0.397
       542 -12.9228     94.8585    237.6241   1.3177606456e+02   1.2256080518e+01    0.9340955    0.4593008  61.35  0.004272612    2.226    0.551
       543  -8.9891     78.0000    248.0404   1.3614628471e+02   1.2769597816e+01    0.2186579    0.1401291 -74.67 0.0009187137    1.592    0.372
       544 -10.6260    173.0035     13.9612   6.4120832361e+01   4.0080742084e+01    0.1940429    0.1665885  80.12 0.0003319556    1.023    0.023
       545  -9.8422    153.5262     14.5322   6.7122940286e+01   4.4634845230e+01    0.1306188    0.1105537  63.49 0.0008090038    1.032    0.031
       546  -9.9121     13.4683     14.4833   1.0850663768e+02   6.9568816643e+01    0.1079112   0.07948609 -13.36 2.862188e-05    1.028    0.027
       547 -12.4394     78.6597    242.9830   1.3551738664e+02   1.3663641199e+01    0.2799875    0.1999839  81.99 0.0006183692    1.300    0.231
       548 -12.6698     74.3574    240.1708   1.3605755514e+02   1.4856293663e+01    0.3324381    0.2407813 -87.55 0.0004886885    1.301    0.231
       549 -11.5861    206.3536    246.0140   1.1073177064e+02  -7.8753877966e+00    0.2563002    0.1989582  -7.58 0.0008201235    1.333    0.250
       550 -10.8771    136.4707    247.0518   1.2465601674e+02   3.6166577037e+00    0.1686663    0.1292926 -56.21 0.0004017813    1.515    0.340
       551 -11.3782    140.1552    246.1770   1.2380373853e+02   3.1501184505e+00    0.2723286    0.1871177  67.87  0.001471257    1.712    0.416
       552 -12.2554     85.4931    245.1785   1.3443511977e+02   1.2209119152e+01    0.2676678    0.2113619  88.09 0.0004216147    1.201    0.168
       553 -11.3763     89.4520    244.5202   1.3360365003e+02   1.1734348647e+01    0.2325311    0.1743725  67.73 0.0005352382    1.143    0.125
       554 -11.2918    189.4510    242.4923   1.1343919042e+02  -4.5878489979e+00    0.4890873    0.2794255 -15.19  0.001742027    3.100    0.677
       555 -10.9964    181.0046    244.1812   1.1537124937e+02  -3.4490028743e+00    0.2067354    0.1876088 -23.72 0.0007510854    1.228    0.186
       556 -10.8484    121.4282    243.1686   1.2714804706e+02   6.8567569954e+00    0.1991075    0.1260635 -55.96 0.0002990717    1.797    0.444
       557 -11.4545    130.0250    247.3844   1.2598024000e+02   4.6401938988e+00    0.3555346    0.2628037  24.69   0.00120637    1.613    0.380
       558 -10.2864     55.4855    242.7894   1.3984522778e+02   1.6973663678e+01    0.1455424    0.1022575 -85.07 0.0002987317    1.292    0.226
       559  -9.7591     63.6001    242.2308   1.3829212892e+02   1.5976291440e+01    0.2519908    0.1483637  32.25  0.001358406    2.128    0.530
       560 -10.3460     67.1107    238.6687   1.3729455920e+02   1.6200170136e+01    0.2805346    0.2123157  10.03  0.001164432    2.501    0.600
       561 -11.9429    203.9300    240.4687   1.1028414335e+02  -6.6464786095e+00    0.2390159    0.1988154  30.36 3.381316e-05    1.102    0.093
       562 -10.4690    198.9977    240.4601   1.1124017619e+02  -5.8420950465e+00    0.3002803    0.1401739  36.89  0.001085439    1.902    0.474
       563 -10.8345    178.4543    232.2329   1.1396625646e+02  -1.0097548733e+00    0.2733896    0.2012458  28.83 0.0009384022    1.277    0.217
       564 -10.9809    184.0196    239.8176   1.1408217722e+02  -3.2441657909e+00    0.2353198    0.1951592 -60.89  0.001069486    1.553    0.356
       565 -11.0291    181.8882    235.3910   1.1379102423e+02  -2.1434834040e+00    0.3256172    0.2080698  24.70 0.0009487945    1.645    0.392
       566  -9.7962    220.6143    239.2479   1.0689129290e+02  -9.1034004227e+00    0.1610713    0.1093783 -22.35 0.0005097099    1.524    0.344
       567  -9.3891    109.2862    239.2769   1.2909055989e+02   9.6106449782e+00    0.1136816    0.1023436  10.00  0.000270437    1.513    0.339
       568 -10.3170    186.8787    236.3087   1.1294392600e+02  -3.1496466087e+00    0.2086506     0.150207  48.80 0.0005605373    1.427    0.299
       569 -12.3970    153.6329    232.5623   1.1909506903e+02   3.2924100032e+00    0.4749131    0.2788245  54.11  0.001017727    1.778    0.438
       570 -11.8054    194.9344    233.1626   1.1082052348e+02  -3.9953204829e+00    0.5904474    0.3331401  37.17  0.001595368    1.589    0.371
       571 -10.2607    172.8036    234.8846   1.1554022949e+02  -4.8633053669e-01     0.169926    0.1470956  58.82 0.0003648492    1.264    0.209
