#   1 NUMBER                 Running object number                                     
#   2 MAG_AUTO               Kron-like elliptical aperture magnitude                    [mag]
#   3 X_IMAGE                Object position along x                                    [pixel]
#   4 Y_IMAGE                Object position along y                                    [pixel]
#   5 X_WORLD                Barycenter position along world x axis                     [deg]
#   6 Y_WORLD                Barycenter position along world y axis                     [deg]
#   7 A_WORLD                Profile RMS along major axis (world units)                 [deg]
#   8 B_WORLD                Profile RMS along minor axis (world units)                 [deg]
#   9 THETA_WORLD            Position angle (CCW/world-x)                               [deg]
#  10 FWHM_WORLD             FWHM assuming a gaussian core                              [deg]
#  11 ELONGATION             A_IMAGE/B_IMAGE                                           
#  12 ELLIPTICITY            1 - B_IMAGE/A_IMAGE                                       
         1 -13.1933     66.9801    143.6745   1.2667734221e+02   3.8280646225e+01     2.498618      1.22938 -87.99  0.002612837    5.294    0.811
         2 -12.8183    189.7445     35.5793   6.8451885128e+01   3.3278482096e+01     1.599918     1.277336  34.41  0.008892816    1.559    0.358
         3 -13.6780    203.1653     18.3692   6.2512527695e+01   3.2077400705e+01     1.108452    0.9616028 -42.51  0.004697922    1.325    0.245
         4 -13.4434    209.4615     11.7050   6.0297055822e+01   3.1317213209e+01    0.9491605    0.8230666  11.54  0.001416268    1.692    0.409
         5 -11.0732      2.0725      4.9570   1.1256511964e+02   7.1868210196e+01    0.5406749    0.1302326 -42.16  0.002587363    3.307    0.698
         6 -11.9594      2.4742     15.0995   1.1649218801e+02   7.0430845386e+01    0.4997604    0.2060714 -50.50  0.002773101    2.592    0.614
         7 -11.3975    190.2921     15.6618   6.3404587258e+01   3.5491479538e+01    0.3070445    0.2090546  78.62  0.001541893    1.276    0.217
         8 -10.7580    163.0243    250.0002   1.2165202406e+02  -9.8777693484e-01    0.3605636    0.1446462  50.05  0.001491395    2.531    0.605
         9 -12.3968    140.3658    248.6675   1.2594572465e+02   3.1466232023e+00    0.6008113    0.3272681  49.35  0.003077509    1.578    0.366
        10 -13.8834    100.4026    245.9211   1.3344030186e+02   1.0321015379e+01     1.598324    0.6976147  47.98  0.007689576    1.881    0.468
        11 -11.4278     90.7123    246.9543   1.3540852976e+02   1.1653171375e+01    0.2959177    0.2216078  72.31 0.0006783305    1.177    0.150
        12 -11.6914     87.8966    243.1124   1.3554422012e+02   1.2819942329e+01    0.3614284    0.2327497  67.29 0.0003690022    1.425    0.298
        13  -9.5624     63.4749    250.3799   1.4076648382e+02   1.5015181417e+01    0.2047299    0.0948742  43.48 0.0006364237    1.873    0.466
        14 -14.6164     34.9202    245.7364   1.4541215440e+02   1.9623706545e+01      10.7899      3.24209  30.78   0.03064123    9.652    0.896
        15 -12.6458      5.0791    245.9573   1.5033550064e+02   2.2918982903e+01     1.114778    0.5841147  73.04   0.00746079    1.451    0.311
        16 -14.1981     46.4581    217.0248   1.4099758663e+02   2.4003182442e+01      1.27634    0.7702743  66.71  0.005879119    1.470    0.320
        17 -11.5629    151.5592    228.6197   1.2079481643e+02   4.7444836941e+00    0.4692963    0.2233269  43.56  0.002093477    1.814    0.449
        18 -10.5489     25.1773    226.6730   1.4576816076e+02   2.4531773691e+01    0.2056292    0.1256033  85.33 0.0008838659    1.329    0.248
        19 -13.3463     12.5863    235.8057   1.4854737411e+02   2.4081226422e+01     2.171185    0.7520773  70.75  0.009813956    3.218    0.689
        20 -11.6947     25.7439    212.6992   1.4460985772e+02   2.7367464109e+01    0.4243179    0.2264084  52.71  0.002032117    1.667    0.400
        21 -12.6985     81.8403    248.7236   1.3725693540e+02   1.2672159532e+01    0.6641179    0.5532215 -69.77  0.004541079    1.412    0.292
        22  -9.9700    228.6582    205.5531   1.0101060965e+02  -5.2330157271e+00    0.2417781    0.2117612 -55.36 0.0006449386    1.510    0.338
        23 -11.2611     28.0634    204.5215   1.4348996220e+02   2.8863812734e+01     0.299641     0.140382  55.29  0.001589544    1.969    0.492
        24  -9.9478    191.8061    192.7097   1.0589772294e+02   3.8454627069e+00    0.6700482    0.3489764 -66.85  0.001665965    7.371    0.864
        25 -11.6320     65.2461    193.5442   1.3455961878e+02   2.6689305581e+01    0.4178183    0.2584743 -47.48  0.002114874    2.006    0.501
        26 -11.8250     70.5027    186.3901   1.3244782491e+02   2.7590294845e+01    0.3014931    0.2563492 -50.60  0.000739614    1.383    0.277
        27  -8.6227    181.5265    192.4428   1.0803632687e+02   5.9318692606e+00    0.1466884    0.1361898  28.62 6.027453e-05    1.010    0.009
        28 -11.1136     79.8264    174.5284   1.2853059847e+02   2.8991669727e+01    0.2560527    0.2339355  84.77 0.0003117119    1.048    0.046
        29 -13.3264     67.1766    171.8878   1.3119420493e+02   3.1474510054e+01    0.5314324    0.2916635 -44.70  0.001818809    2.238    0.553
        30 -10.1997    112.7078    174.4108   1.2049237352e+02   2.3461127257e+01    0.2938191    0.1343157  44.65  0.001138128    2.114    0.527
        31  -8.8977     47.6808    172.3056   1.3589346851e+02   3.3910799414e+01    0.1362584   0.08725744  72.83  0.000325183    1.633    0.388
        32 -12.1233     87.0966    166.0084   1.2535141437e+02   2.9883942467e+01    0.7766119    0.5656933  56.54  0.003988503    1.388    0.279
        33 -10.3399    245.6037    249.8101   1.0586068575e+02  -1.4232559295e+01     0.228803   0.07669415  35.10  0.001019041    2.628    0.620
        34  -9.0832    102.4302    146.0556   1.1760819967e+02   3.2074291912e+01     0.216242    0.1887178 -52.31 0.0005698526    1.135    0.119
        35 -12.1743     88.2048    149.0786   1.2199653694e+02   3.3783175751e+01    0.3010483    0.2589711 -39.23 0.0005620117    1.278    0.218
        36 -12.0787     62.9798    218.0996   1.3782648597e+02   2.1579623573e+01    0.5201719    0.2281612  56.63  0.002406246    2.208    0.547
        37  -9.6870    110.4958    135.5681   1.1316646428e+02   3.3079078960e+01    0.3336412    0.2300315 -14.21  0.001144192    2.367    0.578
        38 -14.8719     54.3509    209.3190   1.3866829581e+02   2.4643943212e+01     5.239403     1.210123  52.77   0.01574941    5.456    0.817
        39 -10.5484     97.8515    132.8258   1.1601029348e+02   3.6046039582e+01    0.2695248    0.2274501 -27.47 0.0004603669    1.341    0.254
        40 -12.7274     39.2699    226.5222   1.4318926132e+02   2.2911813480e+01    0.3395787     0.279945 -73.23 0.0007328447    1.379    0.275
        41  -9.3777    107.3374    122.9760   1.1108496594e+02   3.6621574696e+01    0.2054844    0.1821306 -50.12 0.0003313395    1.097    0.088
        42 -10.6868    167.8952    112.9809   9.3045061870e+01   2.5583811316e+01     0.382927    0.3056792 -86.74  0.001631276    1.532    0.347
        43 -15.7663      8.3712    202.6002   1.4712063601e+02   3.1281244219e+01     9.383634     1.203685 -72.36   0.02040889    5.349    0.813
        44 -11.5555     75.3983    228.8578   1.3647688173e+02   1.7544089230e+01    0.3412147    0.2248752  67.93 0.0006234785    1.361    0.265
        45  -9.5204    204.6628    110.8203   8.4879325228e+01   1.7277315740e+01    0.3878086    0.1959604  38.94  0.001429609    2.508    0.601
        46  -9.8738     99.4986    149.8988   1.1916860695e+02   3.1672640288e+01    0.3488489    0.2735797 -41.12 0.0008082746    1.380    0.275
        47  -9.9299    242.6617     92.6669   7.4364840903e+01   1.1993939912e+01     0.135543    0.1115232  10.00 0.0004125571    1.745    0.427
        48 -10.6300      1.5731     89.2098   1.3622770818e+02   5.6884932806e+01    0.2977418    0.0786506 -63.03  0.001293773    2.633    0.620
        49 -10.9238      2.0000     79.9923   1.3443802151e+02   5.8792015413e+01    0.3149103    0.1003024 -55.52  0.001545372    2.095    0.523
        50  -8.9815    109.8102     43.0668   8.6807143343e+01   5.1373736328e+01     0.191281    0.1778198  73.23 0.0005216982    1.290    0.225
        51  -9.8709    198.5860    247.3634   1.1427413519e+02  -6.6298657109e+00    0.2194568    0.1173298 -56.95 0.0009602293    3.422    0.708
        52  -9.6301    172.3352    246.3124   1.1926673484e+02  -2.0039499087e+00     0.131028   0.09391268  13.48 0.0003005407    1.685    0.406
        53 -10.9199     69.6392    228.6317   1.3758649198e+02   1.8431650675e+01    0.3607095    0.1838352  61.60  0.001416985    1.883    0.469
        54  -9.5235    249.6553    243.6805   1.0408501904e+02  -1.4031579396e+01    0.1273501   0.07701518   6.03 0.0007049453    1.726    0.421
        55 -11.6132    125.4472    244.1520   1.2831469301e+02   6.5029703078e+00    0.2437968    0.2032843  21.94  0.001241885    1.486    0.327
