#   1 NUMBER                 Running object number                                     
#   2 MAG_AUTO               Kron-like elliptical aperture magnitude                    [mag]
#   3 X_IMAGE                Object position along x                                    [pixel]
#   4 Y_IMAGE                Object position along y                                    [pixel]
#   5 X_WORLD                Barycenter position along world x axis                     [deg]
#   6 Y_WORLD                Barycenter position along world y axis                     [deg]
#   7 A_WORLD                Profile RMS along major axis (world units)                 [deg]
#   8 B_WORLD                Profile RMS along minor axis (world units)                 [deg]
#   9 THETA_WORLD            Position angle (CCW/world-x)                               [deg]
#  10 FWHM_WORLD             FWHM assuming a gaussian core                              [deg]
#  11 ELONGATION             A_IMAGE/B_IMAGE                                           
#  12 ELLIPTICITY            1 - B_IMAGE/A_IMAGE                                       
         1 -10.6980    242.5872     28.3025   1.2944381737e+01   2.1020742467e+01    0.7261039    0.5006676 -54.51  0.003911931    1.282    0.220
         2  -7.2667    207.9914      9.7137   1.1945091638e+01   3.1385736163e+01    0.1603724    0.1061685  75.76 0.0003063937    1.356    0.263
         3  -6.7621     84.4767      7.4840   3.3133901537e+01   6.1322196163e+01    0.1286255    0.1084086  23.77 0.0002028608    1.019    0.019
         4  -7.7363    100.1524      1.3283   2.6313377467e+01   5.8592814304e+01    0.1684084    0.1118229  66.31 0.0009074711    1.612    0.380
         5 -10.7033      4.9966    231.5933   1.0104938041e+02   2.5806407484e+01    0.9239956    0.3309971  82.42   0.00484403    2.665    0.625
         6 -11.7165     17.3510    228.2320   9.8831736199e+01   2.5190072010e+01     1.178528    0.6523579  66.50  0.007955964    1.382    0.276
         7  -9.3661      2.6959    248.0730   1.0212293572e+02   2.3089468179e+01    0.4096213    0.2049399  71.80  0.002658807    1.461    0.315
         8  -9.3887     15.7919    249.9425   1.0018644328e+02   2.1431421912e+01    0.4017293    0.1366537  39.05 0.0003286375    2.656    0.623
         9  -9.9805     14.5283    244.9982   1.0015144291e+02   2.2429400776e+01    0.4149795    0.2242371 -78.27  0.002225398    1.714    0.416
        10 -11.7764      4.2029    240.8422   1.0158865704e+02   2.4211145564e+01      2.05419    0.8255559  26.77  0.009579487    5.103    0.804
        11 -10.1407    100.2959    246.5180   8.5485647952e+01   1.1148098495e+01    0.2181932    0.1957646  82.43 0.0004975701    1.242    0.195
        12  -9.1249    231.3598    237.0498   5.9753014340e+01  -8.5037763052e+00    0.2152825    0.1502645  34.25 0.0006235808    1.291    0.226
        13  -8.9857    124.9814    235.1196   7.9573593878e+01   9.2209543890e+00    0.1840378    0.1608175  59.35 0.0002698108    1.092    0.085
        14  -9.9659     52.6320    232.7296   9.2958341770e+01   2.0275927264e+01    0.4376374    0.2763299 -61.80  0.002529909    1.867    0.464
        15  -7.5581     75.4941    232.9784   8.8789940260e+01   1.7174990408e+01    0.1719893   0.08539855  81.08 0.0008103658    2.668    0.625
        16  -8.5067    110.1389    230.3358   8.1892825864e+01   1.2456245537e+01    0.2188379     0.170293 -88.43 0.0006166202    1.389    0.280
        17 -10.2383     10.9938    239.0148   1.0043001938e+02   2.3860391819e+01    0.3561708    0.2744246  67.56  0.002016488    1.204    0.169
        18  -9.0250     10.2879    225.5238   9.9879737700e+01   2.6417077237e+01    0.2641031    0.1560652 -76.36  0.001281618    1.566    0.362
        19  -8.7139     49.9783    224.2271   9.2786565723e+01   2.2227030800e+01    0.1637337    0.1231932  69.57 0.0004801516    1.011    0.011
        20  -8.2024     85.1972    221.6159   8.5820973471e+01   1.7925807101e+01    0.1752459    0.1092651  33.43 0.0009590861    1.806    0.446
        21  -7.8600     44.0218    219.7441   9.3541974257e+01   2.3831853794e+01    0.1649761    0.1256927  67.12 0.0009056767    1.059    0.056
        22 -10.1299     11.5472    217.4521   9.9234860711e+01   2.7834884614e+01     0.532277    0.2062084  74.63  0.002740601    2.502    0.600
        23 -10.3938     10.4722    206.9346   9.8828071770e+01   3.0008558810e+01    0.4639475    0.3233664  33.22  0.002562041    1.812    0.448
        24  -8.1135     51.8226    219.1568   9.2034811114e+01   2.2985493417e+01    0.1432513    0.1307846  80.15 0.0005126363    1.316    0.240
        25  -7.1813    148.6945    215.7303   7.2210533566e+01   8.5669234742e+00    0.1263278   0.09875981  16.22 0.0002484866    1.536    0.349
        26  -8.8329      2.8624    212.6836   1.0048849233e+02   2.9587728089e+01    0.1751774    0.1186125 -82.00  0.000803978    1.309    0.236
        27  -9.3697     52.3032    210.4641   9.1202800712e+01   2.4665241083e+01    0.2408766    0.2177669  48.63  0.001044516    1.377    0.274
        28  -8.5612     39.2833    210.9889   9.3756957883e+01   2.6138323320e+01    0.2528472   0.09178299  57.78  0.001167116    2.615    0.618
        29  -8.3526     58.1262    208.2204   8.9850300951e+01   2.4377058806e+01    0.1897786    0.1501976 -70.77 0.0005567511    1.351    0.260
        30  -7.9829     43.6705    205.7048   9.2482748246e+01   2.6698958768e+01    0.1030197   0.09044659 -49.13   0.00070248    1.633    0.388
        31  -9.5937     45.8414    202.1523   9.1747886770e+01   2.7174958671e+01    0.3604467    0.1641135  69.98  0.001701561    2.452    0.592
        32  -7.3888     87.4338    198.5316   8.2726154133e+01   2.2246035563e+01    0.1294731    0.1131865  71.31  0.000120974    1.050    0.047
        33  -9.9407     18.4471    195.5406   9.6609141497e+01   3.1558636507e+01    0.2757156    0.2512495 -48.52 0.0007106041    1.619    0.382
        34 -11.1371     30.2240    186.9091   9.3595878198e+01   3.2184181225e+01    0.7087699    0.5231609 -77.68  0.003971039    1.222    0.182
        35  -9.5638    137.7665    183.8353   6.9386985556e+01   1.6681569486e+01    0.2494496    0.2364063 -51.81 0.0003890668    1.155    0.135
        36  -8.1221    143.7772    181.6429   6.7650875883e+01   1.5986886012e+01    0.3014241    0.1766621  31.64  0.001314599    1.890    0.471
        37  -8.8502     81.1532    172.0865   8.0600377909e+01   2.9003299290e+01    0.2003049    0.1800413  61.15 0.0002876886    1.114    0.102
        38  -8.8513     50.3735    171.4742   8.7685121053e+01   3.3323148448e+01    0.2723495     0.232331 -23.38  0.001537713    1.724    0.420
        39  -7.3781     67.3816    191.2203   8.6170967228e+01   2.6725960998e+01    0.1723169    0.1087212 -84.13 0.0005731866    1.559    0.359
        40  -8.7753     56.7313    166.1510   8.5564475485e+01   3.3753366087e+01    0.2305351    0.2199213  71.03 0.0006224046    1.216    0.178
        41  -7.4758    117.8942    165.1431   7.0668554741e+01   2.4415714932e+01    0.1943326    0.1677088 -38.22  0.000682775    1.326    0.246
        42  -8.1509    224.1071    159.0066   4.6247383380e+01   4.2052334122e+00    0.2053569    0.1926748   3.17 0.0005300319    1.070    0.065
        43  -8.9036     68.2826    157.7006   8.1612054897e+01   3.4190440352e+01    0.2337696    0.2182295 -68.38 0.0003155552    1.171    0.146
        44 -10.2090     53.9461    153.6162   8.4587699139e+01   3.7016432806e+01    0.4204739    0.2663023 -39.85  0.001072245    2.097    0.523
        45  -7.6880     46.0373    156.4925   8.6906201096e+01   3.7281256939e+01     0.190598    0.1449195 -76.60 0.0004972396    1.132    0.117
        46  -9.5028     75.7385    152.8740   7.8998022461e+01   3.4267106158e+01    0.3041047    0.2696795 -60.68 0.0009806439    1.162    0.140
        47  -8.3127     10.3912    154.2069   9.5057196264e+01   4.1260420139e+01    0.1779861   0.08933397 -87.70 0.0009574168    1.737    0.424
        48  -8.4100    236.7149    148.6183   4.1708271254e+01   3.5092387293e+00    0.2184721    0.1537236   2.72 0.0005984955    1.714    0.417
        49  -7.3878     90.7803    147.8888   7.4284577518e+01   3.3121586736e+01    0.1897413    0.1535663  76.39 0.0003257336    1.281    0.219
        50  -9.7359     68.5899    144.0479   7.9403327936e+01   3.7375736788e+01     0.607392    0.3544459  73.56   0.00264959    2.348    0.574
        51  -8.9805    150.4020    138.7514   5.7297511958e+01   2.3741485034e+01    0.3701244    0.2694328 -26.09 0.0008817752    1.660    0.398
        52  -8.0589      3.4988    140.5088   9.5435563923e+01   4.4856657418e+01    0.1181074   0.09006735 -83.29 0.0008106295    1.003    0.003
        53  -8.9113     80.3584    137.4765   7.5116380824e+01   3.7235866077e+01    0.2588528    0.2291758 -53.10 0.0004436341    1.149    0.130
        54  -7.0884     94.6764    137.7046   7.1313192111e+01   3.4882806372e+01    0.1425609    0.1153111 -19.72 0.0007020553    1.621    0.383
        55  -7.8848      3.6670    136.3113   9.5005849945e+01   4.5791904383e+01    0.1208305   0.07193185  70.83 0.0003420441    1.677    0.404
        56  -8.5648     35.9389    131.5960   8.6168285304e+01   4.4209156094e+01    0.2233271    0.1564574 -76.01 0.0004331934    1.226    0.185
        57  -8.6184     71.3187    127.8996   7.5792247974e+01   4.0851645178e+01    0.2807686    0.1962168   6.75  0.001336764    2.158    0.537
        58  -7.9084      2.3045    126.3139   9.4364031149e+01   4.8143701492e+01    0.1175964   0.07049475 -52.37 -0.0001541599    1.619    0.382
        59  -7.7601     68.4576    119.0321   7.4864111783e+01   4.3366202289e+01     0.203875    0.1242825 -56.56 -1.517488e-05    1.472    0.321
        60 -10.3774     56.8945    117.1132   7.7866391141e+01   4.5331642237e+01    0.2250435    0.2122064 -58.47 -0.0009232552    1.094    0.086
        61  -7.3105    108.0133    105.0135   6.0045694392e+01   4.0069090588e+01    0.1788913    0.1647165 -47.35 0.0009463864    1.053    0.050
        62  -7.1409     24.0784    100.5564   8.4775434745e+01   5.2520341896e+01    0.1687924   0.08669758  52.34 0.0008075221    2.588    0.614
        63  -7.0962    134.9890     83.0005   4.6391476877e+01   3.8973560350e+01    0.1780337    0.1732469 -23.64            0    1.027    0.026
        64  -8.3230    201.6303     81.1263   3.1543947426e+01   2.3003589941e+01    0.2577725    0.2079912  50.28  0.000510096    1.275    0.216
        65  -8.2386    127.9837     79.9685   4.7312781583e+01   4.1160130609e+01    0.2175933    0.2133547  14.31            0    1.010    0.010
        66  -7.4315     96.5704     79.5203   5.6235658086e+01   4.7746825518e+01    0.1460244    0.1370476 -25.27  0.000104121    1.010    0.010
        67  -7.8520    214.2984     78.0147   2.8618861652e+01   2.0455774235e+01    0.2033492    0.1785236 -44.17 0.0001492689    1.091    0.083
        68  -8.9997     98.8490     67.5476   5.1746566826e+01   4.9687667475e+01    0.3505777    0.1964638 -34.50            0    1.808    0.447
        69  -7.4543    167.4907     60.5627   3.2128532691e+01   3.5011887814e+01    0.1511026    0.1449571  62.59 3.414219e-05    1.012    0.012
        70  -7.7386     96.2619     51.4413   4.7024657992e+01   5.3087718335e+01    0.1825685    0.1361204  54.12 0.0005840829    1.537    0.349
        71 -10.0176    220.0090     45.4778   1.9526023383e+01   2.4035554403e+01    0.4074277    0.2107325  42.31  0.001666848    2.622    0.619
        72  -8.2963    147.9707     44.2310   3.1057913531e+01   4.2430574993e+01    0.2305276    0.2077948 -29.59 0.0003317229    1.170    0.145
        73  -7.6464    231.0000     44.0040   1.7826997992e+01   2.1622911246e+01    0.2260493   0.07378706 -32.51 0.0008077456    2.979    0.664
        74 -10.0319    229.4960     38.3354   1.6638191254e+01   2.2743958581e+01    0.3703707    0.2497894  39.79  0.001258194    1.973    0.493
        75  -8.5048     57.2774    248.3665   9.3292739190e+01   1.6849849729e+01    0.2637215   0.09074992 -78.69  0.001195891    3.633    0.725
        76  -8.2973    184.6765     23.0782   1.8264828286e+01   3.5761938847e+01    0.2449926    0.1816946  59.63 0.0003957316    1.265    0.210
        77  -7.3490    116.0091     13.0000   2.7169200573e+01   5.3959553413e+01    0.2296535   0.06993482  59.49 0.0008066937    2.972    0.664
        78  -7.8980     51.0670    248.4515   9.4356686861e+01   1.7623385748e+01    0.1541315   0.08900695  44.49 0.0004538778    1.519    0.342
        79  -8.6789     19.1397    244.8377   9.9409250724e+01   2.1970575856e+01    0.1584919    0.1230916  46.29 0.0005535918    1.506    0.336
