#   1 NUMBER                 Running object number                                     
#   2 MAG_AUTO               Kron-like elliptical aperture magnitude                    [mag]
#   3 X_IMAGE                Object position along x                                    [pixel]
#   4 Y_IMAGE                Object position along y                                    [pixel]
#   5 X_WORLD                Barycenter position along world x axis                     [deg]
#   6 Y_WORLD                Barycenter position along world y axis                     [deg]
#   7 A_WORLD                Profile RMS along major axis (world units)                 [deg]
#   8 B_WORLD                Profile RMS along minor axis (world units)                 [deg]
#   9 THETA_WORLD            Position angle (CCW/world-x)                               [deg]
#  10 FWHM_WORLD             FWHM assuming a gaussian core                              [deg]
#  11 ELONGATION             A_IMAGE/B_IMAGE                                           
#  12 ELLIPTICITY            1 - B_IMAGE/A_IMAGE                                       
         1 -12.3264    196.9231     35.8572   5.0625058356e+01   3.1335516374e+01     1.121171    0.9794966  35.76  0.005403039    1.296    0.228
         2 -12.4001    207.8969     23.6689   4.5863235483e+01   3.0084558069e+01     0.901132    0.7872772  33.09  0.003007683    1.366    0.268
         3  -9.8001     45.5925      4.5061   7.5911877033e+01   6.8934653779e+01    0.3105772    0.1006946 -32.18  0.001359089    2.822    0.646
         4  -9.4838     53.1980      4.3919   7.2675959465e+01   6.7795644185e+01    0.1577481    0.1114178  46.90 0.0009563331    1.706    0.414
         5  -9.4688    231.9403      1.6576   3.8025972387e+01   2.6697931550e+01    0.5229393    0.1587353  74.73  0.002018955    3.135    0.681
         6  -9.5632     72.3947    230.4251   1.1924269073e+02   1.8377213411e+01    0.2259315    0.1731815  62.34 0.0009318267    1.035    0.034
         7 -12.7895     87.1893    228.6137   1.1635259605e+02   1.6644791338e+01     1.866583    0.9117858  49.88   0.00132854    1.665    0.399
         8 -14.9843     51.5577    200.9041   1.2062232173e+02   2.6797214545e+01     5.674105     3.705979 -81.41   0.02200598    1.380    0.275
         9 -14.4241     68.1326    248.4827   1.2142462523e+02   1.5784411399e+01     6.890247     1.661657  36.41   0.02484137    4.904    0.796
        10  -8.3196    193.0696    165.7117   8.4922496125e+01   9.7056191149e+00    0.2057195    0.1784361  27.86  0.001136076    1.091    0.083
        11  -7.9549    204.4752    164.9922   8.2500714675e+01   7.5685957225e+00    0.1984663     0.122433 -59.82 0.0008099032    2.641    0.621
        12 -11.9900     58.4402    131.4650   1.1059733283e+02   4.1594708720e+01     1.909362    0.4789152 -68.87  0.004880432    6.105    0.836
        13 -11.9041     68.4550    144.4081   1.1005431736e+02   3.7209395129e+01    0.8686838    0.5543246  80.39   0.00325781    1.845    0.458
        14 -10.9055     83.6064    163.5414   1.0926510982e+02   3.0578256162e+01    0.6076739    0.3801263  72.07 0.0006099095    1.858    0.462
        15 -11.9771     71.6513    159.1033   1.1147454435e+02   3.3330380965e+01    0.5695806    0.4330131 -43.12  0.001169592    1.613    0.380
        16 -10.7933     90.3348    156.3022   1.0650183460e+02   3.1201086453e+01    0.5491786    0.4186503 -18.36   0.00275317    2.050    0.512
        17  -9.1973    133.8539    142.9306   9.3223435414e+01   2.6420297580e+01    0.8091401     0.156128 -50.96  0.001905794    5.790    0.827
        18 -10.5087     70.6859    178.5546   1.1427498366e+02   2.9070161604e+01    0.4273107     0.278001 -39.72  0.001767544    2.296    0.564
        19 -10.2549     75.0938    173.1399   1.1259691954e+02   2.9654977864e+01    0.2793948    0.2382166 -58.38 0.0005304643    1.310    0.237
        20  -8.3114     86.0651    145.5038   1.0573264827e+02   3.4385670927e+01    0.1982147    0.1368079  41.04 0.0005801167    1.508    0.337
        21  -9.6292    103.3192    140.8273   1.0043604695e+02   3.2638603826e+01    0.4968518    0.3263728 -19.65  0.001986906    2.819    0.645
        22 -10.6477     91.0637    141.2089   1.0367116167e+02   3.4605657191e+01    0.2713282    0.2509109 -46.53 0.0004407418    1.191    0.160
        23  -9.6630    194.9689    197.5655   9.0750045057e+01   3.9312188571e+00     0.387296     0.248485 -67.37  0.001653264    3.274    0.695
        24  -8.9610    112.4142    131.0117   9.6027943038e+01   3.3278547121e+01    0.2832817    0.2168955  19.96 0.0008333861    1.659    0.397
        25  -8.4615    105.7568    130.7258   9.7715124461e+01   3.4563522027e+01    0.3082026    0.2005595 -64.70  0.001188513    1.621    0.383
        26 -10.7367     43.9339    127.8884   1.1395759172e+02   4.4124933762e+01    0.4380077    0.2512814  43.52   0.00230305    1.886    0.470
        27  -9.4527     99.3578    127.5232   9.8733809375e+01   3.6443294530e+01    0.3207997    0.2602778  -3.90  0.001176142    1.682    0.405
        28  -8.2250    108.4803    119.8984   9.4548750957e+01   3.6584918802e+01     0.217118     0.142981 -51.66 0.0003775332    1.456    0.313
        29  -8.6732    193.2186    191.5751   8.9995170337e+01   5.2207045915e+00    0.2814946    0.2119624  11.96  0.001535334    1.432    0.302
        30  -8.0724    107.8511    113.8415   9.3267631744e+01   3.8101227619e+01    0.1973611     0.171966  82.06 0.0002506079    1.268    0.211
        31  -8.0187    167.3987    112.2144   7.7847574521e+01   2.5690404268e+01    0.2246523    0.1448391 -50.88  0.000628234    1.648    0.393
        32  -9.2561    120.2490    110.9793   8.9171003225e+01   3.6338900759e+01    0.3126354    0.1893803 -56.60 0.0009748132    1.754    0.430
        33  -9.7898    116.8594    108.8172   8.9529506733e+01   3.7504883004e+01    0.4307455    0.2690606  19.32  0.001650907    2.552    0.608
        34  -9.7811     53.4659    109.9488   1.0817352851e+02   4.7339051016e+01    0.2975235    0.1503987 -61.71  0.001387502    1.701    0.412
        35  -8.2270    205.3192    110.5704   6.9624366044e+01   1.7185334171e+01    0.2107761    0.1429961  40.50  0.000950871    1.569    0.362
        36 -10.7068     32.9931    108.1158   1.1394064360e+02   4.9901951621e+01    0.5615801    0.1384588 -63.88  0.002051458    3.065    0.674
        37  -9.7729     41.1876    109.1117   1.1167658752e+02   4.8878544202e+01    0.2121488    0.1588345 -49.03 0.0008201889    1.282    0.220
        38  -7.8956    134.6648    106.3344   8.4154260491e+01   3.4337325285e+01     0.162316    0.1250673 -86.37 0.0007052129    1.740    0.425
        39 -13.8396      9.3589    206.6220   1.2893198904e+02   3.0196017885e+01    0.8794361    0.7639356  51.12  0.004838157    1.467    0.318
        40  -9.5126     46.1324    109.6485   1.1030167122e+02   4.8234613715e+01      0.24541    0.1061197  39.64  0.001092185    2.552    0.608
        41  -9.7514     56.7228     95.4734   1.0413365065e+02   5.0364580742e+01    0.4048708    0.1979111  48.34  0.001749908    2.607    0.616
        42  -9.1725     41.6826     91.9471   1.0821188803e+02   5.2861806652e+01    0.1887574    0.1469938 -62.01 0.0004832384    1.091    0.083
        43 -16.1152      5.5973    239.7968   1.3110014961e+02   2.4419539057e+01     18.86648    0.6024707 -77.47   0.01465893   16.285    0.939
        44 -10.0931    165.1559    218.9766   1.0012278451e+02   5.7708282172e+00    0.3971988    0.2761957  72.70  0.001944797    2.179    0.541
        45 -11.0208    162.7308    228.0525   1.0191579099e+02   4.7551885095e+00    0.3480678    0.3292634  52.72   0.00244737    1.176    0.149
        46  -8.7933    151.4398     54.8953   6.4507966421e+01   4.0240235531e+01    0.2617367    0.2121891  81.48 0.0005776483    1.423    0.297
        47 -11.7622    187.2542     42.9234   5.4098094545e+01   3.2859010105e+01    0.8810762    0.5899974   5.49  0.003153259    2.228    0.551
        48  -8.7071    183.6763    212.6537   9.5540254677e+01   3.5585972256e+00    0.1337564   0.09382373   9.37 0.0005028154    1.741    0.426
        49 -12.7673     19.9419    192.8061   1.2615066733e+02   3.1957904495e+01     1.106197    0.6423361  64.37 0.0004406095    1.432    0.302
        50 -10.0305     31.8446     36.2469   9.6372522178e+01   6.5652869445e+01    0.2283373     0.158288   3.48  0.001405388    1.561    0.359
        51  -8.8848    153.0952     48.3496   6.2011118943e+01   4.0841168990e+01    0.3021869    0.2252644 -88.45  0.001395318    1.708    0.415
        52  -8.1688     96.2844    201.2552   1.1157416571e+02   2.0514308689e+01    0.1753174     0.126529  68.09 0.0003852126    1.302    0.232
        53 -10.6959    149.9567    229.3883   1.0453161509e+02   6.6746779814e+00    0.4200725    0.3275011 -58.00  0.002694998    1.570    0.363
