#   1 NUMBER                 Running object number                                     
#   2 MAG_AUTO               Kron-like elliptical aperture magnitude                    [mag]
#   3 X_IMAGE                Object position along x                                    [pixel]
#   4 Y_IMAGE                Object position along y                                    [pixel]
#   5 X_WORLD                Barycenter position along world x axis                     [deg]
#   6 Y_WORLD                Barycenter position along world y axis                     [deg]
#   7 A_WORLD                Profile RMS along major axis (world units)                 [deg]
#   8 B_WORLD                Profile RMS along minor axis (world units)                 [deg]
#   9 THETA_WORLD            Position angle (CCW/world-x)                               [deg]
#  10 FWHM_WORLD             FWHM assuming a gaussian core                              [deg]
#  11 ELONGATION             A_IMAGE/B_IMAGE                                           
#  12 ELLIPTICITY            1 - B_IMAGE/A_IMAGE                                       
         1 -12.7344     34.4087     13.7102   6.5543328379e+01   6.9640457116e+01    0.8265061    0.3973349  27.58  0.004320545    2.037    0.509
         2 -13.0654     75.1762      9.4806   4.6172432295e+01   6.3412176922e+01    0.4947456     0.268512  49.62  0.002524229    1.692    0.409
         3 -11.7761     24.7339      4.4394   6.5961527656e+01   7.2124285961e+01    0.2858637    0.1796933 -51.14  0.001566121    2.703    0.630
         4 -12.3732     28.9245    217.4688   1.0739168817e+02   2.5282776196e+01    0.3227349    0.2121681  77.02 0.0009056277    1.286    0.222
         5 -12.6216      2.2240    202.3896   1.1180374101e+02   3.0912277704e+01     0.760801    0.2543428 -80.83  0.002757995    2.571    0.611
         6 -12.7303      4.7021    215.5293   1.1195731487e+02   2.8030872858e+01    0.9552309    0.2969507 -70.25  0.004753025    2.867    0.651
         7 -13.3635     12.7103    206.1307   1.0992745096e+02   2.9210765519e+01     1.119938    0.3445577 -77.26  0.005182885    2.865    0.651
         8 -12.9975      7.1274    197.1267   1.1054874158e+02   3.1593318993e+01    0.7033654    0.3147912  82.87  0.002831477    2.041    0.510
         9 -10.3439     61.3412    216.6735   1.0070143606e+02   2.1658797947e+01    0.1353983   0.07525379  62.72 0.0007051307    1.735    0.424
        10 -10.7575     56.4880    204.9917   1.0067108742e+02   2.4704331048e+01    0.1831552   0.09040629  78.02 0.0008104625    2.567    0.610
        11 -11.7295     35.6838    203.3995   1.0502091395e+02   2.7473894607e+01    0.3467011     0.173024  37.90  0.001676413    1.854    0.461
        12 -10.2719    149.0167    198.0273   7.8758367300e+01   1.1803678775e+01     0.230956    0.1566583 -81.36  0.001012681    2.616    0.618
        13 -10.7464     94.6370    186.1296   8.9623397070e+01   2.3478939346e+01    0.2672416    0.1322053 -71.62   0.00108726    2.564    0.610
        14 -10.6470    164.9162    185.0455   7.2891818946e+01   1.1423978196e+01    0.3968019    0.1909815 -50.30  0.001623544    2.411    0.585
        15 -10.2461    156.0000    186.0415   7.5080120306e+01   1.2871143196e+01    0.2255646   0.08277161 -47.30 0.0008044469    2.956    0.662
        16 -10.5971    109.2168    185.4555   8.5995155724e+01   2.1275233465e+01     0.340151    0.1991607  77.53  0.001298809    3.052    0.672
        17 -10.7566    174.1478    182.7384   7.0417751204e+01   1.0155634417e+01    0.2684655    0.1745647 -58.51  0.001223926    2.107    0.525
        18 -11.0418    160.0503    175.1567   7.2098585506e+01   1.4268068469e+01    0.3170362    0.2492736  88.87   0.00152835    1.893    0.472
        19 -10.9903    106.5053    176.0085   8.5154665560e+01   2.3822989860e+01    0.3160671    0.1571258  63.41  0.001048352    3.594    0.722
        20 -10.5737     76.9698    175.4826   9.2482357263e+01   2.8550753385e+01    0.2105202   0.09275818  53.79 0.0008102751    2.593    0.614
        21 -10.5510    121.4323    169.3154   8.0262270310e+01   2.2725958732e+01    0.3419805    0.2053573  66.82  0.001332708    2.555    0.609
        22 -10.2652    138.3507    163.8794   7.5023162895e+01   2.0775337273e+01    0.2946166    0.1433169 -57.88  0.001090412    2.552    0.608
        23 -10.5305     79.5380    163.3798   9.0061349572e+01   3.1024858210e+01    0.4363466    0.2113256  86.95  0.001167397    5.984    0.833
        24 -10.2545    167.6752    157.3333   6.6691332271e+01   1.6365895938e+01    0.1497275    0.1224047  84.75 0.0007050999    1.710    0.415
        25 -12.3508    119.3240    152.6642   7.7611238754e+01   2.6892766085e+01    0.6779736     0.423432 -49.32  0.003021572    1.636    0.389
        26 -13.2654    108.7185    145.3714   7.8970292395e+01   3.0541225429e+01     1.070537    0.7197046 -80.74  0.004553865    2.065    0.516
        27 -10.5807     81.7792    154.5938   8.8054490457e+01   3.2798074238e+01    0.2128211    0.1229268  46.79 0.0009535254    1.737    0.424
        28 -10.5434     28.3288    148.9916   1.0179426770e+02   4.0648584051e+01    0.2195905   0.08673369  83.64 0.0007051931    4.379    0.772
        29 -10.8328    149.1399    145.3511   6.8445374106e+01   2.2657613981e+01    0.3938764     0.279296 -88.24  0.001587813    2.378    0.579
        30 -12.5566     56.2022    136.7486   9.2338256690e+01   4.0678210176e+01    0.9696227    0.3604375 -46.83  0.003538884    2.988    0.665
        31 -10.9680     22.7722    137.3680   1.0201251743e+02   4.3940117726e+01    0.2869781    0.1169487  75.01 0.0009622147    4.347    0.770
        32 -11.3680    113.5932    133.0362   7.4979978290e+01   3.2548627649e+01    0.4905449    0.3490735 -74.22  0.002161791    1.789    0.441
        33 -10.9824     83.1812    131.2608   8.3366434568e+01   3.8270744357e+01    0.4039408    0.2377156 -79.85  0.001584838    2.459    0.593
        34 -11.9076     98.4026    126.9049   7.7944997558e+01   3.6791444274e+01    0.6723663    0.3328995 -70.05  0.002158679    3.456    0.711
        35 -10.4870     12.3208    128.6639   1.0399580057e+02   4.6834045970e+01    0.1307724   0.08107283  68.81 0.0005095705    1.707    0.414
        36 -11.4600    117.8505    125.3473   7.2006580674e+01   3.3519422696e+01    0.4877286    0.3256821  82.05  0.001833241    2.645    0.622
        37 -11.6157    124.5934    141.9671   7.3971087501e+01   2.8352902542e+01    0.5721266    0.3150766 -72.57   0.00182811    3.600    0.722
        38 -11.7243     43.3849    121.9615   9.3793017051e+01   4.5791608068e+01    0.7030963    0.3471909  89.31  0.002587676    3.324    0.699
        39 -11.2327     28.4266    122.1944   9.8441131043e+01   4.7160084900e+01    0.5152602    0.2266252  78.43  0.001683299    4.622    0.784
        40 -10.6024      2.4995    116.0394   1.0551211958e+02   5.0458313758e+01    0.3168404   0.09951813 -88.22  0.001041696    4.479    0.777
        41 -10.8473    108.2438    112.2421   7.1532035592e+01   3.8434397788e+01    0.3899508    0.2269344 -62.48  0.001518037    2.153    0.536
        42 -11.8160     92.5519    112.4289   7.6328141883e+01   4.1276137526e+01    0.5918084    0.3340908 -67.89  0.002263073    2.409    0.585
        43 -11.3319     78.8891    112.2187   8.0574222204e+01   4.3578462995e+01    0.5708728    0.3118372 -79.94   0.00186879    3.727    0.732
        44 -10.0299    165.3020    111.9325   5.6432290170e+01   2.6172890007e+01    0.2183048    0.1975937 -32.42 0.0004855268    1.100    0.091
        45 -10.0752    159.6546    112.3103   5.7844451541e+01   2.7384749993e+01    0.1604629    0.1270929 -87.27 0.0007045311    1.704    0.413
        46 -10.6346    125.5846    110.9974   6.6241103076e+01   3.5204488826e+01    0.2763051    0.2147193  57.75 4.097291e-05    1.420    0.296
        47 -11.0915     87.9743    143.6857   8.4402714127e+01   3.4480178824e+01    0.3135415     0.186918 -89.97  0.001179203    2.772    0.639
        48 -11.7362     43.8351    100.8843   8.9783462022e+01   5.0902763431e+01    0.4515918    0.2556906  73.81  0.001773311    3.218    0.689
        49 -11.4792     22.6850    101.7851   9.7202714278e+01   5.2582625318e+01    0.6684213     0.311271  72.83  0.002322608    4.503    0.778
        50 -11.3120    109.1311     99.0888   6.7764378068e+01   4.1245571000e+01     0.673822    0.4174043  72.11  0.002323924    3.223    0.690
        51 -10.4116     81.8533    100.0125   7.6631052298e+01   4.6009594666e+01    0.2493384    0.1784596 -87.47   0.00109259    2.084    0.520
        52 -11.4092     63.6655     96.1188   8.1814401588e+01   4.9653297996e+01       0.4188    0.2662336  86.86  0.001672166    2.866    0.651
        53 -10.9792     34.6100     88.9641   9.0597702863e+01   5.4657272041e+01    0.5192444    0.1952593 -73.94  0.001652597    4.337    0.769
        54 -12.6293    128.5699     84.4820   5.7918518212e+01   4.0172179786e+01    0.8895521    0.5429613  36.03   0.00220546    1.755    0.430
        55 -11.5649    120.0606     80.2654   5.9004076661e+01   4.2915516400e+01    0.4858881    0.3487839 -59.81  0.002174807    1.717    0.417
        56 -10.9698     86.1282     86.1673   7.1402272426e+01   4.8438296668e+01    0.3706149    0.2452483 -81.26  0.001422714    2.891    0.654
        57 -11.2457     49.0084     84.7908   8.4291206569e+01   5.4148691762e+01    0.5360712    0.2965938  68.24  0.001771551    4.802    0.792
        58 -11.4337    104.6686     82.9503   6.4424183787e+01   4.5628806260e+01    0.4439659    0.2239837 -57.83  0.001547629    2.864    0.651
        59 -11.5716     74.7447     80.0938   7.3562404669e+01   5.1676934876e+01    0.4916239    0.2771308 -69.01  0.001800944    3.145    0.682
        60 -11.1672     23.9443     79.6363   9.2643214519e+01   5.7726343339e+01      0.35571    0.1782676 -82.08  0.001482723    2.917    0.657
        61 -10.7781     47.8260     75.8053   8.2406033232e+01   5.6332843239e+01    0.2575092    0.1835578  37.05 0.0007109605    1.589    0.371
        62 -12.0032     41.2374     72.1555   8.4021471099e+01   5.7874336142e+01    0.5208917    0.3507784  75.37   0.00190928    2.652    0.623
        63 -12.0221     62.9956     67.9449   7.4198905347e+01   5.6073024289e+01    0.7668822    0.1708473 -47.41     0.002322    3.948    0.747
        64 -11.1094     80.5064     72.8564   6.9290389975e+01   5.2269607802e+01    0.2899514    0.2473326  20.09   0.00105796    1.180    0.153
        65 -10.4421     94.8539     70.7079   6.3688681890e+01   5.0073867692e+01    0.3220653    0.1725404 -61.40  0.001090688    3.413    0.707
        66 -11.1457     51.1063     68.3342   7.8985542645e+01   5.7585195925e+01    0.5124475    0.1769206 -59.73  0.001662698    3.926    0.745
        67  -9.7025    215.4220     78.4677   3.8221788728e+01   2.0620841792e+01    0.1419605    0.1298019 -52.22 5.753233e-05    1.020    0.020
        68  -9.9426    199.1343     67.1499   3.7864265620e+01   2.6202308211e+01    0.1854642    0.1558019 -75.41  0.000396973    1.242    0.195
        69  -9.9921    104.3187     65.8012   5.9022868632e+01   4.9105378498e+01    0.2139764    0.1340604 -30.46  0.000937508    1.688    0.408
        70  -9.5908    220.3920     59.5523   3.2864668558e+01   2.2386961139e+01    0.1379288    0.1208324 -58.84 0.0007978606    1.044    0.042
        71 -12.1258     62.5006     54.5227   6.9892678903e+01   5.8853200623e+01    0.4647152    0.2916115 -55.27  0.002239484    1.932    0.482
        72 -13.0423     55.7114     52.7709   7.2033234053e+01   6.0175731698e+01    0.7124391    0.6064976 -74.90  0.003380497    1.692    0.409
        73 -11.8294     32.3990     50.8482   8.1523073899e+01   6.3310686953e+01    0.4286597    0.2782302 -35.90  0.001705988    1.320    0.243
        74 -10.5218     92.3685     50.1963   5.7348191386e+01   5.4350565776e+01    0.2063887    0.1304235 -45.05 0.0009553606    1.753    0.430
        75 -11.7127    108.4424     40.8164   4.8896919690e+01   5.2389876669e+01    0.3471968    0.2669518  27.73 0.0008878562    1.292    0.226
        76 -10.8136    111.9653     33.2306   4.5090870441e+01   5.2642510317e+01    0.4144323    0.1423967 -39.49  0.001460044    3.211    0.689
        77 -10.0947     80.4928     34.9053   5.5463653503e+01   5.9129989937e+01     0.204129    0.1303751 -30.57  0.001027423    1.574    0.365
        78 -11.2910     27.4308     29.8342   7.6365796830e+01   6.7813882141e+01    0.3020566   0.07679524 -41.84   0.00114874    3.257    0.693
        79 -12.2483      5.8999     21.5670   8.4778718202e+01   7.1033522320e+01    0.3048717    0.1759742  -6.74 0.0009962451    1.728    0.421
        80 -11.0042    177.5807    236.7942   7.8863839402e+01   4.7471382765e-01    0.1495591    0.1236996 -55.33 0.0009491187    1.689    0.408
        81 -10.7576     83.1942    219.7953   9.6369647272e+01   1.8084118914e+01    0.2262167    0.1070052  64.47 0.0009505844    2.826    0.646
