#   1 NUMBER                 Running object number                                     
#   2 MAG_AUTO               Kron-like elliptical aperture magnitude                    [mag]
#   3 X_IMAGE                Object position along x                                    [pixel]
#   4 Y_IMAGE                Object position along y                                    [pixel]
#   5 X_WORLD                Barycenter position along world x axis                     [deg]
#   6 Y_WORLD                Barycenter position along world y axis                     [deg]
#   7 A_WORLD                Profile RMS along major axis (world units)                 [deg]
#   8 B_WORLD                Profile RMS along minor axis (world units)                 [deg]
#   9 THETA_WORLD            Position angle (CCW/world-x)                               [deg]
#  10 FWHM_WORLD             FWHM assuming a gaussian core                              [deg]
#  11 ELONGATION             A_IMAGE/B_IMAGE                                           
#  12 ELLIPTICITY            1 - B_IMAGE/A_IMAGE                                       
         1 -10.6731     26.7864     21.4573   8.1522198755e+01   6.8457824158e+01    0.3794713    0.2564075 -23.21  0.001929078    1.223    0.182
         2 -10.3173     40.2447     17.3859   7.3306332209e+01   6.7348791621e+01     0.920656    0.3484588  22.59   0.00329992    4.374    0.771
         3 -11.6132     19.0052     27.9615   8.8166175072e+01   6.8206655084e+01    0.5440993    0.2813428 -44.60 0.0007838003    1.739    0.425
         4 -11.5046     80.7080     33.4220   6.4655974029e+01   5.8507534697e+01     1.377797    0.5253245  36.58  0.001950525    2.746    0.636
         5 -11.8990     14.7117     38.2739   9.4151839891e+01   6.6740019739e+01    0.6937485    0.6111493  21.52  0.003382784    1.456    0.313
         6 -12.5724    107.2066     29.1821   5.5328042291e+01   5.3603022884e+01    0.5354785    0.5070697  25.01  0.001146029    1.086    0.079
         7 -10.9006    175.8775     11.9208   3.7637254459e+01   3.9416836825e+01    0.6066057    0.4247065  59.37  0.003206645    1.341    0.254
         8 -11.6446    165.7314     18.1453   4.0630815067e+01   4.1178514917e+01      0.64945    0.4084213  17.42  0.002641472    2.439    0.590
         9 -11.8361      2.0186     25.0627   9.5889866806e+01   7.0010818166e+01    0.2691968    0.1534108 -50.28 0.0006339884    1.575    0.365
        10  -9.6723    119.9782      8.4136   4.5046735139e+01   5.2852673683e+01    0.3488798    0.1895311 -17.20  0.001752821    2.135    0.532
        11 -12.1962    117.0176     22.2098   5.0485594430e+01   5.2200294702e+01    0.3228799    0.2526557  38.36 0.0005186903    1.175    0.149
        12  -9.2730    111.2198     15.9089   4.9523857080e+01   5.4152041325e+01    0.3936224    0.2181757  22.07  0.001706302    2.322    0.569
        13 -10.2908    117.0560     15.2471   4.8022193245e+01   5.2897646946e+01    0.4064913    0.2570673  35.32  0.002150784    1.572    0.364
        14  -9.7633     61.8717     23.1427   6.7007458385e+01   6.3252432655e+01     1.103876    0.3701528  33.46  0.004101123    3.443    0.710
        15 -10.9454     62.0175     16.3756   6.3964297285e+01   6.4053477441e+01    0.6160529    0.3488651  20.46    0.0031784    1.869    0.465
        16  -9.3283    225.8564     16.4425   3.3691502664e+01   2.7768284762e+01    0.2282957    0.1829513 -29.21 0.0007035295    1.445    0.308
        17 -11.2439    217.5680     18.6799   3.4914244944e+01   2.9287420416e+01    0.7456087    0.3763842 -88.37  0.001969718    2.247    0.555
        18  -9.9329    210.9562     14.9907   3.4694333638e+01   3.1129171004e+01    0.4058727    0.2320348 -85.44  0.001494293    1.814    0.449
        19 -11.1502      6.0806     16.2295   9.0124126937e+01   7.1220795363e+01    0.3521515    0.3007168 -46.42  0.002260985    1.582    0.368
        20 -11.8666     15.5808      4.2379   7.9109229785e+01   7.2113225159e+01    0.5321001    0.3544361 -15.94 0.0005170938    1.185    0.156
        21 -11.5112     20.9349      6.4964   7.7385143273e+01   7.1228255599e+01     0.358876    0.1897825 -21.51 0.0005659938    1.709    0.415
        22  -9.8818    198.8293     17.9027   3.6577710256e+01   3.3516352515e+01     0.409653    0.2468202 -71.35   0.00217042    1.764    0.433
        23 -10.7720    231.4935     15.9405   3.3117494540e+01   2.6647736232e+01     0.546437    0.2229844 -54.52  0.002403913    2.319    0.569
        24  -9.3668    127.5724     14.2726   4.5596635323e+01   5.0570468758e+01    0.3662836    0.1632668 -18.56   0.00159387    2.717    0.632
        25  -9.5914    127.8294      8.2355   4.3537064146e+01   5.1056454194e+01    0.3658293     0.218557  61.65  0.001555919    1.452    0.311
        26 -10.6845    243.8074     13.6172   3.1696500294e+01   2.4410550407e+01    0.3275476    0.2022897  53.94  0.001636317    2.021    0.505
        27 -10.2271     98.8566     13.2446   5.1438204018e+01   5.7130014009e+01    0.3736375    0.2497503  67.28   0.00143437    1.676    0.403
        28  -9.5567     98.0036      7.4121   4.9387259716e+01   5.7843465692e+01    0.2915854    0.1729156   6.04   0.00116636    2.046    0.511
        29  -8.7916     84.6510      8.8241   5.3399152852e+01   6.0528516657e+01    0.1637983     0.140362  30.69 0.0005332015    1.046    0.044
        30  -8.8782     88.5095      6.4714   5.1387328357e+01   5.9941471113e+01    0.2409613    0.1597857  47.46  0.001397009    1.280    0.219
        31  -9.6690     89.0057     12.9519   5.3890354867e+01   5.9242552935e+01    0.3901916    0.2716361  47.52  0.001210198    1.269    0.212
        32  -9.4964     90.6871      9.0475   5.1862548991e+01   5.9258122940e+01     0.351229    0.1682131  33.34  0.001639908    2.127    0.530
        33  -9.4668     51.6172     12.4168   6.6135025390e+01   6.6254618958e+01    0.6206543    0.2622582 -42.43  0.002655693    3.562    0.719
        34 -10.9583     55.9432     11.6076   6.4060921078e+01   6.5632794244e+01    0.4061409    0.2903979 -38.27 0.0006067273    1.785    0.440
        35  -9.8169     32.4723     12.8191   7.4737804302e+01   6.8996646733e+01    0.2278558    0.1815863 -26.98 0.0009828876    1.390    0.280
        36 -10.4484    146.4216     11.9267   4.1634814955e+01   4.6363577732e+01    0.5608649    0.3283844  65.14  0.002090281    1.507    0.336
        37 -10.0931    133.0868     12.6841   4.4069753196e+01   4.9432907444e+01    0.2003024    0.1886148 -16.85  0.000313232    1.188    0.159
        38  -9.8640     78.9319     11.7436   5.6285303273e+01   6.1399823799e+01    0.2128881    0.1732161   7.13 0.0002815852    1.153    0.132
        39  -8.9069    219.1423     11.8566   3.3266301763e+01   2.9689627828e+01     0.197336     0.138614 -65.39  0.001082743    1.265    0.210
        40  -8.5461     69.3726     11.9299   5.9401799256e+01   6.3215224318e+01    0.1715727    0.1397587   6.05 0.0004541337    1.111    0.100
        41 -10.8563    192.2692      7.7925   3.4802045162e+01   3.6040901841e+01    0.4858377    0.3524414 -58.65  0.001560595    1.322    0.243
        42 -10.5448    195.8449      3.8552   3.3511928069e+01   3.5610669492e+01    0.4869886    0.2656776  69.13   0.00268053    1.634    0.388
        43 -10.5015     43.2150      9.8173   6.8385138589e+01   6.7865121428e+01    0.3408793    0.1901469  27.31  0.001360849    1.618    0.382
        44 -10.3641     39.0337      4.0414   6.7334349087e+01   6.9140032995e+01    0.2902065    0.2343486  11.64  0.001497042    1.126    0.112
        45 -10.2435     10.1481     14.6008   8.7144609415e+01   7.1148736977e+01    0.2813168     0.166167   8.47  0.001578284    1.605    0.377
        46  99.0000      6.5655      8.7682   8.6464874003e+01   7.2335295757e+01     0.255999    0.1648493  37.27  0.001606047    2.333    0.571
        47  -9.9391    224.3804      8.6422   3.2143677151e+01   2.8915773228e+01    0.3690285    0.1728509 -36.12 0.0005002341    2.008    0.502
        48  -9.8820    213.1841      9.2298   3.3195934731e+01   3.1247811675e+01    0.3913737    0.2237368  41.55  0.002013147    2.556    0.609
        49 -10.6824    218.1378      2.8863   3.1400341046e+01   3.0820655550e+01    0.3092993     0.302026 -19.99  0.001030749    1.351    0.260
        50  -9.8329    201.7450      8.8081   3.4127998899e+01   3.3807912694e+01    0.3084926     0.225888  58.61  0.001025198    1.422    0.297
        51  -9.0890    165.4487      8.8305   3.8082135745e+01   4.2156564546e+01    0.2236428     0.114238 -33.61   0.00111886    2.047    0.512
        52 -10.3115     13.6800     11.1092   8.3575663792e+01   7.1352918367e+01    0.2658288    0.1860078  -3.92 0.0009418077    1.157    0.136
        53  -8.3220    159.7691      8.6619   3.8768835368e+01   4.3509731332e+01    0.1203379   0.09053817  33.09 0.0002166273    1.538    0.350
        54  -9.0079    111.5158      4.4889   4.5324784439e+01   5.5102006613e+01    0.2186089    0.1813925  -9.60 0.0008227899    1.338    0.253
        55 -10.1070    106.8072      5.8847   4.6814731303e+01   5.6041432274e+01     0.418662    0.2883481 -23.14  0.001494491    1.616    0.381
        56  -9.1248    108.9587      1.0000   4.4572368294e+01   5.5947918659e+01      0.31455    0.1373854  71.81 0.0008849634    2.652    0.623
        57 -10.5882    115.7802      1.9443   4.3587481125e+01   5.4337982014e+01    0.2435666    0.1670915  62.40 0.0003268574    1.283    0.221
        58  -9.1826    119.5100      1.5460   4.2762137211e+01   5.3518459756e+01    0.2004326    0.1705979  64.72 0.0005861241    1.098    0.089
        59  -8.9170     80.5625      1.6672   5.1514110024e+01   6.1976952906e+01    0.3838122    0.1497047  55.81  0.001618812    2.261    0.558
        60  -8.9951     74.1534      8.0740   5.6163089048e+01   6.2687967939e+01    0.2002863    0.1394641  25.25 0.0006272719    1.268    0.211
        61 -10.6015     74.0372      2.7251   5.3844589701e+01   6.3189253307e+01    0.2929417    0.2468848  -3.60  0.001042631    1.225    0.184
        62 -10.2731     69.3091      2.1283   5.5024670210e+01   6.4153794917e+01    0.3219071    0.1694339  35.67  0.001256076    1.633    0.388
        63 -10.1580    232.1368      4.8150   3.0761666195e+01   2.7700926545e+01    0.3615829    0.1554496 -31.38  0.001869544    2.373    0.579
        64  -9.9893    236.4737      6.9871   3.0893386313e+01   2.6592763640e+01    0.2233761    0.1514154 -40.98 0.0008954463    1.406    0.289
        65 -10.7468    237.1924      2.9604   3.0034739383e+01   2.6863760683e+01    0.3484031    0.1853034  87.81  0.002026173    1.781    0.439
        66  -8.5546     69.7807      7.2257   5.7171536079e+01   6.3604575105e+01    0.1698542    0.1175996  23.62 0.0003784935    1.271    0.213
        67 -10.8931    248.6630      3.9559   2.9477968975e+01   2.4494127120e+01    0.3061562    0.2698693  -4.25  0.001261867    1.705    0.413
        68  -8.7231    206.3997      1.7205   3.2088076804e+01   3.3470372245e+01    0.1624174    0.1007605 -50.93 0.0009611565    1.500    0.333
        69  -9.7129     62.0855      5.3126   5.8876946102e+01   6.5208080767e+01    0.2597507    0.1987733  -0.83   0.00096045    1.215    0.177
        70 -10.6251    182.8592     17.4916   3.8260979515e+01   3.7223855127e+01    0.6091607    0.3533929  29.43  0.001617235    2.758    0.637
        71  -9.8507    153.2440      4.3183   3.8393169545e+01   4.5430076012e+01     0.227489    0.2066589 -82.96  0.001063835    1.112    0.101
        72 -11.1504    160.5276      2.6771   3.6989998785e+01   4.3858058830e+01    0.5374583    0.2378688  64.81  0.001626434    1.892    0.471
        73 -10.3622     30.8860      3.1878   7.0656201061e+01   7.0390588401e+01    0.2508245    0.1937886 -39.17 0.0007840688    1.871    0.465
        74 -11.5504     24.9280      6.9524   7.5549355189e+01   7.0699914010e+01    0.2268117    0.1621511 -26.44            0    1.363    0.266
        75 -10.5491    179.7430      2.0560   3.4650838393e+01   3.9440913711e+01     0.261096    0.1805973  74.85 0.0005317845    1.264    0.209
        76  -8.7727    142.9298      2.8695   3.9401125710e+01   4.7975297105e+01    0.2900296    0.1441206  38.24  0.001358232    2.303    0.566
        77 -10.4719     90.6668      1.9291   4.8993172198e+01   5.9863580179e+01    0.3463041     0.186206  62.69  0.001201216    1.845    0.458
        78  -9.0795      3.2390      2.6083   8.5398532063e+01   7.3504427472e+01    0.2298592    0.1047833 -19.36 0.0007893243    2.203    0.546
        79  -9.8774     50.8270      1.7458   6.1288722340e+01   6.7508803416e+01    0.3407836    0.1348853  42.97  0.001124718    2.168    0.539
        80 -10.4528    209.2230      4.1305   3.2393314540e+01   3.2620835753e+01    0.3361852    0.2750714   2.95  0.001452917    1.750    0.429
        81  -8.9778    170.1357      6.9179   3.6988149403e+01   4.1233264740e+01    0.1875967    0.1515264 -73.93 0.0004072296    1.216    0.178
        82  -8.6985    128.1232      1.3763   4.1219809353e+01   5.1548520190e+01    0.1970068    0.1018491  61.43 0.0009946872    1.611    0.379
        83  -9.0643     54.5257    118.0223   9.9595528543e+01   4.5322172293e+01    0.1942253    0.1877787 -18.86 0.0003425768    1.117    0.105
        84  -9.4104    201.7620    249.4741   8.7136728178e+01  -5.3056654922e+00    0.2237773    0.1627702  -0.48 0.0007722948    1.251    0.201
        85 -10.1977    115.8145    248.7558   1.0407885436e+02   7.1873300915e+00    0.2486927    0.2238671  83.19    0.0010822    1.256    0.204
        86  -9.5700     49.1211    111.7078   1.0004468282e+02   4.7494381953e+01    0.3644266    0.2550762  88.25  0.001776819    1.899    0.473
        87  -8.8765     62.2700    115.0723   9.6496880906e+01   4.5082455025e+01    0.2040413    0.1681329 -58.01 0.0002515319    1.126    0.112
        88 -10.0927     32.5534    112.5365   1.0561739133e+02   4.8960554816e+01    0.4390488    0.2337025  88.75  0.001735808    3.066    0.674
        89  -8.6911    121.9500    112.4612   7.7799947307e+01   3.5678793818e+01    0.2130506    0.1366157  65.62 0.0005446986    2.423    0.587
        90 -10.4839     62.8228    110.7775   9.5360410374e+01   4.6053476159e+01    0.2668139    0.2146449 -47.42 0.0002360384    1.114    0.103
        91  -9.6280      6.8389     89.0511   1.1018551660e+02   5.6421772821e+01     0.218492    0.1954552  58.77 0.0007928003    1.391    0.281
        92 -11.2442      5.8626    108.4534   1.1355717606e+02   5.1887482904e+01    0.5281685     0.374233 -28.27  0.002593019    1.565    0.361
        93  -9.2654      3.4864    102.9637   1.1354039942e+02   5.3326402430e+01    0.2759358     0.148397 -70.12 0.0007597186    1.509    0.338
        94  -9.6585      7.1842     94.6868   1.1102245585e+02   5.5084979781e+01    0.2843429     0.231738  58.62    0.0014055    1.518    0.341
        95  -9.0264      8.6000     98.7847   1.1120702956e+02   5.4037445980e+01    0.2569001    0.1659116 -75.45 0.0007559148    1.423    0.297
        96  -9.4502      4.2752     98.0709   1.1255170916e+02   5.4444036609e+01    0.2761444    0.2466743  43.13  0.001907326    1.387    0.279
        97  -9.9889     52.3617     90.0850   9.3932467672e+01   5.2251536868e+01    0.6721681    0.1686748 -52.98  0.002203983    3.269    0.694
        98  -9.3160     36.3927    108.1498   1.0353440470e+02   4.9676447423e+01    0.2881667    0.1977707 -48.83 0.0009526734    1.258    0.205
        99 -10.9461     37.9909    102.1252   1.0178182496e+02   5.0978182667e+01    0.6450121    0.4786454 -24.66  0.003581347    1.435    0.303
       100 -11.1114     32.2623     93.2219   1.0189333475e+02   5.3626918631e+01    0.6067095    0.3158192 -44.20 0.0008142212    1.669    0.401
       101  -9.4536     27.4997     91.5712   1.0324965785e+02   5.4423864132e+01    0.2243477    0.1824503 -54.28 0.0005163386    1.058    0.055
       102 -10.8526     21.9801     87.6498   1.0443008847e+02   5.5772720624e+01    0.4209122    0.2825166  35.69  0.002383494    1.802    0.445
       103 -10.9594     30.4660     85.5303   1.0082477476e+02   5.5573378296e+01    0.5005786    0.3029655 -47.54    0.0016126    1.359    0.264
       104 -10.5576     47.6811     89.8108   9.5544236929e+01   5.2861036881e+01    0.6926146     0.176866 -49.70  0.001888067    3.060    0.673
       105 -10.6080     43.5918     88.2751   9.6644165974e+01   5.3664610359e+01     0.406444    0.2392839  23.73 0.0005912479    1.895    0.472
       106 -10.5310    117.0951    106.8791   7.7656678190e+01   3.7884533840e+01    0.5214136    0.3597531 -17.84  0.001429581    1.867    0.464
       107  -9.1428    183.8691    107.1763   6.1703790169e+01   2.3465072661e+01    0.2148495    0.1961486 -61.87 0.0003053341    1.158    0.136
       108  -9.6977     93.5388    105.5760   8.4267904602e+01   4.2582464397e+01    0.4155919    0.3703609  36.25  0.002220331    1.188    0.158
       109  -9.7777     71.2050    104.0469   9.1006474037e+01   4.6504324238e+01    0.5915601    0.2292392  40.09  0.002178603    2.832    0.647
       110 -10.1992     63.4062    104.4395   9.3686149797e+01   4.7495984590e+01     0.318377    0.2402663  -0.12  0.000633287    1.559    0.359
       111  -9.0739     72.5132    100.0415   8.9554467277e+01   4.7249385080e+01     0.228391    0.1351538 -52.06  0.001026426    1.575    0.365
       112  -9.4434    108.2779    104.0386   7.9415789301e+01   4.0233763743e+01    0.2245638    0.1821322 -40.91 0.0005062555    1.183    0.155
       113 -11.3943    101.9087    101.5860   8.0634304044e+01   4.1979541229e+01    0.5688539    0.4112721 -43.29   0.00123147    1.321    0.243
       114  -8.5753    134.4505    103.4851   7.2024420219e+01   3.5034431542e+01    0.1543842    0.1491865 -27.01 -3.47336e-05    1.024    0.024
       115  -8.1994     88.6703    103.3536   8.5195661486e+01   4.3926214011e+01    0.2172392    0.1553201 -64.38 0.0005842708    1.643    0.391
       116  -9.0912     85.0281    102.4543   8.6111379145e+01   4.4738927836e+01    0.2928282     0.215337  26.46  0.001016574    1.459    0.315
       117 -10.4734     49.8343    100.9619   9.7461244841e+01   5.0005213406e+01    0.4660588    0.3946742  86.38  0.002636351    1.447    0.309
       118  -9.3739     77.7489     99.4383   8.7667346488e+01   4.6595412861e+01    0.2450184    0.1891011 -29.68 0.0005414523    1.286    0.222
       119  -9.3808    106.1413     91.1552   7.6395602144e+01   4.3435268542e+01    0.2963693     0.246717  50.35  0.001505799    1.326    0.246
       120 -10.3982    108.9893     99.0721   7.7828606807e+01   4.1187804857e+01    0.5056296    0.3154347  55.83  0.001723843    2.044    0.511
       121  -9.3113    108.3207     95.3142   7.6956729402e+01   4.2128143828e+01    0.2626086    0.2364115  54.15 0.0007205345    1.240    0.194
       122  -9.1513     57.5180     99.9628   9.4592978156e+01   4.9319426230e+01    0.2214446    0.1247505 -51.86  0.000898375    1.561    0.360
       123 -10.0574     22.4912     94.7869   1.0569161776e+02   5.4062918517e+01    0.2698958    0.2231342  -8.20 0.0005446195    1.352    0.260
       124 -10.2325     16.8524     98.9980   1.0843562744e+02   5.3468287113e+01    0.4445771    0.2745925 -12.86  0.002379344    2.001    0.500
       125  -9.4010     12.8103     95.5898   1.0922967459e+02   5.4540594908e+01    0.2438281    0.1542529 -63.34   0.00137548    1.287    0.223
       126 -10.4102    136.8954     97.4303   6.9708841980e+01   3.5759883583e+01    0.4756387    0.2538124 -48.34  0.001871759    1.964    0.491
       127  -9.9199    124.0877     98.1424   7.3290852939e+01   3.8341722724e+01    0.4669763    0.3043868  12.39  0.001603963    2.353    0.575
       128 -10.7821    117.6132     97.9795   7.5040245342e+01   3.9708596658e+01    0.2611037     0.248105  17.52 0.0002473978    1.057    0.054
       129  -9.4312    155.9106     95.2685   6.4514909290e+01   3.1973585305e+01    0.2782254    0.1960396 -23.23  0.001246499    1.608    0.378
       130  -8.7581    130.7464     96.1677   7.0944872138e+01   3.7344026751e+01    0.2143269    0.1796883  -1.06 0.0007003027    1.334    0.251
       131  -8.5629     87.3347     96.3137   8.3705310389e+01   4.5746438491e+01    0.1560079    0.1123055 -13.47 0.0005515575    1.686    0.407
       132  -8.9990     63.5326     96.2503   9.1605581951e+01   4.9400833793e+01     0.252305     0.163014  41.08  0.001213255    1.761    0.432
       133  -9.1319     43.0232     96.0361   9.8699416046e+01   5.1918719101e+01    0.1747543    0.1292279 -53.02 0.0004118828    1.173    0.147
       134  -8.7505    166.8113     94.2589   6.1836937275e+01   2.9704996452e+01    0.2020152    0.1739224  12.11 0.0003702484    1.315    0.239
       135  -9.1609      1.9079     92.8820   1.1255068372e+02   5.5782201906e+01    0.2087706    0.1486875 -67.11  0.000762068    1.153    0.133
       136  -9.5685      1.6609     87.8648   1.1182616870e+02   5.6960646469e+01    0.3017622    0.1056481 -58.27  0.001112538    1.983    0.496
       137 -10.7918     86.4202     87.9392   8.1608015613e+01   4.7740163950e+01    0.4228904    0.3501532 -40.35 0.0005756479    1.146    0.128
       138 -10.0730    123.7763     87.3745   7.0253627506e+01   4.0607590201e+01    0.3291049    0.2822104 -43.99  0.001274643    1.181    0.153
       139 -10.8653    128.7390     85.5611   6.8389977606e+01   3.9896553293e+01     0.506565      0.37402  17.82  0.001047469    1.638    0.390
       140  -9.8054    132.7324     82.3338   6.6394480654e+01   3.9640061257e+01     0.245283     0.210757  22.11 0.0006807236    1.216    0.177
       141  -9.5280     97.8184     88.4400   7.8126392180e+01   4.5592623764e+01     0.509258    0.2366367 -50.54  0.001922578    2.304    0.566
       142  -8.8757     93.9658     87.7658   7.9133014701e+01   4.6443767445e+01    0.1959197     0.183332  10.85  0.001077382    1.072    0.067
       143  -9.1361     58.2583     87.5681   9.1160148272e+01   5.2084798642e+01    0.2834895    0.1775105 -67.95  0.001279413    2.068    0.516
       144 -10.0989     16.5925     87.0752   1.0628781288e+02   5.6288832235e+01    0.3647668    0.2104937 -57.61 0.0008440792    1.378    0.274
       145 -10.8269     65.4460     85.5758   8.8055790290e+01   5.1551020776e+01    0.3368722    0.2878379  23.87  0.001905247    1.245    0.197
       146 -10.8263     80.7801     83.6119   8.2193055672e+01   4.9616852549e+01    0.3768461    0.3037244  19.92 0.0007615468    1.283    0.221
       147 -10.6173     73.8569     80.9596   8.3761667763e+01   5.1295613069e+01    0.7007626    0.4033724 -45.45  0.002236648    1.619    0.382
       148 -10.5788    155.3441     83.9659   6.1481186763e+01   3.4227043671e+01    0.4331013    0.2371861 -39.12  0.001291363    1.793    0.442
       149 -10.3270    117.5547     83.8019   7.0897581384e+01   4.2627319811e+01    0.3695713    0.2298629 -40.73  0.001474561    1.584    0.369
       150 -12.8897     52.9990     74.6648   8.9444471338e+01   5.5589891378e+01    0.8427941    0.3925742 -50.78 0.0008115107    1.965    0.491
       151 -10.1265     46.4939     81.5226   9.3827975220e+01   5.4872758104e+01    0.4897166    0.2529854  45.27  0.002133404    2.647    0.622
       152  -9.6859     39.8521     80.3773   9.6025483353e+01   5.5847765629e+01    0.6335078    0.2647398  35.93  0.002708947    2.742    0.635
       153  -9.6558     19.6840     72.1594   1.0181181072e+02   5.9451041422e+01    0.5142222    0.2256672  -2.37  0.002108523    3.482    0.713
       154 -10.3085     20.6063     79.8988   1.0326101435e+02   5.7652483258e+01    0.3922963    0.1962293 -59.70  0.001173898    1.675    0.403
       155  -8.8785     19.3550     75.3232   1.0269642204e+02   5.8772896962e+01    0.2891795    0.1345092 -44.88  0.001332819    1.729    0.422
       156 -10.0434      2.2989     80.3419   1.1028480572e+02   5.8656439645e+01    0.3347155    0.1956694 -64.86  0.001295596    1.391    0.281
       157  -8.9918     90.5200     79.6333   7.7765091549e+01   4.8757567870e+01    0.2942496    0.2160124  77.45  0.001280964    2.406    0.584
       158  -8.1495     63.0000     79.9337   8.7302089216e+01   5.3126963425e+01     0.226289   0.07410154 -50.18 0.0007645009    2.814    0.645
       159  -9.5571    129.8322     77.6669   6.5730930022e+01   4.1153270470e+01    0.2628236    0.2051332 -19.55 0.0007563509    1.382    0.276
       160  -8.5187    106.3048     78.3142   7.2453652690e+01   4.6007999614e+01    0.1529077    0.1141341  -0.32  0.000378934    1.620    0.383
       161  -8.8819     82.0847     75.6392   7.9299964792e+01   5.1051106499e+01    0.4393178    0.2649675   9.46  0.001777906    2.502    0.600
       162 -10.1171     88.2291     73.0212   7.6417456337e+01   5.0491824362e+01    0.4654215    0.2895962 -17.46  0.001312554    2.082    0.520
       163  -9.8909     93.1960     74.2203   7.5195666680e+01   4.9345306370e+01     0.480374    0.2209176 -50.43  0.001445391    2.549    0.608
       164 -10.1173     94.3196     70.6582   7.3684374549e+01   4.9819560004e+01    0.4222334    0.3105817 -49.56  0.002108057    1.502    0.334
       165  -9.4336    110.8347     76.8720   7.0673431178e+01   4.5366618796e+01    0.2628186    0.2406139   1.91 0.0008679342    1.059    0.056
       166  -9.2646     28.2876     76.1329   9.9392236734e+01   5.7887063259e+01    0.3071451    0.1517904 -48.45  0.001093973    1.623    0.384
       167  -9.0933    184.8739     75.8701   5.3384347132e+01   2.8826280221e+01    0.1957185    0.1636678 -66.23 0.0003703609    1.264    0.209
       168  -9.7619     64.1223     75.1352   8.5455240619e+01   5.3986948808e+01     0.324056    0.2739718  63.70  0.001245504    1.645    0.392
       169  -9.2186     64.6787     70.1658   8.3698034465e+01   5.4930213554e+01    0.3778087    0.1615487 -54.08  0.001425098    2.799    0.643
       170  -9.6490    180.7492     73.8923   5.3594150927e+01   3.0101511868e+01    0.3975795    0.2592218   3.93  0.001192234    2.760    0.638
       171  -9.2727    175.0148     75.0119   5.4952726850e+01   3.1242865835e+01    0.2158994    0.2069635 -75.58 0.0003114998    1.046    0.044
       172 -10.2170    137.3143     73.1888   6.2499264126e+01   4.0283948929e+01    0.4355555    0.2901983 -25.09 0.0009350713    1.660    0.397
       173 -10.3775    145.3848     71.3387   6.0045825715e+01   3.8757087378e+01    0.6505826    0.3962418  22.81  0.002551259    2.508    0.601
       174 -11.0164    144.0744     66.3078   5.8829790501e+01   3.9907434888e+01    0.4252047    0.3251888  34.30  0.001399637    1.379    0.275
       175  -9.4425     69.0062     74.5088   8.3496974718e+01   5.3394642499e+01    0.2482033    0.1899093 -38.57 0.0004258207    1.201    0.168
       176 -10.7530     45.3909     68.6391   9.0580756934e+01   5.7785072511e+01    0.5295597    0.2829917 -33.54   0.00092006    1.815    0.449
       177 -10.3279    170.3640     73.3142   5.5372851762e+01   3.2607318845e+01    0.2710418      0.24655 -61.24 0.0006646243    1.119    0.107
       178 -10.8499    149.9619     80.6241   6.1733856188e+01   3.6068088918e+01    0.5594981    0.2346256  55.19  0.001767525    2.604    0.616
       179  -8.8181    152.1899     73.1657   5.9066764047e+01   3.6867915553e+01    0.2058334    0.1745967 -69.14 0.0005006809    1.349    0.259
       180 -12.1862     79.4818     70.0322   7.8384085147e+01   5.2609770192e+01    0.3546707    0.2789724   7.74  0.001888245    1.320    0.242
       181 -10.2764     83.3508     64.1077   7.5089912715e+01   5.3065948187e+01    0.5034051    0.3602236 -65.21  0.001600929    2.181    0.541
       182  -9.6285    200.0220     70.7949   4.9563440644e+01   2.6208158300e+01    0.2992581    0.2307398 -13.40 0.0008084486    1.598    0.374
       183  -9.3256    186.0889     70.7255   5.1815368818e+01   2.9385111224e+01    0.3904412    0.1547073 -50.22  0.001344788    3.052    0.672
       184  -8.7374    111.6149     70.6474   6.8470505584e+01   4.6367203874e+01    0.2741255    0.1390816 -33.07 0.0006249032    2.065    0.516
       185 -10.3299    102.1616     70.1337   7.1082833005e+01   4.8392519115e+01     0.313904    0.2638635  28.45 0.0006776544    1.169    0.144
       186 -10.0186     10.4725     69.2478   1.0483042237e+02   6.0703166483e+01    0.2567764    0.1559614 -30.77  0.001471438    1.526    0.345
       187 -11.2048     39.5780     57.7660   8.9530146102e+01   6.0661026611e+01    0.2877562    0.2243896 -39.21 0.0007830636    1.152    0.132
       188 -10.6020     25.0032     46.5039   9.2137478958e+01   6.4324843524e+01    0.6490307    0.3665686 -11.83  0.002668475    1.983    0.496
       189 -11.2231     31.7075     53.0409   9.1334706490e+01   6.2421268276e+01     1.476809    0.1852346  31.90  0.004256734    6.724    0.851
       190 -11.8448     31.8642     64.2189   9.4726836499e+01   6.0138930038e+01    0.6597741    0.3501452 -39.74  0.003359396    1.598    0.374
       191 -11.5670     23.9522     58.3272   9.6333829785e+01   6.2069862578e+01    0.9166462    0.5078429 -48.17  0.003619471    1.476    0.323
       192 -10.0458     17.2819     46.2093   9.5583064820e+01   6.5032786027e+01    0.3054569    0.2324702 -25.88   0.00131291    1.071    0.067
       193 -11.7070      2.3111     66.3989   1.0751386176e+02   6.1765442199e+01      0.35519     0.179374 -55.07  0.001139677    1.473    0.321
       194 -10.6953     15.3466     60.0015   1.0050234930e+02   6.2379439417e+01    0.3158193    0.1834413 -53.20 0.0001790301    1.416    0.294
       195 -10.4611     14.1510     55.3426   9.9743519393e+01   6.3431404827e+01    0.6126075      0.19603 -47.44  0.001179462    2.251    0.556
       196 -10.4964     38.4013     46.8081   8.6279485659e+01   6.2888215355e+01    0.6583269    0.3501197   3.02   0.00298485    2.580    0.612
       197 -10.0826      8.8678     61.6590   1.0369151344e+02   6.2440933285e+01    0.3994941    0.3042364  -5.54  0.002317407    1.395    0.283
       198 -10.6631      3.6936     59.9338   1.0547355268e+02   6.3091140843e+01    0.4635618    0.2366295 -24.77  0.002259468    1.973    0.493
       199 -10.4570     42.1669     52.0302   8.6515381348e+01   6.1475469136e+01    0.4307302    0.2962269 -47.94  0.001535654    1.469    0.319
       200 -10.5435     46.7027     47.7526   8.3084501266e+01   6.1704941251e+01    0.4137021    0.3730822  28.48 0.0004214899    1.366    0.268
       201  -9.3449    173.4964     69.1520   5.3631382883e+01   3.2559429310e+01    0.2580034    0.2005432  55.19 0.0005864057    1.292    0.226
       202 -10.4637    118.9292     68.1666   6.5639530806e+01   4.5254614321e+01    0.3621375    0.2996835  15.45 0.0006512249    1.277    0.217
       203  -9.3923    123.5296     66.0000   6.3723113880e+01   4.4624355535e+01    0.4371602    0.1830748  48.26  0.001598196    2.330    0.571
       204 -10.5930    135.2220     65.5543   6.0657649677e+01   4.2070649419e+01    0.4246199    0.3803248  45.88  0.001883018    1.097    0.089
       205 -11.5112      8.9633     50.9766   1.0083397393e+02   6.4661512148e+01    0.6453178    0.3399166 -41.85 0.0003124269    1.460    0.315
       206  -9.5209    105.2610     65.5302   6.8642208587e+01   4.8602489768e+01    0.5491699    0.3112718  62.23  0.002119964    2.772    0.639
       207 -11.7983     97.2802     63.9226   7.0517565651e+01   5.0489111419e+01    0.2946096    0.2571886   0.24 0.0002243647    1.101    0.092
       208  -9.4928     75.1858     65.9694   7.8536166004e+01   5.4117126753e+01    0.2284745    0.1894068   0.15 0.0003802773    1.170    0.145
       209  -9.8530     66.4777     62.9639   8.0669166116e+01   5.6082237305e+01    0.3467183     0.328567  88.58  0.001023886    1.449    0.310
       210 -10.0770     70.7543     60.0407   7.8102219612e+01   5.5960671655e+01     0.317582    0.2501453  29.30 0.0008517964    1.286    0.222
       211  -9.3601    202.7115     63.0768   4.7225366811e+01   2.6792124660e+01    0.2401603    0.1973134  55.26 0.0006976054    1.289    0.224
       212  -9.8846    194.2140     60.8214   4.7922022755e+01   2.9053924311e+01     0.339384    0.2318795 -42.10 0.0004710015    1.395    0.283
       213  -9.0557    160.3192     60.6827   5.3745909465e+01   3.6997572074e+01    0.2812017    0.2197573 -57.09    0.0010932    1.390    0.281
       214  -9.6758    162.7523     57.9816   5.2498425721e+01   3.6835034571e+01     0.338549    0.2062993 -19.46  0.001140473    2.065    0.516
       215  -8.5470     77.3695     62.2701   7.6516371516e+01   5.4448984337e+01    0.1883143    0.1275128 -45.58 0.0005882503    1.545    0.353
       216  -9.7284    151.2831     60.3761   5.5479773411e+01   3.9176048078e+01    0.2908126    0.2468449  48.12   0.00105711    1.154    0.133
       217  -9.9215    141.4837     60.2414   5.7558894735e+01   4.1490475543e+01    0.3422575    0.2271545  34.58 0.0004729765    1.663    0.399
       218  -8.7151    130.2087     61.4368   6.0577652443e+01   4.3890570774e+01    0.1972961    0.1747114 -65.28 0.0004863329    1.310    0.237
       219  -9.8079    129.4867     57.3376   5.9442217157e+01   4.4710407554e+01    0.4525684    0.2462046  63.52  0.001834641    2.279    0.561
       220  -9.8784     53.2240     60.5419   8.4913912516e+01   5.8449686765e+01    0.3229519    0.2828898 -81.87  0.000968137    1.706    0.414
       221  -9.6517     53.8805     53.7752   8.2324625338e+01   5.9648464005e+01    0.4024254    0.2284391  15.44  0.001900513    2.086    0.521
       222  -8.7258    241.0537     59.7028   4.1577979898e+01   1.9144911581e+01    0.1675702    0.1485179 -66.95 0.0003396642    1.071    0.066
       223  -9.6411    171.1367     58.6440   5.1146685425e+01   3.4753372519e+01    0.2830731    0.2160189 -51.31  0.001020875    1.343    0.255
       224  -9.8936    167.2108     56.4761   5.1242766554e+01   3.6005181606e+01    0.2364953    0.2289336  77.33 0.0002605335    1.009    0.009
       225  -9.4958    105.1810     58.0975   6.6164005475e+01   4.9897854270e+01     0.285469    0.1894757 -38.50 0.0007920236    1.539    0.350
       226 -10.2764     16.0622     17.8985   8.5422393948e+01   7.0107066032e+01    0.4243913    0.1843383  18.28  0.001233393    2.420    0.587
       227  -8.4094    192.3268    248.3053   8.8761201847e+01  -3.8347191928e+00    0.1264345   0.08147439   3.99 0.0007035189    1.649    0.393
       228  -9.3635    163.7690    246.2305   9.4071831204e+01   5.8978446005e-01    0.1783232    0.1316038   8.87  0.001073653    1.378    0.274
       229  -9.7482     85.8462     57.4645   7.1956796296e+01   5.3807119740e+01    0.2412119    0.2062966 -16.48 9.163615e-05    1.096    0.087
       230 -11.2741     82.2299     53.6546   7.1811428111e+01   5.5124275497e+01      1.18339    0.6799775  29.60  0.005494253    1.831    0.454
       231 -10.7248     73.6248     28.1897   6.4920899767e+01   6.0526265382e+01    0.4892068    0.3613806  13.02   0.00271235    1.280    0.219
       232 -11.0906     55.1677     33.6417   7.4083545833e+01   6.2861324334e+01    0.5710075    0.3330038  45.71   0.00115684    2.100    0.524
       233 -11.3396     50.9570     28.3025   7.3560344746e+01   6.4287235459e+01    0.5651315    0.3619995  61.04  0.002448971    3.861    0.741
       234 -10.7092     41.0547     21.6952   7.4917857226e+01   6.6646806417e+01      0.26735    0.2590926  -6.11 0.0004729783    1.542    0.351
       235 -11.4927     35.1461     29.2617   8.0906551788e+01   6.6277075295e+01    0.7296972    0.4199101  17.80  0.001732774    1.746    0.427
       236 -11.1681     24.8778     30.7916   8.6402914325e+01   6.7164618931e+01    0.3747406    0.3185875 -58.51  0.001938072    1.752    0.429
       237  -8.9670     27.0035    245.7362   1.2098231960e+02   1.8962704691e+01    0.1349448   0.08186891  41.31 0.0005615304    1.492    0.330
       238 -11.4354     68.2035     45.5099   7.3755483026e+01   5.8918729276e+01    0.8187598    0.4590522 -54.39  0.003427909    2.923    0.658
       239 -12.9771     61.8825     44.2644   7.5664683609e+01   6.0141226002e+01    0.4139627    0.3522243 -29.53 0.0005336921    1.220    0.180
       240  -8.4829    177.9796     57.0269   4.9516773540e+01   3.3383624965e+01    0.1658128     0.154079  75.46 0.0003725163    1.056    0.053
       241  -9.7584    136.4513     55.8084   5.7315072420e+01   4.3348502304e+01    0.3742361      0.25542 -21.91  0.001635555    1.633    0.388
       242  -9.6854     64.9566     56.4146   7.8972218805e+01   5.7544804465e+01    0.2796982    0.2388499  16.10 0.0004823192    1.151    0.131
       243  -9.6276     61.5771     52.0353   7.8685951903e+01   5.8852418242e+01    0.4103957    0.2757435  47.79   0.00135493    1.930    0.482
       244  -8.5784     59.6205     56.7515   8.1121682092e+01   5.8282744266e+01    0.1826762    0.1217402 -48.02 0.0009400369    1.595    0.373
       245 -11.1509    129.4811     41.4451   5.4259855085e+01   4.7026157437e+01     1.219877    0.6653261  78.05  0.004467031    3.346    0.701
       246  -9.3156    120.8954     38.8158   5.5363414781e+01   4.9341364423e+01    0.2461458    0.2286936 -54.75 0.0007978344    1.230    0.187
       247 -10.0733    144.2182     29.9154   4.7550875152e+01   4.5006652626e+01    0.7903892    0.5671414  31.35   0.00420253    1.554    0.357
       248  -9.3602    134.0089     27.5266   4.8732764922e+01   4.7689997313e+01    0.3781914    0.2266087 -18.44  0.001843074    1.950    0.487
       249 -10.8417    118.1261     52.8391   6.0815042322e+01   4.7960541425e+01    0.4346627    0.2821345 -36.20  0.002103298    1.585    0.369
       250 -11.6140    124.4081     46.9559   5.7270193136e+01   4.7425342221e+01     0.690211    0.5757821 -16.39  0.002345835    1.256    0.204
       251 -10.3180    136.7936     37.2264   5.1311365400e+01   4.5871779818e+01    0.4912674    0.4208103  64.41  0.001240357    1.148    0.129
       252 -10.7692    131.5992     35.1985   5.1739057972e+01   4.7341705116e+01    0.4394028     0.342146 -41.78 0.0008859157    1.400    0.286
       253  -9.9770     93.7759     54.3639   6.8306397197e+01   5.2821827810e+01    0.4027656    0.2784981   1.28  0.001180409    1.764    0.433
       254  -9.2330    191.4953     54.0645   4.6589990426e+01   3.0666849932e+01    0.2609937    0.2165604   0.63  0.001031853    1.537    0.349
       255  -9.1700    145.7599     53.6549   5.4602699255e+01   4.1499141368e+01    0.4400667    0.3033922  17.00  0.002025129    1.965    0.491
       256  -9.5538    150.5676     54.2457   5.3787698285e+01   4.0277826488e+01    0.2671806    0.2380703 -89.91 0.0006835831    1.218    0.179
       257 -10.8145    174.4136     50.8248   4.8411104037e+01   3.5119825831e+01    0.4549733    0.3291368  28.66  0.001486142    1.755    0.430
       258  -9.6832    164.3292     51.6951   5.0400536582e+01   3.7385870833e+01    0.2594017    0.2301078  41.59 0.0005801462    1.166    0.142
       259 -10.6886    154.0412     48.9932   5.1524662324e+01   4.0214590469e+01    0.4377017    0.3500035  83.11  0.001062975    1.389    0.280
       260  -8.6085    137.1455     49.6360   5.5204315574e+01   4.4105937743e+01    0.2202414    0.1805388  79.13  0.001165673    1.400    0.286
       261  -9.4026    181.2438     48.1654   4.6591737768e+01   3.3882118621e+01    0.3358905    0.1815152 -59.65  0.001415206    2.363    0.577
       262 -10.6067    114.4144     46.1329   5.9496599917e+01   4.9780497289e+01    0.3573351    0.2649486 -15.56 0.0005685863    1.457    0.314
       263  -8.4366    112.9793     41.3183   5.8193731778e+01   5.0775601209e+01    0.2030346    0.1798239 -14.12 0.0001403845    1.153    0.133
       264  -8.9119     98.5479     54.9378   6.7039733408e+01   5.1777669632e+01     0.201361    0.1358438 -33.33 0.0003869795    1.483    0.326
       265  -8.9688     53.7926     48.9925   8.0632922634e+01   6.0529094928e+01    0.2630315     0.229377 -87.62  0.001522433    1.929    0.481
       266 -10.0923     32.2117     47.8999   8.9380849868e+01   6.3359463227e+01    0.2190618    0.1882984  25.30  0.001175232    1.401    0.286
       267  -9.2077    106.8878     52.9558   6.3905667309e+01   5.0374094760e+01    0.2098707     0.192376  15.71 0.0003460513    1.005    0.005
       268  -8.4154     76.5353     44.4918   7.0376597639e+01   5.7648984329e+01    0.1803235    0.1287978  46.96 0.0004823942    1.563    0.360
       269  -8.4390      1.3528    244.1695   1.2539762402e+02   2.1763146465e+01     0.143916    0.0756133  82.80 0.0003797731    1.599    0.375
       270 -10.2286     82.2973     44.8728   6.8554572188e+01   5.6539103132e+01    0.3374203    0.2808411 -61.14  0.001874911    1.712    0.416
       271  -8.9050    234.8163     46.9506   3.9469321200e+01   2.2165522726e+01    0.1683348    0.1592163 -48.64 0.0002750968    1.194    0.162
       272  -9.8832    245.2446     44.0811   3.7815740293e+01   2.0445652919e+01    0.3211015    0.2578756 -49.56   0.00212447    1.099    0.090
       273  -9.5927     93.9042     44.9326   6.4864878356e+01   5.4283966231e+01    0.1934446    0.1893314  34.99 0.0004940669    1.208    0.172
       274  -9.9030     91.0290     40.8640   6.4237767774e+01   5.5457096621e+01    0.3854635    0.3055867  73.09  0.002051149    1.835    0.455
       275  -8.9205    185.5383     44.1257   4.4871557899e+01   3.3424326866e+01      0.28109    0.1537297  49.17  0.001149556    1.930    0.482
       276  -8.3798    176.2956     44.3353   4.6323722996e+01   3.5567542471e+01    0.1368279    0.1046605  26.35 0.0007028881    1.646    0.393
       277  -8.7765    149.7354     44.0557   5.0866120683e+01   4.1918781418e+01    0.1834524    0.1802495  25.65 0.0003464347    1.054    0.051
       278 -11.1337    103.0283     42.9646   6.1466418327e+01   5.2693269508e+01    0.5298194    0.2754399  51.85 0.0003098333    1.914    0.477
       279 -11.9735    103.6773     38.7082   5.9743344910e+01   5.3149748678e+01    0.4169906    0.2630309  53.82 0.0002986962    1.597    0.374
       280  -8.4404    200.1561     42.7978   4.2525990369e+01   3.0231313972e+01    0.1735444    0.1533751  36.96 0.0004865732    1.349    0.259
       281 -10.2902     35.9224     41.1451   8.5286523991e+01   6.4192685035e+01    0.4046712    0.2310741  10.31   0.00143014    1.947    0.486
       282 -12.0982     41.7380     38.0033   8.1502712215e+01   6.4036199819e+01    0.3329321    0.2078781 -11.17 0.0004517988    1.679    0.405
       283  -9.8452    202.7234    242.1698   8.5805356004e+01  -4.4040146998e+00    0.1971221    0.1401132  28.66 0.0004288792    1.266    0.210
       284  -9.8192      4.4744     39.4775   9.9536016313e+01   6.7204781004e+01     0.246434    0.1727345   2.42 0.0006632409    1.477    0.323
       285 -10.2042      4.5360     34.7150   9.7970733537e+01   6.8104359504e+01     0.471109    0.2070325 -50.59  0.001813544    1.802    0.445
       286 -10.5028    228.7825     38.6522   3.8266739353e+01   2.4504265490e+01    0.4087644    0.2244731 -48.43  0.001113167    1.614    0.380
       287  -9.1041    222.8197     40.2626   3.9251073257e+01   2.5559701151e+01    0.2313108    0.1528383 -23.69   0.00125273    1.805    0.446
       288  -8.4817     48.3824     41.2575   7.9931025625e+01   6.2617151094e+01    0.1347103   0.08728965  -2.12 0.0006970043    1.671    0.402
       289  -8.8121     24.1450     39.6398   9.0130411908e+01   6.5684154456e+01     0.379427    0.1034459 -40.93  0.001494536    3.016    0.668
       290  -7.9965    165.7099     39.3492   4.6629595170e+01   3.8732896244e+01    0.1426717   0.09958147 -65.44 0.0005773556    1.666    0.400
       291  -9.3345    158.0951     38.8254   4.7766447914e+01   4.0615031492e+01    0.2516099    0.2131614 -58.26 0.0006484773    1.246    0.198
       292  -9.2668    238.7862     37.4814   3.7033928460e+01   2.2590462168e+01     0.207271    0.1904155  14.83 0.0009968393    1.504    0.335
       293  -9.3801    186.3308     36.9096   4.2865662106e+01   3.4174072137e+01    0.3437442    0.2109995 -75.61  0.001630828    2.022    0.505
       294 -10.0599    187.1579     31.6923   4.1398281879e+01   3.4623260575e+01    0.4592392    0.2994496  24.26  0.001793894    2.392    0.582
       295 -10.2830    177.5839     36.7514   4.4063552291e+01   3.6245829489e+01    0.3894639    0.2685977 -74.87  0.001623416    1.665    0.399
       296  -8.4668    193.5632     36.9080   4.1901100963e+01   3.2498463608e+01    0.2642384    0.1357738  35.26  0.001031728    3.347    0.701
       297  -8.9526    214.8055     36.5973   3.9282530801e+01   2.7761892808e+01    0.1832455    0.1135535  85.93 0.0009567945    1.726    0.420
       298  -8.6682    163.4676     36.0000   4.6038577828e+01   3.9689748038e+01    0.3066601   0.07325932  62.39 0.0009362198    3.947    0.747
       299 -11.0124    115.9341     32.9142   5.4505874186e+01   5.1213775358e+01    0.5163822    0.3072361  50.73 0.0007512257    1.526    0.345
       300  -8.9886    246.6770    239.3110   7.7301771141e+01  -9.7632481520e+00   0.09701992   0.09057447   8.20 0.0007038298    1.653    0.395
       301  -9.2973     96.3763     35.1079   6.0473071599e+01   5.5167591146e+01    0.3468516     0.166683  43.53 0.0009947508    1.911    0.477
       302  -8.6074     66.7742     34.8119   7.0079784552e+01   6.0818175128e+01    0.1614241    0.1490229 -26.50 0.0005726545    1.310    0.236
       303  -8.5728    223.1815     34.4139   3.7893591079e+01   2.6224848267e+01    0.1799021    0.1096708  88.62  0.000954837    1.756    0.431
       304  -9.4218    211.1466     29.8414   3.8104631932e+01   2.9398874521e+01    0.3791635    0.1563652 -23.38  0.001508796    3.377    0.704
       305  -9.3108    154.0886     32.2400   4.6507732139e+01   4.2384306329e+01    0.2360875    0.2034689  29.32 0.0006758563    1.263    0.208
       306  -8.6513     43.7213     32.0154   7.8210419920e+01   6.4750858557e+01    0.1789257    0.1350438 -23.01  0.000487229    1.164    0.141
       307  -9.7750    248.3771     30.2278   3.4681190491e+01   2.1581377374e+01    0.2777667    0.2051713 -14.75  0.001704384    1.932    0.482
       308  -9.3083    233.6661     30.9304   3.6112226702e+01   2.4453581107e+01    0.3121973    0.1623205  49.08  0.001561539    2.511    0.602
       309  -8.4150    158.4913     31.5170   4.5554122379e+01   4.1420417390e+01    0.1344982    0.1244749  79.76 0.0008101231    1.036    0.035
       310 -11.7837    105.6390     21.2018   5.2777471939e+01   5.4849513716e+01    0.4104718    0.2862384  75.03 0.0004293239    1.832    0.454
       311 -10.0677    221.7924     27.9491   3.6584483158e+01   2.7310197096e+01    0.3020714    0.2558244 -38.05  0.001992542    1.260    0.206
       312  -9.1039    124.6600     29.6846   5.1390666147e+01   4.9615814219e+01     0.232355    0.1248906  52.98 0.0008178419    1.660    0.398
       313  -9.1957    121.1401     29.1514   5.1986285306e+01   5.0485748583e+01    0.2529386    0.1914556  80.78  0.001347722    1.618    0.382
       314  -9.2067    221.8756    237.1171   8.1376084664e+01  -6.3074464127e+00    0.1994932    0.1219238   1.18 0.0007595174    1.677    0.404
       315 -10.6545    180.1032     25.8933   4.0803908185e+01   3.6949410583e+01    0.4774686    0.2650218 -68.27   0.00129759    2.302    0.566
       316 -10.4891    172.7149     22.9546   4.1001723395e+01   3.9015845878e+01    0.5632592    0.3045878  58.76  0.002130479    1.688    0.408
       317  -9.7415    207.8548     26.5356   3.7680171898e+01   3.0520381006e+01    0.2149684    0.1795033 -60.52 0.0003432802    1.095    0.087
       318  -9.9943    207.0665     22.2054   3.6744196059e+01   3.1193742897e+01    0.3326872    0.2474364 -89.10  0.001611305    1.255    0.203
       319  -8.9370    165.3389     25.9919   4.2893195335e+01   4.0426830910e+01    0.3905362    0.2121923 -83.26  0.001609918    2.776    0.640
       320  -8.8669    139.8782    237.1005   9.7661303240e+01   5.6859104474e+00    0.1916276    0.1593375  50.46 0.0005667373    1.245    0.197
       321  -8.7724     32.0553    232.4956   1.1919792882e+02   2.1006054370e+01    0.1580896   0.09921218  41.01 0.0003465481    1.482    0.325
       322  -9.5574    241.4899     25.0503   3.4193695651e+01   2.3567750517e+01    0.2378486     0.156308  70.70 0.0008669288    1.551    0.355
       323  -9.6131    231.8099     23.2820   3.4644047586e+01   2.5749151042e+01     0.317356     0.167185 -70.90  0.001628857    2.057    0.514
       324  -9.6571    186.6088    231.2190   8.7188992202e+01  -4.1814586439e-01    0.1759452    0.1112531 -26.86 0.0009519192    1.679    0.405
       325  -8.8386    177.4983    231.3152   8.9039450251e+01   9.3799085934e-01    0.2372973    0.1048354  34.56  0.001081683    2.014    0.503
       326  -8.9142    162.6893    225.5846   9.1179632426e+01   4.1895322818e+00    0.3145809    0.2162143  82.45  0.001347034    3.463    0.711
       327  -8.9513    223.8767    225.1407   7.8961764160e+01  -4.8736746872e+00    0.1759919    0.1487883   6.83 0.0005939808    1.160    0.138
       328  -8.6112    132.0211    225.4939   9.7689416205e+01   9.0028606854e+00    0.1953951    0.1174702  35.77 0.0003879313    1.486    0.327
       329  -8.1663      1.7068    224.3084   1.2439870415e+02   2.5597005936e+01    0.1161815   0.06105935  65.37 0.0002099254    1.584    0.369
       330  -9.5706     67.2229     15.7985   6.1846569622e+01   6.3194271544e+01    0.2849951    0.1635839  42.01  0.001159201    1.566    0.361
       331  -9.1983    196.5150    222.5137   8.3757303556e+01  -5.1436834921e-01    0.1318612    0.1089344   5.85  0.000810253    1.021    0.021
       332  -9.3195     88.7292    221.0106   1.0649381744e+02   1.6341837363e+01    0.2184266    0.1731233  40.11 0.0005639091    1.179    0.152
       333  -8.6395    203.0621    217.7051   8.1626975369e+01  -7.2954420742e-01     0.178185    0.1398563  16.60 0.0002626292    1.121    0.108
       334  -9.3389    188.8442     22.3879   3.8803336425e+01   3.5307843237e+01    0.2729999    0.2044857   8.87  0.001519946    1.916    0.478
       335 -10.3788    152.7645     22.8029   4.3910227109e+01   4.3769314917e+01    0.4790868    0.2459631  73.04   0.00216194    2.049    0.512
       336  -8.6372    124.9871     23.3345   4.9164144464e+01   5.0253991270e+01    0.1852957    0.1458962  55.73 0.0003067462    1.154    0.133
       337  -8.4023     85.5341     23.4597   5.9142425851e+01   5.8826315834e+01    0.1327473    0.1124644  22.34 0.0001284519    1.011    0.011
       338  -8.6172     79.6815     22.2387   6.0456851370e+01   6.0121129367e+01    0.2264189    0.1436427 -36.81  0.001210914    1.797    0.443
       339  -8.5209     10.7236     22.8031   9.0354012480e+01   6.9782301410e+01    0.1433304    0.1220249 -41.33  0.001025836    1.436    0.304
       340  -9.9158    132.1287     21.3316   4.7071363631e+01   4.8805104419e+01     0.280307    0.2182129  57.29 0.0008275965    1.154    0.134
       341  -9.6335     93.9297     20.7696   5.5653635089e+01   5.7409723146e+01    0.4338895    0.2797163  65.59  0.001356754    1.890    0.471
       342  -8.4896    242.3198    209.6649   7.2850881453e+01  -5.1361289926e+00    0.1071681    0.1001203 -49.07 0.0003063604    1.702    0.413
       343  -9.0715    231.0068    209.1828   7.4786231007e+01  -3.4950350845e+00    0.1966238    0.1406027  -1.48 0.0004489542    1.265    0.210
       344  -9.0812     35.4928    201.4710   1.1608527214e+02   2.7205908673e+01    0.1235464    0.1037476  80.12 0.0001284596    1.006    0.006
       345  -8.3048    120.4202    199.4705   9.6358390592e+01   1.6078969129e+01    0.1377435    0.1291733  54.85 0.0001463094    1.063    0.059
       346  -9.8961    245.6285     19.2762   3.2692392761e+01   2.3414937857e+01    0.1850706    0.1300799  55.22 0.0006592476    1.754    0.430
       347  -9.2196      7.9926    195.3410   1.2147723172e+02   3.1184217884e+01    0.3635911    0.1072042  50.71  0.001254948    3.165    0.684
       348  -9.4383    144.5084     17.6243   4.3685732161e+01   4.6266632608e+01    0.3167181    0.2147668  41.16  0.001279839    1.499    0.333
       349  -8.8775      5.7190    182.9347   1.2109988819e+02   3.4153946215e+01    0.1654303    0.1230511 -88.49 0.0003022997    1.079    0.074
       350  -9.0063     55.2273    181.1817   1.0941163052e+02   2.9659022138e+01    0.1908524    0.1678861 -62.57 0.0004520925    1.164    0.141
       351  -8.2451    103.3805     16.2724   5.1483813993e+01   5.5852579970e+01    0.1424297   0.08301429  33.74 0.0006997402    1.699    0.412
       352  -9.6596      7.2126    174.6759   1.2014676060e+02   3.5932969025e+01    0.1890244    0.1320977  58.80 0.0008549148    1.381    0.276
       353  -8.9717    200.8351     13.8162   3.5395269573e+01   3.3498875833e+01    0.1700495    0.1544877  83.44    0.0002803    1.118    0.106
       354  -9.8326     18.4160    174.0799   1.1750198809e+02   3.5151786664e+01    0.2111153     0.175426 -20.06  0.001359709    1.642    0.391
       355 -10.8888      7.1027    166.5125   1.1951230710e+02   3.7847265360e+01    0.3896477    0.2041306  16.78  0.002054311    2.556    0.609
       356 -11.8938     37.8066    159.7277   1.1115755485e+02   3.6785089665e+01    0.8685399    0.3790695  38.38  0.003942577    2.336    0.572
       357 -11.9588     30.7274    154.7962   1.1240934148e+02   3.8685343585e+01    0.6621758    0.3563582  49.50  0.002707795    2.014    0.503
       358 -10.1669     24.6021    162.9056   1.1490456667e+02   3.7271572162e+01    0.2325848    0.1806705  42.76 0.0003207434    1.393    0.282
       359  -9.2110     20.5282    160.5381   1.1567992238e+02   3.8198200701e+01    0.2049603    0.1690729 -83.00 0.0006480081    1.009    0.009
       360  -9.6663      1.6091    158.2194   1.2013518868e+02   4.0193489339e+01    0.2487586    0.1492118 -71.89  0.001045005    1.341    0.254
       361 -10.0597      2.1108    153.6361   1.1962230640e+02   4.1245411435e+01    0.3210933    0.1498659 -76.57 0.0008521695    1.726    0.421
       362  -9.1840    248.9942    153.5214   6.0705750957e+01   2.7071886471e+00    0.1770642    0.1288112  34.89 0.0004410485    1.565    0.361
       363  -9.2773     45.9297    151.3694   1.0786666604e+02   3.7993523875e+01    0.2120343    0.1666641 -79.05  0.000316185    1.174    0.148
       364  -9.9750     19.7399    151.4108   1.1490599931e+02   4.0476971265e+01    0.2919572    0.2002803 -44.23  0.001676057    1.587    0.370
       365  -8.7925     75.4442     13.2281   5.7997398617e+01   6.1930725253e+01    0.2240999    0.1789313  61.04  0.001367557    1.550    0.355
       366 -10.9258      5.5459    146.9965   1.1814353842e+02   4.2602691692e+01    0.4876511    0.3263033  46.73  0.002169015    1.632    0.387
       367 -11.1776     12.9838    150.4516   1.1656397396e+02   4.1240284446e+01    0.4743787    0.3064176 -10.83  0.002586782    2.292    0.564
       368 -10.1982     13.4790    145.0462   1.1586145945e+02   4.2514358826e+01    0.3892429    0.1965787 -53.01  0.001984511    1.818    0.450
       369 -10.9109     18.6624    140.4502   1.1392997605e+02   4.3242862593e+01    0.3663512    0.2556525  12.33 0.0003233904    1.830    0.454
       370 -10.2479     54.2720    146.0167   1.0473271910e+02   3.8380652140e+01    0.2189343    0.2041501  33.27 0.0002050557    1.197    0.164
       371  -8.1310     80.4331    144.5538   9.7047298128e+01   3.5270700532e+01    0.1471199    0.1342441 -44.12 0.0001992255    1.088    0.081
       372 -10.0177      3.6326    140.6776   1.1802398469e+02   4.4247372238e+01    0.4264182    0.2358643  47.01  0.001485334    2.004    0.501
       373  -9.3229     41.3813    138.9632   1.0730604705e+02   4.1564395519e+01    0.2282916    0.1803498  51.72 0.0008863016    1.389    0.280
       374  -9.0355    236.0905    136.8327   5.9254349803e+01   7.6734202792e+00    0.2006792    0.1759461 -50.65 0.0005714191    1.253    0.202
       375  -9.1373    230.6810    137.0171   6.0187677572e+01   8.6013798520e+00    0.1979678    0.1620398 -29.64 0.0005088022    1.058    0.055
       376  -9.7961     34.5516    136.7074   1.0893907354e+02   4.2799722344e+01    0.2659174    0.2172304  44.87  0.000951823    1.363    0.266
       377  -9.7076     14.8618    135.7673   1.1442233027e+02   4.4676275171e+01    0.3219084    0.1683301 -25.79  0.001475839    2.841    0.648
       378 -10.4728     42.7433    131.6805   1.0574760886e+02   4.3240179096e+01     0.509468    0.2986159 -42.29  0.001797405    1.753    0.429
       379  -9.8538     46.7064    133.3507   1.0484536941e+02   4.2402730567e+01    0.2485054    0.1790097 -76.73 0.0008165119    1.363    0.266
       380 -11.3849      3.5897    129.8938   1.1690504191e+02   4.6850902452e+01    0.8076505    0.2037693 -61.75  0.001913123    2.664    0.625
       381 -10.6768      7.9016    123.2099   1.1488358764e+02   4.8206359028e+01    0.3064232    0.1805387 -68.93 0.0009125813    1.350    0.259
       382  -8.6976    248.7573    133.9799   5.6654679202e+01   5.9781936510e+00    0.1800027   0.09627583 -36.45 0.0003782227    1.566    0.362
       383  -9.6227     56.2073    132.4697   1.0185546916e+02   4.1535482699e+01     0.304115    0.1863213  16.99  0.001185365    2.044    0.511
       384  -9.1880     61.6714    131.1385   9.9966543946e+01   4.1191444138e+01    0.2395698    0.2075572  80.93 0.0006165395    1.268    0.211
       385 -11.5027     28.7335    132.0333   1.0995042678e+02   4.4488350359e+01    0.2327354    0.2109227 -88.85 0.0003323016    1.120    0.107
       386 -10.3350     10.3489    131.1765   1.1514512327e+02   4.6111999152e+01    0.4238157    0.1458608 -57.22  0.001760095    2.241    0.554
       387  -9.6764     12.9785    127.0348   1.1387871791e+02   4.6943786925e+01    0.2009573    0.1760947  53.50 0.0007603236    1.310    0.237
       388  -9.3941     20.2615    131.1921   1.1230360356e+02   4.5393140587e+01    0.1954936    0.1454116 -58.21 0.0006195868    1.167    0.143
       389 -10.9012     33.5076    125.2346   1.0748254033e+02   4.5745931829e+01    0.6265485    0.2931772 -79.75  0.002521481    2.610    0.617
       390  -8.6978    232.6766    128.6605   5.8021517144e+01   9.6958809661e+00    0.1414321    0.1021481  -4.90 0.0007050934    1.722    0.419
       391  -9.7162     88.4978    128.0198   9.1277306243e+01   3.8098532009e+01    0.2550093    0.2209925  34.16 0.0003426488    1.221    0.181
       392  -8.4480     59.6245    125.2284   9.9442586892e+01   4.2918905407e+01      0.20384    0.1166656 -51.02 0.0004880671    1.558    0.358
       393  -8.9780     72.0089    123.7279   9.5314728513e+01   4.1640457682e+01     0.193611    0.1878803 -33.71 0.0003493219    1.065    0.061
       394  -8.9211    241.4842    123.4600   5.5500632449e+01   8.9976590747e+00    0.1362181    0.1158085 -36.57 8.734077e-05    1.038    0.037
       395  -9.3161     38.8627    122.8086   1.0542882140e+02   4.5837913913e+01    0.1799949    0.1536263  73.72 0.0009619849    1.306    0.234
       396  -8.8786    221.1793    121.2131   5.8247709143e+01   1.3161777335e+01    0.1932549     0.156724 -54.77 0.0009499842    1.309    0.236
       397  -9.2713    124.4106    121.1055   7.9365467736e+01   3.3245937995e+01    0.3489943     0.212747  44.38  0.000737075    1.709    0.415
       398 -10.4955     19.9852    108.9913   1.0909399501e+02   5.0846109229e+01    0.6585766    0.2058951 -58.21  0.002702636    2.315    0.568
       399  -9.4895     13.8293    109.8037   1.1121255845e+02   5.1076979226e+01     0.270166    0.1515269 -64.70  0.000391711    1.425    0.298
       400 -11.5949     21.3437    119.7056   1.1035137248e+02   4.8132311691e+01    0.6766638    0.4385811  84.00  0.003556077    1.787    0.440
       401 -10.2334     13.8217    113.5593   1.1177751190e+02   5.0168439127e+01    0.3909428    0.1851032  18.41  0.001692002    2.565    0.610
       402  -9.1967    237.1579    120.6264   5.5542197653e+01   1.0258004038e+01    0.1827357    0.1252306  34.98  0.000952427    1.750    0.429
       403  -9.9929     43.3082    119.2222   1.0339250987e+02   4.6275786599e+01     0.329288    0.2075453  41.87 0.0009145578    1.811    0.448
       404  -9.2690     67.9569    118.9488   9.5538956524e+01   4.3376594042e+01    0.2160274    0.2012858 -62.56  0.000548661    1.074    0.069
       405  -9.8840     70.4246    116.1830   9.4145635912e+01   4.3708861669e+01    0.4550156    0.3031265  79.35  0.001686237    2.480    0.597
       406 -10.4348      3.4704    116.5923   1.1537689707e+02   5.0066232865e+01    0.2857414    0.2478529 -51.79  0.001085334    1.167    0.143
       407  -9.8606     93.9205    118.8381   8.7518091661e+01   3.9415000140e+01    0.3875819    0.2657393 -20.26  0.001689749    1.881    0.468
       408  -8.9897     83.8499    116.1107   8.9926217751e+01   4.1718542286e+01    0.4040504   0.08939412 -51.01  0.001114474    3.936    0.746
       409 -10.3820     29.2152    116.6690   1.0740709081e+02   4.8240147191e+01    0.2914723    0.2057253  50.57 0.0006844282    1.683    0.406
