#   1 NUMBER                 Running object number                                     
#   2 MAG_AUTO               Kron-like elliptical aperture magnitude                    [mag]
#   3 X_IMAGE                Object position along x                                    [pixel]
#   4 Y_IMAGE                Object position along y                                    [pixel]
#   5 X_WORLD                Barycenter position along world x axis                     [deg]
#   6 Y_WORLD                Barycenter position along world y axis                     [deg]
#   7 A_WORLD                Profile RMS along major axis (world units)                 [deg]
#   8 B_WORLD                Profile RMS along minor axis (world units)                 [deg]
#   9 THETA_WORLD            Position angle (CCW/world-x)                               [deg]
#  10 FWHM_WORLD             FWHM assuming a gaussian core                              [deg]
#  11 ELONGATION             A_IMAGE/B_IMAGE                                           
#  12 ELLIPTICITY            1 - B_IMAGE/A_IMAGE                                       
         1 -13.7967     70.3252    147.8851   5.6261906209e+01   3.5987730733e+01     2.701191     1.332422  84.02  0.003713526    4.360    0.771
         2 -13.2495    214.4096     55.4714   1.2937222520e+00   2.5446739250e+01     1.098958    0.9351814 -21.85  0.004629681    1.355    0.262
         3 -13.5028    228.4998     46.1355   3.5787397417e+02   2.3914759644e+01    0.8505635    0.7950186  47.85  0.006122244    1.432    0.302
         4 -12.2514      3.5799     40.7529   6.5719807502e+01   7.1489146343e+01     1.196737    0.2231531 -61.36  0.004127091    3.400    0.706
         5 -10.9436      2.3003      3.7435   5.1129708727e+01   7.9634892566e+01    0.6769719      0.15492 -53.46  0.002565634    3.661    0.727
         6  -9.4031    187.9763      1.7757   3.5004833430e+02   3.7482758170e+01     0.218224    0.1012725 -64.46 0.0009766384    1.935    0.483
         7  -9.6259     12.4874      2.4847   3.9024867357e+01   7.8763513290e+01    0.1250108    0.1050254  -1.36 0.0006250736    1.016    0.015
         8 -10.4309     72.8706    233.4710   6.5439822771e+01   1.6186082278e+01    0.3357719      0.21547 -77.90  0.001051497    1.938    0.484
         9  -9.9916     75.0494    248.3801   6.6131074972e+01   1.3224839037e+01    0.4044964    0.1604334 -52.97  0.001971527    3.172    0.685
        10 -10.1063     40.1874    249.3945   7.3815056384e+01   1.6812923209e+01    0.3397443    0.1640752  39.52  0.001526177    1.485    0.326
        11 -11.0345     42.6182    245.3283   7.3076954964e+01   1.7308712686e+01    0.3310417    0.2221225  52.89 0.0008184912    1.251    0.200
        12 -14.5782     57.0919    233.9388   6.9119572200e+01   1.7906872766e+01     5.067305     3.123549 -46.64   0.02288763    2.173    0.540
        13 -15.5659     25.0453    180.6891   7.3666142578e+01   3.3002154796e+01     9.045641     2.960257  80.21   0.02855241    4.451    0.775
        14 -15.5527      5.7170    216.4692   8.0276602655e+01   2.6545654654e+01     2.786536     1.180423  24.17    0.0139362    2.158    0.537
        15 -11.6893    126.6814    229.6843   5.2860807761e+01   1.0151031891e+01    0.4312108    0.3042926   4.21  0.002564159    1.491    0.329
        16 -10.7693    114.9873    227.7091   5.5218450721e+01   1.2002934775e+01    0.4338364    0.2433836 -77.43  0.001980136    3.393    0.705
        17 -10.9963     45.6512    229.8207   7.1505279434e+01   1.9962937543e+01    0.4897501    0.2619985  14.91  0.001803088    2.189    0.543
        18 -10.9535    119.1336    231.2274   5.4704146757e+01   1.0856146195e+01     0.301756    0.1618972  27.68  0.001121356    1.543    0.352
        19 -10.3346    148.0958    228.3472   4.8111328180e+01   7.6220170789e+00    0.2064585     0.158107 -21.57  0.001333865    1.364    0.267
        20 -10.8855    106.5134    229.0150   5.7281056046e+01   1.2859990395e+01    0.2828962    0.1700284  28.05  0.001566498    1.378    0.274
        21 -10.8379     71.8539    226.0909   6.5055355931e+01   1.7727410291e+01    0.4086418    0.1968721  41.23  0.002056498    1.673    0.402
        22 -10.7841    173.5590    224.1270   4.2381509876e+01   5.0625950173e+00    0.4072968    0.1928215  10.74  0.001768552    3.033    0.670
        23  -8.7278    118.2937    221.9330   5.3780373668e+01   1.2601030659e+01    0.1641314    0.1531698   8.98 0.0005248061    1.138    0.122
        24 -14.0332      7.1656    187.9137   7.8942775683e+01   3.2820946753e+01     1.880181     1.231495  67.11   0.01083078    1.311    0.237
        25  -9.7437     95.6390    211.5319   5.7861607909e+01   1.7605594876e+01      0.28519    0.1347404 -69.27  0.001238241    2.871    0.652
        26  -9.4793    210.9168    198.9622   3.1574819793e+01   4.0908642768e+00     0.177354       0.1404  -6.76 0.0005168089    1.016    0.016
        27 -11.0421     96.3312    196.9187   5.5902171324e+01   2.0530213131e+01     0.398123    0.2720292  58.57  0.002040608    1.650    0.394
        28 -12.0592    115.0534    193.6825   5.0764845180e+01   1.8497253236e+01    0.7281495    0.4450666 -11.35  0.003082657    2.682    0.627
        29 -11.8624    104.8529    194.1392   5.3371481164e+01   1.9898762850e+01    0.8887929    0.3203045  22.19  0.002733655    4.145    0.759
        30 -11.1733    108.0253    189.2883   5.1881231205e+01   2.0458775754e+01    0.3498308    0.2354798 -49.46  0.001792821    1.624    0.384
        31 -10.4161     69.5312    194.1584   6.2570994081e+01   2.4768814541e+01    0.6187453    0.2962222  56.54   0.00256951    2.393    0.582
        32  -8.7173    207.3738    189.8153   3.0639893443e+01   5.8660447313e+00    0.1693083   0.09522413 -26.74  0.000813539    1.642    0.391
        33  -8.8535     72.7509    190.2466   6.1274991794e+01   2.5240140284e+01    0.2425232    0.1543613  33.38 0.0009274434    1.388    0.279
        34 -10.6709    116.0042    181.8042   4.8721624858e+01   2.0838248801e+01    0.2964586    0.2286881 -26.87 0.0007607445    1.479    0.324
        35  -9.9436    101.0022    183.8486   5.2900030743e+01   2.2687855946e+01    0.2463415    0.2099985 -81.47 0.0006865265    1.352    0.261
        36 -14.5934     15.6839    243.0298   7.8855373087e+01   2.0353724873e+01     1.404547     1.030031  33.68  0.008674144    1.199    0.166
        37  -9.3197     81.8888    180.7296   5.7609955496e+01   2.6190477644e+01     0.286924      0.20928   3.53 0.0008058167    1.714    0.417
        38  -9.1581    192.4934    193.9977   3.4027114219e+01   7.2000274620e+00    0.1543008    0.1091436 -61.63 0.0008104462    2.548    0.607
        39  -9.3458    171.4195    174.2128   3.4641786497e+01   1.3552353058e+01    0.1810096    0.1247476 -50.74 0.0009524614    1.674    0.403
        40 -12.8248     75.3053    133.2558   5.2080720801e+01   3.9045725629e+01     4.109737     1.872946  67.15  0.008579449    8.169    0.878
        41 -11.7221     71.4635    168.3679   5.8924853621e+01   3.0628408237e+01     1.034595    0.4980229  87.76  0.002951735    3.942    0.746
        42  -9.2251    185.3539    246.1485   4.3203523150e+01   6.3737095971e-01    0.1339672    0.1009503 -41.98 0.0008265891    1.774    0.436
        43 -10.6437     78.1022    146.1627   5.3507785409e+01   3.5258451871e+01    0.3473038    0.3197113   7.57 0.0004453477    1.197    0.165
        44 -11.2974     81.4754    142.2905   5.1757317901e+01   3.5718722910e+01    0.4846412    0.3682113 -77.97    0.0013515    1.434    0.303
        45 -11.6119     55.5103    161.3204   6.2823973510e+01   3.4531688737e+01    0.5722235    0.3738745 -19.51  0.001764429    2.297    0.565
        46 -11.3275     60.8163    157.5237   6.0686796303e+01   3.4820507747e+01    0.4219153    0.3609585 -47.65  0.001075039    1.295    0.228
        47 -10.1688    180.7307    168.0007   3.1610456955e+01   1.3193942743e+01    0.1933853    0.1584182 -27.25 0.0008470597    1.133    0.117
        48  -9.0675    110.6570    167.3328   4.7722133232e+01   2.4873996853e+01    0.2382912    0.1827168 -76.11 0.0006031659    1.588    0.370
        49 -10.6445     86.7591    165.4032   5.4040426798e+01   2.9120351548e+01     0.833255    0.4458911  58.84    0.0032374    2.432    0.589
        50 -10.1122    177.7812    163.7812   3.1383926916e+01   1.4405943820e+01    0.3698518    0.1677314  43.64  0.001599934    2.411    0.585
        51 -10.4937    238.5073    161.6021   2.0654497900e+01   5.9059220442e+00    0.2291427    0.1455091 -44.46  0.000832526    1.704    0.413
        52  -9.3227    100.8781    168.1980   5.0514371411e+01   2.6254876106e+01     0.410576    0.2411654 -28.20  0.001152177    2.577    0.612
        53  -8.5201    112.5889    150.8140   4.4176095608e+01   2.8342822886e+01    0.1937996    0.1469772 -69.12 0.0003553679    1.516    0.340
        54  -9.9146    133.9362    146.4538   3.7679682875e+01   2.5467387599e+01    0.8082377    0.2041375 -54.95  0.001808783    6.946    0.856
        55  -9.1746     86.0970    149.6906   5.1646563355e+01   3.3099940115e+01    0.2236471    0.1974524 -89.20 0.0002613622    1.187    0.158
        56 -10.5237     36.8829    142.8593   6.6664034900e+01   4.1591882223e+01    0.4778736     0.260201  77.29   0.00168905    2.109    0.526
        57 -10.2670    108.9026    145.3658   4.4128018648e+01   3.0277333361e+01    0.2984121    0.2808351  28.56 0.0006640139    1.053    0.050
        58  -9.3736    111.6259    142.8043   4.2841780334e+01   3.0393104091e+01    0.2625477    0.2291481  82.57 0.0003765911    1.295    0.228
        59  -9.3509     26.5830    143.6866   7.0261389841e+01   4.2398394677e+01    0.3102433     0.202917  15.69  0.001502233    1.706    0.414
        60  -8.4306     49.4559    141.4591   6.2192086218e+01   4.0519809919e+01    0.1492796    0.1373505  69.23 2.161526e-05    1.012    0.011
        61 -10.0319     51.1889    137.0247   6.0958766289e+01   4.1497673751e+01    0.2489711    0.2170062  21.81 0.0003232576    1.228    0.186
        62 -10.3791     96.3024    134.1171   4.5531167440e+01   3.5267174691e+01    0.5505924    0.3668064  -4.30   0.00211025    2.550    0.608
        63 -11.1504     43.7326    133.8220   6.3119796549e+01   4.3277634319e+01    0.4989829    0.3375135 -77.49   0.00126822    1.460    0.315
        64  -9.3174     36.4547    134.6979   6.5830843691e+01   4.3853098229e+01    0.3189359    0.1731002  24.81 0.0009948855    1.883    0.469
        65 -11.5045     82.7958    132.2767   4.9422054850e+01   3.8076199630e+01    0.3176596    0.2871312 -57.86 0.0004548049    1.127    0.113
        66 -10.0775    105.5540    130.6436   4.1997262849e+01   3.4424190259e+01    0.3794029    0.3339217 -79.32  0.001097803    1.223    0.182
        67  -9.2628    107.4749    126.5000   4.0497034271e+01   3.5059687991e+01    0.3302066    0.2527664   3.53 0.0008585994    1.749    0.428
        68  -9.9038     35.8514    124.9265   6.4764714133e+01   4.6597967456e+01    0.2770807    0.1942592  49.62 0.0008866403    1.406    0.289
        69 -10.5081     93.8735    121.9119   4.3617522568e+01   3.8756278098e+01    0.3477423    0.2913592  -5.81 0.0005561848    1.469    0.319
        70 -13.9231     37.1989    173.8047   6.9649155039e+01   3.3486331183e+01     2.145181     1.259815  75.21    0.0101978    1.777    0.437
        71 -11.3737     27.3001    118.4482   6.7179561094e+01   4.9238297175e+01    0.5737483    0.3158264  29.19  0.001921169    1.809    0.447
        72  -8.2357     86.6566    120.6860   4.5686862257e+01   4.0381333207e+01    0.1615238    0.1246383 -16.13            0    1.708    0.415
        73  -9.8307     64.9456    118.2088   5.2731297186e+01   4.4651877948e+01     0.244822    0.2164429 -72.03 0.0003583093    1.117    0.105
        74 -10.8838    243.8489    114.7197   1.0935728121e+01   1.1841512203e+01    0.2586531    0.1638645 -51.67   0.00135512    1.677    0.404
        75  -9.2500    234.9134    112.2709   1.1529777661e+01   1.3571584555e+01     0.325164    0.1122474 -46.77  0.001296997    3.011    0.668
        76 -10.9005     32.7737    111.6625   6.4030065849e+01   5.0582002130e+01    0.4284829    0.2586483  59.47 0.0004264011    1.819    0.450
        77 -10.8318     24.0315    105.0060   6.6677372148e+01   5.3249383058e+01    0.3195956    0.3171513  41.65 0.0008002206    1.091    0.083
        78  -9.4451    104.9911    116.0939   3.8766786133e+01   3.8049724954e+01    0.2281182     0.225432  81.41  0.000337737    1.013    0.013
        79  -8.9925    134.4516    105.7370   2.7931706596e+01   3.4225025537e+01    0.3170787    0.1450166 -50.18  0.001145148    2.269    0.559
        80  -9.8565     52.8794    103.3000   5.4241612338e+01   5.0433767460e+01    0.2604441    0.1852365  51.44  0.001144812    1.472    0.321
        81  -9.2811     14.0383    100.0195   7.0340187847e+01   5.5397883180e+01    0.2199566    0.1987302 -75.13 0.0005041094    1.024    0.023
        82  -9.1680     38.0937     97.8234   5.9353324282e+01   5.3809406075e+01    0.2213622    0.1916558  65.71 0.0003353934    1.189    0.159
        83 -12.9031     57.7896    145.1330   5.9917547502e+01   3.8466667661e+01    0.8813121     0.695105 -13.90  0.001087053    1.610    0.379
        84  -9.9621     57.5389     93.5271   5.0019077494e+01   5.2346092581e+01    0.4253352    0.1279238 -54.95  0.001321721    3.018    0.669
        85 -14.2200      3.0269    241.5317   8.1523054524e+01   2.1743607800e+01     1.381346    0.5148332 -69.48   0.00606248    3.152    0.683
        86  -8.6954     21.5725     90.8054   6.5573406851e+01   5.7357807031e+01     0.194999    0.1315237 -89.03 0.0004476436    1.531    0.347
        87 -11.0767     53.5612     87.4968   5.0164060202e+01   5.4522686416e+01    0.4310514    0.2838015 -72.71  0.001354604    1.689    0.408
        88  -8.3229    101.5061     88.4722   3.2308187992e+01   4.5261004654e+01    0.1577676    0.1524835  83.71 0.0001516279    1.017    0.017
        89  -9.7907     32.9747     87.2304   5.9507919004e+01   5.7245674719e+01    0.2201132    0.2027855 -71.07 0.0001979982    1.038    0.037
        90 -10.4887     29.6950     84.9828   6.0602063778e+01   5.8190813053e+01    0.2461769    0.2187738  33.37 0.0002757306    1.177    0.150
        91  -8.8952     38.5077     86.4618   5.6733283291e+01   5.6824204155e+01     0.147906    0.1402819  83.09 0.0001620551    1.070    0.066
        92  -9.8532     46.8912     79.3110   5.0978908949e+01   5.7606515163e+01    0.3444749    0.2654565 -80.95 0.0009892265    1.455    0.313
        93  -9.8270     43.2879     77.0670   5.2077892279e+01   5.8678287763e+01    0.2395307    0.2014952   9.45 0.0003103494    1.285    0.222
        94  -8.5284     65.6589     73.6829   4.0814487395e+01   5.5961319338e+01     0.158495    0.1209119 -12.15 0.0007048793    1.711    0.415
        95  -8.2115     30.3129     72.6633   5.7454217595e+01   6.1381494624e+01     0.150344     0.107198  64.39 0.0007046023    1.689    0.408
        96  -9.7028     50.4493     69.9187   4.6484304573e+01   5.9436555412e+01    0.3446791    0.2153846  59.60  0.001264581    2.151    0.535
        97 -12.0890    204.4142     61.7538   3.8724771527e+00   2.6608129178e+01    0.4417323    0.3701797 -66.02 0.0008381756    1.121    0.108
        98 -14.4344     10.1007    206.5948   7.8897117066e+01   2.8310823461e+01     1.184196    0.6997864  16.17  0.006497707    1.870    0.465
        99  -8.4625    146.9766    242.9304   5.0200807532e+01   5.5128390217e+00    0.1393663    0.1142573  10.27 0.0005500292    1.075    0.070
       100  -9.6029     86.7630     62.7389   2.8673375688e+01   5.4091234964e+01    0.3184339     0.225222 -88.78  0.001320784    2.133    0.531
       101 -10.1834     63.9331     63.6655   3.8094766601e+01   5.8598527052e+01    0.2551642    0.2172241 -59.78 0.0003332481    1.231    0.188
       102  -9.1721     97.0589    241.5756   6.0691215213e+01   1.1820336531e+01    0.1841297    0.1599022 -89.70  0.001276118    1.471    0.320
       103 -11.5538     13.4147     60.1379   6.3916499677e+01   6.6098391878e+01    0.5052404    0.3415428 -32.24  0.001717317    1.488    0.328
       104 -11.6387      7.2561     59.3956   6.7492725359e+01   6.6664605828e+01    0.4281512    0.3299706 -79.26  0.001353813    1.277    0.217
       105 -11.1782      2.1445     57.1321   7.0216398325e+01   6.7482514970e+01     0.535162    0.2828873 -74.84 0.0009109417    1.745    0.427
       106  -8.9295     45.8551     50.8058   4.1960186324e+01   6.4616512511e+01    0.1969973    0.1692136  57.29 0.0005137551    1.325    0.245
       107 -10.5325     16.3120     50.8654   5.9702807831e+01   6.8202327406e+01    0.4297553    0.1662403  33.13  0.001663624    2.621    0.618
       108  -9.5547     90.4933     66.1967   2.8628038043e+01   5.2544989875e+01    0.2930787    0.2425625  73.69 0.0006685743    1.340    0.254
       109  -9.4742     31.5236     32.5300   4.2382064390e+01   7.0663585039e+01    0.1362114    0.1243157  -7.08 6.064932e-05    1.005    0.005
       110 -11.0151     21.3667     25.3465   4.6014076204e+01   7.3459092369e+01    0.5026268    0.1590322 -52.70  0.001891637    3.074    0.675
       111 -10.6775      3.4765     27.0304   6.1586439263e+01   7.4698519462e+01    0.2999433    0.1999848  21.83  0.001027319    1.570    0.363
       112 -10.7856      2.3844     22.4650   6.0837003720e+01   7.5778682323e+01    0.3185822    0.1959104 -64.62  0.001293637    1.600    0.375
       113  -9.4144     60.8140     21.5944   2.0303259736e+01   6.7127346239e+01    0.2435308    0.2232863 -73.63 0.0007520805    1.285    0.222
       114  -8.8771    189.3593     15.2138   3.5347584908e+02   3.5807992624e+01    0.1806928   0.09656464 -41.70 0.0004217701    1.579    0.367
       115  -9.2608     33.3264     15.3291   3.1328735248e+01   7.3525911217e+01    0.1383339   0.09652169   4.30 0.0007050644    1.704    0.413
       116  -9.8593    103.8913    237.8255   5.8805742775e+01   1.1633964578e+01    0.3039971    0.2251176  -3.37  0.001867074    1.574    0.365
       117  -8.9457    185.3621    238.1629   4.2123050071e+01   1.6854430903e+00    0.1367887    0.1032608 -42.83 0.0007308261    1.749    0.428
