#   1 NUMBER                 Running object number                                     
#   2 MAG_AUTO               Kron-like elliptical aperture magnitude                    [mag]
#   3 X_IMAGE                Object position along x                                    [pixel]
#   4 Y_IMAGE                Object position along y                                    [pixel]
#   5 X_WORLD                Barycenter position along world x axis                     [deg]
#   6 Y_WORLD                Barycenter position along world y axis                     [deg]
#   7 A_WORLD                Profile RMS along major axis (world units)                 [deg]
#   8 B_WORLD                Profile RMS along minor axis (world units)                 [deg]
#   9 THETA_WORLD            Position angle (CCW/world-x)                               [deg]
#  10 FWHM_WORLD             FWHM assuming a gaussian core                              [deg]
#  11 ELONGATION             A_IMAGE/B_IMAGE                                           
#  12 ELLIPTICITY            1 - B_IMAGE/A_IMAGE                                       
         1 -15.8060     69.4424    144.4317   7.6803313613e+01   3.7227564172e+01     3.081245      1.77509  88.50   0.00279584    3.512    0.715
         2 -14.4253    232.4167     22.2466   1.8443413542e+01   2.7947298749e+01    0.7008358    0.4960378 -63.80  0.004003043    1.070    0.065
         3 -11.9963     56.2080      8.1153   4.0472435518e+01   6.5666215968e+01    0.2288998    0.1493398  76.57  0.001239778    2.101    0.524
         4 -11.1285     42.4046    232.4911   9.6994467638e+01   1.7808873667e+01    0.3000787    0.1635211 -71.41  0.001406964    2.014    0.503
         5 -14.5478    147.9517    227.1220   6.9109913501e+01   6.2669495348e+00     1.442412    0.4898094 -47.86  0.005655995    2.821    0.646
         6 -11.0819    101.0874    250.3371   8.3661524541e+01   7.2527683463e+00    0.2245375    0.1599542   8.05  0.001223508    1.291    0.226
         7 -13.1963    102.3493    240.7558   8.2165004881e+01   9.0844189935e+00     1.016821    0.6260408 -30.09   0.00277972    1.815    0.449
         8 -13.2615     98.0371    223.6964   8.1041509695e+01   1.3344092752e+01    0.7365289     0.438846 -56.75  0.001341043    1.826    0.452
         9 -14.4595    125.0457    243.0224   7.6845569312e+01   5.8924185896e+00     1.027479    0.8558291 -58.03  0.003377576    1.498    0.332
        10 -15.6226    129.5571    229.2230   7.3794162958e+01   8.1324559478e+00     2.152573     1.546573  43.96   0.01135576    1.648    0.393
        11 -10.2718     73.4518    232.5752   8.8707486379e+01   1.4346628723e+01     0.141546    0.1244939  23.37 0.0001520059    1.017    0.017
        12 -10.1476     68.7040    246.6662   9.1449642527e+01   1.1753725689e+01    0.1373984   0.09729008 -20.83 0.0007028639    1.644    0.392
        13 -11.8134     90.2587    225.8328   8.3396303082e+01   1.3843162416e+01    0.3240789    0.2264265  37.32 0.0008340719    1.376    0.273
        14 -11.0322     72.7698    226.0336   8.8140021664e+01   1.5938488863e+01    0.2232179    0.1814672  23.95  0.000289521    1.105    0.095
        15 -11.0676     26.8209    250.4162   1.0233256077e+02   1.5275936535e+01    0.1674049      0.13637  11.34  0.000651728    1.265    0.210
        16 -10.7818     80.9486    220.2333   8.5196978754e+01   1.6303110099e+01    0.2143927    0.2069776 -38.56 0.0003102006    1.129    0.114
        17  -9.8493     90.3378    217.2772   8.2237616889e+01   1.5808039556e+01    0.1506456    0.1056039 -14.02 0.0002848509    1.614    0.380
        18 -13.4823    126.8839    212.8148   7.1954468987e+01   1.1959818155e+01    0.4430094    0.3841546 -88.67  0.001680791    1.596    0.374
        19 -10.2953     76.0000    245.1821   8.9422892212e+01   1.1248133241e+01    0.1909142   0.07990908 -63.96 0.0007753979    2.758    0.637
        20 -18.4876     16.3418    206.7905   1.0204755876e+02   2.6574081126e+01     10.13523     4.935413 -78.37   0.02854832    2.111    0.526
        21  -9.3312     66.0622    242.6110   9.1723599240e+01   1.2939080675e+01    0.2018223    0.1347747  40.40  0.000676483    1.388    0.279
        22 -12.3472     82.8317    195.9094   8.1312264034e+01   2.1980651099e+01    0.4588171    0.3888335 -80.30  0.001176594    1.376    0.273
        23 -11.9135     37.7407    193.7751   9.4575907918e+01   2.7953924220e+01    0.4614895    0.3006844  70.11  0.001194883    1.800    0.444
        24 -14.6344    110.4823    229.6078   7.8615160083e+01   1.0457021997e+01     1.331713    0.8736004  34.13  0.006729452    1.454    0.312
        25 -13.6033     49.5487    186.0698   9.0027531282e+01   2.8714322782e+01     1.653883    0.7331408  37.05  0.006057971    2.112    0.526
        26 -10.7509     77.3387    186.0216   8.1446810174e+01   2.5234371705e+01    0.3546174    0.1973304 -41.73  0.001179069    1.928    0.481
        27 -12.5593     98.3337    180.9191   7.4385648624e+01   2.3514571762e+01    0.5422143    0.3074859  29.52  0.001742828    1.685    0.407
        28  -9.6616     90.2947    180.6779   7.6700667982e+01   2.4765242442e+01    0.1550531    0.1185039  62.20 0.0004208923    1.616    0.381
        29 -11.7122    172.6267    177.5297   5.5245966059e+01   1.2923973550e+01    0.2846532    0.2308507 -46.94 0.0007489277    1.222    0.182
        30 -13.3030     57.3433    170.3512   8.5343846194e+01   3.1982209611e+01     1.139823      0.74569 -79.54  0.003815772    1.818    0.450
        31 -11.5033    128.9778    180.3211   6.5886874298e+01   1.8949281483e+01    0.2117386    0.1890406  16.28 0.0005041722    1.088    0.081
        32 -12.4082    181.8555    173.2879   5.2615765421e+01   1.2428310869e+01    0.4486363    0.2844668 -42.51  0.002376846    1.402    0.286
        33 -11.0974     45.9267    240.8265   9.6787135155e+01   1.5522319908e+01    0.1794284    0.1484512 -66.11  0.001049632    1.347    0.258
        34  -9.8921     69.6681    173.2857   8.1824364677e+01   2.9593743153e+01    0.1605744    0.1142747  55.23 0.0002938727    1.618    0.382
        35 -12.0109    103.4474    171.4514   7.1219010537e+01   2.5071567178e+01    0.3577696    0.2326977  66.59  0.001399222    2.445    0.591
        36 -11.6689    179.5432    167.8647   5.2072311936e+01   1.3824478833e+01    0.2938183    0.1945087  39.55  0.001562455    1.685    0.406
        37 -14.1891     62.3015    154.4788   8.1100896140e+01   3.5586266312e+01     1.355712    0.6013101  31.90  0.004466775    2.112    0.526
        38 -12.0136     82.7632    151.2979   7.3707624169e+01   3.3419008341e+01      0.40955    0.2917703  51.35  0.001319671    1.581    0.367
        39 -12.8619    115.3137    246.7610   7.9707908007e+01   6.3021115465e+00    0.5006319    0.3133935 -69.01  0.002006191    2.322    0.569
        40 -12.4137     75.1789    158.5915   7.7541625332e+01   3.2679735335e+01    0.4298311    0.3099459  10.21 0.0007814828    1.494    0.331
        41 -12.3187     60.6094    168.6876   8.4018254394e+01   3.2012918004e+01    0.4891204    0.3282932  77.16  0.001552031    2.031    0.508
        42 -11.5336     38.8586    162.1638   9.0350691828e+01   3.6340819157e+01    0.7568802    0.2991754  10.62  0.002409487    3.296    0.697
        43 -10.5678     92.5551    155.9108   7.1521083763e+01   3.0687375818e+01    0.2367621    0.2077518  56.09 0.0002786159    1.259    0.206
        44 -11.7616     54.9769    230.9607   9.3489528745e+01   1.6827092558e+01    0.2981088    0.2143894  86.58 0.0007782415    1.673    0.402
        45 -11.9139    133.7109    145.0734   5.7739474344e+01   2.6168357160e+01     1.079786    0.2627013 -55.03  0.002409124    6.812    0.853
        46 -12.6112     89.5342    146.4345   7.0570860266e+01   3.3564758236e+01    0.6253304    0.4115507  -7.65  0.001670351    2.139    0.532
        47 -12.0562     47.8153    145.1842   8.4579577769e+01   3.9939024973e+01    0.3463677    0.2556237   2.07   0.00161417    1.452    0.311
        48 -12.8704     71.0788    162.4702   7.9566402132e+01   3.2251011770e+01    0.5069547    0.3823515 -19.88   0.00228603    1.481    0.325
        49 -10.3860     84.6916    136.3663   7.0022610991e+01   3.6887513237e+01    0.1624258    0.1227733  70.40 0.0007037427    1.753    0.430
        50 -12.5359     38.7228    127.0343   8.4789042947e+01   4.5844987201e+01    0.3483272     0.227764  40.26 0.0008905308    1.608    0.378
        51 -13.0321     39.6864    134.2889   8.5716126049e+01   4.3809836101e+01    0.5800447    0.3167913  -0.93  0.002208101    2.354    0.575
        52 -13.5730     44.4088    130.6282   8.3251993077e+01   4.4235478331e+01    0.5816548    0.3904286 -86.06  0.002360699    1.949    0.487
        53 -12.3441     91.0153    132.7875   6.7195038516e+01   3.6692406882e+01    0.2972943    0.2770897  -4.13 0.0003838158    1.074    0.069
        54 -11.6942     75.1449    127.8631   7.1395028569e+01   4.0578440725e+01    0.2456185    0.2140179  58.98 0.0009857489    1.287    0.223
        55 -10.5090    112.1890    126.7553   5.9446166662e+01   3.4258450737e+01    0.2125538     0.178286  -1.31 0.0008359193    1.374    0.272
        56 -11.0367     99.3235    121.9141   6.2108703587e+01   3.7776611671e+01    0.2758252    0.2152199  21.46 0.0004386572    1.359    0.264
        57 -11.0951     73.7443    122.5616   7.0697656950e+01   4.2118792162e+01    0.2215102    0.1383292  42.14 0.0009376219    1.618    0.382
        58 -11.9266    105.0938    131.9629   6.2681055933e+01   3.4375893614e+01    0.6297596    0.3898868 -28.77  0.001930785    2.086    0.521
        59 -13.0318     54.2076    147.4337   8.2680566303e+01   3.8538384305e+01    0.7356702    0.5219969  -6.58  0.003297742    1.615    0.381
        60 -11.3700    110.7252    167.0972   6.8328141920e+01   2.4972487297e+01    0.3046837    0.2126058 -67.23 0.0009556717    1.731    0.422
        61 -10.0100    108.2343    116.4205   5.8151971755e+01   3.7325176447e+01    0.1963122    0.1408087  49.23 0.0002920973    1.418    0.295
        62 -12.7052     53.8948    235.7295   9.4240071309e+01   1.5838871064e+01    0.3310438    0.2973053  30.82  0.001190704    1.015    0.015
        63 -12.5369     53.0618    108.7872   7.5281588548e+01   4.8676719652e+01    0.4972658    0.2176207 -54.65  0.001876307    2.280    0.561
        64 -10.5519    205.3692    110.1881   3.6784585762e+01   2.0311105377e+01    0.1790875    0.1673373  48.24 0.0006337917    1.301    0.232
        65 -13.1772     42.1103    104.2209   7.8719886530e+01   5.1264574120e+01    0.5452354    0.2885046  39.54  0.001880931    1.974    0.494
        66 -12.0517     29.8239     98.8417   8.2847993873e+01   5.4006109982e+01    0.2596461     0.231211 -19.19 0.0008384287    1.029    0.028
        67 -12.7227     60.2450    228.6706   9.1834379760e+01   1.6776430531e+01    0.8525865    0.2686857 -51.99  0.003039735    3.237    0.691
        68 -12.7924    185.3186     61.8952   2.9948796357e+01   3.1426386817e+01    0.3245243     0.278137 -64.30 0.0007153144    1.110    0.099
        69 -12.0514     13.5236     60.1018   8.1300441745e+01   6.4385566155e+01    0.2501831    0.1992993   8.85 0.0004842583    1.140    0.123
        70 -14.2671    201.3905     50.1089   2.5821190262e+01   2.9998634062e+01    0.8353261    0.7267374  53.88   0.00429121    1.566    0.361
        71 -13.2248    207.7516     44.8841   2.4233408012e+01   2.9513256057e+01    0.3997113     0.320904 -70.52  0.001149337    1.064    0.061
        72 -11.0788    133.9501     58.8562   3.7226954165e+01   4.2544176509e+01     0.328038    0.1685976  80.10  0.001256452    3.182    0.686
        73 -10.2083     93.5443    236.8949   8.3935290953e+01   1.0976451439e+01    0.1892262    0.1386406 -54.89 0.0005653215    1.520    0.342
        74 -11.2050     33.4035    248.0895   1.0054378280e+02   1.5157460119e+01     0.251738    0.1912902  31.73  0.001484394    1.135    0.119
        75 -10.8927     60.6542     21.0463   4.4185594859e+01   6.3432127849e+01     0.169294    0.1469075  33.92  0.000426135    1.111    0.100
