#   1 NUMBER                 Running object number                                     
#   2 MAG_AUTO               Kron-like elliptical aperture magnitude                    [mag]
#   3 X_IMAGE                Object position along x                                    [pixel]
#   4 Y_IMAGE                Object position along y                                    [pixel]
#   5 X_WORLD                Barycenter position along world x axis                     [deg]
#   6 Y_WORLD                Barycenter position along world y axis                     [deg]
#   7 A_WORLD                Profile RMS along major axis (world units)                 [deg]
#   8 B_WORLD                Profile RMS along minor axis (world units)                 [deg]
#   9 THETA_WORLD            Position angle (CCW/world-x)                               [deg]
#  10 FWHM_WORLD             FWHM assuming a gaussian core                              [deg]
#  11 ELONGATION             A_IMAGE/B_IMAGE                                           
#  12 ELLIPTICITY            1 - B_IMAGE/A_IMAGE                                       
         1 -13.0910     11.0018    155.9251   1.0489237178e+02   4.0964113484e+01     4.684763     1.023059  82.76   0.01163609    7.599    0.868
         2 -13.4599     30.5640    187.3082   1.0121428253e+02   3.2040603022e+01     2.135356      1.06432  59.96  0.008270166    1.803    0.445
         3 -11.7957    219.7958     43.7718   2.8088920448e+01   2.5223532134e+01    0.9011849    0.5777485 -60.39  0.004813695    1.575    0.365
         4 -11.8057    241.4044     26.4085   2.2284243935e+01   2.2842449049e+01    0.7065309     0.521944 -46.13  0.002745829    1.075    0.070
         5 -10.2906      1.9878     14.9486   9.0468973880e+01   7.7617183557e+01    0.8554982     0.069272 -67.27   0.00210321    7.398    0.865
         6  -9.4732    127.9597    228.8257   8.2394751594e+01   1.2504045676e+01    0.3086877    0.1037501  40.80  0.001398774    2.546    0.607
         7  -7.6505     53.2756    250.5740   9.9521014513e+01   1.7868963916e+01    0.1174296    0.0562428  54.22 0.0002681586    1.825    0.452
         8  -9.0212     24.5635    250.4872   1.0524584643e+02   2.0694106668e+01    0.1685595    0.1110717  31.85 0.0008020263    1.266    0.210
         9 -12.2471     54.9349    233.9124   9.8262147430e+01   2.0442035073e+01     1.098491    0.6278217  30.37  0.003697504    1.415    0.293
        10 -10.7215     98.8645    227.2553   8.8313422780e+01   1.6437287571e+01    0.4540998    0.2008088  28.96  0.002326194    1.873    0.466
        11 -11.5606     86.7464    224.3752   9.0668220260e+01   1.8416326054e+01     1.043187     0.306813  25.11  0.003669642    4.145    0.759
        12 -11.9993     77.2772    220.3443   9.2411838171e+01   2.0268263241e+01     1.119829    0.3373178  31.71  0.004823944    2.537    0.606
        13 -10.8763     11.8194    217.7302   1.0693386483e+02   2.7599905562e+01    0.8310107    0.3957419  18.53  0.002247635    2.311    0.567
        14  -7.6135     70.2836    248.3447   9.5955900658e+01   1.6406804942e+01   0.09851336   0.07902151  -1.89 0.0007016184    1.642    0.391
        15 -11.1343     61.1100    212.3471   9.5452453630e+01   2.3645035228e+01    0.7696912    0.2717088  58.45  0.002985226    3.740    0.733
        16 -11.0089      9.5735    193.7419   1.0674081770e+02   3.2574515820e+01    0.5529897     0.262271 -89.82  0.002982072    2.077    0.519
        17  -9.7689      6.6788    187.5055   1.0726003262e+02   3.4131221307e+01     0.245548     0.211761  51.38  0.001406695    1.144    0.126
        18 -11.5645      2.8066    186.0682   1.0818334843e+02   3.4742571123e+01     1.113606    0.3141043 -76.66  0.004706783    3.458    0.711
        19 -10.4152     51.1570    172.2825   9.4622392883e+01   3.3155920810e+01    0.4232093    0.3047007 -16.52  0.001704674    2.062    0.515
        20 -10.4034     57.4974    167.1430   9.2353666779e+01   3.3565686661e+01    0.3177189    0.3001158  -6.71 0.0007167862    1.286    0.222
        21  -8.6535    101.7691    171.4042   8.0986793369e+01   2.6417573061e+01    0.2046095     0.123662  24.10 0.0009640621    1.751    0.429
        22  -8.7728    240.3328    169.3260   5.2962304696e+01   5.5492776191e+00    0.1192263    0.0714765   0.57 0.0007051267    1.712    0.416
        23 -10.7904      2.7599    163.8779   1.0755365635e+02   3.9704139290e+01    0.4957008    0.2250449  79.19  0.002439738    1.995    0.499
        24 -12.2087     10.1036    206.7129   1.0700729370e+02   2.9884080738e+01    0.9010786     0.441417  31.61  0.003468299    1.660    0.398
        25  -9.9975     68.8255    158.4774   8.8122508296e+01   3.4098649114e+01    0.3080665    0.2849123 -81.86 0.0004325194    1.143    0.125
        26 -11.2867     76.5314    153.2094   8.5177676063e+01   3.4241676204e+01    0.7597811     0.729046  27.61  0.001326841    1.133    0.118
        27 -11.9579     68.1211    144.7228   8.6440351589e+01   3.7476224080e+01    0.8346021    0.5773687  72.96  0.002626627    1.595    0.373
        28  -7.7003    110.4967    167.4431   7.8165662532e+01   2.5871897699e+01    0.1395963    0.1226812  44.59 0.0002542451    1.068    0.064
        29 -10.8566     56.0352    210.1721   9.6473664816e+01   2.4640021111e+01    0.6023592    0.2259557  58.97  0.002526846    3.144    0.682
        30  -9.0019     93.1472    139.8166   7.8148984568e+01   3.4777179584e+01    0.2778784     0.209381 -86.52  0.001098423    1.579    0.367
        31 -10.4345     80.7869    137.8688   8.1479393324e+01   3.7246040110e+01    0.3028449    0.2793836   4.16 0.0003647635    1.242    0.195
        32 -11.6479     54.8282    154.2726   9.1703780364e+01   3.6928597261e+01    0.4925792    0.3553754 -28.73  0.001184192    1.920    0.479
        33 -10.0306     57.0967    132.6272   8.8156430155e+01   4.1998994337e+01    0.2937857    0.2096574 -61.67   0.00148298    1.419    0.296
        34  -9.4107    106.3635    129.8645   7.2384749380e+01   3.4752905309e+01    0.4318002    0.3339697 -21.18  0.001563344    1.648    0.393
        35 -11.5637     19.8536    196.7591   1.0435304153e+02   3.1051928862e+01    0.4562105    0.4103105 -10.45  0.001289845    1.509    0.337
        36  -7.9840    104.4374    118.1487   7.0351004164e+01   3.7799873243e+01    0.2150619    0.1486813 -51.13 0.0009746131    1.476    0.323
        37  -8.2542    231.0122    113.9822   4.3361238566e+01   1.3982442270e+01    0.1921202    0.1341774   1.26 0.0008325318    1.618    0.382
        38  -9.6826     22.4229    156.5093   1.0156646111e+02   3.9864759840e+01     0.307212    0.1666241  62.06   0.00153441    1.675    0.403
        39 -11.1019      3.4458    211.4232   1.0863433579e+02   2.9509471884e+01    0.4663177     0.281075  80.54 0.0008228638    1.564    0.360
        40  -8.1655    204.9129    110.6890   4.6374201978e+01   1.9029305188e+01    0.2083361    0.1602196  24.97  0.001189967    1.436    0.304
        41 -10.6978     15.9519    249.1200   1.0690368573e+02   2.1694317929e+01    0.2557439    0.1855693  56.87  0.001082432    1.159    0.138
        42  -8.8059     52.6889     90.5240   8.1974765845e+01   5.3561315285e+01    0.2580078    0.1840032 -55.05   0.00123934    1.363    0.266
        43  -9.8011      2.3601     83.6337   1.0345892062e+02   6.0122590531e+01    0.4483779   0.08479705 -75.05  0.001378667    3.942    0.746
        44  -9.4807      2.3939     74.6824   1.0260223342e+02   6.2502040799e+01    0.2739956    0.1165211 -87.54  0.001138594    2.198    0.545
        45  -9.7034      2.2533     67.0649   1.0185057714e+02   6.4526037614e+01    0.4650231    0.1099177 -85.58  0.001340193    4.644    0.785
        46 -10.0235     13.1777     60.7862   9.4795269314e+01   6.5606347183e+01     0.384798    0.2670785  82.83  0.001323514    1.507    0.337
        47 -11.7137    202.4728     54.6515   3.2669784241e+01   2.7561013342e+01     1.006133    0.5759007  75.07  0.004870341    2.075    0.518
        48 -11.7841    212.9187     48.0229   2.9818120667e+01   2.6151663583e+01    0.6182941    0.5881201 -83.26  0.003826966    1.170    0.146
        49  -9.2660     80.8303    243.0342   9.3434224309e+01   1.6058264610e+01    0.3089603    0.1844945 -81.78   0.00194254    2.348    0.574
        50 -11.6059    227.5915     37.1096   2.5784297132e+01   2.4399396393e+01    0.7669063    0.4994646  60.34  0.002110997    1.809    0.447
        51  -8.0475     20.9806     48.6686   8.7142600158e+01   6.8125261264e+01    0.1819143    0.1742304  -5.56 0.0005066746    1.111    0.100
        52  -9.7906      2.2121     41.6238   9.8017458562e+01   7.1131140650e+01    0.5276519    0.1118276 -80.50   0.00141453    5.708    0.825
        53 -13.5554     10.4661    241.5968   1.0781442069e+02   2.3429401245e+01     2.414423     1.067961  17.18   0.01297513    2.724    0.633
