#   1 NUMBER                 Running object number                                     
#   2 MAG_AUTO               Kron-like elliptical aperture magnitude                    [mag]
#   3 X_IMAGE                Object position along x                                    [pixel]
#   4 Y_IMAGE                Object position along y                                    [pixel]
#   5 X_WORLD                Barycenter position along world x axis                     [deg]
#   6 Y_WORLD                Barycenter position along world y axis                     [deg]
#   7 A_WORLD                Profile RMS along major axis (world units)                 [deg]
#   8 B_WORLD                Profile RMS along minor axis (world units)                 [deg]
#   9 THETA_WORLD            Position angle (CCW/world-x)                               [deg]
#  10 FWHM_WORLD             FWHM assuming a gaussian core                              [deg]
#  11 ELONGATION             A_IMAGE/B_IMAGE                                           
#  12 ELLIPTICITY            1 - B_IMAGE/A_IMAGE                                       
         1 -12.1327    207.7831     33.4832   4.3842237463e+01   2.9342529221e+01    0.9375042    0.8140321 -42.93  0.004586564    1.149    0.130
         2 -10.8953    215.4476     25.9984   4.1064596092e+01   2.8431874074e+01    0.5193787    0.3846328  38.38   0.00164348    1.713    0.416
         3 -11.8575    224.3158     16.6120   3.7907594805e+01   2.7452695876e+01    0.7373399    0.6077625 -64.66  0.002768062    1.066    0.062
         4  -9.4884     33.0000     20.4918   8.4788849647e+01   6.8517595747e+01    0.3955101   0.05935008 -42.65  0.001158356    5.955    0.832
         5  -9.2099      7.7472      3.6130   9.0192992134e+01   7.3547810039e+01    0.2693444     0.190455 -71.38   0.00128578    4.854    0.794
         6  -8.4819     49.4654      3.4663   6.8659186565e+01   6.8521188864e+01    0.1234494   0.09577524   7.88  2.40254e-05    1.002    0.002
         7 -10.2510    134.5527    234.6880   1.0422491654e+02   7.6809305004e+00     0.610672    0.1287675 -53.81  0.001978052    5.831    0.828
         8 -11.7318     98.7006    245.9115   1.1249930413e+02   1.1144413309e+01    0.8762398    0.4062701  46.40  0.004675781    1.738    0.425
         9 -10.9238     61.4265    249.0008   1.1962667613e+02   1.5598072317e+01    0.7299637     0.359738  35.12   0.00311578    2.017    0.504
        10 -10.7599     84.3749    249.6618   1.1552302498e+02   1.2490264020e+01    0.9309276    0.2665813  33.64  0.003514994    4.075    0.755
        11 -10.5965     72.2968    247.8886   1.1758371617e+02   1.4407117779e+01     0.629917    0.3717449  37.73  0.003772005    1.585    0.369
        12 -11.8045     31.3607    247.7917   1.2476624574e+02   1.9329469043e+01    0.9387664    0.6684589  40.73   0.00698694    1.482    0.325
        13 -12.2100     23.6568    224.2699   1.2476788000e+02   2.4538397265e+01     1.126691    0.6162273  64.16  0.005936891    1.491    0.329
        14 -11.8585     35.1765    207.9907   1.2149830152e+02   2.6605331388e+01    0.6699544    0.5819817   8.81  0.001530179    1.740    0.425
        15 -13.6728     42.5693    196.1751   1.1901968248e+02   2.8302947219e+01     4.205298     1.497383  66.11   0.01424291    4.769    0.790
        16 -14.0081      3.7366    142.6298   1.2311525535e+02   4.4029698184e+01     11.06791      1.02349 -75.81   0.02327884   10.825    0.908
        17  -9.4145     33.6163    227.4290   1.2315346389e+02   2.2869990578e+01    0.1786729     0.152085  83.95 0.0007266139    1.218    0.179
        18 -10.7666    114.8593    230.5021   1.0765687839e+02   1.1481211188e+01     0.332347    0.2331274 -51.55   0.00198696    1.684    0.406
        19 -10.6333     99.8506    228.1246   1.1040615929e+02   1.4179054374e+01    0.3269911    0.2570412  54.24  0.002103252    1.074    0.069
        20  -9.8094     48.9220    215.5485   1.1937729613e+02   2.3489660655e+01    0.2941232    0.1523177 -64.13  0.001160434    1.951    0.487
        21  -9.2801     48.9706    224.9967   1.2011779750e+02   2.1595632940e+01    0.2412683    0.1679328  85.07 0.0007985089    1.274    0.215
        22  -9.9595     46.2438    220.3456   1.2028149186e+02   2.2837526217e+01    0.3241331     0.204552 -88.09  0.002033067    1.458    0.314
        23  -9.4097     94.5119    221.2845   1.1072456203e+02   1.6270776554e+01    0.4124149    0.1997866 -63.39  0.001867505    2.254    0.556
        24  -9.0627     36.9173    223.8576   1.2230602575e+02   2.3203509334e+01    0.1571603    0.1422049  84.12 0.0007510739    1.295    0.228
        25  -9.5997    165.2921    220.5346   9.5966530122e+01   5.0784361368e+00    0.3596566    0.2091487  59.15  0.001609271    2.605    0.616
        26  -7.6278     63.2530    201.3512   1.1512218374e+02   2.4689806196e+01    0.1157008    0.0921113 -47.33 0.0003024119    1.596    0.374
        27 -11.9290    127.7465    230.5888   1.0506547898e+02   9.4629484852e+00     0.769326    0.3365742  34.09  0.003487073    2.187    0.543
        28  -7.9379    193.6883    192.6668   8.5258210287e+01   4.9244731675e+00    0.1446991    0.1008138   1.90 0.0007044207    1.678    0.404
        29 -10.2327     62.0419    180.0623   1.1302661694e+02   2.9573605651e+01    0.4350182    0.2821192 -33.43   0.00213425    2.423    0.587
        30 -10.1513     67.3353    174.5578   1.1108797805e+02   3.0157513512e+01    0.3151607     0.250507 -44.48 0.0008971347    1.491    0.329
        31 -12.2188      4.0973    184.2930   1.2609138354e+02   3.4599903218e+01     1.322245    0.4999775 -85.98   0.00388508    2.294    0.564
        32  -8.9127     97.7470    170.0014   1.0299043345e+02   2.6766099238e+01    0.2669546    0.1324886  64.47 0.0008968745    3.540    0.718
        33 -10.8200    122.0258    225.3616   1.0556002500e+02   1.1302949021e+01    0.5226568    0.3708977 -32.12  0.002923344    1.955    0.488
        34 -10.3454     76.8395    164.5476   1.0734718839e+02   3.1210867903e+01    0.4207006    0.2718769  57.24 0.0004256736    1.625    0.385
        35 -11.7427     68.4202    144.4771   1.0636233830e+02   3.7225684518e+01    0.8287664    0.5531744  81.42  0.003329003    1.818    0.450
        36 -11.1808     83.8682    158.2906   1.0456513995e+02   3.1681063733e+01    0.7916996    0.5543603 -41.71  0.002209533    1.626    0.385
        37 -10.9008     75.0357    155.9282   1.0647172167e+02   3.3530465193e+01    0.6459425    0.3980919  72.17  0.002917228    2.084    0.520
        38 -11.7257     64.2060    160.8234   1.0999151957e+02   3.3812630078e+01    0.5171349    0.2944872 -44.79  0.001531705    2.060    0.515
        39 -10.3318     32.8405    157.3536   1.1740197917e+02   3.8189367332e+01    0.8413465    0.1238403 -71.71  0.002051797    7.321    0.863
        40 -11.1457     88.8120    228.1421   1.1262026363e+02   1.5775026461e+01    0.6390218    0.3405873  88.44   0.00126259    2.756    0.637
        41  -9.4751     99.7191    142.0429   9.7361034157e+01   3.3071476097e+01    0.5584936    0.2849437 -35.39  0.002023927    2.795    0.642
        42 -10.5054     86.3337    142.2349   1.0105570525e+02   3.5191783069e+01    0.3322181    0.2686736 -39.57 0.0006561073    1.330    0.248
        43 -10.7215     83.7906    227.8091   1.1358530403e+02   1.6545267710e+01    0.5400239    0.2047656 -69.16   0.00238046    3.115    0.679
        44 -10.6871     58.1786    131.3091   1.0698107924e+02   4.1775355280e+01     0.577256    0.2414662 -66.41  0.002302108    2.286    0.563
        45 -10.0521     41.9790    236.9484   1.2226267191e+02   2.0122542451e+01    0.2362786    0.1802872  55.11 0.0003699545    1.163    0.140
        46  -8.9947    108.0654    131.5182   9.2809760449e+01   3.4133465691e+01    0.5220842    0.2644203  40.61  0.002079383    2.029    0.507
        47 -10.1468     39.2392    232.5883   1.2246803571e+02   2.1255784975e+01    0.2398218    0.1776991  67.63 0.0004835301    1.027    0.027
        48  -8.5865     96.6332    128.0585   9.5244315159e+01   3.6969390405e+01    0.2634539    0.2109995   3.62  0.001289761    1.576    0.366
        49  -8.2374    106.6956    120.0326   9.0494821688e+01   3.7110637911e+01    0.2114683    0.1853859 -46.72   0.00025586    1.092    0.084
        50  -8.5688    134.8291    112.4012   8.0765722374e+01   3.3239649866e+01    0.3082362    0.1152757 -46.79 0.0009853572    2.668    0.625
        51  -8.2653    206.4759    110.4723   6.4181347613e+01   1.7482385493e+01    0.1510175    0.1409957 -29.46 0.0008095287    1.008    0.008
        52 -13.6290      6.7560    239.4151   1.2844709255e+02   2.3348562350e+01     2.100715     1.031048 -84.00   0.01391831    1.758    0.431
        53  -7.7352    134.3413    103.3149   7.8401745150e+01   3.5326000164e+01    0.1644952    0.1251949   1.72  0.000704778    1.706    0.414
        54 -12.8136      9.1022    207.2380   1.2646157384e+02   2.9345315290e+01    0.9456666    0.8239499  25.88  0.004515846    1.630    0.387
        55  -8.4803     62.6441    236.3172   1.1843034458e+02   1.7748184798e+01    0.2027509    0.1379179  68.72 0.0006931091    1.265    0.210
        56  -9.1147     13.6278     60.0111   1.0756071854e+02   6.2632143141e+01    0.1809396    0.1237576 -53.64 0.0004840584    1.150    0.130
        57 -10.1953    195.2269     49.7585   4.9910140511e+01   3.0227410541e+01    0.3073241    0.2383343  -1.81 0.0009895301    1.651    0.394
        58  -9.4675    190.9700     47.0265   4.9795659343e+01   3.1663181591e+01    0.2331272    0.1732478  27.68  0.001142166    1.700    0.412
        59  -8.2507    137.9783     44.1806   5.8794072400e+01   4.5285026374e+01     0.239609    0.1713469 -84.42  0.001069239    2.035    0.509
        60 -11.4832    199.2525     39.4206   4.6509218605e+01   3.0651284109e+01    0.6200252    0.4391949  82.81  0.002291629    1.470    0.320
        61 -10.6993    114.6400    243.4702   1.0919358054e+02   9.2382295338e+00    0.4541444    0.2228197 -66.49  0.002295744    2.694    0.629
        62 -10.1697    119.4774    241.7611   1.0806263699e+02   8.8032342255e+00    0.2985149    0.1932657 -35.74  0.001668181    2.272    0.560
        63  -8.8729     53.1196    240.3873   1.2049232694e+02   1.8172307010e+01    0.2276518    0.1594336 -66.96  0.000986897    1.610    0.379
        64  -8.6369     56.9963    240.4903   1.1979574593e+02   1.7680310989e+01    0.2626168    0.1107574  56.95  0.001284899    2.109    0.526
        65 -10.6394     82.3295    244.3282   1.1543077898e+02   1.3701803119e+01    0.3402022    0.3151856  32.77  0.002539687    1.374    0.272
