#   1 NUMBER                 Running object number                                     
#   2 MAG_AUTO               Kron-like elliptical aperture magnitude                    [mag]
#   3 X_IMAGE                Object position along x                                    [pixel]
#   4 Y_IMAGE                Object position along y                                    [pixel]
#   5 X_WORLD                Barycenter position along world x axis                     [deg]
#   6 Y_WORLD                Barycenter position along world y axis                     [deg]
#   7 A_WORLD                Profile RMS along major axis (world units)                 [deg]
#   8 B_WORLD                Profile RMS along minor axis (world units)                 [deg]
#   9 THETA_WORLD            Position angle (CCW/world-x)                               [deg]
#  10 FWHM_WORLD             FWHM assuming a gaussian core                              [deg]
#  11 ELONGATION             A_IMAGE/B_IMAGE                                           
#  12 ELLIPTICITY            1 - B_IMAGE/A_IMAGE                                       
         1 -13.2215    182.7586     79.0203   5.0483881263e+01   2.8670156570e+01     5.019044    0.6149995 -40.54  0.007415772    6.310    0.842
         2 -13.9248    166.8383     56.8140   4.7403439246e+01   3.5938227774e+01     18.16285     7.603524 -63.50   0.03440467   12.062    0.917
         3 -12.1935    192.5887     50.9578   4.1928782456e+01   3.0797811504e+01     1.842732     0.942334 -54.00  0.008433418    2.017    0.504
         4 -13.7777    246.4185     82.7861   4.2307090954e+01   1.4791342696e+01     2.328535     1.032101 -38.80  0.003936979    1.945    0.486
         5 -13.8458    225.4350     86.6710   4.5756623931e+01   1.8203224827e+01      7.50432     1.878342 -51.85   0.01674214    8.324    0.880
         6 -12.2708    220.7780     38.1101   3.5676418615e+01   2.6356558455e+01     2.099324    0.7623033 -58.72  0.008046549    3.439    0.709
         7 -14.0424    238.0550     44.4764   3.5341230728e+01   2.1991491948e+01     2.746335     1.521858  55.88   0.01512272    2.139    0.533
         8  -9.2199    232.2327     13.1183   2.9552402590e+01   2.7005712118e+01    0.4273946    0.1884145 -28.47  0.001749375    2.864    0.651
         9  -9.8676    214.0274     12.6797   3.0866716608e+01   3.0812959695e+01    0.3350897    0.1988731  73.95  0.001095978    1.539    0.350
        10  -8.2839    195.8193     10.8832   3.2063524176e+01   3.4958081426e+01    0.1712224    0.1169963 -64.00 0.0007385691    1.327    0.247
        11  -8.6571    229.2560      1.3115   2.7456992323e+01   2.8862699371e+01    0.1267099   0.09606105  76.02            0    1.345    0.257
        12  -9.7781    205.5469      8.3590   3.0645993631e+01   3.3086727459e+01    0.1926633    0.1535309 -79.28 0.0003190527    1.007    0.007
        13  -8.9517    208.8909      4.7768   2.9607827119e+01   3.2732935416e+01    0.1805672    0.1688646  15.90 0.0004423996    1.566    0.362
        14  -8.5902    172.0098      6.8639   3.3488589008e+01   4.0750864921e+01    0.1799095    0.1629754 -57.88 0.0004814305    1.203    0.169
        15  -9.9025    120.0332      9.2546   4.1502568925e+01   5.2685991139e+01    0.3241291    0.2734504 -55.59  0.001114276    1.369    0.270
        16  -9.3709    135.4032      4.6489   3.7518857766e+01   4.9492989985e+01    0.2305127    0.1833917  52.69 0.0006624102    1.182    0.154
        17 -11.1898    249.1817      2.0527   2.6387480478e+01   2.4912492810e+01    0.2105246    0.1451872 -74.42 0.0005688017    1.114    0.103
        18  -8.0480    234.8539      1.9255   2.7218341680e+01   2.7685400751e+01    0.1730853    0.1508058 -22.53 0.0009233261    1.663    0.399
        19 -10.1308    228.2309      8.0032   2.8832076666e+01   2.8370168787e+01     0.446937    0.1657719 -29.88  0.001972875    3.186    0.686
        20  -8.5656    243.4480      1.6477   2.6645408606e+01   2.6043045035e+01    0.1162237   0.09319112 -55.10 0.0001713979    1.244    0.196
        21  -8.2100    171.5231      2.0954   3.2345592447e+01   4.1298278202e+01    0.1622847    0.1159967 -37.67 0.0007102712    1.533    0.348
        22  -8.3473    242.0752    183.6181   6.3461644327e+01  -1.5117675640e+00    0.1705833    0.1464938  -4.24  0.000705612    1.131    0.116
        23  -8.0063    229.4721    250.5018   7.7637167179e+01  -1.0063779879e+01    0.1192874   0.09000211  -0.61 9.709122e-05    1.006    0.006
        24  -8.8659    136.8482    250.0211   9.6052112657e+01   2.7025458194e+00    0.1991367    0.1471148  75.84  0.001089309    2.040    0.510
        25  -8.7680    201.7025    175.1953   6.9205755479e+01   6.3408333145e+00    0.2364462    0.2214795  85.26 0.0007545298    1.419    0.296
        26  -9.0145    228.3941    171.1641   6.3371471422e+01   2.6802748322e+00    0.2425478    0.2053318 -49.70  0.001446467    1.356    0.262
        27  -9.7159    230.5486    167.7927   6.2314021952e+01   2.9373536169e+00    0.5854321    0.2070016 -48.82  0.002047624    3.462    0.711
        28 -10.7214     10.9120    170.6329   1.1642106060e+02   3.6822363542e+01    0.3439481    0.1958487  82.96  0.001767951    1.693    0.409
        29 -12.6345     26.3453    161.4976   1.1144484652e+02   3.7771595902e+01    0.8175585    0.7573838 -38.26  0.001723884    1.257    0.204
        30 -12.4564     39.0837    155.3202   1.0710829083e+02   3.8084981704e+01     1.061433    0.9048429 -62.13  0.002961322    1.101    0.092
        31  -8.5306    186.0003    164.3013   7.0145212567e+01   1.1300085308e+01    0.2466226    0.1832831  41.66 0.0004435395    1.433    0.302
        32  -9.2212    238.5007    175.9155   6.2567622856e+01   3.0480643822e-01     0.295717    0.2223125  68.94  0.001103437    2.458    0.593
        33  -8.3534    206.2721    154.9757   6.4060930612e+01   9.4330170145e+00    0.1874705    0.1156137 -40.68  0.000696053    1.469    0.319
        34  -7.3557    157.3117    155.6310   7.4680252902e+01   1.8659826208e+01    0.1578403    0.1249456 -87.43 0.0007036247    1.769    0.435
        35 -13.0747    225.7739     67.1195   4.1421655667e+01   2.1228687982e+01     1.301126    0.9806973 -63.35  0.003475274    1.197    0.164
        36 -10.7816     53.9910    149.8488   1.0194226121e+02   3.7794662562e+01     1.094719    0.4362852 -52.32  0.004206643    2.286    0.563
        37 -10.0551    176.1386    149.5122   6.9014820112e+01   1.6266023157e+01    0.3609258    0.2791796  33.43 0.0008836159    1.364    0.267
        38  -8.4942    134.4487    148.6415   7.8785543901e+01   2.4780208668e+01    0.3004878    0.1538482 -52.59 0.0009690076    2.006    0.502
        39  -9.6365     70.0064    145.5035   9.6393001306e+01   3.6793270703e+01    0.4082237    0.3337308  86.14  0.001403887    1.348    0.258
        40  -9.9564     66.4048    144.1865   9.7233723047e+01   3.7640079925e+01    0.6108924    0.3376923 -74.83  0.002160972    2.167    0.538
        41  -8.7627    223.1576    145.3769   5.8940547498e+01   8.2300929343e+00    0.2342956    0.1984063 -80.23 0.0009154314    1.576    0.366
        42  -9.3932    181.9087    146.2127   6.7026128807e+01   1.5816284214e+01    0.2202175    0.2092051 -70.88 0.0004566678    1.175    0.149
        43  -8.1859    119.9830    146.0685   8.2053265715e+01   2.8202376426e+01    0.2161878    0.2096953 -46.20  0.001130092    1.015    0.015
        44  -8.4486    215.7474    144.7985   6.0114343146e+01   9.6590205083e+00    0.2059529    0.1765243 -20.36 0.0005183387    1.131    0.116
        45  -9.4005    192.3651    144.2275   6.4418970461e+01   1.4169413095e+01    0.2585205    0.2394424  88.01 0.0004226187    1.283    0.221
        46  -9.4568    146.3528    142.5046   7.4349812436e+01   2.3818707033e+01    0.4389071    0.2517512 -67.42  0.001498666    2.920    0.658
        47 -11.1397    179.7757    136.8124   6.5315813561e+01   1.8199064382e+01    0.7346956    0.4206618 -49.94  0.002482975    1.768    0.435
        48  -9.1498    228.9784    140.5620   5.6938649348e+01   8.0907887263e+00     0.242407    0.1677715 -55.49  0.001239425    1.588    0.370
        49  -9.5830    207.8185    135.7066   5.9547656676e+01   1.2861897374e+01    0.3132975    0.2645353 -10.93 0.0008447432    1.287    0.223
        50  -8.4079    133.1595    141.4016   7.7458594422e+01   2.6740027697e+01    0.5322353    0.1178212 -52.79  0.001119764    6.354    0.843
        51  -8.6142    117.0093    246.5075   9.9833568677e+01   6.2642439312e+00    0.1873979   0.08864532  51.55 0.0007983514    2.397    0.583
        52  -8.9716    171.0425    135.0072   6.6778862028e+01   2.0375893554e+01    0.2316457    0.1879142 -80.04 0.0003746356    1.582    0.368
        53  -9.3914    140.2310    131.8653   7.3347712843e+01   2.7507821210e+01    0.3549445    0.2435579 -68.90  0.001037988    1.951    0.488
        54  -7.3157     91.6767    130.6399   8.6699740165e+01   3.7175836443e+01    0.1659818    0.1179764 -22.10 0.0006094121    1.777    0.437
        55  -9.8279    191.6116    154.3297   6.6816695606e+01   1.2274836796e+01    0.4216784     0.361608 -89.61  0.001638786    1.561    0.360
        56  -8.1942    166.9771    129.4598   6.6353242386e+01   2.2406108070e+01    0.2155748    0.1377541  71.13 0.0006382359    2.543    0.607
        57 -10.0134    224.0338    129.3443   5.5344977964e+01   1.1013044539e+01      0.36668    0.2737332  78.84 0.0008915677    1.923    0.480
        58  -9.2726    201.9074    126.0126   5.8435718959e+01   1.5881753944e+01    0.2550583    0.2013616 -31.29 0.0005149333    1.227    0.185
        59  -7.9621    205.5928    121.8275   5.6811159563e+01   1.5945737745e+01    0.2003075    0.1242303 -49.73 0.0004079001    1.555    0.357
        60  -8.8912    166.1311    117.8759   6.3688236857e+01   2.5023496309e+01    0.3390733    0.2556337 -60.00 0.0008362472    1.456    0.313
        61  -8.8713    167.3068    113.6449   6.2366981240e+01   2.5638002713e+01    0.3616378    0.2447989 -64.99  0.001146506    1.878    0.468
        62  -9.2851    201.4195    116.3126   5.6281038603e+01   1.7834764428e+01    0.3156528    0.2103135 -85.46  0.001313876    2.547    0.607
        63  -9.1935    134.7791    112.4101   6.9799726849e+01   3.3025805683e+01    0.5695342    0.1251512 -42.42  0.001393949    4.696    0.787
        64  -8.1381     68.9275    114.1004   9.0093580526e+01   4.4928054540e+01    0.2023541    0.1906398 -83.85            0    1.162    0.140
        65  -8.9736    161.4427    111.7409   6.3175738343e+01   2.7320109794e+01    0.2931881    0.2700156 -11.80 0.0008823356    1.165    0.142
        66  -8.1808    159.2830    108.6731   6.2869385415e+01   2.8428671212e+01    0.2537816    0.2092421 -72.13 0.0005309329    1.393    0.282
        67 -10.1459    205.4318    110.0131   5.4114129188e+01   1.8190385263e+01    0.3918858    0.3341335   7.35  0.002136892    1.466    0.318
        68  -9.8690    121.8628    101.3199   7.0245479454e+01   3.8203719532e+01    0.8676814    0.3659202 -57.57   0.00246858    4.054    0.753
        69  -8.3572    144.5068    105.4908   6.5496975277e+01   3.2376219787e+01    0.1546511    0.1508418 -17.78 -7.283717e-05    1.037    0.035
        70  -9.4020    151.7382    101.6925   6.2754205382e+01   3.1538614362e+01    0.2970552    0.2748779  34.35 0.0005698488    1.126    0.112
        71  -8.9629    137.4205     97.7388   6.5135376243e+01   3.5556346766e+01     0.278264    0.2642188  39.51 0.0009044585    1.063    0.059
        72  -8.8441    134.8917    241.1132   9.5261582153e+01   4.5993141922e+00     0.201774    0.1615829  49.27 0.0005003479    1.280    0.218
        73 -10.4563    165.0711     95.2407   5.8091160622e+01   2.9783413852e+01    0.9150261    0.4877126  29.94  0.003126734    3.267    0.694
        74 -10.2492     87.3642     96.1270   7.9220387931e+01   4.6163262688e+01    0.2528778    0.2343768  18.08 0.0002879635    1.087    0.080
        75  -9.4864    145.8627     91.9549   6.1469252693e+01   3.4805189542e+01    0.3239067    0.2912534 -57.08  0.001101407    1.134    0.118
        76  -9.4533    189.3239    237.9805   8.3309362048e+01  -2.9473556605e+00    0.2915545    0.2469622 -87.13  0.001468118    2.149    0.535
        77 -10.9662    162.5057     86.6648   5.6339342600e+01   3.1978153619e+01    0.4101244    0.3229736 -18.89  0.001054496    1.512    0.339
        78  -7.8201    136.4241     89.4842   6.3057503132e+01   3.7431812103e+01    0.1503033    0.1476926 -10.89 1.472503e-05    1.028    0.027
        79 -10.3776    209.5455    232.2232   7.8345345070e+01  -4.8591371153e+00    0.2215335    0.1853637  10.23  0.000315262    1.127    0.113
        80  -9.4736    208.2953     85.1969   4.7864671541e+01   2.1984792374e+01    0.2980579    0.2043258 -59.49 0.0003129785    1.464    0.317
        81  -8.4556    128.0262     82.2886   6.3093279902e+01   4.0712535946e+01     0.218861     0.188333  44.83 0.0005519209    1.148    0.129
        82  -8.3681      5.3342     82.3311   1.0655851095e+02   5.8976463886e+01    0.1411042   0.07117122 -39.56            0    1.729    0.421
        83 -10.6781    201.2188     78.0312   4.7240287363e+01   2.4706592090e+01    0.3978902    0.3042516  52.34 0.0008018315    1.432    0.301
        84 -10.9791    207.3828     75.3665   4.5700704652e+01   2.3802412003e+01    0.4786443    0.3829342 -72.02  0.001515529    1.230    0.187
        85  -9.6803    135.9554     75.5141   5.9105055290e+01   4.0155827260e+01    0.2268812    0.1999861 -37.89 0.0003830882    1.158    0.136
        86  -9.2933    122.5852     75.6737   6.2521714371e+01   4.3165689253e+01    0.2472743    0.1821495  71.25 0.0006105714    1.708    0.414
        87  -9.4431    129.7082     74.4351   6.0313132959e+01   4.1781496008e+01     0.290121    0.1449466  55.51  0.001133516    2.099    0.524
        88 -10.1586    151.3610     71.3537   5.4426325156e+01   3.7285016253e+01    0.3291168    0.2703912 -24.01 0.0005249945    1.355    0.262
        89  -7.8471    106.9952     71.0562   6.5402471272e+01   4.7411357292e+01    0.1728143    0.1638598  19.32 0.0003433883    1.006    0.006
        90 -11.6436    145.0872     67.0505   5.4525343558e+01   3.9481357203e+01    0.5700656    0.5145304  15.77  0.003146478    1.247    0.198
        91 -10.5853    153.1625     63.3809   5.1782403955e+01   3.8168377999e+01    0.4539071    0.2239342  41.96  0.001794378    2.362    0.577
        92  -9.8485    197.1805     66.7562   4.5127510547e+01   2.7410278363e+01    0.3047307    0.2477076 -30.68 0.0003022572    1.357    0.263
        93  -8.8343    139.4993     79.0314   5.9293475886e+01   3.8704110191e+01    0.2261155    0.1477888 -38.58 0.0008317544    1.553    0.356
        94 -10.2752    144.5377     59.5923   5.2449886561e+01   4.0807335740e+01    0.3480375    0.2817428 -46.11 0.0007175019    1.278    0.218
        95  -9.3767    177.5679    232.2438   8.4788655743e+01  -2.7580115628e-01    0.3466822    0.1897354  43.25  0.001681147    1.974    0.493
        96  -8.0252    105.5147     58.4980   6.1702058005e+01   4.9898210845e+01    0.2478148    0.1296494 -47.47  0.001023208    2.252    0.556
        97  -7.8796     72.7610     58.0626   7.2164673282e+01   5.6422283878e+01    0.1731493    0.1128161 -39.02  0.000610133    1.539    0.350
        98  -9.3167    123.9852     52.9740   5.5029005142e+01   4.6630779788e+01    0.2217604    0.1718921 -72.55 0.0006321169    1.657    0.396
        99  -9.9728    138.3592     51.3826   5.1288400296e+01   4.3504177814e+01    0.2778984     0.254603 -34.04  0.001180375    1.165    0.141
       100  -9.4755    143.3110     50.7013   5.0059780385e+01   4.2428626746e+01    0.3027818    0.1413722  41.51   0.00117432    2.516    0.603
       101 -10.2673    137.2577     46.3102   4.9967403238e+01   4.4483579561e+01    0.2569005    0.1996149 -32.34 0.0007577665    1.388    0.279
       102  -7.8942    123.4976     46.5297   5.3064095987e+01   4.7678050779e+01    0.1408906    0.1286105  43.05 8.399558e-05    1.036    0.035
       103 -10.2275      8.6592    161.3227   1.1615350436e+02   3.9308034158e+01    0.2235508    0.1418551  86.85  0.001220131    1.441    0.306
       104  -9.0208    238.2765    228.5692   7.2374972780e+01  -8.0481381405e+00    0.2066326    0.1062693  35.05  0.001116648    2.079    0.519
       105  -8.9140    172.1649     41.9275   4.2548554951e+01   3.6771213668e+01     0.196846    0.1797846 -76.99 0.0004841142    1.048    0.046
       106 -11.2434    133.1393     36.9014   4.7890248233e+01   4.6697005205e+01    0.6259457    0.2883367 -37.20   0.00273692    2.286    0.563
       107  -9.5848    120.1536     40.2135   5.1772089999e+01   4.9307899625e+01    0.2332176    0.2100143 -57.21  0.001377168    1.247    0.198
       108  -9.4167    102.0994     40.4883   5.6422809260e+01   5.3329009473e+01    0.2432768     0.217288 -10.32 0.0005123417    1.171    0.146
       109  -8.7878    161.3983     39.1329   4.3460391846e+01   3.9685889106e+01    0.2623534    0.1815917 -63.42 0.0007591543    1.580    0.367
       110 -10.2518    123.4584     37.3440   5.0078493357e+01   4.8912000178e+01    0.4233758    0.1997049  65.67  0.001732505    2.337    0.572
       111  -8.8882    198.1771     32.5920   3.6834190122e+01   3.1969058323e+01    0.2284713    0.1587235 -37.60 0.0005088784    1.490    0.329
       112  -8.0590    125.3122     32.3455   4.8048003807e+01   4.9092942083e+01    0.1419497   0.09614106  30.01 0.0007046378    1.709    0.415
       113 -13.2219    238.1959     61.7974   3.8885886645e+01   1.9536381431e+01     1.184979     1.075127 -84.44  0.005496784    1.182    0.154
       114  -8.5881    218.0586    158.4027   6.2596743277e+01   6.7039394324e+00    0.2565768    0.2039131 -72.66   0.00134601    1.814    0.449
       115  -9.1824    179.3943     24.0078   3.6948799756e+01   3.7270690633e+01    0.4360998    0.2766817  75.75  0.002406355    1.434    0.302
       116 -10.3142    131.2752     23.4385   4.4015215499e+01   4.8694887651e+01    0.3094764    0.2422857 -20.24 0.0007020058    1.483    0.326
       117  -8.1664    114.4818     25.4326   4.8077982789e+01   5.2389539900e+01    0.1335977     0.116284  49.87 4.767786e-05    1.012    0.012
       118  -9.0040    178.8123    227.3851   8.3725479321e+01   3.7822083872e-01    0.2279144    0.1743966 -25.78 0.0004752463    1.302    0.232
       119  -7.5721    190.6456     15.2626   3.3577137137e+01   3.5656492729e+01    0.1299745   0.07920498 -73.42 0.0006742342    1.620    0.383
       120  -9.5704     83.5766    227.2979   1.0489477673e+02   1.4983395697e+01    0.2200068     0.163403  10.03 0.0008694981    1.780    0.438
       121  -7.6245    166.2203     13.9557   3.5978598411e+01   4.1409371084e+01    0.1437313    0.1018594 -35.05 0.0003214251    1.553    0.356
       122  -9.1264    179.6090    223.0440   8.2825090606e+01   1.0209866157e+00    0.2136427    0.1684357  33.39 0.0004723928    1.258    0.205
       123  -8.5911    224.9224    218.8972   7.3100181105e+01  -4.8606781480e+00    0.2462901    0.1646645  52.14   0.00127051    2.583    0.613
       124 -10.0578    146.2891    216.4478   8.9003346047e+01   7.5592918327e+00    0.2385483    0.2279995  11.79  0.000254594    1.066    0.062
       125  -7.9905     98.1539    211.2079   9.9460568593e+01   1.6368266639e+01    0.1755861    0.1483057  69.29 0.0003409903    1.215    0.177
       126  -8.8460    185.6097    207.7745   7.8862263428e+01   2.8486922432e+00    0.2376698    0.2127513 -80.85 0.0007663667    1.627    0.385
       127  -8.7669    169.0426    202.1434   8.1401288937e+01   6.6402165707e+00     0.204548    0.1899195  11.60 0.0003440735    1.063    0.059
       128  -9.3329    193.9174    196.6995   7.5056523546e+01   3.5672597397e+00    0.6937138    0.2979427 -57.62  0.001898824    6.278    0.841
       129  -9.1450     30.3938    197.6945   1.1410944603e+02   2.8418814158e+01    0.2144697    0.1918367 -77.48 0.0004590455    1.162    0.140
       130  -7.9652    173.5768    188.4590   7.7799815874e+01   8.6071402679e+00    0.2512111    0.1832446 -77.40  0.001025456    2.335    0.572
       131  -9.1060    217.9947    184.9828   6.8023997051e+01   1.8558569523e+00     0.218407    0.1836959 -19.63  0.001011131    1.020    0.020
       132  -9.0944     32.9491    182.0533   1.1196805123e+02   3.1952967316e+01    0.1941264    0.1700447 -87.34 -0.001877172    1.037    0.036
