#   1 NUMBER                 Running object number                                     
#   2 MAG_AUTO               Kron-like elliptical aperture magnitude                    [mag]
#   3 X_IMAGE                Object position along x                                    [pixel]
#   4 Y_IMAGE                Object position along y                                    [pixel]
#   5 X_WORLD                Barycenter position along world x axis                     [deg]
#   6 Y_WORLD                Barycenter position along world y axis                     [deg]
#   7 A_WORLD                Profile RMS along major axis (world units)                 [deg]
#   8 B_WORLD                Profile RMS along minor axis (world units)                 [deg]
#   9 THETA_WORLD            Position angle (CCW/world-x)                               [deg]
#  10 FWHM_WORLD             FWHM assuming a gaussian core                              [deg]
#  11 ELONGATION             A_IMAGE/B_IMAGE                                           
#  12 ELLIPTICITY            1 - B_IMAGE/A_IMAGE                                       
         1 -12.8398    157.1747     52.3766   5.2814759618e+00   3.9260565962e+01     1.078336    0.8842592 -38.94  0.003739326    1.189    0.159
         2 -13.3394    169.9115     22.5204   3.5497496924e+02   4.0165515394e+01     1.249899      0.79678  88.47  0.005298052    1.546    0.353
         3 -10.9282    170.6404      2.9151   3.4939563706e+02   4.1985063907e+01    0.3454282    0.2007028 -78.46  0.001899111    1.592    0.372
         4  -9.8516    151.9686    239.8754   4.6330567933e+01   5.7718598015e+00    0.2875995    0.1970673  -2.74  0.000859455    1.405    0.288
         5 -19.1117     77.9064    223.8664   6.0813019681e+01   1.7356398379e+01      5.54702     4.763382  34.73   0.01598088    1.009    0.009
         6 -11.4018    165.4628    159.5958   3.0481910187e+01   1.8000363327e+01    0.4116813    0.3258122 -87.78  0.002111227    2.097    0.523
         7 -13.7949    144.8796    145.0594   3.2010920940e+01   2.4378227314e+01      1.24986     1.099185  52.97  0.004755124    1.286    0.222
         8 -12.7531    137.4740    157.9804   3.6420335880e+01   2.2919327062e+01     1.213851    0.5487876  51.25  0.003658167    3.234    0.691
         9 -12.1425    134.2226    147.7059   3.5117223800e+01   2.5682063759e+01    0.9813803    0.3774812 -55.50  0.003267159    3.207    0.688
        10 -10.9097    133.4039    140.1884   3.3710366966e+01   2.7468023748e+01    0.3895974     0.290761 -70.36  0.001159819    1.707    0.414
        11 -11.5847    189.4853    154.5427   2.4781638492e+01   1.5136867554e+01    0.5594406    0.4274146 -18.94  0.002174077    1.231    0.188
        12 -10.9926     27.7054    146.8493   6.7095319617e+01   4.1320639434e+01    0.5606164    0.3466963 -71.40  0.002276344    1.517    0.341
        13 -10.7660    195.8764    209.1707   3.3427027783e+01   5.3363101758e+00    0.2551286    0.2074771  -7.68 0.0003865912    1.066    0.062
        14 -10.5823    177.1558    146.1127   2.5372980057e+01   1.8625921387e+01    0.2449975    0.2211765 -64.38 0.0008202273    1.354    0.261
        15 -11.5924    135.9328    128.6197   3.0470736805e+01   2.9521824137e+01     1.129614    0.2246122 -49.69   0.00266222    5.738    0.826
        16 -10.8972    158.8593    144.1250   2.8685917129e+01   2.2119743952e+01    0.3752936    0.2854732 -78.16  0.001829133    2.000    0.500
        17 -10.4147    183.1443    205.8372   3.5244915946e+01   7.3883647733e+00    0.2812201    0.2082373 -40.17 0.0006802168    1.448    0.309
        18  -9.1993    177.5022    156.4860   2.7432545580e+01   1.6662144287e+01    0.1358827    0.1183484 -19.41 0.0002978122    1.011    0.011
        19  -9.3534      5.1377    216.0300   7.7771936393e+01   2.6226156198e+01    0.1776227    0.1430259  59.61 0.0004539999    1.042    0.041
        20  -8.3726    216.1429    214.1527   3.0715098312e+01   2.3444330524e+00    0.1383781    0.1175897 -11.99 0.0004001506    1.290    0.225
        21 -10.6305     36.4315    132.6902   6.2376137020e+01   4.4330369706e+01    0.3640504    0.2694573  78.80  0.001805038    1.395    0.283
        22  -9.9620    161.1162    237.3639   4.4182467712e+01   5.1148777430e+00    0.2224844    0.2144233 -10.85 0.0008836827    1.419    0.295
        23  -9.5575    168.6531    236.9708   4.2661084152e+01   4.3254726566e+00    0.1583069    0.1286296 -14.77  0.001125991    1.172    0.147
        24 -11.0158    215.5660    191.3104   2.7058090312e+01   5.6566178147e+00    0.4381787    0.1662867  26.96  0.002001104    3.127    0.680
        25 -10.2665    166.3033    130.4262   2.4109762121e+01   2.3481143590e+01    0.2868572    0.2462279 -66.56 0.0005416418    1.367    0.268
        26 -11.4058    160.6357    128.3365   2.4801670872e+01   2.4930288000e+01    0.4899612    0.3701469 -63.68  0.002241841    1.598    0.374
        27 -10.2937    140.4821    120.5146   2.7440778883e+01   3.0379253138e+01    0.3111193    0.2378203 -44.45  0.001437422    1.242    0.195
        28 -11.0921    151.8667    127.1223   2.6409417367e+01   2.6816060755e+01    0.5058927    0.3054408 -41.67 0.0006237997    1.554    0.356
        29 -11.2635    145.7730    122.9976   2.6807307533e+01   2.8829496956e+01    0.5886605    0.3625713  62.46  0.001428723    2.320    0.569
        30  -9.2626      5.7988    225.7522   7.7938816124e+01   2.4117358511e+01    0.2581979    0.1785712  64.67 0.0006403751    1.242    0.195
        31 -10.5783     14.0190    124.3819   6.9625083199e+01   4.8592036031e+01    0.3300847    0.2555758 -36.20 0.0009444231    1.429    0.300
        32  -8.4456      4.7217    222.0099   7.8065559417e+01   2.4984434625e+01    0.2539743     0.161353   4.88  0.001460636    2.003    0.501
        33 -12.2967    187.5223    174.3426   2.8960385969e+01   1.2003114803e+01    0.9692259    0.3905255 -47.10  0.003636912    2.642    0.621
        34  -9.6691    182.5807    116.1906   1.7754552236e+01   2.3145726203e+01    0.2654029     0.205824 -68.45 0.0008882387    1.609    0.378
        35  -9.9082    115.3575    117.1172   3.3059288586e+01   3.6061206621e+01    0.2567683    0.2126987  25.74 0.0005577155    1.319    0.242
        36  -9.7917     38.0279    116.4467   5.9308779509e+01   4.8634970519e+01    0.2968463    0.2267481 -24.86  0.001457319    1.522    0.343
        37 -10.7454    105.3179    114.0097   3.5163546605e+01   3.8731898331e+01    0.4660137    0.3561833  -8.82  0.001506221    1.756    0.431
        38  -9.7998     46.6431    116.4218   5.5966741979e+01   4.7641797821e+01    0.2826365    0.1361377  32.61 0.0007537549    2.055    0.513
        39 -10.7638    134.8197    112.5447   2.6817190706e+01   3.3197179101e+01     0.624801    0.1612724 -48.56   0.00171643    4.064    0.754
        40  -9.6921    167.6233    113.4543   1.9878644734e+01   2.6477937231e+01    0.3103553     0.229871 -59.24  0.001429811    1.492    0.330
        41 -10.6313     92.3889    112.7365   3.8836421566e+01   4.1474060742e+01    0.4872279    0.3539404  -9.06 0.0009423573    1.977    0.494
        42 -11.8906    111.6338    107.7158   3.1691671275e+01   3.8954923210e+01    0.8639364    0.4055767 -39.62  0.003132503    2.323    0.570
        43  -9.5509     51.9672    104.8780   5.1536338285e+01   5.0078118440e+01    0.2300959    0.2153509 -53.30 0.0005545307    1.042    0.041
        44  -8.2532    175.4565    104.4730   1.6234609281e+01   2.6605077314e+01    0.1416488     0.125185 -46.16 0.0001161045    1.044    0.042
        45  -9.1083     94.8241     99.4478   3.4542896885e+01   4.4219236893e+01    0.2675815    0.2133729 -53.19 0.0003719668    1.233    0.189
        46  -9.5277    220.7683    174.9856   2.3347499743e+01   7.4481863642e+00    0.1890928    0.1554244  -1.24 0.0005006362    1.157    0.135
        47  -8.2279    104.9617     97.0058   3.0703319792e+01   4.2748037535e+01    0.1812305    0.1761896 -58.05 0.0009598668    1.003    0.003
        48 -12.1993    177.1407    169.8836   3.0115570069e+01   1.4291691528e+01    0.8317376    0.3428352 -53.65  0.002999104    3.743    0.733
        49 -10.6690    116.9097    102.8615   2.8904704270e+01   3.8972415730e+01    0.3091904    0.2486748  52.56 0.0003917127    1.301    0.232
        50 -10.9541     61.9620     91.2077   4.4127173527e+01   5.2165789155e+01       1.1893    0.2807488  31.04  0.003006445    5.056    0.802
        51  -8.5089    145.9762     86.7604   1.7329696708e+01   3.6021842222e+01    0.1943587    0.1873519 -70.26 0.0002315436    1.042    0.040
        52  -9.6788     12.1847     84.2059   6.5169494918e+01   5.9757953255e+01    0.3457734     0.181356  -6.37  0.001462794    2.386    0.581
        53  -9.1018    188.9202     78.5893   7.6529005212e+00   2.8295944755e+01    0.3259416    0.2042499 -77.53 0.0009341566    2.288    0.563
        54 -11.7981    146.9429     65.8233   1.1055824196e+01   3.9524452989e+01    0.6506886    0.4832299 -71.19     0.001252    1.494    0.331
        55 -14.9685     53.1386    214.9208   6.6027739705e+01   2.1989998430e+01    0.7067105    0.5683268 -17.12  0.003894008    1.555    0.357
        56 -10.8312    193.8584    170.2278   2.7027693618e+01   1.1801019846e+01    0.7048258    0.2840637 -49.80  0.002809512    3.184    0.686
        57 -11.5445    161.4624     42.6854   1.7981297301e+00   3.9633654381e+01    0.4979293    0.4075202 -45.99 0.0008323205    1.136    0.120
        58  -7.8484     75.7290     40.7363   2.0467646902e+01   6.0404242842e+01     0.136975    0.1090124  17.58 0.0006850645    1.466    0.318
        59  -7.7909     98.2895     31.6965   9.6894320438e+00   5.6488142271e+01    0.1421142    0.1057343 -69.89 0.0002942891    1.568    0.362
        60  -8.1882     82.2816     29.9714   1.3416708439e+01   6.0562872564e+01    0.1637068    0.1252122 -33.39 0.0005311188    1.373    0.272
        61 -11.8880    188.1128    211.7611   3.5257881062e+01   5.8639066862e+00    0.6091623    0.3435363 -18.65  0.002695778    1.862    0.463
        62  -8.2392    225.3631     20.6836   3.5029063502e+02   2.8757406328e+01    0.1294311   0.06183631 -57.58 0.0007041125    1.766    0.434
        63 -10.2604    189.7004     15.1760   3.5131001739e+02   3.6549857964e+01    0.2092117    0.1231814 -48.86  0.001188679    1.400    0.286
        64  -8.3960    213.5574     22.9369   3.5153843433e+02   3.0782559751e+01     0.171038   0.09934954 -34.52 0.0004268192    1.504    0.335
