#   1 NUMBER                 Running object number                                     
#   2 MAG_AUTO               Kron-like elliptical aperture magnitude                    [mag]
#   3 X_IMAGE                Object position along x                                    [pixel]
#   4 Y_IMAGE                Object position along y                                    [pixel]
#   5 X_WORLD                Barycenter position along world x axis                     [deg]
#   6 Y_WORLD                Barycenter position along world y axis                     [deg]
#   7 A_WORLD                Profile RMS along major axis (world units)                 [deg]
#   8 B_WORLD                Profile RMS along minor axis (world units)                 [deg]
#   9 THETA_WORLD            Position angle (CCW/world-x)                               [deg]
#  10 FWHM_WORLD             FWHM assuming a gaussian core                              [deg]
#  11 ELONGATION             A_IMAGE/B_IMAGE                                           
#  12 ELLIPTICITY            1 - B_IMAGE/A_IMAGE                                       
         1 -12.3438    230.8866     60.9329   7.7951435960e+01   1.9485225120e+01      2.17035    0.7492712 -43.30  0.008084004    2.868    0.651
         2 -12.1014    214.6162     39.0991   7.4006139900e+01   2.5904965257e+01     1.263432      1.14178  46.47  0.006250213    1.208    0.172
         3 -10.1573    213.4832     21.2627   6.9161868441e+01   2.8169095719e+01    0.9773028    0.6460059 -42.61  0.003120393    1.376    0.273
         4 -11.2370    225.7066     30.1817   7.0473468337e+01   2.4262572320e+01     0.698992     0.486036  29.13  0.001693544    1.852    0.460
         5 -10.3924    249.7819     17.1969   6.5319465655e+01   2.0193576256e+01    0.9064678    0.5460333 -25.84  0.005013845    1.501    0.334
         6 -11.5973    245.8506      4.1248   6.2394695099e+01   2.2280151145e+01     1.215886    0.3620143  65.95  0.004986689    3.332    0.700
         7 -10.9217    241.0171     15.0228   6.5363072321e+01   2.2319177025e+01    0.4566383    0.3074302 -68.31  0.001514046    1.475    0.322
         8  -9.8865    237.5419     11.4618   6.4700940082e+01   2.3443556941e+01     0.320767    0.2290928 -42.24 0.0009029896    1.200    0.167
         9  -9.4965    238.4686      5.5613   6.3164306651e+01   2.3788279772e+01    0.2097014    0.1525669 -18.46  9.99863e-05    1.424    0.298
        10 -10.2630    236.3194      2.0807   6.2417051537e+01   2.4592098803e+01    0.2898688    0.2609139 -29.30 0.0004886582    1.168    0.144
        11  -9.6453    222.8074     15.6562   6.6842034829e+01   2.6468741706e+01    0.4744045    0.1879022 -41.15 0.0009493288    2.142    0.533
        12  -8.4362    219.3238     11.6709   6.6034725266e+01   2.7701876628e+01    0.2234266    0.1576578 -54.32  0.000767095    1.296    0.228
        13 -11.2582    119.6465     10.4209   7.8145492460e+01   5.4823733751e+01    0.7892661    0.6167907  64.01  0.003241227    1.194    0.163
        14  -7.7440    197.5355      8.5529   6.6916001553e+01   3.3504283853e+01    0.2384206    0.1763211  71.43 0.0005853454    1.328    0.247
        15  -9.1563      1.6385      7.9954   1.3650073921e+02   7.6959555180e+01    0.2668828   0.09516849 -67.69  0.001225231    2.398    0.583
        16  -9.9830    211.7595      3.6541   6.4383632700e+01   3.0319799334e+01    0.5992393    0.1847005 -46.16  0.001437682    2.854    0.650
        17  -9.5520    144.2152      7.5678   7.2638388217e+01   4.8263163577e+01    0.3128206    0.1967737  42.43  0.001405444    1.676    0.403
        18 -10.3251    172.9005      2.6462   6.7347560001e+01   4.0676335660e+01    0.6999825    0.4035833  89.35  0.002753385    1.746    0.427
        19  -8.6918    195.3174      1.6646   6.5038919776e+01   3.4714579183e+01     0.354927    0.1653655  81.27 0.0008066212    2.114    0.527
        20 -10.6403    182.6313      3.7836   6.6782591914e+01   3.7913935946e+01    0.6359043    0.4709543  72.18  0.002140661    1.287    0.223
        21 -11.8281    244.1816    111.6638   8.8359211074e+01   1.0416787127e+01    0.8757585    0.3984896 -34.46  0.004150484    2.014    0.504
        22  -8.3829    215.1410    117.1581   9.4009884150e+01   1.5293746515e+01    0.1794782    0.1647006 -58.97 0.0006284227    1.361    0.265
        23  -9.3881    168.4547    113.7687   1.0203830825e+02   2.5814273585e+01    0.4576159    0.2438807  50.90  0.001354398    1.846    0.458
        24 -10.6817    187.5721    106.5856   9.6379329461e+01   2.2754368241e+01    0.5835226    0.2721264 -32.81  0.002021228    2.193    0.544
        25 -11.6395    244.2010    101.6412   8.6103938658e+01   1.1657091402e+01    0.7039703    0.5690346 -53.92  0.003323784    1.528    0.345
        26  -7.2193     30.3457    108.7203   1.4140144356e+02   5.1188268495e+01    0.1376803   0.08270539  59.98  0.000701022    1.636    0.389
        27  -8.5530    191.6943    101.6943   9.4375926344e+01   2.2607947198e+01    0.1487852    0.1090955  16.00 0.0003464993    1.604    0.377
        28  -8.1243    148.8938     95.8233   1.0182046268e+02   3.3572076681e+01    0.2400046    0.2032927  22.11 0.0006412197    1.293    0.227
        29  -8.5622    128.0999    124.9264   1.1425900589e+02   3.2345938620e+01    0.2133904     0.201837  49.29 0.0003022355    1.022    0.022
        30  -8.1589    134.7520     93.5530   1.0471926669e+02   3.7304700054e+01    0.2186687    0.1461986  59.44 0.0009418217    1.604    0.376
        31  -9.1187    157.6940     87.7001   9.7516183837e+01   3.2965877082e+01    0.3413441    0.2366211  16.33  0.001304247    2.027    0.507
        32  -9.6327    249.8503     85.8127   8.1751053422e+01   1.2518477636e+01    0.3088885    0.1987687 -38.02  0.001710651    1.450    0.310
        33  -9.0302    250.1871     81.0939   8.0614291825e+01   1.3020810715e+01    0.2807561    0.1647734 -22.79 0.0008224369    1.538    0.350
        34 -10.8515    183.0990     82.3901   9.0841392794e+01   2.7673607153e+01    0.8872468     0.406635 -44.38  0.003350689    2.339    0.572
        35 -10.9643    175.9984     73.3019   8.9575444617e+01   3.0866034306e+01    0.8590013    0.6821439 -41.58  0.003509051    1.269    0.212
        36  -8.8680    142.3950     84.4682   1.0017465550e+02   3.7268028032e+01    0.2982787    0.2623597 -80.18 0.0007379203    1.282    0.220
        37  -7.3025    212.2543     80.3110   8.5428673021e+01   2.1120230274e+01    0.1384433    0.1052272  11.10 0.0001884777    1.521    0.342
        38  -9.2934     65.7457    246.2002   1.4352626483e+02   1.9587667427e+01    0.1726501    0.1297706  42.62 0.0003138052    1.175    0.149
        39  -9.1690    231.4316     25.1661   6.8657955984e+01   2.3465845942e+01    0.4476939    0.2328782 -45.93  0.001712421    1.731    0.422
        40 -11.0321    227.3337     47.6848   7.4928776985e+01   2.1888604151e+01    0.9676855    0.4884484 -47.46   0.00434912    1.972    0.493
        41  -7.9031     90.6920    242.3147   1.3860419644e+02   1.7105976150e+01     0.113804   0.06046853  54.54 0.0002141574    1.628    0.386
        42  -8.0500    132.5389    232.4834   1.2974620399e+02   1.2825271228e+01    0.1167487   0.08510919  37.84 0.0001268015    1.009    0.009
        43 -10.1179    157.1814     75.3676   9.4009248662e+01   3.5264309477e+01    0.3655346    0.2891711 -30.16 0.0006921355    1.314    0.239
        44  -8.6811    207.3628     66.3991   8.2444275350e+01   2.4177277550e+01    0.4798644    0.2463378 -65.93  0.001593002    3.840    0.740
        45  -9.4789    182.4312     66.7992   8.6503487633e+01   3.0250023037e+01    0.2804393    0.2632142 -52.83 0.0004051682    1.078    0.072
        46  -7.7096    157.0048     63.0394   9.0206148870e+01   3.7382897721e+01    0.1852466    0.1732189  59.45 0.0003216127    1.047    0.045
        47  -8.4072    208.4992     61.9886   8.1079231025e+01   2.4502048652e+01    0.4177019    0.1987923 -64.95  0.001240281    4.731    0.789
        48  -9.4593    203.8400     57.3086   8.0429136896e+01   2.6254417506e+01    0.4426518    0.2497564 -55.18  0.001612707    2.101    0.524
        49 -10.2076    192.9860     58.2048   8.2267126450e+01   2.8828760648e+01    0.4538525    0.2884285  61.03  0.001547164    1.590    0.371
        50 -10.2391    197.9384     53.7059   8.0234586881e+01   2.8197425311e+01    0.4748265    0.3420343  31.09  0.001536319    1.640    0.390
        51 -10.2895    150.8302     45.2976   8.5537566177e+01   4.1791840837e+01    0.5602756    0.3882973 -85.17  0.002286897    1.834    0.455
        52 -11.3188    174.7026     55.7330   8.4504928337e+01   3.3883283952e+01    0.6332633    0.4027806   3.72  0.002508788    2.391    0.582
        53 -11.2858    164.3555     53.4349   8.5646383393e+01   3.6953017042e+01     1.485404    0.7527425 -67.59  0.004309331    4.283    0.766
        54  -8.7673    134.9742     48.8821   9.0299927865e+01   4.5472365735e+01    0.2286191    0.2212803  83.50 0.0003624392    1.037    0.036
        55  -9.8116    249.5304     44.6066   7.1976464524e+01   1.7383770270e+01    0.2266261    0.2081065  -1.03 0.0002889692    1.187    0.157
        56  -9.2708    141.1641     41.1627   8.6069087560e+01   4.5015359024e+01    0.2441311    0.2157878  31.69 0.0009846909    1.196    0.164
        57 -10.5470    135.1862     38.6340   8.6438911889e+01   4.7000413898e+01    0.5806197    0.3360521  60.01  0.002420233    1.656    0.396
        58  -9.1730    237.1543     36.8673   7.1167519928e+01   2.0907992878e+01    0.4539306    0.2453704  -2.88  0.001922335    2.735    0.634
        59  -8.2068    231.9450     35.1320   7.1197889543e+01   2.2273790645e+01    0.2122649    0.1527518 -56.16   0.00054591    1.357    0.263
        60  -7.9122    137.5195    227.9080   1.2829928050e+02   1.2737278694e+01    0.1374846    0.1181089 -47.81  0.001026736    1.576    0.366
        61  -7.7203    245.3767     30.7706   6.8945826825e+01   1.9761260576e+01    0.1808262    0.1147979 -13.50 0.0003246872    1.698    0.411
        62  -7.8804    162.1499     27.0615   7.7117562443e+01   4.1131819571e+01    0.2202063     0.160441 -47.80   0.00104364    1.394    0.283
        63 -10.4638    144.1143     24.8988   7.9371163377e+01   4.6405678015e+01    0.2761834    0.2459861 -41.75 0.0002717435    1.157    0.136
        64  -8.6340     43.5517    224.8933   1.4664040765e+02   2.5476467244e+01    0.1707954    0.1280635  33.26 0.0007299359    1.397    0.284
        65 -11.8085      8.3416    218.7404   1.5326566713e+02   2.9997214936e+01     0.550951    0.5012774 -80.59  0.004426903    1.544    0.352
        66 -11.1911      4.5115    214.4846   1.5390586119e+02   3.1065568360e+01    0.4248959    0.3349523 -59.32  0.002838023    1.870    0.465
        67 -12.3669     38.2865    191.2901   1.4596134044e+02   3.2109049921e+01    0.6940511    0.6180054  14.96  0.003604447    1.533    0.347
        68 -11.8712     50.3787    180.4285   1.4244667245e+02   3.2906282736e+01    0.8310657    0.6795011  54.21  0.003377561    1.078    0.073
        69  -9.9507    186.4018    192.9097   1.1414278258e+02   9.9309049429e+00    0.2176824    0.1669342  30.00 0.0002658852    1.058    0.055
        70  -8.0856    216.4859    189.5057   1.0817249968e+02   5.5605335226e+00    0.1216915   0.09408252  17.39 0.0005642981    1.005    0.005
        71  -7.9821    186.8106    177.8695   1.1155514435e+02   1.1919792721e+01    0.1650607    0.1375176  45.18 0.0002408484    1.311    0.237
        72  -8.8100    203.5168     18.5162   6.9307105631e+01   3.0966556984e+01    0.2672026    0.2515256  64.64    0.0015914    1.138    0.121
        73  -8.8294    201.0000     16.0183   6.8814535796e+01   3.1870544772e+01    0.2579773     0.192069 -33.94 0.0009506557    1.286    0.222
        74  -9.9360    132.8245     18.7491   7.9070975142e+01   5.0273710682e+01    0.6093338     0.177118  66.37   0.00183623    3.297    0.697
        75  -8.6537    232.6176     17.8125   6.6662236815e+01   2.3946279130e+01     0.245711    0.1839214 -60.13 0.0006560699    1.248    0.199
        76  -7.3154     61.6739    160.7001   1.3786639501e+02   3.5640765007e+01    0.1164759    0.1006464 -22.64 0.0007028528    1.635    0.389
        77  -8.1666     14.7768    152.2191   1.4948268119e+02   4.2427771811e+01    0.1441578    0.1314539 -67.47 0.0005212761    1.357    0.263
        78  -9.2487     67.8416    144.7171   1.3433511171e+02   3.8345309909e+01     0.535386    0.2508074  50.20  0.002403859    1.992    0.498
        79 -10.8958    240.5175    141.1720   9.5188417068e+01   7.4395262460e+00    0.3188659    0.2808785 -23.68  0.002150189    1.285    0.222
        80  -9.2940    131.2386    139.7120   1.1655065619e+02   2.8736351944e+01    0.2422501    0.2190416  25.72 0.0002254922    1.136    0.120
        81  -9.3047    195.9898    129.0499   1.0009705211e+02   1.7427798131e+01    0.2509126    0.1831104  41.05 0.0003298174    1.301    0.231
        82 -11.8789    242.0726    121.6058   9.0838316407e+01   9.5676913245e+00    0.7451285    0.4315704 -25.39  0.002724679    1.569    0.363
