#   1 NUMBER                 Running object number                                     
#   2 MAG_AUTO               Kron-like elliptical aperture magnitude                    [mag]
#   3 X_IMAGE                Object position along x                                    [pixel]
#   4 Y_IMAGE                Object position along y                                    [pixel]
#   5 X_WORLD                Barycenter position along world x axis                     [deg]
#   6 Y_WORLD                Barycenter position along world y axis                     [deg]
#   7 A_WORLD                Profile RMS along major axis (world units)                 [deg]
#   8 B_WORLD                Profile RMS along minor axis (world units)                 [deg]
#   9 THETA_WORLD            Position angle (CCW/world-x)                               [deg]
#  10 FWHM_WORLD             FWHM assuming a gaussian core                              [deg]
#  11 ELONGATION             A_IMAGE/B_IMAGE                                           
#  12 ELLIPTICITY            1 - B_IMAGE/A_IMAGE                                       
         1 -14.1966    202.2642     19.3632   6.0888549585e+01   3.1472682830e+01     2.062468     1.533819   7.18  0.008746917    1.832    0.454
         2 -13.9329    208.6653     12.5353   5.8501312389e+01   3.0643835376e+01      3.23983     1.528994  33.20  0.001388481    4.595    0.782
         3 -12.8271      4.4400      6.5650   1.2796427712e+02   7.8013736347e+01     1.040646    0.5652235 -41.23   0.00581409    1.484    0.326
         4 -15.9980      9.3115    202.2372   1.4760509839e+02   3.0478529717e+01     7.964793     1.911322 -81.79   0.02347634    4.032    0.752
         5 -13.0058    139.0159    248.4286   1.2278628476e+02   6.9279707035e+00    0.8485467    0.3255519  36.52  0.004373488    1.876    0.467
         6 -12.8717    126.1072    247.8379   1.2531238104e+02   8.7148531733e+00    0.5999702     0.434202  31.42  0.004107593    1.016    0.016
         7 -13.2461    108.3789    245.8857   1.2873669572e+02   1.1324073184e+01    0.9944382    0.2869064  33.73  0.004393628    2.469    0.595
         8 -11.2895    100.4568    249.4496   1.3066207740e+02   1.1801946877e+01    0.4635951    0.2338119  32.58  0.002055246    1.465    0.317
         9 -11.3497     92.9681    249.7145   1.3220564963e+02   1.2703768150e+01    0.4661985    0.3258499 -10.55  0.001131023    2.360    0.576
        10 -13.4439     88.9059    244.3979   1.3262685156e+02   1.4042591693e+01    0.9314219    0.3844724  38.87  0.001796096    1.688    0.407
        11 -14.8296     34.6641    245.9215   1.4373810718e+02   1.9987253857e+01      10.8124     3.356978  20.66   0.03313293    7.702    0.870
        12 -13.6401      5.2978    240.0714   1.4928753380e+02   2.3751394275e+01     1.863724    0.7201764  87.99   0.01085916    2.616    0.618
        13 -11.4483     83.7438    230.8785   1.3264919001e+02   1.6933867519e+01     0.272967    0.1775413  42.26  0.001718274    1.155    0.134
        14 -13.0212     15.7937    241.2343   1.4728823429e+02   2.2614462190e+01     1.293662    0.3510424  47.09  0.006907213    2.143    0.533
        15 -10.5462    249.5104    229.9888   1.0023271343e+02  -4.8125386145e+00    0.1505658   0.08482943 -20.71  0.001037141    1.603    0.376
        16 -11.1938     75.5008    228.7880   1.3427684884e+02   1.8336038967e+01    0.2953418    0.1839929  56.50  0.001094157    1.462    0.316
        17 -11.4929     69.6437    228.6211   1.3554017396e+02   1.9085879379e+01    0.3188596    0.1939827  40.99  0.001349383    1.218    0.179
        18 -11.9500    152.2001    228.5418   1.1779532006e+02   7.9233059807e+00    0.5504122    0.1785786  30.14  0.002271408    2.695    0.629
        19 -12.9128    100.1970    238.4167   1.2977185717e+02   1.3553737957e+01    0.6906368    0.5299613  79.77  0.002473274    1.658    0.397
        20 -10.8005    227.4581    203.5238   9.9652618852e+01   7.3109601449e-01    0.2291376    0.1878699 -31.12 0.0009891707    1.648    0.393
        21 -12.6020     62.9580    218.0854   1.3627248082e+02   2.1824333324e+01    0.8906315    0.2056192  38.04  0.003629925    2.722    0.633
        22 -10.2662    192.4980    193.9939   1.0445459240e+02   6.9810769646e+00    0.4388271    0.2581367 -62.49  0.001417786    7.228    0.862
        23 -11.7554     66.0391    192.6791   1.3350610394e+02   2.6519355190e+01    0.3958212    0.2614337 -45.02  0.002135154    2.030    0.507
        24 -11.6746     71.1835    185.6428   1.3152782758e+02   2.7356935436e+01    0.2882377    0.2502953 -39.93  0.000420438    1.462    0.316
        25  -8.6108    181.4705    192.4624   1.0639963116e+02   8.9204760593e+00     0.132822    0.1064116  14.83 0.0001175656    1.027    0.026
        26 -11.0588     80.4542    173.9531   1.2778063963e+02   2.8657543080e+01    0.2421552    0.2233062  50.85 0.0004515894    1.077    0.072
        27 -13.3699     67.7714    171.2192   1.3091269034e+02   3.1023464538e+01    0.5077483    0.2993487 -43.18  0.001826779    2.272    0.560
        28 -12.2315     86.8942    165.2960   1.2488964031e+02   2.9670624753e+01      1.13021      0.52496  49.64  0.004616621    2.140    0.533
        29 -13.0869     67.7273    144.6279   1.2760765574e+02   3.7401511664e+01     1.142354    0.6559886  76.73  0.003014232    2.255    0.557
        30 -12.6003     58.2565    132.4029   1.2889504372e+02   4.1757060422e+01     2.223232    0.7684592 -84.04  0.004659786    8.805    0.886
        31 -12.7854     40.5512    225.0933   1.4163201706e+02   2.3047402572e+01    0.3457819    0.2888221 -45.28 0.0008918813    1.742    0.426
        32  -9.8612     99.8757    149.6243   1.1877023372e+02   3.1217490584e+01    0.3636587    0.2845672 -28.94 0.0008780362    1.582    0.368
        33  -9.4902    110.8881    135.2677   1.1284763068e+02   3.2609739538e+01    0.2887332    0.1974759 -22.75  0.001207499    2.087    0.521
        34 -10.9586     68.9727    135.0593   1.2578950071e+02   3.9632881951e+01    0.2811237    0.2336525  39.02 0.0007136429    1.163    0.140
        35 -10.6190     98.1796    132.5282   1.1609450462e+02   3.5583147612e+01     0.284377    0.2356966 -25.81 0.0006016667    1.441    0.306
        36  -9.3540    102.9637    145.2940   1.1710618087e+02   3.1698239583e+01    0.2962769    0.1912611 -27.55  0.001225447    2.268    0.559
        37  -9.4471    107.6103    122.8906   1.1115508579e+02   3.6156073983e+01    0.2071108    0.1884646 -60.51 0.0003903604    1.149    0.129
        38 -14.8579     49.3389    213.8521   1.3907590803e+02   2.4218814826e+01     2.067764     1.316999  40.12   0.01216778    1.227    0.185
        39 -11.0299    167.9332    113.0059   9.2702184136e+01   2.5410724637e+01    0.3620157    0.3119056 -77.27  0.001029412    1.459    0.315
        40 -12.1982     88.6447    148.6446   1.2188292330e+02   3.3299065800e+01    0.2946139    0.2690881 -19.49 0.0005830494    1.286    0.222
        41  -9.6094    205.1374    110.7474   8.4805795626e+01   1.7833340650e+01    0.3844679    0.1463002  40.77  0.001391111    3.007    0.667
        42  -9.5223    226.6614    238.3219   1.0518783270e+02  -3.0486693800e+00   0.09415404   0.07736486  29.30  0.000450784    1.716    0.417
        43 -10.6094      1.8756     89.0899   1.4490995917e+02   5.7840762463e+01    0.2846559    0.1492122 -87.39  0.001071316    1.660    0.397
        44 -10.2851      2.0148     80.4839   1.4420347816e+02   6.0060445661e+01    0.2201287    0.1487174 -80.35 0.0006784154    1.256    0.204
        45  -9.2199    157.3017     77.3304   8.5123213585e+01   3.4621074303e+01    0.1607861    0.1240807  14.39 0.0003203799    1.649    0.394
        46 -10.3349    110.6819     43.6016   8.5174105200e+01   5.2653001740e+01    0.3533947    0.2652299  81.20 0.0008233087    1.644    0.392
        47 -11.1251    245.1360    249.3092   1.0373285583e+02  -6.1685827851e+00    0.2224414    0.1111747  22.24  0.001526889    1.473    0.321
        48 -10.3933    198.3912    246.1997   1.1120901522e+02  -4.8329617862e-01    0.1235757    0.1024509 -28.13 0.0004406846    1.673    0.402
