#   1 NUMBER                 Running object number                                     
#   2 MAG_AUTO               Kron-like elliptical aperture magnitude                    [mag]
#   3 X_IMAGE                Object position along x                                    [pixel]
#   4 Y_IMAGE                Object position along y                                    [pixel]
#   5 X_WORLD                Barycenter position along world x axis                     [deg]
#   6 Y_WORLD                Barycenter position along world y axis                     [deg]
#   7 A_WORLD                Profile RMS along major axis (world units)                 [deg]
#   8 B_WORLD                Profile RMS along minor axis (world units)                 [deg]
#   9 THETA_WORLD            Position angle (CCW/world-x)                               [deg]
#  10 FWHM_WORLD             FWHM assuming a gaussian core                              [deg]
#  11 ELONGATION             A_IMAGE/B_IMAGE                                           
#  12 ELLIPTICITY            1 - B_IMAGE/A_IMAGE                                       
         1 -13.9023     20.3483     93.5033   1.3336508685e+02   5.4472372936e+01     2.050803     0.565791 -57.64   0.00886009    2.499    0.600
         2 -14.6643    176.7762     64.4192   8.2098636082e+01   3.2711812860e+01     0.871345    0.6624289 -79.44  0.004214411    1.544    0.352
         3 -15.5382     68.2443     43.6448   1.0344382998e+02   5.8891835547e+01     1.631174     1.175446  11.13  0.009655389    1.414    0.293
         4 -13.2546    163.1843     61.6427   8.3978187626e+01   3.6526587445e+01    0.5466663    0.3663036   1.40  0.002267543    2.397    0.583
         5 -18.5254    141.2026    114.3459   1.0382371946e+02   3.1643126695e+01     8.069919     5.799409 -76.05   0.03477039    1.873    0.466
         6 -14.2933     13.4718      8.2517   1.1114719237e+02   7.0361030691e+01    0.9087217    0.4275433 -14.03  0.005020488    2.478    0.596
         7 -13.8226     55.7829      5.6027   9.2626585000e+01   6.5684574613e+01    0.5777387    0.3453744  14.18  0.003500308    1.622    0.384
         8 -13.4965    210.0124    124.2263   9.1321148738e+01   1.3739051417e+01    0.3966901    0.3522232  23.30  0.002073638    1.252    0.201
         9 -11.0654     68.2119    122.8032   1.2530012788e+02   4.2885359444e+01     0.192156    0.1492881 -39.52 0.0007605005    1.353    0.261
        10 -12.5719     97.3234    121.3306   1.1700714473e+02   3.8747729639e+01    0.3027229     0.273852 -15.20  0.001673664    1.269    0.212
        11 -13.5673    105.3159    116.6601   1.1373332336e+02   3.8396451145e+01     0.460333    0.3044378  43.37  0.002160202    1.591    0.372
        12 -14.8106    102.0809    114.1239   1.1399484217e+02   3.9555283746e+01    0.7495746    0.5384147 -63.05  0.002495353    1.461    0.316
        13 -17.2861    114.8515    148.0595   1.1830155550e+02   2.9375296513e+01     3.978782     2.340062  53.30   0.01729196    1.818    0.450
        14 -14.2391    193.0075    191.7803   1.0957406453e+02   4.3658145751e+00    0.5098504    0.4230975 -22.65  0.002627432    1.304    0.233
        15 -14.1131     39.6234    112.2087   1.3122597399e+02   4.8669404712e+01     1.362225    0.6700248  35.41  0.006901111    2.346    0.574
        16 -13.5768     16.0700     74.1728   1.3077909335e+02   5.8826130292e+01     1.700488    0.6504569 -40.81  0.008337149    2.336    0.572
        17 -13.2744    219.8367    110.0419   8.6107449854e+01   1.4173971919e+01     0.498702    0.3590157 -28.09   0.00237178    1.494    0.331
        18 -13.6488    118.4318    198.4966   1.2648370276e+02   1.7382047138e+01    0.5782816    0.2843556 -71.92  0.002246215    2.922    0.658
        19 -13.6236    204.5374    188.1891   1.0655744021e+02   2.7535639293e+00    0.4685006    0.3197803  38.85  0.002224685    1.402    0.287
        20 -13.3986    205.6185    184.3579   1.0557450068e+02   3.2310998070e+00    0.4778104    0.3103841  50.03   0.00230394    1.597    0.374
        21 -13.1155     11.0957    228.7669   1.5005335320e+02   2.6055419011e+01    0.4334551    0.2020891  69.98  0.002645404    1.775    0.437
        22 -13.7590    189.3312    198.1336   1.1153213286e+02   3.9262122031e+00    0.4450271    0.3314004 -51.19  0.001625464    1.514    0.339
        23 -13.7798     51.0099     95.6596   1.2444344641e+02   5.1153705744e+01    0.5842731    0.1702254 -56.47  0.002171885    2.922    0.658
        24 -13.4855    199.4373     95.3051   8.6120124680e+01   2.1715529179e+01    0.5142749    0.2887046 -33.32  0.002098437    1.890    0.471
        25 -14.0582    196.1254     94.1402   8.6440407779e+01   2.2733874459e+01     0.665531    0.4461167 -35.36   0.00300315    1.524    0.344
        26 -14.2091    211.6741     95.1897   8.3886065913e+01   1.8799411400e+01    0.8146163    0.4924847 -53.65  0.003513986    1.747    0.427
        27 -14.6160    104.0636     86.1351   1.0595886847e+02   4.5206580548e+01    0.6637046    0.5626993  24.45  0.003610067    1.248    0.199
        28 -16.9480    184.4603    113.5012   9.3744063649e+01   2.1807641778e+01     2.592253     2.314063 -57.76   0.01326195    1.121    0.108
        29 -13.6782     49.8724     84.2103   1.2205234142e+02   5.3731617891e+01    0.5345404    0.3465207 -52.56   0.00238752    1.328    0.247
        30 -13.7459    197.0313    183.8089   1.0718303101e+02   5.0389425511e+00     0.379688    0.3113203  44.93  0.001924008    1.191    0.160
        31 -14.0863    143.7027    208.1968   1.2269165442e+02   1.0783432368e+01    0.6434984    0.3950632 -48.85  0.003133753    1.810    0.448
        32 -14.1806    150.2335    209.8646   1.2161184395e+02   9.2396518422e+00    0.6562183    0.5516954 -71.44  0.003593525    1.315    0.240
        33 -17.8907    156.0391    166.3798   1.1236981133e+02   1.7010071419e+01     4.515258     4.076719  57.05   0.02423794    1.075    0.070
        34 -12.6116    192.5403    209.0786   1.1290544643e+02   1.3796602163e+00    0.3206159    0.2460179 -80.39  0.001552374    1.998    0.500
        35 -12.5702    158.0497    213.0042   1.2052341546e+02   7.1805895689e+00    0.4421268    0.2897834 -79.36  0.002029801    2.391    0.582
        36 -14.9999    101.3731     69.5550   1.0172823200e+02   4.8901952337e+01     1.398051    0.8051816  31.03  0.006267813    1.980    0.495
        37 -14.1823    120.7939    210.9259   1.2783880299e+02   1.4391779893e+01    0.8469363    0.4731563 -38.73  0.003706261    2.780    0.640
        38 -13.7052    107.0148    125.0059   1.1526190790e+02   3.6179240476e+01    0.5070443    0.3379522 -24.07  0.001960446    2.198    0.545
        39 -13.7897    168.7906     61.4087   8.2787511885e+01   3.5180258494e+01    0.5467239    0.3867158 -47.22  0.002634302    1.470    0.320
        40 -12.1350     56.1916     94.9419   1.2268702171e+02   5.0708186703e+01    0.1992358    0.1729043 -77.74 0.0008129534    1.282    0.220
        41 -14.7811     75.7432     58.2021   1.0595567636e+02   5.5336524210e+01    0.9129328     0.696286  40.52  0.005321742    1.453    0.312
        42 -14.0011     83.4380     48.5553   1.0020305980e+02   5.5693510965e+01    0.7760459    0.5726236 -54.99   0.00424183    1.814    0.449
        43 -14.3944     51.9789     46.9869   1.1033372851e+02   6.0570557919e+01     1.089889    0.5456247 -22.67   0.00503857    2.514    0.602
        44 -13.1433    109.3943    215.6259   1.3080692462e+02   1.5402317247e+01     0.449967     0.308674  64.48  0.002492098    1.368    0.269
        45 -13.7144    110.6488    208.7886   1.2962183600e+02   1.6584863019e+01     0.495299    0.3140867  33.32  0.002485987    1.861    0.463
        46 -17.6806     78.8840    193.1000   1.3413934449e+02   2.5052342615e+01     4.935081     3.114546  34.35   0.02588972    1.883    0.469
        47 -12.5454     18.4637    154.2535   1.4262041052e+02   4.1051466584e+01    0.3664764    0.1896856 -78.86  0.002026392    1.600    0.375
        48 -12.5213     59.6214    159.6955   1.3385017764e+02   3.5365028792e+01    0.3377519    0.2230762 -84.58  0.001699131    1.475    0.322
        49 -13.2336    180.8161    205.6544   1.1463616516e+02   4.2078006010e+00    0.4588985    0.2747222 -27.66  0.002064456    2.272    0.560
        50 -11.3360    220.5441    127.5045   9.0145500806e+01   1.0755887069e+01    0.2721138    0.1340542  39.86  0.001033381    2.400    0.583
