#   1 NUMBER                 Running object number                                     
#   2 MAG_AUTO               Kron-like elliptical aperture magnitude                    [mag]
#   3 X_IMAGE                Object position along x                                    [pixel]
#   4 Y_IMAGE                Object position along y                                    [pixel]
#   5 X_WORLD                Barycenter position along world x axis                     [deg]
#   6 Y_WORLD                Barycenter position along world y axis                     [deg]
#   7 A_WORLD                Profile RMS along major axis (world units)                 [deg]
#   8 B_WORLD                Profile RMS along minor axis (world units)                 [deg]
#   9 THETA_WORLD            Position angle (CCW/world-x)                               [deg]
#  10 FWHM_WORLD             FWHM assuming a gaussian core                              [deg]
#  11 ELONGATION             A_IMAGE/B_IMAGE                                           
#  12 ELLIPTICITY            1 - B_IMAGE/A_IMAGE                                       
         1 -16.1329    165.6537    116.5287   9.0659048685e+01   2.5632567058e+01       3.7462      2.79416  47.19   0.01760663    1.367    0.268
         2 -15.0820    203.8274    128.0592   8.5558691857e+01   1.4711830352e+01      2.78696     2.474433 -26.72   0.01493957    1.194    0.163
         3 -14.8483     11.8242     20.8072   1.0989457264e+02   6.8982299858e+01     1.563498    0.8470948  -6.96  0.009608022    1.870    0.465
         4 -11.8500     64.0998     17.5431   8.7358498595e+01   6.2850133755e+01    0.4292389    0.2201963  41.19  0.002295289    1.728    0.421
         5 -12.8302     79.4562      3.8151   7.7279680438e+01   6.1444210070e+01    0.5433218    0.4593626 -83.42  0.003544493    1.840    0.456
         6 -12.4537     95.5142      3.4828   7.3072301254e+01   5.8355886283e+01    0.4043587    0.2282872  37.03  0.002310574    1.574    0.365
         7 -12.5133     75.6976     13.4790   8.2078766215e+01   6.1271049755e+01    0.3727773     0.254702  44.25  0.001058182    1.309    0.236
         8 -13.2032     87.9507      2.2176   7.4450920927e+01   5.9952157218e+01    0.7887799    0.3143843  55.23  0.003886299    2.110    0.526
         9 -12.7632     87.2291     11.6704   7.8124255901e+01   5.9293960539e+01    0.5284251    0.3843012  65.92  0.001834629    1.659    0.397
        10 -11.7133    123.7731     10.3059   6.9341760939e+01   5.1810468859e+01     0.251209    0.1883223  50.06 0.0004427802    1.130    0.115
        11 -13.1992     32.8550      4.1849   9.3426749598e+01   6.8807315464e+01    0.6988873    0.3343744  36.53   0.00420925    1.939    0.484
        12 -12.1031     27.9558      8.0952   9.7259421459e+01   6.8986081185e+01    0.2612065    0.1896086  10.23 0.0009239556    1.105    0.095
        13 -12.0177     82.1759     13.8142   8.0316584166e+01   6.0051869270e+01    0.2676252    0.1862328  47.14 0.0006381464    1.297    0.229
        14 -12.0169     73.2811      1.5906   7.8147772022e+01   6.2755687093e+01    0.2494456    0.1321962  50.27 0.0003908678    1.634    0.388
        15 -10.4696    230.4419    180.8744   9.1998823245e+01  -7.6770625767e-01    0.2862149    0.1240171 -38.16  0.001176938    2.160    0.537
        16 -11.6942     34.1850    177.1339   1.3631221456e+02   3.4024860958e+01    0.2800499    0.1799006  -1.59  0.001338099    2.968    0.663
        17 -13.1214    248.2767    147.9671   8.2132623851e+01   2.1080610726e+00     1.038003    0.4815851 -47.18  0.004519905    2.006    0.502
        18 -11.4532    240.3835    145.7216   8.2956097183e+01   3.9462724009e+00    0.3438855     0.275733  68.93  0.001900879    1.562    0.360
        19 -11.1093    242.0896    172.0766   8.8125623349e+01  -1.1761183067e+00    0.3570794    0.2498211 -47.40  0.001914242    1.421    0.296
        20 -13.1396    240.1257    157.1093   8.5385898713e+01   1.8887516414e+00     1.653524     0.897279 -57.69  0.006900711    2.515    0.602
        21 -12.4838    203.3594    169.9982   9.4967349494e+01   6.3117778061e+00    0.5824051    0.4635427 -34.01  0.002766802    1.217    0.178
        22 -12.1982    198.1815    168.3738   9.5675517992e+01   7.6581231436e+00    0.2825093    0.2137203  63.92  0.001360362    1.643    0.392
        23 -12.2529      3.5750    171.0148   1.4264303303e+02   3.8319925161e+01    0.3028906    0.2160824  41.83  0.001993624    1.600    0.375
        24 -11.1474     90.0000    168.9591   1.2137407072e+02   2.8485440295e+01    0.2501595   0.07973652 -58.40 0.0008091044    2.989    0.665
        25 -14.3086    187.2413     96.2149   8.1081128442e+01   2.4686297807e+01     1.003187    0.8880677  55.45  0.005389117    1.164    0.141
        26 -12.5291    193.7248    248.8342   1.1162954950e+02  -6.3397552832e+00    0.3299827    0.2164777  45.04  0.001850073    1.548    0.354
        27 -13.0018    214.0927    140.1032   8.6361303710e+01   1.0148743711e+01    0.8896171    0.7647066  41.52  0.004826151    1.262    0.207
        28 -10.9646    177.6700    144.6507   9.4763405259e+01   1.6926067656e+01    0.3183601    0.2290784 -86.42  0.001331489    2.053    0.513
        29 -12.5226    211.2334    166.0705   9.2570489965e+01   5.5656659154e+00    0.6410128    0.3923611  16.39  0.002539877    2.692    0.628
        30 -12.3159    184.3516    246.5860   1.1312471849e+02  -4.4796064025e+00    0.2379954    0.1649193 -37.31  0.001355317    1.601    0.375
        31 -11.5846    121.7521    127.3417   1.0419292083e+02   3.2785954499e+01     0.432083    0.2986049  40.08  0.001504481    1.497    0.332
        32 -10.8243    138.8760    152.3516   1.0560192189e+02   2.3436668371e+01     0.277348    0.2171044 -61.86 0.0009943835    1.324    0.244
        33 -11.9246    111.8701    122.1736   1.0560647896e+02   3.5933707582e+01    0.4197566    0.2993743  30.16  0.001927703    1.569    0.362
        34 -14.9137    191.5604    155.2416   9.4189963951e+01   1.1720666384e+01     2.697945     1.698826  27.95   0.01135363    2.034    0.508
        35 -12.2209    128.9500    108.5339   9.7496112831e+01   3.5504632354e+01    0.3236887    0.2264007  39.43  0.001178091    1.478    0.324
        36 -10.5685     19.3270    154.3273   1.3718968993e+02   4.0936836722e+01    0.1295985   0.08132953 -46.54 0.0007050335    1.701    0.412
        37 -12.3093     58.3237    144.9869   1.2554694872e+02   3.9042961863e+01     1.034813    0.4580815  53.57  0.003883736    3.144    0.682
        38 -12.3567    148.1707     96.6220   8.9500183761e+01   3.3713383204e+01    0.4946668    0.3558289 -60.37  0.002264713    1.574    0.365
        39 -12.2953     44.5014     97.2380   1.2006240423e+02   5.1932075846e+01    0.4522008    0.2910808 -29.89 0.0007346838    1.635    0.389
        40 -12.7308     47.5846    142.4056   1.2806006312e+02   4.0980756887e+01    0.5299103    0.3914366  27.58  0.002957503    1.594    0.373
        41 -10.4436     55.4824     94.9662   1.1588052284e+02   5.1150621180e+01    0.2127253    0.1199084 -51.63  0.001029326    1.582    0.368
        42 -14.1513    176.7332     90.2422   8.1611875847e+01   2.8267411782e+01     1.032803    0.7394477 -49.56   0.00497007    1.387    0.279
        43 -11.9655      5.4683     83.8413   1.3036321008e+02   5.8032630539e+01    0.4809164    0.1648485 -45.07   0.00229184    2.261    0.558
        44 -13.6786    138.2765     79.9360   8.7233377308e+01   3.9140870726e+01    0.7307811    0.5638919 -20.84  0.003608032    1.510    0.338
        45 -11.0695    128.2907     83.1253   9.0633972179e+01   4.0778869603e+01    0.2418026     0.198664  34.62  0.000283118    1.242    0.195
        46 -13.5099    140.9690     95.7748   9.1003238533e+01   3.5515303013e+01    0.6178144    0.4394826 -73.81  0.002685489    1.935    0.483
        47 -12.7049     96.4461     71.6872   9.6056076084e+01   4.9388118251e+01     0.538574    0.3398469  36.11  0.001716089    1.585    0.369
        48 -11.5463     18.6812     72.3422   1.2310301655e+02   5.9535441673e+01    0.2116071    0.1709304 -39.20 0.0003666909    1.024    0.024
        49 -11.6022    124.7206     71.9908   8.8285964303e+01   4.3568573494e+01    0.2042318    0.1909215 -23.93  0.000756596    1.099    0.090
        50 -12.8782     59.8282     70.8503   1.0773247527e+02   5.5506531683e+01    0.5742006    0.2468219  35.67  0.002545197    2.442    0.590
        51 -11.4813     34.0052     69.8317   1.1676626474e+02   5.8716937249e+01    0.3919183    0.2692341  60.20  0.002064967    2.618    0.618
        52 -10.3259     77.6005     70.2855   1.0153434252e+02   5.2951881137e+01    0.1307473    0.1089745  74.52 0.0001009145    1.780    0.438
        53 -11.5036     61.6966     66.9670   1.0588707440e+02   5.5971838162e+01    0.2777607    0.2217862 -33.16 0.0004367475    1.148    0.129
        54 -10.9951    165.6823     63.9494   7.6844170222e+01   3.5433842583e+01    0.2020694    0.1906039 -54.65  0.001161228    1.105    0.095
        55 -11.0246    169.9704     63.0131   7.5785429013e+01   3.4556601842e+01    0.2231186    0.2020338  86.01 0.0003942717    1.051    0.049
        56 -11.6060    144.5829     73.8387   8.4015979626e+01   3.8775079126e+01    0.2523347     0.196977  51.48 0.0003005684    1.233    0.189
        57 -10.3206    214.5713     61.6481   6.8325116615e+01   2.4274294760e+01    0.2596774    0.1337165 -32.72  0.001142191    2.232    0.552
        58 -11.3863     83.5295     65.9135   9.8236774440e+01   5.2740524762e+01    0.3213494    0.1888383  39.22 0.0009478398    1.697    0.411
        59 -11.9907    124.8756     57.4623   8.3846507830e+01   4.5908536703e+01     0.317848     0.244923  56.36  0.000809536    1.278    0.218
        60 -10.0651    175.0266     56.5136   7.3166158660e+01   3.4343584668e+01    0.2135061     0.131515  63.89  0.001012063    1.540    0.351
        61 -12.0934     67.4186     53.8865   9.9635723605e+01   5.7398937675e+01    0.3791012    0.2817543 -54.29   0.00173361    1.783    0.439
        62 -11.1768     36.5362     55.1574   1.1145007643e+02   6.1190928983e+01    0.2371982    0.1298995 -16.07   0.00117848    2.228    0.551
        63 -10.2968    210.5686     54.4914   6.7234259753e+01   2.6271202303e+01    0.1351728     0.118979 -80.28 6.842084e-05    1.029    0.029
        64 -10.9320    132.9551     54.0014   8.0873261763e+01   4.4620884416e+01    0.2160361    0.1931396  39.19 0.0005674473    1.078    0.072
        65 -11.9639    145.5052     50.9813   7.7240819663e+01   4.2166856493e+01    0.2762011    0.2561509 -34.43 0.0007285474    1.171    0.146
        66 -12.1559     42.1021     47.6370   1.0680923274e+02   6.1852803403e+01       0.3169    0.2474908   6.31  0.000781849    1.188    0.158
        67 -11.9690     41.7121     42.4876   1.0517156525e+02   6.2726009745e+01    0.3924136    0.2473051   9.52  0.001395705    1.637    0.389
        68 -12.3852      2.8803     46.4058   1.2246425359e+02   6.5484049910e+01    0.3498402    0.2863505 -52.24   0.00154177    1.337    0.252
        69 -10.9926    221.4909    245.5057   1.0573319728e+02  -1.0079532080e+01    0.1245377    0.1031777   9.00 0.0008105945    1.005    0.005
        70 -11.6489    156.9657     43.9191   7.2997064823e+01   4.0442083489e+01    0.2149607    0.1955622 -39.06  0.000465376    1.209    0.173
        71 -10.8694    176.4620     33.4189   6.6968432893e+01   3.7155068680e+01    0.2129556    0.1885691  83.12 8.327087e-05    1.021    0.021
        72 -11.0808     82.8963     33.6590   8.7428575625e+01   5.7720109871e+01    0.2556523    0.2098776   6.67  0.001072419    1.132    0.116
        73 -11.4560     79.2482     30.3351   8.7343955655e+01   5.8789900554e+01     0.290478    0.2179414  39.63    0.0010985    1.243    0.196
        74  -9.9704    140.9944     31.6473   7.2494634923e+01   4.5727190737e+01    0.1744542    0.1493347  59.92  0.001051745    1.036    0.035
        75 -11.8740     79.6487    162.8192   1.2296288328e+02   3.1633319076e+01    0.1958709    0.1926179 -84.98  0.001146734    1.127    0.113
        76 -10.0872    198.4996     24.4549   6.1868895272e+01   3.3068243099e+01    0.1294913    0.1079303  89.02 5.863055e-05    1.008    0.008
        77 -12.3365     83.7158     22.6406   8.3160422706e+01   5.8862859808e+01    0.3229421    0.2766868  22.01 0.0008010171    1.035    0.034
        78 -12.4802    187.3388    232.9113   1.1029076754e+02  -2.6816019401e+00     0.279893    0.1851182  29.70  0.001489237    1.414    0.293
        79 -11.5632    192.6676    216.9375   1.0641208530e+02  -7.6541032076e-01    0.3297242    0.1878778  24.51  0.001479262    2.028    0.507
        80 -11.8404    201.1705    211.8866   1.0375479924e+02  -1.3271790022e+00    0.4852956    0.3041194 -64.14  0.002104936    2.727    0.633
        81 -12.6132    187.5160    197.1142   1.0376863045e+02   3.9211452182e+00    0.5462902    0.4433294  75.24  0.002809618    1.665    0.399
        82 -11.0911     41.4738    199.5063   1.3714428503e+02   2.7921038519e+01    0.1300749    0.1060029  86.87 0.0003493475    1.006    0.006
        83 -11.4904     71.5061    197.9997   1.3028702859e+02   2.4308250999e+01    0.2014953    0.1078075  86.94  0.000810514    2.564    0.610
        84  -9.9097    208.6347    190.6925   9.8165091926e+01   1.2773842743e+00    0.1486385    0.1065023   0.72  0.000703776    1.748    0.428
        85 -11.9685    107.5494    189.7235   1.2060357257e+02   2.0508290816e+01    0.3101431    0.2539451  30.08   0.00162539    1.370    0.270
        86 -11.6741     20.2512    187.9953   1.4057469620e+02   3.2904725058e+01    0.1707317    0.0877706 -74.85 0.0008940673    1.601    0.375
        87 -10.7867    178.2834    184.8445   1.0332095019e+02   8.1760059199e+00    0.2284213    0.1858467 -64.80 0.0008167823    1.422    0.297
