#   1 NUMBER                 Running object number                                     
#   2 MAG_AUTO               Kron-like elliptical aperture magnitude                    [mag]
#   3 X_IMAGE                Object position along x                                    [pixel]
#   4 Y_IMAGE                Object position along y                                    [pixel]
#   5 X_WORLD                Barycenter position along world x axis                     [deg]
#   6 Y_WORLD                Barycenter position along world y axis                     [deg]
#   7 A_WORLD                Profile RMS along major axis (world units)                 [deg]
#   8 B_WORLD                Profile RMS along minor axis (world units)                 [deg]
#   9 THETA_WORLD            Position angle (CCW/world-x)                               [deg]
#  10 FWHM_WORLD             FWHM assuming a gaussian core                              [deg]
#  11 ELONGATION             A_IMAGE/B_IMAGE                                           
#  12 ELLIPTICITY            1 - B_IMAGE/A_IMAGE                                       
         1 -14.5716     68.5103    144.3170   9.9137049644e+01   3.7479407208e+01     4.815876      2.55916  70.67     0.011117    4.036    0.752
         2 -13.4043    201.0679     42.0662   4.1202422022e+01   3.0415252345e+01     1.220268     1.051042 -24.53  0.004637142    1.340    0.254
         3 -13.6013    211.6749     32.0120   3.7622808965e+01   2.9329543267e+01     0.957198    0.8114848  15.10   0.00191571    1.663    0.399
         4 -12.8731    237.2806      6.1665   2.9943829883e+01   2.6873977800e+01    0.7800116    0.5839604 -85.04  0.005557064    1.152    0.132
         5  -9.2751     44.3312      6.3416   6.4618264339e+01   6.8252783918e+01    0.1290704   0.07482783  13.48 0.0007051294    1.748    0.428
         6 -10.3915    107.5950    203.7976   9.8695669422e+01   1.7529413428e+01    0.2543196    0.1903536  57.40 0.0007129263    1.408    0.290
         7 -10.4690    140.0480    250.1656   9.8047927029e+01   3.6574307902e+00    0.3135009    0.1577745  35.26  0.001599607    1.676    0.403
         8 -12.9784     53.4650    186.5250   1.0943049227e+02   2.9003813057e+01     1.066035    0.8549228 -85.85  0.006330901    1.162    0.140
         9  -9.2217     31.4117    203.8437   1.1630092121e+02   2.7437810512e+01    0.2800242    0.1560064  63.77  0.001489162    1.769    0.435
        10 -10.7321    122.0266    198.2968   9.4425986691e+01   1.6430500416e+01    0.4001369    0.2750061 -76.43  0.001616403    1.958    0.489
        11  -9.8779    111.5068    197.2615   9.6765709249e+01   1.8348854429e+01    0.3004559    0.1766079  20.15  0.001294729    2.164    0.538
        12  -9.1444     20.6298    195.2133   1.1797153435e+02   3.0441451653e+01    0.2137506    0.1589388  43.95  0.001252417    1.360    0.265
        13  -8.6108     82.4853    194.5233   1.0337331823e+02   2.3341138850e+01    0.1360048    0.1268404  71.46 0.0003679802    1.006    0.006
        14 -14.0101     40.8309    195.8809   1.1344921802e+02   2.8252415097e+01     3.450288     1.340525  62.29  0.009791156    3.810    0.738
        15 -14.5703      9.2749    207.5097   1.2128062270e+02   2.8727073560e+01     1.128039    0.8821719   7.56  0.007583247    1.842    0.457
        16 -10.1990    147.7111    187.5056   8.6475826268e+01   1.4390138031e+01    0.4654558    0.3202053 -62.39  0.001940653    1.805    0.446
        17  -8.9390     79.9811    182.9915   1.0235270211e+02   2.6393040194e+01    0.3449919    0.1955029 -84.76   0.00142021    2.470    0.595
        18  -7.9394     82.6724    182.3054   1.0156975222e+02   2.6172195348e+01    0.1441921    0.1387003 -47.09 0.0004043234    1.114    0.102
        19  -8.3164     76.4559    184.5408   1.0346464842e+02   2.6518522028e+01    0.1374781    0.1278002  80.55 0.0001052315    1.016    0.016
        20 -10.0600     99.4913    180.9040   9.7082212243e+01   2.3973110656e+01    0.2738903     0.255854 -53.03 0.0005729832    1.087    0.080
        21  -9.6302     64.6828    179.2980   1.0571083781e+02   2.9344930681e+01     0.265584    0.2117197  71.12  0.001037707    1.273    0.214
        22 -15.6141      6.8393    164.5122   1.1864026964e+02   3.8762907716e+01     12.75887     1.397633 -74.18   0.03178857    7.327    0.864
        23 -10.8888     42.1916    175.9929   1.1099116276e+02   3.2804063338e+01    0.7407552    0.4259667 -21.12  0.003094228    3.318    0.699
        24 -10.1588    187.0105    175.4447   7.5330422301e+01   9.8520283730e+00    0.3575889    0.2960941 -51.18  0.001175707    1.371    0.270
        25 -12.0817     80.8665    159.1890   9.8297591838e+01   3.2042354089e+01     1.026948    0.5570334  62.65 0.0003763776    2.854    0.650
        26 -12.9644     68.9973    154.1344   1.0072444689e+02   3.4962574342e+01    0.6440217    0.4580437 -52.52  0.001121274    1.333    0.250
        27  -9.1311     89.0438    210.8960   1.0400239069e+02   1.8744043930e+01     0.197628    0.1784763  66.97 0.0005701229    1.051    0.048
        28  -9.2790     34.6737    171.7722   1.1240651657e+02   3.4607410830e+01    0.2544462    0.1741898  63.43  0.000757472    1.492    0.330
        29 -10.5647    240.1681    169.1765   6.3965962747e+01   2.0742870443e+00    0.2055493    0.1579891 -11.94 0.0004841381    1.210    0.174
        30  -8.3009    120.4904    165.5397   8.8911729407e+01   2.4074148944e+01    0.1468137    0.1462269  34.84 0.0001057586    1.025    0.024
        31 -13.3823     20.2189    220.8222   1.1992715017e+02   2.4864225311e+01    0.7703246    0.5549196  62.47  0.002471643    1.171    0.146
        32 -11.6285     88.2595    152.2404   9.4974995590e+01   3.2642476463e+01    0.7273061    0.4711938 -24.35  0.003092184    2.167    0.539
        33 -11.3594     67.4061    172.6285   1.0406746565e+02   3.0607553904e+01    0.3972695    0.2808971 -35.32  0.001408746    1.712    0.416
        34 -10.7093     58.9987    150.7580   1.0298884932e+02   3.7097161284e+01    0.3914227    0.2545124 -18.94  0.001476666    2.258    0.557
        35 -11.3323     54.3911    146.1705   1.0356166836e+02   3.8804322859e+01    0.4473648    0.2416261 -68.89  0.001889861    1.798    0.444
        36 -10.5250    133.6637    144.8277   8.1109195740e+01   2.6433991717e+01     1.153922    0.2922331 -53.82  0.002608562    6.048    0.835
        37  -9.2686    174.5252    149.0133   7.2312050850e+01   1.7485850103e+01    0.2303681    0.1430769 -43.66 0.0004814727    1.558    0.358
        38 -10.8708     30.2905    143.7164   1.1013447258e+02   4.1937770003e+01    0.4520001    0.3626089  30.14  0.002707328    1.422    0.297
        39 -10.2746    101.8385    138.6696   8.8345714542e+01   3.3734465760e+01    0.5741017    0.3535825 -20.88  0.002186954    2.545    0.607
        40 -10.0620    105.8491    130.9456   8.5447647044e+01   3.4879753918e+01    0.4519182    0.3144439 -51.32  0.001540009    1.398    0.285
        41  -9.4747    111.2971    129.3925   8.3533516238e+01   3.4255335829e+01     0.328922    0.2485939  -0.45 0.0007399651    1.699    0.411
        42 -11.5648     89.3691    138.0179   9.1794574931e+01   3.5965783117e+01    0.2955725    0.2569281 -34.49 0.0004593534    1.161    0.139
        43 -10.7181     25.5415    137.4586   1.1065572332e+02   4.3908630482e+01    0.3214979    0.2249579  34.56   0.00144444    1.607    0.378
        44 -11.5264     72.0431    167.6731   1.0209373609e+02   3.1199217977e+01     0.537777     0.314527 -52.11  0.001035615    1.659    0.397
        45 -10.0702    135.4908    128.7853   7.6839019385e+01   2.9700709676e+01    0.4008967    0.2242009 -52.62  0.001219589    1.900    0.474
        46 -10.8592     28.8299    128.4985   1.0837794902e+02   4.5852153600e+01    0.2617806    0.1953672 -51.79  0.001187704    1.206    0.171
        47  -9.0744    160.5984    127.8107   7.0449592621e+01   2.4731982874e+01    0.2231862    0.1418646 -52.35 0.0009463376    1.688    0.408
        48  -8.1218    147.7123    174.2905   8.3917419781e+01   1.7212605425e+01    0.1411828    0.1190755  78.13  0.000237776    1.540    0.351
        49  -9.8882    117.2342    123.8516   8.0517589857e+01   3.4423196873e+01    0.2980804    0.2058469   7.42  0.001227467    2.066    0.516
        50 -10.1776     98.4650    125.2095   8.6238178028e+01   3.7547880106e+01    0.3241286     0.253452 -22.88 0.0009700174    1.428    0.300
        51  -9.0157    135.0000    119.9627   7.4750064872e+01   3.1752448283e+01    0.2593479   0.08701724 -45.05 0.0006658828    2.909    0.656
        52  -8.8405     86.3665    120.0601   8.8661333935e+01   4.0809997248e+01    0.2667581    0.2057985  63.47 0.0009372272    1.633    0.388
        53  -9.3189    107.6483    118.4826   8.1895153966e+01   3.7472920236e+01    0.2444175    0.2024711   7.24 0.0002582479    1.358    0.264
        54 -10.3282     32.9777    118.9826   1.0552035219e+02   4.7839011013e+01    0.2306811    0.1370304 -38.52 0.0006964444    1.726    0.421
        55 -10.1293    231.2060    113.7767   5.3679470950e+01   1.3055573540e+01    0.2695366    0.2396961 -42.82 0.0007438035    1.044    0.042
        56  -9.0532    135.0000    112.0270   7.2681693274e+01   3.3470643113e+01    0.2628482   0.08682702 -43.95 0.0008051025    2.961    0.662
        57  -9.4088    205.4576    110.1497   5.7042027230e+01   1.8757033348e+01    0.2907794    0.2110545  39.24  0.001023837    1.550    0.355
        58 -10.2249    115.2810    109.2351   7.7289151131e+01   3.8100097909e+01    0.3706995     0.237137 -34.36  0.001599307    1.637    0.389
        59 -10.9265     34.0852    108.8075   1.0328883090e+02   5.0227701498e+01    0.2912386     0.270355  40.80  0.001597481    1.251    0.201
        60  -8.7340    111.7071    149.9952   8.8053880459e+01   2.9291538713e+01    0.3119891    0.1797866  60.35  0.001152823    2.618    0.618
        61 -10.7971     39.3402    103.1467   1.0032920401e+02   5.1087756125e+01    0.4081118     0.205307  34.33  0.001879906    2.210    0.548
        62  -9.6142     52.0056    103.4763   9.5995202042e+01   4.9625178311e+01    0.2003387     0.139947  22.89   0.00092358    1.578    0.366
        63 -10.5412    241.1310    101.8543   4.9644661677e+01   1.3184426443e+01    0.2237253    0.1628521  69.60  0.001260846    1.700    0.412
        64 -10.1656     33.1133     99.9927   1.0185628970e+02   5.2435790380e+01    0.2571231    0.2397018  86.33 0.0008635896    1.244    0.196
        65  -9.2908     53.2429     90.9808   9.2488771120e+01   5.2385693021e+01     0.189309    0.1083967 -53.06 0.0004857088    1.591    0.371
        66 -16.9510     15.0053    243.0371   1.2225222697e+02   2.0879263008e+01     6.494275     2.168355  24.23   0.02673493    4.684    0.786
        67  -8.7832     74.9334     85.1474   8.3146698649e+01   5.0612542617e+01      0.20776    0.1950816  72.22 0.0006578075    1.330    0.248
        68  -8.9099    150.9634     82.9194   6.0747706285e+01   3.5715243299e+01    0.2182803    0.2138887 -77.79 0.0003358519    1.054    0.052
        69  -8.9665     69.5803     81.6423   8.3983137478e+01   5.2190183097e+01     0.209518    0.1654254  52.77 0.0006682622    1.605    0.377
        70  -8.6143    110.9872     80.9868   7.0392227958e+01   4.4838104153e+01    0.2256914    0.1874564  87.48 0.0007904441    1.658    0.397
        71 -10.6380    110.8629    203.1000   9.7821362811e+01   1.7172896743e+01    0.2798773    0.2236057  40.13 0.0006966982    1.181    0.153
        72  -8.6690     54.1831     65.3886   8.4662292234e+01   5.7731954025e+01    0.1754419    0.1231406  38.42 0.0003689626    1.623    0.384
        73 -10.8643     13.1945     59.7825   1.0020844815e+02   6.3015926829e+01    0.2609553    0.2447574 -72.92 0.0005515553    1.364    0.267
        74 -12.9505    190.8980     49.6248   4.4422404121e+01   3.1710756204e+01     1.060785    0.7514053  46.16  0.001061223    1.575    0.365
        75  -7.7767    224.2719    206.6829   7.4070852758e+01  -1.6684879557e+00    0.1104731    0.1025547 -50.14 0.0001979738    1.562    0.360
        76  -9.1567    197.9944     23.6430   3.7126748772e+01   3.3322817719e+01    0.1932201    0.1721156 -25.00 0.0005495986    1.335    0.251
        77 -10.5929     12.5257     31.2414   9.1375132757e+01   6.8553447785e+01    0.2051449    0.1467284   6.30 0.0008072217    1.349    0.259
        78 -11.1476    193.7142    195.7565   7.7966541951e+01   4.9030130060e+00    0.9913608    0.6017639 -67.82  0.003453485    4.618    0.783
        79  -8.9705     60.0161    218.5726   1.1139369195e+02   2.0949582261e+01    0.2102005    0.1517128  80.70 0.0005701777    1.371    0.271
