#   1 NUMBER                 Running object number                                     
#   2 MAG_AUTO               Kron-like elliptical aperture magnitude                    [mag]
#   3 X_IMAGE                Object position along x                                    [pixel]
#   4 Y_IMAGE                Object position along y                                    [pixel]
#   5 X_WORLD                Barycenter position along world x axis                     [deg]
#   6 Y_WORLD                Barycenter position along world y axis                     [deg]
#   7 A_WORLD                Profile RMS along major axis (world units)                 [deg]
#   8 B_WORLD                Profile RMS along minor axis (world units)                 [deg]
#   9 THETA_WORLD            Position angle (CCW/world-x)                               [deg]
#  10 FWHM_WORLD             FWHM assuming a gaussian core                              [deg]
#  11 ELONGATION             A_IMAGE/B_IMAGE                                           
#  12 ELLIPTICITY            1 - B_IMAGE/A_IMAGE                                       
         1 -12.3949    233.8362     19.0102   3.8027017991e+01   2.4978392730e+01    0.6047344    0.2000796 -30.22  0.002562316    2.404    0.584
         2 -11.6414     42.2457     21.3470   8.1835625036e+01   7.0039214051e+01    0.5005714    0.3403243  53.65  0.002232808    2.000    0.500
         3 -10.8464     46.3254     17.4872   7.7418416692e+01   7.0094582972e+01    0.4647307    0.1933698 -34.13  0.001877606    2.519    0.603
         4 -11.9468    216.3640     13.4249   3.7872213725e+01   2.9433244347e+01    0.3737993    0.2929539 -71.06 0.0007399911    1.209    0.173
         5 -12.5926    207.0368     10.8082   3.7881068525e+01   3.1872378276e+01    0.4958083    0.2816645 -27.14  0.002493289    1.658    0.397
         6 -13.5034    185.2090      3.4696   3.7535333604e+01   3.7920093355e+01     1.223127    0.4069965 -50.31  0.004464549    2.990    0.666
         7 -10.8541    109.6818      8.9346   4.9950774436e+01   5.7237190353e+01    0.1967373    0.1880428 -19.83 0.0007632335    1.092    0.085
         8 -11.7963     43.5547      8.3134   7.3395022583e+01   7.2070151722e+01    0.3170286    0.2260873  43.25 0.0006955732    1.497    0.332
         9 -11.1842     58.1035      6.6010   6.4908249956e+01   6.9606164842e+01    0.4066733    0.2105162  46.41  0.001912518    1.866    0.464
        10 -12.9901    183.4260      7.7205   3.8992996417e+01   3.7968304498e+01    0.6429546    0.2891259 -37.05  0.002820028    1.971    0.493
        11 -10.2062    104.4567    225.4268   1.0547382031e+02   1.6152020968e+01    0.1959477    0.1168389 -62.77 0.0009155431    2.109    0.526
        12 -12.4085    220.8116    247.4878   8.6811196754e+01  -1.7434435506e+00    0.4023902    0.3102151  30.17  0.003260406    1.499    0.333
        13 -10.4937    248.3898    224.2217   7.9233936873e+01  -2.6482573602e+00    0.1285746   0.08545226 -27.34 0.0009458166    1.670    0.401
        14 -10.3167    173.7321    221.9055   9.1479438701e+01   7.1604386388e+00    0.2274667    0.1021389 -45.56  0.001194526    2.818    0.645
        15 -11.3658    149.4418    221.2020   9.6011002109e+01   1.0646185716e+01    0.3710529      0.18865 -36.42  0.001999208    2.540    0.606
        16 -12.2263    226.9401    220.6001   8.2039037722e+01   2.8311835915e-01     0.285178    0.1638731 -24.88  0.001891058    1.726    0.421
        17 -10.7821    211.5284    217.8670   8.4179734063e+01   2.5554992930e+00    0.2091118    0.1747775 -24.85  0.001082562    1.475    0.322
        18 -10.6101    218.4393    211.3371   8.2022032691e+01   2.4062497950e+00    0.2283192    0.1541827   3.07   0.00152155    1.307    0.235
        19 -10.8983    232.5248    210.9432   7.9659665058e+01   6.3338127192e-01    0.1544934   0.09406552 -23.29  0.001023508    1.566    0.362
        20 -10.5986    115.8469    209.0062   1.0135783955e+02   1.7327780841e+01    0.2608032   0.08883245 -57.10   0.00111734    3.568    0.720
        21 -10.9902    239.6701    215.8234   7.9292943948e+01  -7.7379923855e-01    0.2419962    0.0819208 -40.00  0.001101114    4.219    0.763
        22  -9.9578    185.4887    203.9902   8.6694543855e+01   7.9095394193e+00    0.1640154    0.1142839 -33.63 0.0007351504    1.589    0.371
        23 -10.4825    237.1384    198.6926   7.6952339416e+01   1.4070886435e+00    0.1994483    0.1214939 -39.61  0.001227094    2.129    0.530
        24 -10.6393    149.3871    198.5897   9.2958984387e+01   1.4114684695e+01    0.2105464    0.1188697 -65.74 0.0009536212    3.278    0.695
        25 -10.1983      2.4839    199.4956   1.2526065136e+02   3.2126042285e+01    0.1134129   0.07989635  60.10 0.0008100787    1.043    0.041
        26 -10.6538    112.4880    197.9805   1.0075827596e+02   1.9743570951e+01    0.1680938    0.1055973  82.51 0.0008105243    2.608    0.617
        27  -9.9015    133.0000    195.0403   9.5901985312e+01   1.7205099611e+01    0.1864531   0.07376289 -52.12 0.0008061922    2.969    0.663
        28 -10.5080    215.1283    193.2652   7.9662648277e+01   5.0510889741e+00    0.2430311    0.1417134 -41.70  0.001387735    2.129    0.530
        29 -10.7904    223.6090    183.7773   7.6600836513e+01   5.0403722408e+00     0.153938    0.1029044 -35.33 0.0006196128    1.641    0.391
        30 -10.7826    183.1459    183.0727   8.3735088955e+01   1.1271964679e+01    0.2869587     0.177946 -36.15   0.00159716    1.717    0.418
        31 -10.9024    243.5773    180.6470   7.2857317424e+01   2.6336265281e+00      0.21785   0.09536547 -25.55  0.001136185    2.136    0.532
        32 -10.3934    191.7095    177.1237   8.1062491783e+01   1.0798343453e+01    0.2882541    0.1079081 -36.20  0.001226373    2.815    0.645
        33 -12.1099    158.3878    190.3943   8.9870816809e+01   1.4043419227e+01    0.5500482    0.4001108 -82.26  0.002185606    2.622    0.619
        34 -11.8624     55.5052    167.9786   1.1096668665e+02   3.3558809924e+01    0.4938201    0.2444479  79.39  0.002181293    2.549    0.608
        35 -11.5949    120.6880    167.5274   9.4566550031e+01   2.4270516233e+01    0.4195922    0.1735144 -59.76  0.001628337    3.088    0.676
        36  -9.6804    213.3187    163.6491   7.4654004449e+01   9.2878143685e+00    0.1134075    0.1024012 -68.08 0.0006801345    1.740    0.425
        37  -9.7281    205.4740    169.9612   7.7227821329e+01   9.6441690060e+00    0.1594019    0.1085218 -56.41  0.000809291    2.488    0.598
        38 -11.8730    105.8943    157.1787   9.6536579563e+01   2.8825156385e+01    0.5895222     0.382692 -84.23   0.00273117    2.165    0.538
        39 -10.6563     22.2733    159.1457   1.1887206180e+02   3.9007724958e+01    0.2647746    0.1069568  51.55  0.001253829    2.129    0.530
        40 -10.5229    118.0928    157.3971   9.3513796974e+01   2.6760021360e+01    0.2375355    0.1871909 -42.41  0.000750429    1.402    0.287
        41 -10.3021    196.3064    156.8354   7.6381159571e+01   1.3109719067e+01    0.2554852    0.1097117 -43.64  0.001081251    2.605    0.616
        42 -10.9251    167.3903    156.1144   8.1967734303e+01   1.8311609318e+01    0.3441807    0.2133979 -49.29  0.001689846    1.861    0.463
        43 -10.5717    218.1136    155.6248   7.2272029488e+01   9.6448399880e+00    0.2217231    0.1585685 -33.61  0.001116958    1.401    0.286
        44 -10.4287     40.4893    153.0926   1.1352166883e+02   3.8644353127e+01    0.1864936    0.1167855 -78.66 0.0005585695    1.515    0.340
        45 -10.0289     23.4997    153.5401   1.1817412904e+02   4.0187195000e+01    0.1272478    0.1021356  69.11 6.925013e-05    1.035    0.034
        46 -11.1228    232.4099    151.7648   6.9176675214e+01   7.8907121347e+00    0.2357859    0.1043983 -35.02  0.001137425    2.095    0.523
        47 -10.7898    189.7440    149.6468   7.6174317843e+01   1.5392209978e+01    0.4111612    0.1698262 -44.65  0.001661116    2.720    0.632
        48 -11.7866    233.8855    147.0832   6.8010443796e+01   8.2838392098e+00    0.3240562    0.1544982 -39.87  0.001273152    2.175    0.540
        49 -10.1319    223.5895    146.2278   6.9474421728e+01   1.0068465736e+01    0.1839719    0.1082734 -21.18 0.0009574078    1.647    0.393
        50 -10.3975    148.5027    145.0163   8.3899855879e+01   2.3813430443e+01    0.1946812    0.1275807 -71.86 0.0008104625    2.576    0.612
        51 -11.3863    249.2693    140.6222   6.4423488234e+01   6.7301357063e+00    0.2270155    0.1255604 -36.09  0.001152973    1.703    0.413
        52 -10.0839    181.3930    141.1737   7.6035257600e+01   1.8323653405e+01    0.1959464    0.1260565 -48.09 0.0009485359    1.770    0.435
        53 -11.0298    106.7120    145.2796   9.4293237333e+01   3.1274778571e+01    0.3427598     0.187894  71.67  0.001137011    3.902    0.744
        54 -11.7082     98.7090    128.1329   9.3245337456e+01   3.6519978650e+01    0.5032588     0.294452  88.96  0.001771859    3.352    0.702
        55 -10.3343    246.9926    129.5002   6.2465216948e+01   8.5186023745e+00    0.1514264    0.1141479  85.10 0.0008103721    2.704    0.630
        56 -10.2585    117.3416    125.6506   8.7553656054e+01   3.3720281210e+01     0.156569    0.1156844  78.28 0.0007044211    1.799    0.444
        57 -11.2975    248.6658    123.3215   6.0937200946e+01   9.0545044257e+00    0.1884222    0.1412257 -51.34    0.0011308    1.738    0.425
        58 -11.1303     42.7160    122.1473   1.0942782818e+02   4.5919607035e+01    0.4263765    0.1827197 -88.59  0.001555703    3.109    0.678
        59 -11.1810     15.5046    120.7179   1.1803045946e+02   4.8728675664e+01    0.2638464    0.2237345  27.03 0.0006402197    1.354    0.262
        60 -11.4636    192.6325    118.1070   6.8676945974e+01   2.0027725443e+01    0.4616987    0.3923522 -68.27  0.002303997    1.523    0.343
        61 -11.5317    141.3339    112.8870   7.8365248303e+01   3.1652329616e+01    0.4589198    0.2674131 -20.83   0.00166623    2.857    0.650
        62 -10.8926     78.8136    112.6451   9.6107085833e+01   4.3505769089e+01    0.3287416    0.1744199 -84.83  0.001092917    3.497    0.714
        63 -10.9571    173.9815    110.6971   7.0498269387e+01   2.5148052860e+01    0.3561785    0.2095933 -43.04  0.001243988    1.696    0.410
        64 -11.4429    159.2627    110.5964   7.3603747027e+01   2.8302027015e+01    0.5651222    0.1675102 -41.16  0.001760171    3.328    0.700
        65 -11.6933    121.6735    110.4564   8.2841783123e+01   3.6221172443e+01    0.4680271    0.1910662 -43.96  0.001655389    2.524    0.604
        66 -10.7763     91.7053    110.8459   9.1657531642e+01   4.1800726530e+01    0.3570781    0.1353882 -57.87  0.001221175    2.765    0.638
        67 -11.2019     13.7449    108.2512   1.1752218752e+02   5.1963349585e+01    0.4832673    0.1077153 -69.00  0.001721286    3.282    0.695
        68 -10.7643    222.4878    104.4911   6.0480248183e+01   1.6280124181e+01    0.2501529    0.1037944 -41.21   0.00102263    2.313    0.568
        69 -12.5813    140.9309    101.6631   7.5573092495e+01   3.4022646267e+01    0.6758206    0.4443875 -32.04  0.002992007    1.657    0.397
        70 -11.3069    127.5210    100.2400   7.8628662434e+01   3.7211576323e+01    0.4686291    0.1495328 -46.45  0.001449445    3.160    0.684
        71 -10.9483    244.5251     98.9920   5.6169826930e+01   1.2972787853e+01     0.204206    0.1073622 -30.53 0.0009655273    1.593    0.372
        72 -12.2348    169.7495     90.8145   6.6161427623e+01   2.9625973213e+01    0.3297795    0.3102421 -50.27 0.0006375492    1.083    0.076
        73 -12.0972    107.1770     98.6227   8.3940003669e+01   4.1764798422e+01     0.623928    0.2685038 -54.73  0.002194522    2.544    0.607
        74 -11.0413    140.5886     82.5108   7.0241379802e+01   3.7902901838e+01     0.436871    0.1475576 -39.77  0.001386477    2.914    0.657
        75 -11.2963     45.5403     82.2514   1.0153860616e+02   5.5722784554e+01     0.369937    0.2195213  73.49  0.001555201    2.384    0.581
        76 -11.1390    103.9003     82.5655   8.0407181478e+01   4.6025133545e+01    0.3245774    0.2038803 -63.17  0.001331093    1.960    0.490
        77 -12.6426    249.5866     79.3173   5.1082931412e+01   1.4630101580e+01    0.6386282    0.1852735 -30.57   0.00247561    2.792    0.642
        78 -11.9531     43.9662    100.2571   1.0568250969e+02   5.1326756148e+01    0.6493266    0.3232923  87.13  0.002460587    2.879    0.653
        79 -10.5840     33.7528     86.8222   1.0721452217e+02   5.5810766448e+01    0.4173273   0.08945498 -65.72  0.001308358    3.642    0.725
        80 -10.8872     81.6587     72.8174   8.4888179163e+01   5.2568685444e+01    0.3270557    0.1932169 -75.32  0.001160615    3.010    0.668
        81 -10.7303     51.9806     71.0073   9.6078222588e+01   5.7716596851e+01    0.2204728    0.2046339 -61.12 0.0005912546    1.013    0.013
        82 -11.3825    249.6761     68.1667   4.8497022825e+01   1.6025161710e+01    0.3926698    0.1340839 -38.11   0.00167752    2.313    0.568
        83 -13.7296    233.0795     62.2676   4.8866114756e+01   2.0026379907e+01    0.9572784    0.6007684 -69.20  0.004773401    2.122    0.529
        84 -12.6507    230.2568     51.8775   4.6583730608e+01   2.1936860430e+01    0.6031986    0.5039694 -89.14  0.003704808    1.346    0.257
        85 -10.7520     42.0200     62.9510   9.8250019182e+01   6.0924486667e+01    0.2151683     0.161007  67.47 0.0006074483    1.640    0.390
        86 -11.7219     19.4347     59.5559   1.0825027801e+02   6.3888596107e+01    0.3577477    0.2671688 -42.38 0.0009639109    1.298    0.229
        87 -12.9728     27.8983     60.5552   1.0432106452e+02   6.2963116744e+01    0.7217684    0.3886538  40.37  0.001759507    2.073    0.518
        88 -12.8229     34.5706     57.5436   1.0027659324e+02   6.3058908280e+01    0.5020802    0.3850931  27.25  0.002640099    1.439    0.305
        89 -10.6213    195.6696     67.2430   5.5040710945e+01   2.7493243781e+01    0.3749705    0.2109237  68.73  0.001631451    2.129    0.530
        90 -11.0948      7.6543     53.4765   1.1304195100e+02   6.6098847617e+01    0.2380917    0.1028146 -72.52  0.001089375    1.948    0.487
        91 -10.8334     39.8329     51.2861   9.5775433541e+01   6.3968418144e+01    0.5349219   0.08404106 -49.35  0.001461304    4.827    0.793
        92 -11.4221    216.8618     56.7151   4.9329472865e+01   2.4192557169e+01    0.3626516    0.1928013 -23.30  0.001639918    1.894    0.472
        93 -11.6201     20.8321     50.4128   1.0539139876e+02   6.6027727373e+01    0.4998835    0.2344549 -54.51  0.002359417    1.756    0.431
        94 -10.7288    148.9638     51.9874   5.8585616113e+01   4.1270305131e+01    0.1828589    0.1794242 -83.14 0.0006559588    1.014    0.014
        95 -11.6897    142.8078     48.6479   5.8720691186e+01   4.3363361544e+01    0.3617291    0.2296545  37.10  0.001350989    1.850    0.460
        96 -10.3533    154.1321     48.0983   5.6257703807e+01   4.0557282126e+01     0.222932    0.2033811  15.76 0.0004784476    1.211    0.174
        97 -11.4034      8.0558     43.5853   1.1083944198e+02   6.8488584166e+01    0.5547113    0.2259839  28.58  0.002563158    2.693    0.629
        98 -12.4245    246.7546     26.4109   3.8904375657e+01   2.1502955579e+01    0.4350561     0.251081 -35.55   0.00243463    1.393    0.282
        99 -12.8304    246.9778     33.0332   4.0460114353e+01   2.0731061622e+01    0.4435503    0.2795738 -43.57  0.002333149    1.307    0.235
       100 -11.6113    234.1518     39.4715   4.3097681327e+01   2.2627115912e+01    0.2913879    0.1250412 -42.46  0.001328391    1.951    0.487
       101 -11.9774     42.1833     37.4435   8.9454776168e+01   6.6794004520e+01    0.3597159    0.3315595 -25.86  0.001099577    1.036    0.035
       102 -11.4448    120.4873     34.4771   5.8476232218e+01   5.1226914356e+01    0.3073671    0.2713418  53.97 0.0007031922    1.114    0.102
       103 -10.1411     49.3252     34.6977   8.4526254478e+01   6.6349505984e+01    0.2958841    0.1720117  27.46  0.001384531    1.934    0.483
       104 -11.8712    104.7816     30.2159   6.0784369160e+01   5.5778344916e+01     0.448396    0.2608194  66.12  0.000227182    1.945    0.486
       105 -11.0829    192.6179     29.1796   4.4514003204e+01   3.3351589040e+01    0.1991332    0.1321156 -13.69 0.0009565419    1.726    0.421
       106 -11.6031    239.2361     20.8101   3.8088767932e+01   2.3646172786e+01    0.3340643    0.2622608  68.81 0.0007875326    1.452    0.311
       107  -9.9358     69.5316    245.5185   1.1395415162e+02   1.7229702162e+01    0.1109923   0.07848804  47.52 0.0003519758    1.047    0.045
       108 -10.0412     32.6577    242.2899   1.2074325784e+02   2.1680111775e+01    0.1147038   0.05073351  52.99 0.0004620178    1.650    0.394
       109 -12.2492     21.8003    238.7903   1.2263891605e+02   2.3304733914e+01    0.4165092    0.1495461  61.07   0.00235559    2.282    0.562
       110 -12.0249    201.4956     19.6734   4.0842197146e+01   3.2270376831e+01    0.2991392    0.2006104 -50.25  0.001578284    1.361    0.265
       111 -10.3904    247.5410    240.5068   8.1721597651e+01  -4.0855201796e+00    0.1025607   0.06965481   8.87 5.394213e-05    1.004    0.004
       112  -9.7804    177.4761    236.9712   9.2774874910e+01   4.7458209782e+00    0.1222781    0.1004239 -87.27 0.0008096537    2.503    0.601
       113 -10.2176    108.9691    232.8493   1.0528419649e+02   1.4388415179e+01    0.1728759    0.1300062  25.87  0.001194187    1.259    0.206
       114 -10.0130     65.4708     11.4803   6.4687216569e+01   6.7436395681e+01    0.1362487    0.1257657   8.41 0.0001823751    1.017    0.017
       115 -11.1097     12.5088    227.4931   1.2404116983e+02   2.6087786661e+01    0.2299081    0.1151551  71.11 0.0007496677    1.699    0.411
       116 -10.8359     72.3488    228.2618   1.1223203451e+02   1.9710932970e+01      0.20919    0.1451458  51.82 0.0004337919    1.159    0.137
       117 -10.9501     95.2174    224.7074   1.0728761778e+02   1.7472604358e+01     0.251866    0.1363121  57.80  0.001401504    1.975    0.494
