#   1 NUMBER                 Running object number                                     
#   2 MAG_AUTO               Kron-like elliptical aperture magnitude                    [mag]
#   3 X_IMAGE                Object position along x                                    [pixel]
#   4 Y_IMAGE                Object position along y                                    [pixel]
#   5 X_WORLD                Barycenter position along world x axis                     [deg]
#   6 Y_WORLD                Barycenter position along world y axis                     [deg]
#   7 A_WORLD                Profile RMS along major axis (world units)                 [deg]
#   8 B_WORLD                Profile RMS along minor axis (world units)                 [deg]
#   9 THETA_WORLD            Position angle (CCW/world-x)                               [deg]
#  10 FWHM_WORLD             FWHM assuming a gaussian core                              [deg]
#  11 ELONGATION             A_IMAGE/B_IMAGE                                           
#  12 ELLIPTICITY            1 - B_IMAGE/A_IMAGE                                       
         1 -12.6487     23.7381     17.0234   4.4857369998e+01   7.2888215237e+01    0.6171909    0.3480046  40.17  0.002258561    1.554    0.357
         2 -11.2168     49.7485     14.3424   2.9769443600e+01   6.8282840561e+01    0.2854882     0.225679  57.88  0.000784163    1.150    0.130
         3 -10.1374     45.3309     12.0892   3.0473918570e+01   6.9474762996e+01    0.2213787     0.149145  45.65 0.0006770823    1.253    0.202
         4 -10.7674    241.4189     10.2854   2.2899963044e+00   2.8613948007e+01    0.1812299   0.08163456 -33.30  0.001146397    2.201    0.546
         5 -11.3428    129.2295      8.8079   9.7839323351e+00   5.0528410250e+01    0.2376339    0.1813058 -82.09 0.0003261705    1.103    0.093
         6 -10.8104    123.9167      6.5343   9.7321320549e+00   5.1959401123e+01    0.3323106    0.1704744 -85.98  0.001337377    1.945    0.486
         7  -9.6369    115.1783      8.8266   1.1574266449e+01   5.3768962165e+01    0.1663799     0.123188  63.27 0.0005219431    1.283    0.221
         8 -11.0865     99.9376      6.7031   1.3162352240e+01   5.7541769223e+01    0.4007024    0.2810774  44.15  0.002371522    1.622    0.383
         9 -11.4753     86.3609      7.0769   1.5789594102e+01   6.0710475310e+01    0.3940123    0.1952731  57.18  0.001348001    1.708    0.414
        10 -11.3346    174.4809      4.0348   4.5606323584e+00   4.1212822468e+01    0.2308342    0.1751308 -54.01  0.001674479    1.199    0.166
        11 -11.7937    170.8552      3.2857   4.6305166535e+00   4.2020709662e+01    0.2661816    0.2098513  46.79  0.001852848    1.816    0.449
        12 -10.3495     15.9844      4.7461   4.2905096755e+01   7.5886587122e+01    0.1847788    0.1469349  38.45 0.0004894246    1.187    0.157
        13 -10.9511     11.3686      3.2642   4.5525522300e+01   7.6809128091e+01    0.3874848    0.2440324  56.60  0.002029288    2.441    0.590
        14 -10.8305    113.7302      1.7541   9.4865789874e+00   5.4742583602e+01    0.2247474    0.1432355  82.28 0.0006507537    1.311    0.237
        15 -10.2500    178.9745      1.4192   3.6864711484e+00   4.0561264616e+01    0.1546124   0.08983433  85.50 3.881037e-05    1.506    0.336
        16 -12.5222    245.9942    138.2662   2.4038725758e+01   1.1573473531e+01    0.3407839    0.2306167  63.23  0.002358231    2.378    0.579
        17  -9.8023     28.5798    138.2957   7.6462625370e+01   4.3935490269e+01    0.1957705    0.1352371 -57.62 0.0002893366    1.418    0.295
        18 -12.6671    235.7198    129.6707   2.3775929973e+01   1.4073713460e+01    0.4592359    0.1482356 -41.41  0.002226706    2.352    0.575
        19 -10.2768     17.7809    132.1738   7.9908880050e+01   4.6584598410e+01    0.2224955    0.1898814  57.60 0.0004962962    1.199    0.166
        20 -12.9426    245.6713    121.7052   2.1303626761e+01   1.3994328390e+01    0.4415438    0.1379507 -46.90   0.00213352    2.599    0.615
        21 -11.2210    134.9558    124.7098   3.9633362713e+01   3.0793961751e+01     0.271949    0.2037338 -54.98 0.0005917738    1.325    0.245
        22  -9.8813     91.6564    116.1173   4.9405282548e+01   4.0721683835e+01    0.2071687    0.1923227 -49.68 0.0004003436    1.090    0.082
        23  -9.5709     15.3087    114.3130   7.8649440817e+01   5.1712670990e+01    0.1575391    0.1005636 -36.84 0.0002861549    1.626    0.385
        24  -9.5115     96.1759    111.5840   4.6915670229e+01   4.0940817982e+01    0.1979951    0.1447681  26.96  0.000391256    1.512    0.339
        25 -12.2279    249.1578     99.8699   1.7251546588e+01   1.6612238622e+01    0.2734678    0.1688923 -53.64  0.001671419    1.358    0.264
        26  -9.3185     12.9877    105.7642   7.8474663207e+01   5.4217017800e+01    0.1788757    0.1206044  13.20 0.0002222208    1.507    0.336
        27 -10.2848      1.8131    104.9242   8.3537501911e+01   5.5146656070e+01    0.2407309    0.1705539 -41.80  0.001216636    1.365    0.268
        28 -11.8363    231.1791    101.9813   1.9409535871e+01   1.8754001720e+01    0.2924039    0.1037438 -50.06  0.001401057    2.518    0.603
        29  -9.0322     77.2799    103.2888   5.1041239312e+01   4.6357648459e+01    0.1479125    0.1190118 -13.88 0.0002203339    1.523    0.343
        30 -11.3476    117.4423    101.8418   3.8513369315e+01   3.8918056895e+01    0.2836245    0.2271114  82.53 0.0007751574    1.466    0.318
        31 -13.0555    235.9413     95.6593   1.7789311880e+01   1.8986245698e+01    0.4616732    0.2378401 -61.01  0.002631224    2.226    0.551
        32 -11.1606     64.6802     96.2477   5.3879581151e+01   5.0238741534e+01    0.3292443    0.2826964  41.72 0.0008049675    1.136    0.119
        33 -12.7212    242.8443     94.3742   1.6896299345e+01   1.8209493255e+01    0.3788254    0.1570656 -53.37  0.002053917    2.257    0.557
        34 -11.3833    137.5003     94.0357   3.1869472170e+01   3.6399347654e+01    0.4201097    0.3101595  26.95  0.002111558    1.846    0.458
        35  -9.4684      4.3222     96.2986   8.1245863537e+01   5.7329862652e+01     0.154005   0.09379994 -36.88 0.0003040709    1.624    0.384
        36  -9.6397     89.7925     94.1661   4.4433192426e+01   4.6075829621e+01    0.2028553    0.1785123   6.86 0.0008100569    1.323    0.244
        37 -10.7765    103.0621     95.7868   4.0848309348e+01   4.3079812258e+01    0.3361095    0.2159999 -48.35  0.001546607    1.576    0.366
        38  -9.8830    126.8290     92.8571   3.3940818396e+01   3.8803062277e+01    0.1970868    0.1617049 -83.44 0.0003882535    1.336    0.252
        39 -12.2518    249.0858     87.1496   1.5087253713e+01   1.8343150607e+01    0.5090186    0.1208369 -36.05  0.001916723    4.637    0.784
        40 -10.5479     96.7817     86.3030   4.0094891171e+01   4.6334851102e+01    0.2543326     0.222633  47.07 0.0003590673    1.117    0.105
        41 -10.0391     11.9906     85.9115   7.5691486983e+01   5.9552605760e+01    0.2097083    0.1962617 -26.18 0.0003297553    1.006    0.006
        42  -9.8727    187.3995     82.7173   2.0825118107e+01   2.8682642608e+01    0.1288223   0.08382697 -73.13 0.0006992957    1.773    0.436
        43 -11.3034     54.4372     78.6053   5.3167107709e+01   5.6075530323e+01    0.3451667    0.2691078  66.37  0.000542015    1.562    0.360
        44  -9.7234     72.7180     77.9991   4.5657667612e+01   5.2894820242e+01    0.1750938    0.1324742 -49.75  0.000569958    1.389    0.280
        45 -10.2159     77.9045     77.8966   4.3756372156e+01   5.1900524760e+01    0.2166498    0.1946782  17.70 0.0003197818    1.211    0.174
        46 -10.4321     30.5214     77.1055   6.4062740322e+01   5.9923736697e+01     0.248401    0.1951561 -11.68  0.001282791    1.344    0.256
        47 -11.8738    234.7218     74.1375   1.4043966739e+01   2.2120567530e+01    0.4048486   0.07727907 -38.59  0.001522202    4.241    0.764
        48 -11.3192     64.0665     69.5292   4.6324975224e+01   5.6317697079e+01    0.2408667    0.2225285 -38.26 0.0002364986    1.151    0.131
        49 -10.0371      7.9191     68.6882   7.4482618038e+01   6.4187443060e+01     0.195371     0.167586   4.24 0.0005432126    1.123    0.109
        50 -10.0529     83.2804     68.0445   3.8850728294e+01   5.2764943502e+01    0.1915278    0.1845422 -88.96 0.0002810354    1.067    0.063
        51 -11.6612    125.1212     78.0014   3.0426954266e+01   4.1926691269e+01    0.2458877    0.2110213  44.69 0.0006550974    1.269    0.212
        52 -10.6366    204.4411     65.6924   1.5290092081e+01   2.8154852484e+01    0.2132413   0.08823781 -44.08 0.0007898688    1.930    0.482
        53  -9.8413    151.9711     66.2456   2.2211041261e+01   3.8171937942e+01    0.1663172    0.1067189  64.69 0.0005689687    1.570    0.363
        54 -12.1995    248.6112     55.3454   9.6608978249e+00   2.2479364929e+01    0.6710899    0.1222982 -44.09  0.003043365    3.212    0.689
        55 -10.1193    199.2213     64.3647   1.5563005906e+01   2.9257431287e+01    0.1486221     0.100936  87.81 0.0003106781    1.587    0.370
        56 -10.1600     85.1906     63.7904   3.6858273136e+01   5.3155233296e+01    0.1899875    0.1653961  22.67 0.0003517399    1.316    0.240
        57 -10.7744      4.4876     63.5039   7.5410333223e+01   6.5681698666e+01    0.3283349    0.2086667 -58.80  0.001086034    1.506    0.336
        58 -11.7554      4.2370     58.6434   7.4451856024e+01   6.6856567939e+01    0.4196881    0.2961644 -33.09  0.001939788    1.326    0.246
        59 -10.8281     99.8820     62.2631   3.2050930219e+01   5.0223874451e+01    0.2852422     0.222573 -72.31 0.0007835144    1.439    0.305
        60 -11.2511    134.9782     75.7120   2.7725279585e+01   4.0220284162e+01    0.1970687    0.1749987  76.88 0.0005198059    1.088    0.081
        61 -11.6129    228.0613     57.1219   1.1487159525e+01   2.5368930969e+01    0.2776215    0.1533843 -48.67  0.001824656    1.356    0.262
        62  -9.8668    114.2912     61.0059   2.8071581415e+01   4.7224685767e+01    0.1880496    0.1733406 -70.54 0.0003398518    1.082    0.075
        63 -11.0549     35.9245     58.8846   5.5751637418e+01   6.3340222157e+01    0.3790049    0.2774502 -12.18  0.001596284    1.604    0.376
        64 -10.7058     22.1468     57.9325   6.3163828846e+01   6.5373155499e+01    0.2022341    0.1816631  46.53 0.0004467889    1.248    0.198
        65 -10.0557     85.6671     57.3141   3.4563231455e+01   5.4206114400e+01    0.1450937    0.1087821  88.75 0.0005507446    1.683    0.406
        66  -9.5005     17.3280     57.3248   6.5875115427e+01   6.6039726705e+01    0.1484826   0.09472758 -24.07 0.0007049773    1.697    0.411
        67 -10.2392     99.5266     55.4080   2.9970778612e+01   5.1454304569e+01    0.2236882    0.2068779  41.27 0.0005885267    1.184    0.155
        68 -10.8882     70.0064     55.5053   3.9249599314e+01   5.7853871708e+01    0.2236197    0.1307962  47.27 0.0008650715    1.572    0.364
        69 -10.4904     11.5840     51.7166   6.7817909116e+01   6.7861906549e+01    0.1731973    0.1330818 -76.33 0.0009467365    1.594    0.373
        70 -11.0334    233.1865     49.5350   9.7074905644e+00   2.5510101142e+01    0.2162001   0.07426609 -52.22  0.001134725    2.304    0.566
        71 -10.9858     94.0086     48.7237   2.9238501081e+01   5.3764073099e+01    0.2323446    0.2000998 -47.44  0.000355689    1.253    0.202
        72 -10.4516     94.7936     43.3636   2.7205342263e+01   5.4397590563e+01    0.3784514    0.1989523 -27.41  0.001588121    2.605    0.616
        73 -10.2601    100.2308     41.3823   2.5178458790e+01   5.3436508051e+01    0.3419339    0.1936824  67.18   0.00128825    1.726    0.421
        74 -10.4920     96.0172     38.4659   2.5207557332e+01   5.4818169272e+01    0.2871335    0.2152472 -82.98 0.0008276551    1.487    0.327
        75 -10.7646     51.3497     46.2520   4.3427612301e+01   6.3206803956e+01    0.3128608    0.2302915  42.72  0.001361396    1.236    0.191
        76 -10.8106    248.6734     43.7348   7.6647596788e+00   2.3855937742e+01    0.1932944    0.1585173 -64.51  0.001678194    1.217    0.178
        77 -10.4808     39.1778     43.9832   4.8482726846e+01   6.5797281537e+01     0.252682    0.1942217  21.27  0.001025883    1.273    0.215
        78 -10.6444    118.9754     42.6752   2.1560991200e+01   4.8939306472e+01    0.2842997    0.1905903 -33.63 0.0005301792    1.696    0.410
        79  -9.7935    185.5760     41.5202   1.2077056705e+01   3.4835394158e+01      0.11711    0.0948824 -65.46 6.683885e-05    1.032    0.031
        80 -11.2755    221.7184     38.7186   8.5149414703e+00   2.8671505778e+01    0.2364465   0.07468731 -51.98  0.001178452    2.487    0.598
        81 -10.0140     89.8818     39.1460   2.7025288403e+01   5.6131752119e+01    0.1775147      0.15334  35.99 0.0002644985    1.295    0.228
        82 -10.9913    129.8691     36.0865   1.7679456889e+01   4.7330260243e+01    0.2100995    0.1782072 -82.18 0.0002764327    1.041    0.039
        83 -10.9540     40.0807     35.7677   4.4536682695e+01   6.7098773175e+01    0.4834871    0.1829583  47.36  0.001859257    2.683    0.627
        84 -11.4358     28.0639     33.0506   5.0111174630e+01   6.9576998824e+01    0.5048126    0.3816428 -17.02  0.002874468    1.467    0.318
        85 -10.8109    159.8625     34.8685   1.3250583916e+01   4.0880316671e+01    0.2224429    0.1274567  64.55  0.001236882    1.714    0.416
        86 -10.4908    119.1810     35.0620   1.9195384247e+01   4.9910159517e+01    0.2115411    0.1674723  74.50 0.0003452536    1.124    0.110
        87 -10.6707    225.6226     33.1782   7.2141786142e+00   2.8672220187e+01    0.1426118   0.08741035 -33.21 0.0009526393    1.742    0.426
        88 -11.6939     92.5469     31.2016   2.3493499240e+01   5.6595781196e+01    0.2402057     0.199011  72.21 0.0002924862    1.072    0.067
        89 -10.7374      3.8648     31.3400   6.6459017784e+01   7.2877117118e+01      0.30688    0.1685665  34.49  0.001472359    1.862    0.463
        90 -10.0811     17.3913     31.0294   5.6194231928e+01   7.1465655284e+01    0.2160163    0.1612429  34.49 0.0007694469    1.304    0.233
        91  -9.9548     59.0423     29.5112   3.3168208051e+01   6.4342706447e+01    0.2121454    0.1179418  51.18  0.001026084    1.570    0.363
        92 -10.0682     39.1380     28.8122   4.1855205188e+01   6.8403954149e+01    0.1842774    0.1432149  19.35 0.0005883444    1.322    0.243
        93 -10.6560    161.2079     27.1688   1.1193001595e+01   4.1517866627e+01    0.2325645    0.1620426 -79.81 0.0008489462    1.264    0.209
        94 -10.0471    153.1162     27.6853   1.2210341829e+01   4.3189154252e+01    0.1670224    0.1328207  84.88 0.0003563624    1.132    0.117
        95  -9.7547    104.0064     28.2809   1.9916337959e+01   5.4288746212e+01    0.1855868    0.1451164  72.15 0.0002939406    1.117    0.105
        96 -10.4473    119.1676     27.3814   1.6825300224e+01   5.0863080952e+01     0.186016     0.109208  81.25 0.0001680844    1.673    0.402
        97 -10.6977     46.9820     26.8120   3.7053138197e+01   6.7207637616e+01    0.1925603    0.1827213  24.86 0.0003546019    1.106    0.096
        98  -9.6771     83.3835     26.1483   2.3935622116e+01   5.9356973957e+01    0.1777613    0.1179829 -49.06 0.0009433837    1.690    0.408
        99  -9.8177    240.2993     24.1835   4.7507313435e+00   2.7328692135e+01    0.1926864   0.09286527  61.13  0.001247076    2.741    0.635
       100  -9.7389    128.8399     24.1440   1.4348051717e+01   4.9011483101e+01    0.1598387    0.1365492  62.43  0.000303558    1.257    0.204
       101  -9.5660     88.4356     24.4738   2.2018414301e+01   5.8387836260e+01    0.1320656    0.1143801  72.51 0.0001054037    1.014    0.014
       102 -10.4095     98.5372     22.7042   1.9109643624e+01   5.6229900187e+01    0.2262133    0.1757412  76.90 0.0006439482    1.131    0.116
       103  -9.7816     38.1115     22.6969   3.9414800436e+01   6.9518476097e+01    0.1849939    0.1442296  38.99 0.0004941722    1.104    0.094
       104 -11.0540     32.9522     18.8634   4.0241231821e+01   7.1023608523e+01    0.3014533    0.2139718 -45.33  0.001213662    1.708    0.415
       105 -12.5849      6.9613    207.8138   8.9368867249e+01   2.7286022747e+01    0.3283382    0.2725376 -44.28  0.001953393    1.385    0.278
       106  -9.9026     85.2887     15.8427   1.9457723834e+01   6.0095992890e+01    0.3510864   0.07002541  61.99  0.001131942    3.794    0.736
       107 -12.6022      2.4424    218.7070   9.1075862665e+01   2.5021266028e+01    0.5884972    0.2095518 -88.01  0.002361246    3.077    0.675
       108  -9.1729    220.6700    208.6702   3.8743840701e+01   3.7949177260e+00    0.1166993   0.06621523 -17.64 0.0006626002    1.714    0.417
       109 -10.0625     34.9611     13.7308   3.6362833567e+01   7.1347741009e+01     0.183439    0.1456794  41.53 0.0004816272    1.069    0.064
       110  -9.4365    120.6695     12.6825   1.2034061091e+01   5.2118430397e+01    0.1233404   0.08623872  47.01 0.0007047114    1.686    0.407
       111 -11.9205      2.3788    197.2837   9.0167639193e+01   3.0205921096e+01    0.4236571     0.119431 -78.80  0.001479882    3.493    0.714
       112  -9.6110    108.4398     18.4431   1.5771072173e+01   5.4376364093e+01    0.1299899    0.1068595 -89.43 9.530604e-05    1.078    0.072
       113 -10.0252    244.6943    198.6713   3.3756364941e+01   3.0456408963e+00      0.10847   0.06084884 -20.37 0.0004085809    1.654    0.395
       114 -10.9473    244.0718    179.9939   3.0988551581e+01   5.7428259331e+00    0.2207786    0.1140767 -49.48  0.001093295    2.038    0.509
       115  -9.6828      1.3118    181.3066   8.9695992557e+01   3.4360951474e+01     0.139882   0.09783284 -40.06 0.0003042077    1.619    0.382
       116 -11.2778    224.1113    172.7430   3.2564943927e+01   8.8875280656e+00    0.1978095    0.1271484 -44.60 0.0006742466    1.380    0.276
       117 -10.8423     21.6754    169.8970   8.2361817394e+01   3.5884736365e+01     0.243432     0.196235   2.20 0.0005327799    1.323    0.244
       118 -10.3652    206.0049    162.5183   3.3551180847e+01   1.2654496601e+01    0.1608514    0.1168449  32.69  0.001043967    1.625    0.385
       119  -9.9513      3.4857    156.5161   8.7491807086e+01   4.0855138848e+01    0.1398383    0.1342793  78.76 0.0008102508    1.015    0.015
       120  -9.7961     40.1449    148.5186   7.3551490954e+01   3.9928806397e+01    0.3067554   0.09508234 -65.59  0.000977187    3.025    0.669
       121  -9.9751     25.4242    146.4978   7.8667859629e+01   4.1959385151e+01    0.2951866    0.1445382  18.85 0.0009391197    2.040    0.510
       122 -12.4523    242.6020    140.7249   2.4839267765e+01   1.1609902728e+01    0.2544238    0.2009031 -79.58  0.001861898    1.903    0.474
