#   1 NUMBER                 Running object number                                     
#   2 MAG_AUTO               Kron-like elliptical aperture magnitude                    [mag]
#   3 X_IMAGE                Object position along x                                    [pixel]
#   4 Y_IMAGE                Object position along y                                    [pixel]
#   5 X_WORLD                Barycenter position along world x axis                     [deg]
#   6 Y_WORLD                Barycenter position along world y axis                     [deg]
#   7 A_WORLD                Profile RMS along major axis (world units)                 [deg]
#   8 B_WORLD                Profile RMS along minor axis (world units)                 [deg]
#   9 THETA_WORLD            Position angle (CCW/world-x)                               [deg]
#  10 FWHM_WORLD             FWHM assuming a gaussian core                              [deg]
#  11 ELONGATION             A_IMAGE/B_IMAGE                                           
#  12 ELLIPTICITY            1 - B_IMAGE/A_IMAGE                                       
         1 -14.4125    195.2083     14.8500   7.0092872528e+01   3.4324508624e+01     2.838606     1.617138  26.91   0.01183458    2.469    0.595
         2 -15.4613      8.7611    239.6424   1.5318066136e+02   2.5945083232e+01     8.053336    0.8524237 -71.09   0.03369439    6.155    0.838
         3 -11.1221    140.4049    250.2915   1.3325926943e+02   7.4083776275e+00    0.4053037    0.1021065  43.19  0.001722787    3.039    0.671
         4 -10.9776    125.1621    249.9145   1.3572253020e+02   9.7662639217e+00    0.3272136    0.1126547  42.98  0.001639754    2.272    0.560
         5 -10.1023     95.1049    241.1464   1.3984578990e+02   1.5434472966e+01    0.1988518    0.1401391 -86.49 0.0003652503    1.489    0.328
         6 -10.8610     98.6177    249.6205   1.4000207342e+02   1.3655478070e+01     0.274953    0.1760491  69.67  0.001508845    1.423    0.297
         7  -9.8788     97.0250    245.4831   1.3990685307e+02   1.4499415755e+01    0.1618882   0.08289682  46.88 0.0003342598    1.518    0.341
         8 -10.0403     89.0192    249.5310   1.4152845220e+02   1.4993938396e+01    0.2050199    0.1217774  67.65 0.0006474946    1.483    0.325
         9 -10.7016     82.0184    248.8388   1.4258467774e+02   1.6040732789e+01    0.3691899    0.1623754  60.43  0.002162422    2.003    0.501
        10 -10.6067     84.3350    245.3736   1.4194746279e+02   1.6262091120e+01    0.3688145    0.1679034  70.99  0.001950427    2.728    0.633
        11 -10.3203     67.4227    249.4803   1.4491430938e+02   1.7834139719e+01    0.2862084     0.133814 -64.63  0.001849632    2.440    0.590
        12  -9.5335     64.2142    250.6115   1.4548412734e+02   1.8061965387e+01    0.1795494   0.08680999  40.68 0.0005729679    1.973    0.493
        13 -11.0068     67.9636    243.7982   1.4443673806e+02   1.8652430452e+01    0.3469357    0.1244899  56.51  0.001683606    2.297    0.565
        14 -11.1318     46.4545    249.0089   1.4808160839e+02   2.0445311185e+01    0.3214377    0.1540586  63.35  0.001097632    1.596    0.374
        15 -12.4857     32.6287    245.6234   1.4996119727e+02   2.2533521039e+01    0.5932276    0.4275502  60.50  0.004503349    1.205    0.170
        16 -15.0171      4.4703     16.1270   1.2591043995e+02   7.0985009528e+01     20.42756     1.224613 -55.77   0.03627225   19.003    0.947
        17 -15.0685     54.7453    223.3812   1.4512243866e+02   2.3681297809e+01       5.7154      1.18386  41.71   0.02441475    3.694    0.729
        18 -10.6839    193.9279    236.8511   1.2264125759e+02   6.2802851743e-01    0.2666639    0.1967643 -58.93  0.001741695    2.090    0.522
        19  -8.9034    172.3240    238.6828   1.2654582112e+02   3.9044428160e+00    0.1129369   0.07986343  63.74  0.000704391    1.669    0.401
        20  -9.8316    152.4804    248.4628   1.3106406479e+02   5.7855512769e+00    0.1135301   0.08586635  46.51 1.254352e-05    1.014    0.014
        21 -11.0333    173.5721    221.9462   1.2405857174e+02   5.9525232372e+00    0.3872077    0.2853247  72.73  0.002339442    1.843    0.457
        22 -10.3350    161.8911    248.5450   1.2951319737e+02   4.3018580485e+00    0.1760655    0.1387349  62.88  0.001186988    1.343    0.256
        23 -11.2889    229.9255    230.6211   1.1572384779e+02  -4.4232622519e+00      0.59579    0.3348233 -55.13  0.002568006    5.237    0.809
        24  -8.7382    152.5200    212.5943   1.2654137361e+02   1.0939642666e+01    0.1245763    0.1018017  47.79 8.718562e-05    1.018    0.018
        25 -10.3431     33.2173    205.8611   1.4754846798e+02   2.9289802450e+01    0.2963918    0.1652887  46.92  0.002003919    1.619    0.382
        26 -10.6176     34.2621    202.3316   1.4712665190e+02   2.9831772738e+01    0.1891705      0.16675  59.41 0.0008648701    1.412    0.292
        27 -10.2126    192.0063    193.1805   1.1614616053e+02   6.8569770497e+00    0.4755374    0.2716432 -65.19   0.00179707    4.415    0.773
        28 -11.5553     71.5522    198.3560   1.4001517972e+02   2.6083998002e+01    0.3184497    0.2245947 -50.86  0.002017453    1.904    0.475
        29 -11.7375     76.3915    190.8147   1.3830868443e+02   2.6876925538e+01    0.2504008    0.2147212 -61.20 0.0004815543    1.427    0.299
        30 -11.0996     84.7330    178.2915   1.3517492989e+02   2.8181058343e+01    0.2246676    0.1928667 -86.07 0.0003700386    1.115    0.103
        31 -13.2651     72.5354    176.0000   1.3740728593e+02   3.0361649073e+01    0.4263739    0.2644427 -45.19  0.001801945    2.261    0.558
        32  -9.3069    131.4966    173.4822   1.2471632146e+02   2.1495940933e+01    0.1340609    0.1212809  61.95 0.0008103813    1.013    0.013
        33 -12.2713     90.1922    168.1404   1.3267591371e+02   2.9450843022e+01     1.476527     0.627202  60.21  0.005760438    3.212    0.689
        34 -12.8719     67.1118    143.9727   1.3438748166e+02   3.7920048853e+01    0.9614617    0.5484766  79.42  0.004594783    2.241    0.554
        35 -12.5054     57.3119    129.6449   1.3459911776e+02   4.2351346686e+01     1.510028    0.5279833 -75.51  0.004679506    4.925    0.797
        36 -10.0617    102.5398    152.2143   1.2747252471e+02   3.0856984376e+01    0.2894302    0.2438667 -62.07 0.0008526937    1.188    0.158
        37  -9.4226    104.9781    147.7806   1.2614207734e+02   3.1400108255e+01    0.3065417    0.1736412 -37.22  0.001313889    2.557    0.609
        38 -12.1221     91.5389    151.7988   1.2991944760e+02   3.2706502977e+01    0.2531789    0.2438329 -33.92 0.0005444554    1.309    0.236
        39 -11.1088     46.8687    146.7302   1.3944886387e+02   3.9769427742e+01    0.3140203    0.1596184 -79.73  0.001436694    1.872    0.466
        40  -8.7910    192.0364    143.9713   1.0635506819e+02   1.4885809343e+01    0.1701468    0.1622353   3.91 0.0003654278    1.033    0.032
        41  -9.5059    242.0236    138.9810   9.6137776432e+01   5.2587078506e+00     0.168918     0.149736  -0.81  0.000381959    1.001    0.001
        42  -8.7928     90.9618    139.2252   1.2793288503e+02   3.5541969434e+01    0.1647682    0.1083084  44.24 0.0003660021    1.563    0.360
        43  -9.8252    112.3521    137.2780   1.2243467876e+02   3.2388148139e+01    0.2858049    0.2306997 -13.02  0.001225908    1.775    0.437
        44 -10.5825    100.0992    134.5970   1.2486495579e+02   3.5086981631e+01    0.2603021    0.2240713 -25.72 0.0006787234    1.475    0.322
        45 -13.9189     11.2510    206.9551   1.5130442593e+02   3.1301516019e+01     1.391677     0.993395  47.87  0.003734352    1.494    0.331
        46  -8.7537    117.6800    129.6965   1.1959138329e+02   3.3058269612e+01    0.1391815    0.1154878  -9.24 0.0007028022    1.630    0.386
        47  -9.3112    108.9022    124.0160   1.2053056601e+02   3.5895152464e+01    0.2009777    0.1918307 -74.71 0.0003377039    1.036    0.035
        48 -10.9070    168.2861    113.3739   1.0393717595e+02   2.5806599400e+01    0.4085582    0.3269262 -82.86  0.001167974    1.617    0.382
        49  -8.9203    203.4876    111.5078   9.6334752576e+01   1.7984200152e+01    0.1512578     0.143073   2.07 2.021653e-05    1.029    0.028
        50 -12.7541     48.3480    233.1806   1.4683349263e+02   2.2780055477e+01    0.2986199    0.2329029 -80.47 0.0007766919    1.423    0.297
        51 -10.5196    249.1597    249.4805   1.1552501422e+02  -9.1489137658e+00    0.3338746   0.09924956  36.77  0.001621002    2.590    0.614
