#   1 NUMBER                 Running object number                                     
#   2 MAG_AUTO               Kron-like elliptical aperture magnitude                    [mag]
#   3 X_IMAGE                Object position along x                                    [pixel]
#   4 Y_IMAGE                Object position along y                                    [pixel]
#   5 X_WORLD                Barycenter position along world x axis                     [deg]
#   6 Y_WORLD                Barycenter position along world y axis                     [deg]
#   7 A_WORLD                Profile RMS along major axis (world units)                 [deg]
#   8 B_WORLD                Profile RMS along minor axis (world units)                 [deg]
#   9 THETA_WORLD            Position angle (CCW/world-x)                               [deg]
#  10 FWHM_WORLD             FWHM assuming a gaussian core                              [deg]
#  11 ELONGATION             A_IMAGE/B_IMAGE                                           
#  12 ELLIPTICITY            1 - B_IMAGE/A_IMAGE                                       
         1 -10.8920      6.2673     35.3404   9.4774003332e+01   6.8938275808e+01     0.873392    0.4644783 -42.82  0.005115169    1.484    0.326
         2 -11.3192     14.3232     39.2190   9.1877262400e+01   6.7639262239e+01    0.8934437    0.5120474 -63.42  0.004640427    2.437    0.590
         3 -12.4544    107.6367     29.0974   5.1359794446e+01   5.3864499334e+01     0.459094    0.3625911  16.07  0.002641963    1.375    0.273
         4 -12.7346    105.1603     20.7790   4.8957531562e+01   5.5332211079e+01     0.301921    0.2742265  59.92  0.000468852    1.118    0.106
         5  -9.5194     50.3618     22.3929   6.7361361776e+01   6.5938606999e+01    0.4972107    0.2404744 -18.50  0.002293359    2.545    0.607
         6  -9.5767     43.1235     10.0300   6.4641485508e+01   6.8568263954e+01    0.2525353    0.1587066  27.12 0.0008467314    1.351    0.260
         7 -10.0332     28.1253     20.7093   7.7024367458e+01   6.9311517855e+01    0.5664362    0.3307925  10.14  0.003217126    1.713    0.416
         8 -11.1449     40.0305     20.8039   7.1227410903e+01   6.7718179352e+01    0.5573846    0.4065565  56.56  0.002049376    2.424    0.588
         9 -11.2906     42.4999     15.4876   6.7581195077e+01   6.8031253310e+01    0.2939029    0.1906539  30.07 8.997734e-05    1.349    0.258
        10 -10.3313     30.5323     28.7361   7.9398291401e+01   6.7819453430e+01    0.6503918    0.2880466 -21.23  0.002700259    3.176    0.685
        11 -10.1155      6.4493      9.1451   8.3711957607e+01   7.3244469865e+01    0.4641534    0.2123375 -25.05  0.001742296    2.043    0.510
        12  -8.6353     16.5649     20.1165   8.2962844807e+01   7.0672864257e+01    0.5749448    0.4447178 -14.38  0.003202729    1.060    0.057
        13 -10.9518      7.8522     15.3589   8.5825322794e+01   7.2200053209e+01    0.5166796    0.2643555   0.53 0.0009772077    2.054    0.513
        14 -12.0374     14.0422     10.7332   7.9937271490e+01   7.2297154884e+01    0.3065811    0.2202788  -5.58    0.0021468    1.066    0.062
        15 -10.8419     24.8862      7.1471   7.2030593435e+01   7.1513210586e+01    0.3925237    0.1923931 -42.74  0.002050447    2.778    0.640
        16 -11.4303     20.9872      6.2009   7.3647818613e+01   7.2114802005e+01    0.3894758    0.2540614 -17.12  0.001835148    1.330    0.248
        17 -10.4235    232.3784     23.7557   3.1878793888e+01   2.5918863236e+01    0.3819898    0.2955786 -67.57  0.001990612    1.030    0.029
        18 -10.4200    230.7517     14.3394   3.0111309669e+01   2.7333312969e+01    0.3032944    0.1895756 -57.80  0.001067256    1.327    0.247
        19  -8.7606    183.2809      6.9631   3.2558703426e+01   3.8400635192e+01    0.2430934    0.1849343  16.55  0.001250537    1.999    0.500
        20 -10.6658    182.2471     18.3742   3.5459931620e+01   3.7478023523e+01    0.3204514    0.2351081  52.71 0.0005143044    1.481    0.325
        21 -10.0884    184.9985     13.5567   3.3978924919e+01   3.7351265187e+01    0.4110037    0.3161528 -49.45  0.002321322    1.302    0.232
        22 -10.2565    177.4358     22.0491   3.6948221615e+01   3.8196409993e+01    0.4775571    0.1906092 -32.70  0.002124625    2.591    0.614
        23 -10.1490    131.5291     22.0936   4.3865079576e+01   4.9091989524e+01    0.4405111    0.2530497  -5.50  0.002021391    2.618    0.618
        24 -10.0340     78.0111     11.8930   5.2725885373e+01   6.2028830430e+01    0.4233653    0.1708382  47.72  0.000621142    2.013    0.503
        25  -8.7677     80.8120      3.2798   4.8303702141e+01   6.2198898997e+01     0.385226    0.1560253  34.83  0.001697788    2.577    0.612
        26  -9.7212     69.9988     18.6617   5.8189902759e+01   6.2919276456e+01    0.3397365    0.2554983 -28.56   0.00124211    1.479    0.324
        27 -10.8044     69.7462     11.3381   5.5078438743e+01   6.3724149131e+01    0.2455029    0.1798501  34.44 0.0002142294    1.131    0.116
        28 -11.2540     74.2311      4.2206   5.0562595084e+01   6.3472645128e+01    0.5139654    0.3072843  -8.42  0.002723334    1.893    0.472
        29  -9.6710     69.7703      2.2233   5.1022154839e+01   6.4526790215e+01    0.2255562    0.1686352  29.34 0.0006587285    1.133    0.117
        30 -11.9359     62.2442     16.9756   6.0200613672e+01   6.4551098339e+01    0.6214069    0.2907505  31.67 0.0003682966    2.134    0.531
        31 -10.0059     84.3968     20.3731   5.4323144072e+01   5.9865595744e+01    0.3918439    0.2733648 -60.28   0.00136674    2.319    0.569
        32 -11.0695    218.1362     18.4896   3.1968945870e+01   2.9486921349e+01    0.4639925    0.2828605 -83.97  0.001057449    1.524    0.344
        33  -9.5360    225.4792     17.5415   3.1166048896e+01   2.8055188887e+01    0.3389822    0.1856352 -26.15  0.001820236    2.357    0.576
        34 -10.4639    210.7064     14.2273   3.1690350132e+01   3.1549992658e+01    0.3156366    0.3038689 -11.47  0.001807364    1.441    0.306
        35  -9.9354    212.7703      9.8289   3.0572831770e+01   3.1576345821e+01    0.3099995    0.2008579  73.64  0.001624438    1.421    0.296
        36  -9.8249    116.7090     14.8984   4.4345064642e+01   5.3274552456e+01     0.262703    0.2295279   3.25  0.001081537    1.297    0.229
        37 -10.7514    243.8401     14.0227   2.9122986113e+01   2.4767724578e+01    0.2783651    0.2194816  45.41  0.001344358    1.938    0.484
        38 -10.7915    175.7005     12.9500   3.4839550498e+01   3.9558830625e+01    0.5200889    0.3199587  76.15  0.001778255    1.428    0.300
        39  -8.5774    172.6882      5.6125   3.3313678849e+01   4.0964079763e+01    0.2755799    0.1757087 -60.10  0.001586518    1.572    0.364
        40 -11.1020     97.9804     12.1547   4.7470640380e+01   5.7764298167e+01     0.473143     0.397223  27.14  0.001367971    1.157    0.136
        41 -10.5671    106.5272      5.6937   4.3181258684e+01   5.6403442023e+01    0.5542315    0.3778063  21.96  0.002934621    1.656    0.396
        42  -9.2993     51.7645     13.1428   6.2489324899e+01   6.6812871084e+01    0.2795458    0.1517738 -29.53 0.0005398119    1.933    0.483
        43  -9.7332     31.0292     12.5511   7.1612649534e+01   7.0040064749e+01    0.3648446    0.2010613  31.12  0.002129584    1.643    0.391
        44 -10.4429    146.5469     12.3886   3.8427515291e+01   4.6484024837e+01    0.4645904    0.2322958  66.23  0.001756502    1.699    0.411
        45 -11.1598    132.9911     12.5718   4.0597492595e+01   4.9678953490e+01    0.2910875    0.2595478 -88.57 0.0003077721    1.145    0.127
        46  -9.8832    127.0357      8.0528   4.0162455307e+01   5.1478897575e+01    0.3666134    0.2579232 -85.73   0.00136295    1.602    0.376
        47 -10.8849    166.0673     18.3624   3.7413401565e+01   4.1263539451e+01    0.3948225    0.3008446  -9.16  0.001420291    1.754    0.430
        48 -10.5475    191.7015      8.5629   3.2125887227e+01   3.6335365928e+01    0.4442426    0.3130017 -45.24  0.001290372    1.419    0.295
        49  -9.7815    202.3211      8.4071   3.1134950178e+01   3.3989693992e+01    0.3279141    0.1851912  77.44 0.0005977699    1.560    0.359
        50 -10.7231    195.9829      3.5156   3.0583872371e+01   3.5873339634e+01    0.4776464    0.2554545 -88.65  0.001802961    1.753    0.429
        51 -11.2829    236.5576      8.3397   2.8524987756e+01   2.6824912641e+01    0.3760865    0.2025412 -41.36  0.002292142    1.686    0.407
        52 -10.6102    232.1964      5.5284   2.8270971798e+01   2.7995959065e+01    0.3213474    0.1844472 -30.36  0.001928268    2.031    0.508
        53  -9.5992    224.5802      9.7485   2.9644239673e+01   2.9100421149e+01    0.3112113    0.1467696 -44.61 0.0009390145    1.835    0.455
        54  -8.8390     56.0148     10.6195   5.9621354959e+01   6.6346204486e+01    0.1970986    0.1412866   3.31 0.0005375312    1.331    0.249
        55 -10.0996    166.5325      9.0652   3.4891854062e+01   4.2076117833e+01    0.3052159    0.2459765  67.10  0.001359701    1.149    0.130
        56 -11.2275     15.0585      4.3027   7.6008821271e+01   7.3040998236e+01    0.4405387    0.2333686  -9.84  0.001849991    1.992    0.498
        57  -8.1398    113.5086      9.4646   4.3108729108e+01   5.4499362533e+01    0.1275754    0.1101528  61.41  0.000105093    1.054    0.051
        58  -8.7709     91.4906      8.4199   4.7616866474e+01   5.9509672601e+01    0.3551863    0.1817134  45.93  0.001613595    1.623    0.384
        59  -9.2408     88.0334      6.2065   4.7609540650e+01   6.0438559719e+01    0.1932814    0.1482026  42.72 0.0005849882    1.078    0.073
        60  -8.3908     38.2411      9.6934   6.6686418108e+01   6.9356926217e+01   0.09746031   0.09006624 -17.67 0.0002844665    1.494    0.331
        61  -8.3683    120.2596      8.2941   4.1429870879e+01   5.3039321494e+01    0.1250242   0.08414076  38.40 0.0001960313    1.499    0.333
        62  -9.7409    152.7495      6.1074   3.5781935298e+01   4.5585273472e+01    0.2141257    0.1634392  55.51 0.0002678738    1.260    0.206
        63  -9.9398     62.0352      6.3806   5.5442508378e+01   6.5660561876e+01    0.3332001    0.1964895  57.02  0.001347279    1.851    0.460
        64  -8.6610     48.0849      7.6233   6.1332928948e+01   6.8017750393e+01    0.2320173    0.1064645  51.66  0.001110683    2.527    0.604
        65 -10.4594    248.1240      4.8379   2.7140852332e+01   2.4952171902e+01    0.2344741    0.1515169  86.25 0.0002516675    1.388    0.279
        66 -10.7640    249.9820      1.4367   2.6416462017e+01   2.4960416123e+01    0.3329486    0.1941512  63.71 0.0003156608    1.967    0.492
        67  -9.8281     38.6107      4.4945   6.3863290271e+01   6.9865735805e+01    0.2591221    0.2476539  -8.93  0.001451183    1.541    0.351
        68 -10.6665     31.0660      3.3638   6.6851715306e+01   7.1108977885e+01    0.2668657    0.1866496 -38.86 0.0009385908    1.977    0.494
        69 -10.6467    208.8980      3.8463   2.9603320733e+01   3.3019640437e+01    0.3593718    0.2394744 -67.31    0.0012263    1.287    0.223
        70 -11.0097    160.7468      2.8606   3.3922041165e+01   4.3989382064e+01    0.6739126    0.2821836  64.56  0.003249876    1.951    0.488
        71 -10.1881    217.8774      2.8369   2.8722118774e+01   3.1214159824e+01    0.2673683    0.2274216 -81.42  0.001660688    1.142    0.124
        72 -11.4368    179.2493      2.2218   3.1805110392e+01   3.9764241543e+01    0.3556067    0.1664382  64.28  0.001151483    1.847    0.458
        73  -9.9678    127.5004      1.5416   3.8004687584e+01   5.1896369519e+01    0.3398767    0.1380807  59.71 0.0009744202    1.925    0.480
        74 -10.3568     90.5421      1.9439   4.5295557580e+01   6.0234660042e+01     0.349424    0.1778709  62.34  0.001146248    1.760    0.432
        75  -8.5833    143.5529      1.9312   3.5797273786e+01   4.8102176409e+01    0.1706684    0.0964927  22.20 0.0008074496    2.743    0.635
        76 -10.1956    115.6975      1.8962   4.0095093412e+01   5.4605427582e+01    0.2065672    0.1536248  66.43 0.0003153036    1.158    0.136
        77  -8.0815      3.3083      2.2856   8.2176526392e+01   7.4478987156e+01    0.1137099   0.06416361 -10.63 0.0002704893    1.570    0.363
        78  -9.7059     50.1772      2.3166   5.7863857740e+01   6.8172224633e+01    0.2214243    0.1806496   0.42  0.000965098    1.197    0.164
        79  -8.8286    135.8470      1.4688   3.6729112056e+01   4.9948861269e+01    0.1905592    0.1059626  70.28 0.0009363951    1.522    0.343
        80  -9.6391    221.4851    119.3164   5.3965817658e+01   1.3514310999e+01    0.2731871    0.2541741  18.94 0.0007694772    1.235    0.190
        81  -9.4253    201.4839    249.5519   8.3195221252e+01  -6.1318860002e+00    0.2167611    0.1680693   7.70 0.0005696298    1.034    0.033
        82 -10.2049     44.7045    119.5165   1.0015516160e+02   4.6890933545e+01    0.3893578    0.2473602  25.66  0.001578002    1.746    0.427
        83  -9.3348     53.0566    113.1169   9.5978267211e+01   4.7534601529e+01    0.2865311    0.2066131  24.81 0.0005212741    1.518    0.341
        84  -9.7916     48.7099    115.7140   9.8028485131e+01   4.7400863865e+01     0.412655    0.2502709  48.34 0.0009372207    1.989    0.497
        85  -9.1085     48.6601    111.7770   9.7216790958e+01   4.8392615189e+01    0.2988864    0.2372928 -63.42 0.0009568236    1.199    0.166
        86  -8.5816    103.7721    119.3876   8.0927399308e+01   3.8009990270e+01    0.2112346    0.1507519  25.77 0.0002595973    1.558    0.358
        87 -10.2083      3.7521    116.8777   1.1340456978e+02   5.0881266209e+01    0.3570229    0.2690811 -47.33  0.001966544    1.244    0.196
        88  -8.6527     67.3366    118.2836   9.2276510540e+01   4.4350705136e+01    0.1529319    0.1101608 -23.32 0.0001728221    1.624    0.384
        89  -9.4460     32.8181    118.1113   1.0391756239e+02   4.8447719673e+01     0.202149    0.1380581 -44.25 0.0005722105    1.370    0.270
        90  -8.8859    239.2850    117.3436   5.0818377231e+01   1.0565487079e+01    0.1309027   0.09881213 -13.62 0.0007017851    1.642    0.391
        91  -8.9970     70.3107    116.0185   9.0762298865e+01   4.4484308635e+01    0.2106944     0.181541 -56.49 0.0004020928    1.114    0.103
        92  -9.3774     27.9785    115.7384   1.0514677762e+02   4.9477592651e+01    0.1865725    0.1678573 -57.25 0.0004475258    1.047    0.045
        93 -11.4269    129.9603    113.8032   7.1986914355e+01   3.4028566954e+01    0.2993971    0.2732532 -50.95 0.0002349528    1.099    0.090
        94  -9.2446     33.5739    114.2100   1.0295122880e+02   4.9360867221e+01    0.2143103     0.158559 -57.26 0.0007155476    1.162    0.140
        95 -10.0691     31.4842    111.5057   1.0317421249e+02   5.0230597773e+01    0.2631784     0.193313 -49.60 0.0006704085    1.189    0.159
        96  -9.4115     20.0400    104.2577   1.0590662169e+02   5.2964988704e+01    0.2830251    0.1651067 -58.75  0.001456151    1.401    0.286
        97  -9.9971     20.5012    112.5295   1.0716548116e+02   5.0882322725e+01    0.2319215    0.2081774  41.07 0.0007832448    1.300    0.231
        98 -10.3482     21.1151    108.5407   1.0627769229e+02   5.1828121161e+01    0.5213203    0.2248303 -43.98  0.002274327    2.147    0.534
        99  -9.9665     62.9537    110.8747   9.2050127299e+01   4.6804215880e+01    0.2515984    0.1942218 -47.79   0.00128746    1.186    0.157
       100 -10.1622     62.3733    105.3074   9.0913251275e+01   4.8244045803e+01    0.3703187     0.295827 -55.71 0.0007776202    1.198    0.165
       101 -11.0729      4.6715    109.0406   1.1204919848e+02   5.2763555060e+01    0.5491948    0.3515724 -38.38   0.00135842    1.536    0.349
       102  -9.6231    102.4096    108.8191   7.8582397385e+01   4.0755834283e+01     0.391742    0.2437932  -1.77  0.001331524    3.181    0.686
       103  -9.6017     66.8417    107.8948   8.9992183179e+01   4.6985514806e+01    0.2356532    0.1864987 -32.18 0.0008575324    1.255    0.203
       104  -9.4091     57.9284    108.0257   9.3127685571e+01   4.8178639101e+01    0.2118271     0.195121 -40.01 0.0003214986    1.016    0.016
       105  -8.8245    116.6680    107.7199   7.4047444546e+01   3.8171336095e+01    0.1580359     0.123603   0.09 0.0002595845    1.607    0.378
       106  -9.5630     12.4026    106.8449   1.0905323498e+02   5.2851038370e+01    0.1890391    0.1824107 -38.60 0.0002985811    1.173    0.147
       107  -9.4114     83.8824    105.1259   8.3504998807e+01   4.4970335299e+01    0.4810598    0.1968158 -43.73  0.001708155    2.406    0.584
       108  -8.8725     91.6750    106.2919   8.1273450593e+01   4.3335428176e+01    0.2296834     0.217279 -80.69  0.000462159    1.177    0.151
       109  -9.9170     89.7016    103.4000   8.1128655910e+01   4.4360332389e+01    0.6928033    0.2985213  54.34   0.00198268    4.417    0.774
       110  -9.2594     39.6568    102.9734   9.8529490070e+01   5.1552663867e+01    0.2342084    0.1869449  -8.41 0.0005675724    1.372    0.271
       111  -8.7743     37.5143    106.4624   1.0004486086e+02   5.0912068229e+01    0.2510676     0.123561 -61.21 0.0001353324    1.798    0.444
       112 -10.2911     34.2064    103.3603   1.0059946247e+02   5.1996327178e+01    0.2997598    0.1962755  24.68   0.00155323    1.702    0.412
       113  -9.5808    132.0337    104.0329   6.8794039437e+01   3.5715961242e+01    0.2271121    0.2224965 -17.17  0.001203633    1.012    0.012
       114  -8.9734    108.0288    104.0563   7.5575922307e+01   4.0743150851e+01    0.1928673    0.1702673 -40.75 0.0006012918    1.110    0.099
       115 -11.0904    101.7065    102.6920   7.7122601342e+01   4.2291012586e+01    0.4418007    0.3300302  20.88    0.0018042    1.514    0.340
       116  -9.2714    100.8069     98.4364   7.6203730269e+01   4.3416655069e+01    0.2416267    0.2019231  10.33 0.0002996691    1.311    0.237
       117  -9.9011     72.5042    104.3887   8.7155774146e+01   4.6986364202e+01    0.3796925    0.1723341  40.66  0.001460183    2.368    0.578
       118  -9.5394    118.9850    103.0631   7.2101085913e+01   3.8720296680e+01     0.242546    0.1885456  -5.66 0.0003559141    1.620    0.383
       119  -9.8030    114.7332    102.3630   7.3125489572e+01   3.9758448686e+01    0.2728304    0.2247559 -83.19 0.0007818153    1.557    0.358
       120 -10.7151    110.0643     99.5757   7.3710656731e+01   4.1326043476e+01    0.5142627     0.281112  50.97  0.001353271    2.058    0.514
       121  -9.4406    127.2380    102.0195   6.9520295940e+01   3.7187466065e+01    0.3642058    0.2184021  33.43  0.001085384    1.891    0.471
       122 -10.5619     79.5292    100.8165   8.3807179877e+01   4.6707564733e+01     0.434456    0.3618192  61.89  0.002211125    1.468    0.319
       123 -10.6385     58.1762    100.2511   9.1152509857e+01   5.0028856577e+01    0.3787694    0.3090825  24.00  0.002049273    1.306    0.235
       124  -9.2605     59.1831     96.8672   8.9923745708e+01   5.0696468523e+01    0.2241069    0.1907238 -29.18 0.0002590066    1.110    0.099
       125 -10.3920     51.4166    100.8440   9.3749629036e+01   5.0747687961e+01    0.4187869    0.2737633 -70.63  0.001298683    1.770    0.435
       126 -10.6309     43.3080     99.6886   9.6453081271e+01   5.1963686339e+01    0.7284442    0.2297876  36.16  0.002442191    3.383    0.704
       127  -9.6205     16.6098     98.9588   1.0619973406e+02   5.4501537615e+01    0.3261874    0.1871411 -48.47  0.001173515    1.457    0.314
       128  -9.1158     20.8866     98.9660   1.0462128803e+02   5.4194339338e+01    0.2188399    0.1751699  56.84 0.0005253252    1.538    0.350
       129 -11.5418    117.6759     97.9409   7.1028516128e+01   4.0102401081e+01     0.296867    0.2769318  18.38 0.0003375926    1.085    0.079
       130  -8.6665     13.4188     95.8018   1.0681051030e+02   5.5474127802e+01    0.2306622    0.1421351 -43.14 0.0007553514    1.422    0.297
       131 -10.3214      2.5421     80.5508   1.0821385356e+02   5.9664935557e+01    0.4011564    0.2442918 -69.21  0.001923256    1.476    0.322
       132  -9.2606      8.8203     98.4203   1.0896306293e+02   5.5120832503e+01     0.287103    0.2250659 -45.74  0.000791471    1.128    0.113
       133  -8.7254      4.7050     97.6196   1.1033157665e+02   5.5538040221e+01    0.3527452    0.2137607 -32.95  0.001947472    1.655    0.396
       134 -10.2994      2.0004     92.2083   1.1045843016e+02   5.6964661199e+01    0.4739496     0.214976  41.58 0.0003971139    2.894    0.655
       135 -10.2965      2.4703     86.6365   1.0934213077e+02   5.8255769942e+01    0.4942076    0.1210349 -56.87  0.001991703    2.566    0.610
       136  -8.8712    171.1199     97.0451   5.7759441664e+01   2.8329978749e+01     0.217607    0.1977017  -4.55  0.001150184    1.253    0.202
       137  -9.0303    149.9327     97.1500   6.2432659254e+01   3.3137883763e+01    0.2261879    0.2042175 -83.34            0    1.208    0.172
       138  -9.3810    137.4690     97.4939   6.5569957684e+01   3.5882550264e+01    0.1535048    0.1506184  -8.29 5.411908e-05    1.025    0.025
       139  -9.9481    125.6753     97.1946   6.8586383901e+01   3.8546841745e+01    0.2740877    0.2372882  37.40  0.001381121    1.164    0.141
       140  -8.4838    184.4550     96.5722   5.5029583090e+01   2.5415520235e+01    0.1465683    0.1374044 -61.96 0.0001136743    1.020    0.020
       141  -8.9159    155.1440     95.8382   6.0874807426e+01   3.2208158099e+01    0.2073907    0.1801528  22.19 0.0006735061    1.301    0.231
       142  -9.4683     86.7816     96.1038   8.0057636847e+01   4.6543681504e+01    0.2589808    0.2144497  31.13 0.0006195045    1.234    0.189
       143  -9.6779    165.4688     94.1248   5.8162739356e+01   3.0174278689e+01     0.259568    0.2344941  49.19 0.0002794704    1.139    0.122
       144  -9.1135     80.2998     94.9257   8.1911839157e+01   4.7930326130e+01    0.2621935    0.2117716  64.00 0.0007516512    1.592    0.372
       145  -9.6758     47.0371     92.1236   9.3225674767e+01   5.3343062875e+01    0.4093891    0.2094416 -47.71  0.001839455    1.708    0.415
       146 -10.2730     42.0429     88.1223   9.4128516547e+01   5.4840192345e+01    0.6922741    0.2728099  20.67   0.00164433    3.037    0.671
       147 -10.6909     51.6511     82.8643   8.8968783834e+01   5.4898766470e+01    0.3681199    0.3123213  41.98 0.0006876243    1.384    0.277
       148 -11.1524     42.6058     80.9692   9.2015243655e+01   5.6407652686e+01    0.9456757    0.6048684  17.81  0.003055793    1.694    0.410
       149 -10.9859     31.6920     92.9728   9.9298323901e+01   5.4740157222e+01    0.4867104    0.4274586 -21.61  0.002476113    1.136    0.120
       150 -11.2282     30.3432     85.1131   9.7997406775e+01   5.6707206114e+01    0.9140392    0.4700522 -23.07  0.003146257    2.440    0.590
       151 -11.3189     45.2691     68.8887   8.7394244894e+01   5.8709913246e+01    0.3994517    0.2307408 -40.01 0.0002772821    1.554    0.357
       152  -9.5270     22.9093     94.7052   1.0302386529e+02   5.5068516603e+01    0.2456253    0.1773732 -66.29 0.0006654758    1.292    0.226
       153  -9.7199     68.4428     75.5029   8.0331535871e+01   5.4079956954e+01    0.5020694    0.2348247 -48.00  0.001584338    2.101    0.524
       154 -10.4283     71.1967     88.8555   8.3367067631e+01   5.0776296958e+01    0.4960175    0.2458029 -49.97 0.0004048571    1.940    0.484
       155 -10.0923     65.8564     85.9917   8.4479514631e+01   5.2232420191e+01    0.6148455     0.334236  18.13  0.002327657    2.366    0.577
       156 -11.1930     80.4519     83.5725   7.8518122221e+01   5.0394127317e+01    0.5206671    0.3315053  28.35  0.002397547    1.658    0.397
       157 -10.1719     73.4907     79.4699   7.9723396868e+01   5.2437629301e+01    0.5398246    0.3153802 -40.27  0.001665095    1.645    0.392
       158  -8.9238    134.9564     91.3132   6.4458976813e+01   3.7693478708e+01    0.2123961    0.1904673  42.24            0    1.116    0.104
       159  -9.1892     52.3875     90.3144   9.0726874579e+01   5.3113767322e+01    0.2327689    0.1703569 -61.14 0.0006846879    1.427    0.299
       160 -10.6807     86.5276     88.5620   7.7946052100e+01   4.8251628711e+01    0.4075595    0.3547637 -11.13 0.0007025178    1.158    0.137
       161  -9.5056     86.9539     83.5277   7.6277698556e+01   4.9244746177e+01    0.2579511    0.2365141 -60.15 0.0004162595    1.239    0.193
       162  -8.9425     58.7946     88.7999   8.7902946202e+01   5.2616586245e+01    0.3593034     0.231047 -84.97  0.001395889    3.125    0.680
       163 -10.0989      6.8124     89.2226   1.0812591203e+02   5.7428604693e+01    0.2702958    0.2105016  36.31 0.0007975588    1.576    0.365
       164  -9.8689     14.0919     87.9666   1.0506548194e+02   5.7295483198e+01    0.2734693    0.1677219 -55.71 0.0007702285    1.313    0.239
       165 -11.3479    123.4946     86.9049   6.6190972252e+01   4.1121942699e+01    0.6149088    0.4477702  50.36  0.002614693    1.391    0.281
       166 -10.4656    138.0007     84.5042   6.1732039402e+01   3.8325862580e+01    0.6383478    0.3494424  30.30  0.002326675    2.661    0.624
       167 -10.6774    128.6480     85.3491   6.4354115573e+01   4.0282914754e+01    0.5194355    0.4089233  13.15  0.001917145    1.555    0.357
       168  -9.5003    132.4852     82.7485   6.2595406066e+01   3.9916548391e+01    0.3008929    0.2439401 -39.72  0.001481773    1.247    0.198
       169  -8.7473    104.1836     85.9466   7.1481041775e+01   4.5412259249e+01    0.2547974    0.1729987 -13.22 0.0009897507    2.026    0.506
       170  -9.9995    155.1857     85.0260   5.7895326790e+01   3.4254695719e+01    0.2538442    0.2151549  50.78 0.0004903376    1.184    0.155
       171  -9.2370    146.2592     84.3756   5.9722884514e+01   3.6447862294e+01    0.2147663    0.1429351  62.54 0.0004178096    1.660    0.398
       172 -10.4420     19.6923     79.6578   1.0102855601e+02   5.8836542507e+01    0.4381252    0.3610014 -53.15  0.001444462    1.106    0.096
       173 -10.6575    151.5467     80.5522   5.7440663337e+01   3.5919807456e+01    0.4612175    0.2950057  60.07  0.002064751    1.640    0.390
       174  -9.1529    167.9455     78.5049   5.3474299790e+01   3.2443370506e+01    0.2193982    0.1923052 -47.55 0.0003449143    1.123    0.109
       175  -9.2534    137.0334     79.0316   6.0366275071e+01   3.9569012034e+01    0.2249251    0.2208437  33.59 0.0006284674    1.019    0.018
       176  -9.6197    118.5834     76.4542   6.4365583053e+01   4.4214278478e+01    0.5463706    0.3122633 -64.06  0.001916906    3.201    0.688
       177  -8.9300     93.9862     78.7283   7.2453634285e+01   4.8899658000e+01    0.2474405    0.1931937 -25.32 0.0004638812    1.317    0.241
       178 -10.4852     94.0155     70.0992   6.9652839843e+01   5.0561676205e+01    0.4774621    0.3953578 -38.24  0.001798903    1.230    0.187
       179  -9.3229     89.6032     78.3195   7.3762964437e+01   4.9820820291e+01    0.3108962    0.2538711 -75.93 0.0008283458    1.692    0.409
       180 -10.3121     89.2109     73.9335   7.2484820389e+01   5.0762890128e+01    0.4383979    0.3409328  -4.01  0.001245204    1.446    0.308
       181  -8.8577    231.4784     77.8550   4.3383829164e+01   1.8603725363e+01    0.1814604    0.1593807 -70.39 0.0003500483    1.082    0.076
       182 -11.3729    178.2458     75.1344   5.0663579704e+01   3.0619076789e+01    0.6146081    0.3486143  55.63  0.002770168    1.768    0.434
       183  -8.9224     12.8953     78.0490   1.0347418697e+02   5.9668693592e+01    0.2100226    0.1172767 -36.51 0.0007332438    1.602    0.376
       184  -9.4349    111.0154     76.9828   6.6670497527e+01   4.5758197112e+01    0.2637496    0.2191795 -36.43 0.0005098568    1.217    0.178
       185  -9.0399    111.1792     71.6582   6.4935785332e+01   4.6713824736e+01    0.4489336    0.2235362 -24.67  0.001580268    2.980    0.664
       186 -10.0897     27.8254     76.5463   9.6889590561e+01   5.8881259009e+01    0.3118226    0.2354494  -8.10  0.001125983    1.359    0.264
       187  -9.5082    184.9263     75.9955   4.9725308606e+01   2.8934907900e+01    0.2110669    0.1951525 -65.22 0.0003435841    1.015    0.015
       188  -9.5952    141.4921     75.4574   5.8251111714e+01   3.9180067765e+01    0.2401868    0.1474548 -25.43 0.0007334403    1.987    0.497
       189  -8.9501    126.4228     75.5016   6.1974579258e+01   4.2638433744e+01    0.2482797    0.1446135 -26.61 -0.0002568245    2.092    0.522
       190  -9.7723     63.4941     74.5880   8.1909249853e+01   5.5035389866e+01    0.3288495    0.2919344  -6.51  0.001904452    1.049    0.047
       191 -13.2574     52.8956     74.3708   8.5979729418e+01   5.6585755533e+01    0.7116441    0.3831368 -57.67  0.001328584    2.113    0.527
       192 -10.5128    170.0517     73.3132   5.1673428794e+01   3.2835900724e+01    0.3155925    0.2348515 -40.32 0.0008167827    1.338    0.253
       193  -8.8089    152.3109     73.0336   5.5137298770e+01   3.7063789324e+01      0.20633      0.18083 -47.15  0.000398206    1.151    0.131
       194 -10.0530     15.6659     60.0140   9.7784591446e+01   6.3434718420e+01    0.3123104    0.2055367 -47.02 0.0006117921    1.250    0.200
       195 -10.2790    115.9912    248.4404   1.0074431090e+02   6.3467568720e+00    0.2674862     0.239938  27.33 0.0009556039    1.100    0.091
       196  -8.9421     30.6817    247.6720   1.1829332276e+02   1.7639902060e+01    0.1027509   0.08853634 -42.29 0.0007046618    1.681    0.405
       197 -10.7537     43.8572     46.3532   8.0242088546e+01   6.3227826786e+01     1.031155    0.4794942 -48.57  0.004707671    2.346    0.574
       198  -9.7751     37.3152     47.3074   8.3561771454e+01   6.3877630556e+01    0.2870656    0.1839559  -4.39 0.0006516053    1.666    0.400
       199  -9.7179     31.7766     47.6845   8.6277271438e+01   6.4437234731e+01    0.2004281    0.1537511 -31.29 0.0007517319    1.132    0.116
       200 -12.3045      2.5284     66.2870   1.0530259297e+02   6.2870804722e+01    0.4381597    0.2455632 -58.40  0.002470594    1.442    0.307
       201 -11.3426      8.6042     51.2611   9.8641574276e+01   6.5710723273e+01    0.7846641    0.3947658  -7.49  0.003342424    2.231    0.552
       202 -11.7742     27.3421     54.5760   9.0716520626e+01   6.3567241210e+01       1.3083     0.748116 -12.29  0.006609355    1.982    0.495
       203 -10.4066      9.2908     62.7310   1.0142705267e+02   6.3277868833e+01    0.3130141    0.2378099   6.69 0.0009060003    1.428    0.300
       204 -10.7718      4.4967     59.6608   1.0285252599e+02   6.4202044784e+01    0.5445272     0.269793 -29.31  0.002359047    1.877    0.467
       205 -11.2973     32.3613     63.7183   9.1330158598e+01   6.1221964506e+01    0.7638521    0.2701949 -49.06  0.001896596    2.354    0.575
       206 -11.3236     28.0002     63.4737   9.3189009748e+01   6.1695109378e+01    0.4935851    0.2261843 -51.26  0.000311737    1.878    0.467
       207 -11.1829     23.3270     47.5690   9.0278817409e+01   6.5304195963e+01      0.34567    0.2874649  33.17  0.001056479    1.526    0.344
       208 -10.4360     27.0746     44.4715   8.7364294515e+01   6.5522213873e+01    0.2960667     0.203285 -36.75 0.0005909566    1.259    0.206
       209  -9.2005    145.7977     70.9955   5.5963516680e+01   3.8947309980e+01    0.3099656    0.2452678 -35.03  0.001261004    1.310    0.237
       210 -10.5309    142.7532     67.1717   5.5513445744e+01   4.0308315097e+01    0.4504617    0.3338141  29.59  0.002042819    1.589    0.371
       211  -8.5717     18.0452     72.0083   9.9885882714e+01   6.0677223781e+01    0.2203186    0.1185222 -33.80  0.001115105    1.715    0.417
       212 -11.2119     79.8670     69.9745   7.4384176703e+01   5.3255903346e+01    0.2765251     0.243324 -11.35  0.000321905    1.075    0.069
       213  -9.8759     83.2093     64.4179   7.1340677378e+01   5.3690512973e+01     0.481777    0.2371911 -45.54  0.001577761    2.161    0.537
       214  -9.6327     37.1149     69.7846   9.1096980737e+01   5.9453778342e+01    0.3952435    0.2191222 -30.78  0.001899583    1.807    0.447
       215  -8.0233    226.3189     70.2711   4.2364190408e+01   2.0824886308e+01    0.1165333    0.1033825  20.07  0.000269533    1.564    0.360
       216  -8.5714    215.4793     70.4867   4.3795459235e+01   2.3053475161e+01    0.1351613    0.1176287 -62.92 0.0003033033    1.002    0.002
       217  -7.8712    129.6307     70.2788   5.9555068603e+01   4.2837254308e+01     0.150302     0.117108 -88.80 0.0007010701    1.687    0.407
       218 -10.1813    101.7665     69.8180   6.7127487953e+01   4.9042472815e+01    0.3871738     0.288342   2.75   0.00104074    1.656    0.396
       219  -9.7700    173.4662     68.8701   4.9859869152e+01   3.2766992596e+01    0.2662472    0.2243474  75.06 0.0005593494    1.180    0.152
       220  -9.7150    119.5498     67.8021   6.1385197636e+01   4.5556720168e+01    0.3596739    0.2501465  24.33  0.001651092    1.742    0.426
       221  -8.9006     63.4054     69.2947   8.0238331588e+01   5.6128389753e+01    0.3785038    0.1721023  24.22  0.001449594    2.753    0.637
       222  -8.8651     87.0004     68.2369   7.1344378004e+01   5.2270707972e+01    0.1964422    0.1764459  22.98 0.0002201898    1.072    0.067
       223  -9.0564     90.0306     65.6544   6.9463621089e+01   5.2164048913e+01    0.2841808    0.1996766  12.88 0.0005309349    1.712    0.416
       224  -8.3457     67.9679     66.9961   7.7731234135e+01   5.5862798063e+01    0.1663062    0.1455584 -20.81  0.000947631    1.059    0.056
       225  -8.6401    202.2459     65.3838   4.4408862020e+01   2.6721992783e+01    0.2788858    0.1768002 -19.99  0.001026186    2.230    0.552
       226 -10.6928    135.0116     64.6223   5.6515956824e+01   4.2547595035e+01    0.4775402    0.3335837  50.89  0.002330444    1.371    0.271
       227  -9.9015    141.8810     60.0470   5.3574443441e+01   4.1665719842e+01    0.3825917    0.2760961   0.10 0.0004823624    1.976    0.494
       228  -8.9772     75.0620     65.7249   7.4671480221e+01   5.4915287572e+01    0.2259135    0.1878233 -45.26 0.0005162196    1.302    0.232
       229  -9.2101     77.4512     61.9870   7.2521114627e+01   5.5186719441e+01    0.2405457    0.1946777  29.53 0.0004737649    1.194    0.162
       230  -9.1673     97.0191     63.5821   6.6517047216e+01   5.1137898937e+01    0.2110368     0.190411 -21.93 0.0003199677    1.112    0.100
       231  -9.2719    110.3668     62.8891   6.2315750690e+01   4.8431808742e+01    0.2395482    0.1921712  46.16 0.0004219573    1.201    0.168
       232  -9.1319    114.4059     60.9523   6.0558252038e+01   4.7865214359e+01    0.2590064    0.2014599  67.57 0.0006880288    1.488    0.328
       233  -9.8199    193.5344     61.1036   4.4617283908e+01   2.9334537004e+01    0.3951582    0.2891689 -33.48  0.001415392    1.447    0.309
       234  -9.0969     65.3215     61.8411   7.6978048147e+01   5.7274930775e+01    0.2117201    0.1752924 -50.25  0.001184846    1.397    0.284
       235 -10.1728     54.0127     61.1317   8.1232801836e+01   5.9116833164e+01    0.2327689     0.223993 -51.70 0.0003042599    1.316    0.240
       236  -8.6502     56.4454     56.5851   7.8644740303e+01   5.9622857400e+01    0.2240124    0.1498166   6.56 0.0006800292    1.669    0.401
       237  -9.4263     61.0536     53.6681   7.5730286972e+01   5.9445600511e+01    0.4728627    0.2155131 -27.50  0.001837131    2.840    0.648
       238  -8.0215     48.7171     57.3453   8.2130571227e+01   6.0571041602e+01    0.2027304    0.1300387  29.37 0.0003243987    1.579    0.367
       239  -9.9860     53.0557     54.3270   7.9231148457e+01   6.0531993818e+01    0.4272962    0.2546543 -25.53  0.001744666    1.747    0.428
       240 -10.9894    168.1829     57.7425   4.7788001273e+01   3.5753680900e+01    0.4505949    0.4293334  -3.65  0.001683097    1.221    0.181
       241  -9.3124    160.5472     60.5260   4.9939230506e+01   3.7146616603e+01    0.2868581    0.1831448  33.25 0.0008946377    2.078    0.519
       242  -9.5203    151.7952     60.6801   5.1686061837e+01   3.9209364635e+01     0.373459    0.2045049  43.87  0.001586466    1.956    0.489
       243  -9.1886    129.3095     57.6687   5.5701812804e+01   4.4993355077e+01    0.2271282    0.1994397  87.50  0.001239133    1.272    0.214
       244 -10.0801    133.1203     58.5201   5.5073637625e+01   4.3970146426e+01    0.4476891    0.3144613  21.30  0.002087083    1.871    0.466
       245  -9.4244    136.5301     55.3616   5.3321556271e+01   4.3653836588e+01    0.3083622    0.2006523 -23.61  0.001442665    1.811    0.448
       246 -10.1351     71.3201     60.0726   7.4085615301e+01   5.6608474708e+01    0.4146975    0.2351259  34.20  0.001508779    1.741    0.426
       247  -9.6203     40.1413     59.2319   8.6474592687e+01   6.1282914147e+01    0.2620694    0.1898913 -17.50  0.000929346    1.303    0.232
       248  -9.2021    198.8391     58.1600   4.3143635888e+01   2.8573840880e+01    0.1984919    0.1625131 -68.35 0.0002847619    1.134    0.118
       249  -9.8432     65.4633     56.2148   7.4928325586e+01   5.8283895053e+01    0.4273551    0.2691008   2.75  0.001442968    2.104    0.525
       250 -12.2206     61.9127     44.3158   7.1846009014e+01   6.0888125461e+01     0.479502    0.2556923  35.82 0.0003943475    1.796    0.443
       251  -9.7574     72.2258     50.8535   7.0403419733e+01   5.8056187209e+01    0.4810357    0.3278271 -31.32  0.002540152    1.457    0.314
       252  -9.7020     68.3284     48.8350   7.1100466574e+01   5.9071303565e+01    0.2702249    0.2398326  76.04 0.0009257051    1.669    0.401
       253  -8.9217    146.1350     34.1194   4.4925917976e+01   4.4251861927e+01    0.2102939    0.1518699 -77.29 0.0008062687    1.615    0.381
       254  -9.5642    146.2436     28.9637   4.3368822001e+01   4.4833668922e+01    0.3534577    0.1886933  49.21 0.0004778324    1.806    0.446
       255 -10.7461    119.7493     52.1798   5.6269643597e+01   4.8040568999e+01    0.6920695    0.4313851  31.13    0.0011249    1.884    0.469
       256 -11.1117    126.2461     46.7751   5.2934047737e+01   4.7323446810e+01    0.5905182    0.4588011 -83.99  0.001982578    1.630    0.387
       257  -9.6131    127.7069     39.5700   5.0267455179e+01   4.7953984391e+01    0.2918698    0.2437863 -29.14   0.00123322    1.307    0.235
       258 -10.3566    130.7330     34.5310   4.7999972452e+01   4.7873971070e+01    0.4847572    0.3085429 -48.15   0.00128494    1.794    0.443
       259  -9.8693    134.0244     29.2373   4.5661705826e+01   4.7718982214e+01    0.3578392    0.2732311   0.83  0.001536765    1.656    0.396
       260 -10.2767    137.1037     37.2564   4.7577837954e+01   4.6024074502e+01    0.4134921    0.2975589  29.41 0.0008511915    1.643    0.392
       261 -10.1061    141.8203     33.7100   4.5584144077e+01   4.5334505793e+01    0.3450559     0.270437  -4.41  0.001183237    1.604    0.376
       262  -8.7338     98.5898     55.2538   6.3168701906e+01   5.2215813945e+01    0.2601776    0.1744623 -48.75 0.0008282466    1.758    0.431
       263 -10.7078     92.8965     44.0329   6.0884330250e+01   5.5122130887e+01    0.5233495    0.4011379 -52.55  0.001302829    1.655    0.396
       264 -10.1236     87.9399     48.8659   6.4223485512e+01   5.5407337301e+01    0.4286947    0.3815876 -69.41   0.00234064    1.496    0.332
       265  -9.7112     92.1749     54.9044   6.5038363767e+01   5.3593968615e+01     0.552625    0.3159155  43.36  0.002564254    1.661    0.398
       266 -10.1220     92.8226     51.0785   6.3468629591e+01   5.4074712020e+01    0.2581549    0.1935487  45.80 0.0003212285    1.294    0.227
       267  -9.3293     79.9440     54.3851   6.8933784136e+01   5.6061510967e+01    0.2734546    0.2260008  80.63  0.001080777    1.863    0.463
       268  -9.9300    147.2494     52.7180   5.0262028284e+01   4.1497909633e+01    0.5774651     0.322583  77.03  0.002333289    2.449    0.592
       269  -9.1307    106.8145     52.9239   5.9960683470e+01   5.0822903146e+01    0.2478463    0.1885073  47.61 0.0003889215    1.245    0.197
       270  -9.9725    164.1112     46.6521   4.5431886118e+01   3.8319568761e+01    0.3325332    0.2336782 -16.71  0.001475734    1.845    0.458
       271  -8.8420     83.5165     51.5597   6.6676027432e+01   5.5849411522e+01    0.2813561    0.1338328 -38.13  0.001204911    2.163    0.538
       272  -9.9903    174.5793     50.5192   4.4781932946e+01   3.5291184490e+01    0.2862924    0.2503803  -6.51 0.0008080651    1.437    0.304
       273 -10.6611    153.7140     48.1409   4.7678421232e+01   4.0603623556e+01    0.3952875    0.3104853  88.59 0.0007557169    1.358    0.264
       274  -8.9490    182.1774     48.7976   4.3176122824e+01   3.3746716657e+01     0.208121    0.1733626 -76.40 0.0008708403    1.143    0.125
       275  -9.5503    192.0734     53.2090   4.2871421566e+01   3.0831660571e+01    0.3029354    0.1570953  49.11  0.001363743    2.179    0.541
       276  -8.6751     96.6468     48.9699   6.1535587967e+01   5.3607287839e+01    0.1849341    0.1688605  -7.41 0.0005477677    1.103    0.093
       277 -10.0154    202.4973     46.6592   3.9914046204e+01   2.9389810589e+01    0.2369888    0.2225807  59.58  0.001002972    1.258    0.205
       278  -7.9042    196.6683     48.6843   4.1139570906e+01   3.0423192639e+01    0.1281673    0.1027451  32.67 0.0007046399    1.684    0.406
       279 -10.2160    114.7683     46.3857   5.5593902116e+01   5.0021128226e+01    0.3131828    0.2543456 -11.49 0.0007530331    1.370    0.270
       280  -9.8241    112.9679     41.2390   5.4291721394e+01   5.1140624594e+01    0.2291933     0.200541 -21.20 0.0002274689    1.228    0.186
       281  -8.9170     79.1909     47.9968   6.6840674614e+01   5.7243754915e+01    0.2627176    0.1149702 -42.04  0.001078929    2.486    0.598
       282 -10.5190     79.1780     42.9512   6.4932631112e+01   5.8019704590e+01    0.4609259    0.2926306  41.49  0.001723942    1.474    0.321
       283  -9.6154    234.9766     46.9503   3.6411604979e+01   2.2438997906e+01    0.1819167    0.1547083 -65.35 0.0004820225    1.070    0.065
       284  -9.9670    145.8310     46.0433   4.8551412662e+01   4.2783330194e+01    0.2403851    0.1803146 -57.38 0.0003908238    1.467    0.318
       285  -9.4824    131.9817     44.6366   5.0962216950e+01   4.6272637857e+01    0.2539163    0.2097079  48.22 0.0007903866    1.138    0.121
       286 -10.2918     10.4389     68.8446   1.0241580747e+02   6.1881153112e+01    0.7434916    0.2665226 -30.09  0.002940924    3.231    0.690
       287  -9.2271    186.6244     44.1713   4.1368653826e+01   3.3344748486e+01    0.3278282    0.1627374  62.81   0.00105574    1.906    0.475
       288  -9.2768    177.4941     44.2196   4.2676506541e+01   3.5472488684e+01    0.3204477    0.1818732  65.58  0.001552074    1.668    0.401
       289 -11.2656    104.0156     39.1289   5.5892788241e+01   5.3422516775e+01    0.5244737    0.3209104 -43.64 0.0005681495    1.895    0.472
       290  -9.2101    163.4776    246.4950   9.0404986872e+01  -3.1839078889e-01    0.1297342    0.1080304  16.80 1.020547e-06    1.023    0.023
       291  -8.3520    219.4993    245.5070   7.9103564933e+01  -7.8879616827e+00    0.1252132   0.09301163   0.27 0.0003404127    1.085    0.078
       292  -9.4211    100.9798     26.6659   5.2159757850e+01   5.5626089808e+01    0.2929196    0.1819876  53.94 0.0007777787    1.441    0.306
       293  -9.5404     71.9172     42.3936   6.7288952592e+01   5.9456254906e+01    0.2656756    0.1908525  -5.19 0.0005176672    1.492    0.330
       294 -10.7757    228.2026     39.4267   3.5490719470e+01   2.4822401150e+01    0.4722999     0.257804 -30.12  0.002446908    2.107    0.525
       295  -9.1049    191.5258     42.0421   4.0186600443e+01   3.2498074994e+01    0.1902187    0.1233657 -39.86 0.0005700165    1.528    0.346
       296 -10.4279     40.5176     39.1328   7.8937848575e+01   6.4899678481e+01    0.3568717     0.205164  -3.04  0.001074224    2.210    0.547
       297  -9.3483    222.4235     40.7358   3.6341798801e+01   2.5855921111e+01     0.217957    0.1567788  81.19 0.0005242186    1.338    0.253
       298  -9.5582    158.4478     39.3669   4.4334716627e+01   4.0643374471e+01    0.3106518    0.2164819 -68.07 0.0004818563    1.625    0.385
       299  -8.3959    196.6889     40.7081   3.9210763470e+01   3.1495853312e+01    0.1222592   0.09953462  38.64 0.0007001278    1.587    0.370
       300  -9.7239    244.9586     44.1618   3.4911337334e+01   2.0842936720e+01    0.2638487    0.2065585 -43.00   0.00173609    1.278    0.217
       301  -9.5880    120.6210     38.4743   5.1500745935e+01   4.9749657765e+01    0.3515396    0.2266914 -50.15  0.001340562    1.860    0.462
       302 -10.1902    116.2001     34.4016   5.1153499408e+01   5.1282691529e+01    0.4496453    0.2893622  30.19  0.001064821    1.765    0.433
       303  -8.7147    164.8264     37.6748   4.2836702671e+01   3.9332905046e+01    0.4189295    0.2674019 -59.24  0.002107559    1.719    0.418
       304  -9.2627    238.2138     37.4381   3.4156887876e+01   2.3049871653e+01    0.1962065    0.1891113  42.43 0.0008385408    1.474    0.321
       305  -9.4127     35.6966     41.0385   8.1938422715e+01   6.5180928775e+01    0.4361673    0.2137659  10.75  0.001732863    2.755    0.637
       306 -10.5587    178.4023     36.9523   4.0655268885e+01   3.6206724863e+01    0.3275358      0.24747  78.86 0.0004877229    1.230    0.187
       307  -8.5200    215.2294     39.1606   3.6740242208e+01   2.7594786840e+01    0.1751083    0.1230092 -67.03 0.0003789947    1.292    0.226
       308 -10.1180     73.2550     36.9758   6.4668086313e+01   6.0004236552e+01    0.3870102    0.2988988  22.98 0.0009667526    1.176    0.150
       309  -8.8596     74.9362     23.1199   5.8419870202e+01   6.1463446274e+01    0.1879562    0.1600077  22.61 0.0003420513    1.019    0.019
       310 -10.0625     71.7937     30.0318   6.2368492245e+01   6.1218059625e+01    0.3626519    0.2570214  48.37  0.001066691    1.448    0.310
       311 -10.5482     79.9369     31.9948   6.0388743656e+01   5.9396029214e+01    0.4874099    0.2811655  33.85   0.00240818    1.656    0.396
       312  -9.9030     76.1449     27.7758   5.9942885049e+01   6.0671694351e+01    0.3836673    0.3151249 -61.80  0.001894121    1.817    0.450
       313  -9.2391    186.1352     36.5267   3.9514743974e+01   3.4455694987e+01    0.3537856    0.1764921 -59.04  0.001570961    2.287    0.563
       314 -10.0721    183.8570     31.9305   3.8653102643e+01   3.5554443659e+01    0.2601517    0.1836885  81.32 0.0008665338    1.321    0.243
       315  -8.7808     90.8022     37.1669   5.8962790315e+01   5.6514014302e+01    0.1918665    0.1584104  36.02 0.0004351918    1.084    0.078
       316  -9.7792     96.0629     34.8462   5.6541314538e+01   5.5708107997e+01    0.4125683    0.2347931  44.42  0.002021278    1.572    0.364
       317  -9.9998    249.4346     35.6106   3.2850399562e+01   2.1096555533e+01    0.2385042    0.1659741  59.06  0.001535367    1.760    0.432
       318  -8.5599    198.4921     36.4831   3.7984856702e+01   3.1633793929e+01    0.1310831    0.1109591 -77.10 2.045915e-05    1.025    0.024
       319  -8.6949     85.8218     36.4172   6.0221850728e+01   5.7636522571e+01    0.1910807    0.1460757  13.46 0.0005295511    1.338    0.253
       320  -9.7801     87.4406     32.6804   5.8272538538e+01   5.7795199870e+01    0.2536472    0.2175363  14.65   0.00058092    1.101    0.092
       321 -10.6145     55.8966     34.5400   7.0328759576e+01   6.3373419370e+01    0.4611007    0.2628946 -43.20  0.002347353    2.043    0.510
       322  -9.9003     49.0927     33.6831   7.2848398173e+01   6.4558982455e+01    0.4394652    0.1918583  25.46  0.001385316    2.678    0.627
       323  -9.6487    223.4559     34.8991   3.4983938095e+01   2.6393179131e+01    0.2313966    0.1761116 -66.49 0.0003694746    1.106    0.096
       324  -9.3746    208.8117     32.8093   3.5990434890e+01   2.9799471636e+01    0.2902619    0.2068888 -51.27   0.00152043    1.279    0.218
       325  -9.0011     43.4746     32.5213   7.4852577481e+01   6.5551707662e+01    0.1855459    0.1671525  -9.98 0.0007094444    1.242    0.195
       326  -8.9503     42.2542     29.0053   7.3894680426e+01   6.6250159168e+01    0.2088141    0.1552158 -28.58  0.001079997    1.317    0.241
       327  -9.2513    153.4756     31.4680   4.2896170566e+01   4.2809446683e+01    0.3494159    0.2261739  82.01  0.001379583    1.636    0.389
       328  -8.5401      1.4641    244.4611   1.2361498691e+02   2.1239521786e+01    0.1138238   0.08160837  68.07 5.858547e-05    1.037    0.036
       329  -8.8187     25.7361     27.3991   8.1258716377e+01   6.8581223284e+01    0.1870231    0.1529169  21.02 0.0006286409    1.359    0.264
       330  -8.5570    244.9807    241.8013   7.3874057490e+01  -1.0459613281e+01    0.1445187   0.07887959  25.64 0.0006913437    1.714    0.417
       331  -9.4675     24.9603     31.3295   8.3321897968e+01   6.8032225640e+01    0.2445017    0.1812026 -16.67 0.0008097775    1.098    0.089
       332  -8.8122    128.3591    240.5873   9.7072997013e+01   5.9742179646e+00     0.284243   0.08331147  44.78 0.0009632112    3.525    0.716
       333  -9.1620     93.5243    119.1613   8.4012876863e+01   3.9937651148e+01    0.2928855    0.2363531 -11.30  0.001133015    1.447    0.309
       334  -9.1780    221.4721    237.4540   7.7402851734e+01  -6.9781159476e+00      0.12544   0.09619407  -1.02 0.0002660631    1.040    0.038
       335  -9.8920     34.4946     31.4925   7.8629125088e+01   6.6904054005e+01    0.2816258    0.1979028  28.36  0.001728314    1.443    0.307
       336  -8.4257    140.0198    236.7780   9.3999819336e+01   4.9129459900e+00    0.1760277   0.09678204  34.46  0.000400377    1.592    0.372
       337 -10.5157     36.7692     26.4421   7.5336262098e+01   6.7379025123e+01    0.3727947    0.2325772   7.97  0.001354757    1.615    0.381
       338  -9.8382    248.4189     30.5238   3.1947778292e+01   2.1930190339e+01    0.2113112    0.1998897 -61.40  0.001551443    1.366    0.268
       339 -10.4241    234.1880     30.2662   3.3049439335e+01   2.4763341181e+01    0.3602259    0.2022117  56.96  0.001364404    2.083    0.520
       340  -9.2781     93.6380     30.2014   5.5485540606e+01   5.6804495015e+01     0.314821     0.169432  41.92 0.0007577683    1.679    0.404
       341  -9.6969     64.0280     30.0645   6.5227797731e+01   6.2628950359e+01     0.368052    0.2470565  20.86  0.002046475    1.439    0.305
       342  -8.9707    222.0325    233.4922   7.6628858454e+01  -6.4657517204e+00    0.1793959     0.107159  26.46 0.0006092507    1.551    0.355
       343 -11.2305     19.1414     28.8802   8.5354604103e+01   6.9026176191e+01    0.2754122     0.216198 -45.36 0.0004944922    1.504    0.335
       344  -9.0514     32.0215    232.4993   1.1701930084e+02   2.0613142475e+01    0.1804072    0.1396152  85.50 0.0005028756    1.153    0.132
       345  -9.9013    186.6949    230.8153   8.3124065755e+01  -1.1129491885e+00    0.1953357    0.1506481  12.30  0.001160833    1.148    0.129
       346  -8.9517    176.8044    231.3808   8.5269738437e+01   2.6513797705e-01    0.1930769     0.111146  22.95  0.000595923    1.698    0.411
       347  -9.0909    162.4933    225.5179   8.7369080180e+01   3.5087989119e+00    0.3336847    0.2273963  74.27  0.001426433    3.172    0.685
       348  -9.0257    223.9844    225.0228   7.4802917146e+01  -5.4435993890e+00    0.1905075    0.1541089  -0.18 0.0005534964    1.048    0.046
       349  -9.2396    189.4401     28.8498   3.7208985585e+01   3.4634995637e+01    0.2336429    0.1641574  65.83 0.0005717742    1.349    0.259
       350  -9.0132    125.1832     29.4513   4.7497799682e+01   4.9783012715e+01    0.2031305     0.121452  61.21 0.0005827151    1.519    0.342
       351  -9.8194    222.9478     26.5209   3.3250280055e+01   2.7534756559e+01    0.2381885    0.2214202  10.01   0.00121487    1.580    0.367
       352  -8.4545    116.1887     27.8615   4.8910688514e+01   5.2056982918e+01    0.1783789    0.1375984  34.52            0    1.290    0.225
       353  -8.4681     52.1936     28.6433   6.9360483695e+01   6.4809566700e+01    0.1642881    0.1027705  26.51 0.0001149373    1.469    0.319
       354  -8.6750    211.9023     26.6581   3.4303880103e+01   2.9874923614e+01    0.1706167    0.1372424 -82.24 0.0005052028    1.062    0.058
       355  -8.5753    182.9992     27.0221   3.7527712231e+01   3.6337311510e+01    0.2212049    0.1340281 -65.89  0.001134635    1.744    0.427
       356  -8.7552    160.9497     27.0557   4.0489530594e+01   4.1532851907e+01    0.2145938    0.1469094  37.84  0.001129348    1.767    0.434
       357  -8.4220    140.7490     26.9627   4.3718748271e+01   4.6373733107e+01    0.1554261    0.1167101 -27.31 0.0005979398    1.508    0.337
       358  -8.5466    131.8304    225.2226   9.4135288384e+01   8.4078474738e+00    0.1818649    0.1539733  -0.79 0.0004786216    1.294    0.227
       359  -9.4787    233.7921     18.5906   3.0730970115e+01   2.6236343387e+01    0.2408886    0.1362559 -60.62 0.0007299852    1.506    0.336
       360  -8.4654    196.5210    221.9831   7.9614983139e+01  -1.0802207134e+00    0.1909434   0.09963828 -20.40 0.0008100459    2.537    0.606
       361 -10.1191    205.8050     24.8653   3.4501105784e+01   3.1420296567e+01    0.3743297    0.2289847 -76.59 0.0009395182    1.613    0.380
       362  -9.3885     89.0171    220.7493   1.0335944990e+02   1.5886596105e+01    0.2338336     0.197886 -54.31 0.0007980524    1.309    0.236
       363  -8.4386    207.0108    218.0110   7.6819595246e+01  -1.9561861041e+00    0.1588392    0.1319706  -1.48 0.0003730213    1.006    0.006
       364  -8.0875    110.3386    214.6669   9.7560012829e+01   1.3991273592e+01    0.1477996    0.1014821  64.56 0.0007051791    1.745    0.427
       365  -8.4571      2.9644    212.4832   1.2173289719e+02   2.7823844363e+01    0.1820984   0.05708554  50.37 0.0008099654    2.689    0.628
       366 -10.8621    173.2505     23.0140   3.7718182290e+01   3.9070636520e+01    0.4553868    0.2880045  75.49  0.001039734    1.439    0.305
       367 -10.8959      2.0829     25.2617   9.3419539153e+01   7.1009689915e+01    0.2146295    0.1456777 -36.25 0.0003462592    1.179    0.152
       368  -9.0712    242.6344    209.9680   6.8739878411e+01  -5.5917711275e+00    0.1817764    0.1754461 -17.93 0.0007826211    1.515    0.340
       369  -8.4556     90.6559     24.9482   5.4316885968e+01   5.8052339091e+01    0.3470751    0.1941423  40.31   0.00113387    1.612    0.380
       370  -8.5660    230.7476    209.5744   7.0787224847e+01  -3.9431193082e+00    0.1550178    0.1161347  32.37 0.0004671415    1.484    0.326
       371  -8.5008    193.9952    209.5215   7.7907814049e+01   1.4684231535e+00    0.1947265    0.1086453  11.34 0.0008093864    2.490    0.598
       372  -8.4453    123.8859    206.0933   9.3036106223e+01   1.3680761469e+01    0.1815197    0.1598337 -11.36            0    1.259    0.205
       373  -9.5720     72.1527     15.1317   5.5944570193e+01   6.2877729277e+01     0.208843    0.1825697  47.64  0.001373442    1.242    0.195
       374  -9.3380     35.3820    201.2051   1.1378207496e+02   2.7261224886e+01    0.1847765    0.1085184 -89.32 0.0006981714    1.654    0.395
       375  -8.7542      9.6244    196.2733   1.1928896842e+02   3.0932860371e+01    0.1326825   0.07254919  60.66 0.0007000767    1.690    0.408
       376  -8.7788      6.5118    194.5007   1.1986554415e+02   3.1611765577e+01    0.2224643   0.08344942 -65.44  0.001026054    2.310    0.567
       377 -11.0408     61.9364     22.8524   6.2921288141e+01   6.3922495108e+01    0.5342094    0.2403556  38.24  0.002034129    1.993    0.498
       378  -8.5232    242.1057    193.8338   6.5840084102e+01  -2.9814338450e+00    0.1736968    0.1261601  -7.13 0.0003929975    1.292    0.226
       379 -10.2931    153.6462     22.9994   4.0437285537e+01   4.3724976160e+01    0.2351866    0.1874821  64.65 0.0003164327    1.124    0.110
       380  -9.9734    246.6574     22.5504   3.0549648994e+01   2.3236300012e+01    0.2303714    0.1715573  46.30  0.001501329    2.035    0.508
       381  -8.0137    124.5336     23.5191   4.5673835594e+01   5.0590703267e+01    0.1339819    0.1165456  52.66 0.0002474856    1.035    0.034
       382 -10.8326    117.2070     22.1226   4.6717443465e+01   5.2444854339e+01    0.2781717    0.2164206  14.90 0.0004676427    1.478    0.324
       383  -8.5635     80.1306     22.9023   5.6651854457e+01   6.0458407844e+01    0.1932541    0.1470778 -59.47  0.001066222    1.996    0.499
       384  -8.3283    188.4888     22.4924   3.5769996319e+01   3.5588759075e+01    0.1288587     0.107454 -81.91 0.0008102982    1.034    0.033
       385  -8.2643     55.4659    181.4616   1.0668110000e+02   2.9733401389e+01    0.1399441    0.1247228  82.97 0.0002476601    1.025    0.024
       386  -8.9937     10.5342     22.5322   8.7437155569e+01   7.0842390152e+01    0.1823932    0.0919889  32.29  0.001002284    2.328    0.570
       387  -9.8210     18.4632    174.3309   1.1542606807e+02   3.5438163259e+01    0.2537126    0.1999527 -41.82 0.0006885517    1.514    0.339
       388  -8.4926     95.4755     21.5442   5.1678837324e+01   5.7391434483e+01    0.1314798    0.1133505  39.90 -2.865834e-05    1.011    0.010
       389  -8.6849    193.2829     20.0272   3.4660773856e+01   3.4771657712e+01    0.1640353    0.1412844 -72.82 0.0002569277    1.070    0.066
       390 -10.2079      7.2514    166.1437   1.1754081284e+02   3.8371304529e+01    0.2351715    0.2127406 -20.08 0.0006251201    1.422    0.297
       391  -9.4583    199.8367     18.3460   3.3606051270e+01   3.3484943127e+01    0.2177566    0.1785539 -38.06  0.000939789    1.364    0.267
       392 -10.1840    149.9362     17.6213   3.9448214437e+01   4.5169972840e+01    0.6087639    0.2356971  66.51  0.002591111    2.247    0.555
       393  -8.9125    144.4377     16.5076   3.9957429828e+01   4.6590026031e+01    0.2857376    0.1934096  -0.51  0.001515157    2.077    0.518
       394  -8.5960    139.4632     19.1875   4.1564666441e+01   4.7506748170e+01    0.1731619     0.115883 -46.41 0.0009353996    1.652    0.395
       395 -10.4841     15.1509    165.1067   1.1541056916e+02   3.8009446543e+01    0.3598666    0.2324586 -14.77 0.0007370632    2.330    0.571
       396 -10.0009     11.5767    163.5214   1.1619400203e+02   3.8690070822e+01    0.2846039    0.1577081 -72.80   0.00066833    1.499    0.333
       397 -10.2127     33.9657    150.7635   1.0859021615e+02   3.9963484235e+01    0.3805095    0.2126509 -43.04  0.001596923    1.967    0.492
       398 -11.8525     37.6226    159.5756   1.0870349237e+02   3.7329922961e+01    0.7692689    0.3917876  49.66  0.003449295    2.128    0.530
       399 -11.9697     30.0913    154.3354   1.1016161836e+02   3.9419928865e+01    0.6233202    0.4685128  57.94   0.00240283    1.389    0.280
       400 -10.3028     24.3233    162.9793   1.1276111258e+02   3.7753597932e+01    0.3571618    0.2047558  13.06  0.001733219    2.327    0.570
       401  -8.6639    111.8800     15.1208   4.5419468043e+01   5.4364859865e+01    0.1850361    0.1614499  70.01 0.0006015038    1.146    0.127
       402 -10.0896      7.7572    161.5924   1.1701382186e+02   3.9458917403e+01    0.3188434     0.154716  55.24  0.001185146    2.194    0.544
       403  -9.8386     10.5541    158.1679   1.1596099177e+02   4.0103102710e+01    0.2902499    0.1588652  56.86  0.001461591    1.940    0.485
       404  -8.7245     84.6959     14.3117   5.1781798651e+01   6.0420247719e+01    0.1608777    0.1230213  64.29 0.0004898961    1.431    0.301
       405  -8.8925     88.0198     14.0000   5.0734402918e+01   5.9750051029e+01    0.2514287    0.1228641  50.06 0.0008177531    1.694    0.410
       406 -10.4104      2.0350    155.5823   1.1798467934e+02   4.1348073160e+01    0.5237935    0.1464816 -73.75  0.002030253    2.797    0.642
       407  -9.6823    249.0504    153.6710   5.6850438002e+01   2.6914825834e+00    0.1795976    0.1557446 -18.26 0.0006733631    1.107    0.097
       408  -8.5713    206.0896     13.0529   3.1835216055e+01   3.2679363054e+01      0.20195    0.1130548 -66.13 0.0007297916    1.702    0.412
       409 -10.0943     19.6691    151.5631   1.1277523673e+02   4.1049545934e+01    0.2971734    0.1981472 -49.86  0.001086391    1.496    0.331
       410 -11.1784     12.5995    150.5581   1.1464318433e+02   4.1859651261e+01    0.4625413    0.3335892  12.83  0.002686549    1.743    0.426
       411  -8.7179     45.9167    151.5126   1.0521055915e+02   3.8512411689e+01    0.1843587    0.1418051  28.28 0.0002891866    1.444    0.308
       412  -8.8418     63.0482    149.0334   9.9740328931e+01   3.7057217521e+01    0.2106316     0.197112 -80.03 0.0002961656    1.030    0.029
       413 -10.4438      4.3655    146.4305   1.1651466790e+02   4.3470690596e+01    0.4145254    0.1990547  60.53  0.001897865    2.424    0.587
       414  -9.6776     22.2119    139.9426   1.1062793717e+02   4.3801988299e+01    0.4075857    0.2565989 -35.40  0.001479969    1.836    0.455
       415  -9.8720     13.4795    145.4774   1.1384761124e+02   4.3076841447e+01    0.2395711     0.177863 -58.43 0.0009264318    1.230    0.187
       416 -10.2797     15.9726    142.7216   1.1281391059e+02   4.3587950427e+01    0.3216789    0.2407809 -38.90 0.0003280538    1.468    0.319
       417  -8.9845     38.0284    143.3024   1.0633766548e+02   4.1481688566e+01    0.1823445     0.173452  67.98 0.0002186721    1.130    0.115
       418 -10.8945      2.4117    133.1615   1.1572308512e+02   4.6905419585e+01    0.5309851    0.2321217 -79.11  0.002066647    2.005    0.501
       419 -10.2437     41.3966    138.5573   1.0457881140e+02   4.2358867678e+01    0.2736157    0.2232733  67.68  0.001082006    1.328    0.247
       420 -10.4329     44.4542    130.6622   1.0229416716e+02   4.4068238260e+01    0.3564256    0.2870445  -9.51 0.0009785054    1.469    0.319
       421  -9.1295    230.6798    137.0339   5.6325923244e+01   8.6265335382e+00    0.1969404    0.1570779 -34.50 0.0005581629    1.085    0.078
       422  -9.4485     34.7227    136.0769   1.0626138421e+02   4.3674774304e+01    0.4148353    0.1706728 -50.76  0.001469874    2.192    0.544
       423  -8.6972    235.8248    136.6072   5.5411884766e+01   7.8069598494e+00     0.166327    0.1320064  63.99 0.0009426474    1.637    0.389
       424  -9.5091     15.1887    135.7861   1.1221041163e+02   4.5406189342e+01    0.1949536    0.1642077  88.76 0.0006159324    1.141    0.124
       425 -10.0540     61.4559    131.1529   9.6926657243e+01   4.1890173585e+01    0.3698211    0.2678982 -15.34 0.0008696258    1.753    0.429
       426  -8.8869    248.9657    133.9982   5.2879120575e+01   6.0519794000e+00    0.1984908    0.1420491 -17.11 0.0004143304    1.587    0.370
       427  -9.5991      8.3572    132.9318   1.1392426570e+02   4.6597641050e+01    0.2468025    0.1563301 -26.31  0.001312377    1.951    0.487
       428  -9.5409     28.9316    132.0938   1.0746952924e+02   4.5236244618e+01    0.2017275    0.1782726 -73.71  0.000447619    1.044    0.042
       429  -9.3965     20.4321    131.6547   1.1006648519e+02   4.6059018935e+01    0.1778617    0.1667403 -43.99  0.000399938    1.163    0.141
       430  -9.9207     18.4700    126.8681   1.1001974173e+02   4.7424991523e+01    0.4546406    0.1581712 -51.14            0    2.439    0.590
       431 -11.4939     88.5025    127.8754   8.7663689460e+01   3.8655711062e+01    0.2758473    0.2664194  37.20  -0.00022365    1.082    0.076
       432  -9.0027     12.8356    127.0206   1.1181908202e+02   4.7789123225e+01    0.1985136    0.1569458  88.68  0.000532255    1.242    0.195
       433  -9.8576     33.9112    126.0508   1.0491893160e+02   4.6326263477e+01    0.2150565    0.1806572 -58.92 0.0005423449    1.043    0.041
       434 -10.9688      7.4102    123.4127   1.1306349892e+02   4.9044329014e+01    0.4546151    0.2437473 -44.14  0.001465722    1.809    0.447
       435  -9.1080     59.5137    124.9348   9.6303340998e+01   4.3736250528e+01    0.2082658    0.2048749  17.85 0.0006850708    1.102    0.093
       436  -8.6769     55.5344    125.4766   9.7719662438e+01   4.4104982267e+01    0.1977793    0.1437656   6.87 3.680645e-05    1.671    0.402
       437  -8.6954    241.3913    124.2011   5.1957088748e+01   9.0113759252e+00    0.1995899    0.1052953 -47.00  0.000949887    1.689    0.408
       438  -9.1700     39.3078    123.1482   1.0264121188e+02   4.6537260330e+01    0.2269033    0.1911913 -10.43 0.0005951986    1.348    0.258
       439  -9.8295     61.9318    120.8527   9.4644816659e+01   4.4452407578e+01    0.2643038    0.2350104 -66.29 0.0004644594    1.111    0.100
       440  -9.0163     63.2967    116.6858   9.3270105603e+01   4.5314726053e+01     0.208268    0.1813104 -65.71 0.0002228137    1.150    0.131
       441 -11.7470     21.2763    119.5504   1.0802837866e+02   4.9062052391e+01    0.8560126    0.4404642  44.27  0.003994111    2.302    0.566
       442 -10.3334     13.8762    113.3387   1.0955429309e+02   5.1148684269e+01    0.3462158    0.2623724 -41.18  0.001400741    1.273    0.214
       443  -9.4821    236.8892    121.2166   5.1991207223e+01   1.0323680736e+01    0.2354687    0.1899426  20.06  0.001356441    1.588    0.370
