#   1 NUMBER                 Running object number                                     
#   2 MAG_AUTO               Kron-like elliptical aperture magnitude                    [mag]
#   3 X_IMAGE                Object position along x                                    [pixel]
#   4 Y_IMAGE                Object position along y                                    [pixel]
#   5 X_WORLD                Barycenter position along world x axis                     [deg]
#   6 Y_WORLD                Barycenter position along world y axis                     [deg]
#   7 A_WORLD                Profile RMS along major axis (world units)                 [deg]
#   8 B_WORLD                Profile RMS along minor axis (world units)                 [deg]
#   9 THETA_WORLD            Position angle (CCW/world-x)                               [deg]
#  10 FWHM_WORLD             FWHM assuming a gaussian core                              [deg]
#  11 ELONGATION             A_IMAGE/B_IMAGE                                           
#  12 ELLIPTICITY            1 - B_IMAGE/A_IMAGE                                       
         1 -13.8724    221.5499     26.8170   4.0306636319e+00   2.6808706151e+01     1.004102     0.851914 -34.41   0.00391229    1.242    0.195
         2 -12.4424    227.0329      9.7724   3.5953571614e+02   2.7572050083e+01    0.4362485    0.2879316 -88.05  0.001493205    1.466    0.318
         3 -11.2383    221.4762      5.9916   3.5896799841e+02   2.9178437093e+01    0.2712016    0.1505266 -39.82  0.001497278    1.491    0.330
         4 -12.1474     56.3392      4.3247   2.4210496764e+01   6.9529472756e+01    0.5364308    0.2947422  70.88  0.002359516    2.825    0.646
         5 -12.0698     39.7347      2.7924   3.0675462547e+01   7.2907274182e+01    0.4800442    0.2633389  53.06  0.002461182    2.047    0.511
         6 -11.6722     54.2647    239.4902   8.2147847008e+01   1.7084863156e+01    0.2667045    0.1348162  57.41  0.001494405    1.711    0.416
         7 -12.8882    247.8738    245.3234   4.6196987827e+01  -8.6408283124e+00      0.72362    0.4767155   2.23  0.005488379    1.113    0.102
         8 -15.7707     70.3546    143.4725   6.7795649588e+01   3.6792894217e+01     3.367176     2.394135  64.13   0.01626237    1.483    0.326
         9 -10.4478    153.3498    211.2400   5.8115301128e+01   8.4133504742e+00    0.1700404    0.1497981  56.29 0.0005719304    1.342    0.255
        10  -9.7993    164.4460    205.7151   5.4950304081e+01   7.6482610406e+00    0.3547389    0.1295599 -49.07  0.001415401    3.216    0.689
        11  -9.6172     51.1773    200.5312   7.9874554036e+01   2.5415107896e+01    0.2785766     0.131888 -69.68  0.001095596    2.110    0.526
        12  -9.9092    211.0106    198.7756   4.4783129205e+01   1.7472437483e+00    0.2018482    0.1568269 -18.14 0.0004426739    1.152    0.132
        13 -10.0196    192.7203    194.3182   4.7377624694e+01   5.1556414440e+00    0.5259335    0.2965113 -64.00  0.001604656    7.007    0.857
        14  -8.4817     69.0638    195.7330   7.5173397895e+01   2.4193739849e+01    0.3507282    0.1393447 -57.58  0.001480661    2.634    0.620
        15 -11.3046     57.2407    194.2784   7.7867634910e+01   2.6068873853e+01    0.3266383    0.1780817  70.83  0.001419975    1.998    0.500
        16 -11.4679     53.5730    189.8114   7.8327150882e+01   2.7554851002e+01    0.4269334    0.2271934  89.40  0.001376573    2.067    0.516
        17  -9.8169     48.2329    193.6933   7.9977465577e+01   2.7313389265e+01    0.1665549    0.1590893  23.96 0.0008730681    1.325    0.245
        18  -9.4315     42.6641    194.5041   8.1375578999e+01   2.7784166273e+01    0.1287424     0.103076  73.96 -0.0002641757    1.064    0.060
        19  -8.8639     43.7770    187.1534   8.0484334555e+01   2.9355485799e+01    0.2545415    0.1552229 -87.63 0.0008927395    1.575    0.365
        20 -12.1989    143.8638    182.1150   5.5400200512e+01   1.5402130447e+01    0.5176734    0.3392349  23.80  0.002499855    1.662    0.398
        21 -12.1310     54.8439    180.4155   7.7063095323e+01   2.9609873595e+01    0.4231575    0.3591389 -21.49  0.001600098    1.633    0.388
        22 -11.7381    173.2202    175.8519   4.7842504138e+01   1.1536603875e+01     0.745634    0.4258787 -47.77  0.002139625    1.882    0.469
        23 -11.7109    179.5891    169.0239   4.5187564142e+01   1.1690052933e+01    0.6257629     0.553448 -19.94  0.002849916    1.066    0.062
        24  -8.8394     78.3397    184.2183   7.1556126382e+01   2.5527963068e+01    0.1248788     0.106487   2.35  0.000305771    1.526    0.345
        25 -11.3521     47.2067    233.6030   8.3194861038e+01   1.9027547820e+01    0.1500794    0.1233192  81.72  0.000933791    1.216    0.178
        26 -12.0715    125.5685    172.6312   5.8010667309e+01   2.0570851355e+01    0.4429329    0.4081174  28.57  0.002068008    1.076    0.071
        27 -11.2549    139.4282    171.1044   5.4421184422e+01   1.8449002620e+01    0.2893305    0.2032637  45.54 0.0006691389    1.417    0.294
        28 -11.6343    229.9457    166.4161   3.5410756692e+01   3.8321032966e+00    0.3813078    0.1892943 -44.70  0.001808426    2.215    0.548
        29 -10.3061     28.3912    250.3118   8.7771896605e+01   1.8003696827e+01   0.09468491   0.08418658 -14.73 0.0007010438    1.833    0.454
        30 -10.5823     93.7455    157.4632   6.3528670411e+01   2.9563946171e+01    0.2829418    0.2091858  79.28 0.0009200929    1.556    0.357
        31 -11.8007    133.6981    145.5664   5.0657447576e+01   2.5137169195e+01     1.385801    0.3423437 -54.12  0.003256444    5.738    0.826
        32  -9.4809    129.1017    138.6602   5.0294701666e+01   2.7628156044e+01    0.2723436    0.2058354 -59.83  0.001273259    1.383    0.277
        33 -10.9503    113.3826    151.9580   5.7225051859e+01   2.7483617305e+01    0.4634539    0.3136104  89.73  0.001426885    2.160    0.537
        34 -11.0133     88.1098    149.1418   6.3623347947e+01   3.2565340728e+01    0.2707435    0.2539034  72.08  0.000303776    1.027    0.027
        35 -12.7186     94.0019    143.8901   6.0966216228e+01   3.2900172340e+01    0.8525195    0.6616687 -25.58  0.001823302    1.661    0.398
        36 -11.6529    109.1670    145.2270   5.7004232688e+01   2.9874190200e+01    0.4000044     0.358273 -15.39  0.001553324    1.301    0.231
        37  -8.5608    157.4906    144.5296   4.4750455046e+01   2.0669768870e+01    0.1483247    0.1445802 -28.36 0.0003610146    1.034    0.033
        38  -9.3080    170.8573    141.2701   4.1072749531e+01   1.8687616027e+01    0.2866514    0.1653495 -55.26 0.0009890107    2.094    0.522
        39 -11.7722     88.1119    219.2913   7.3290417158e+01   1.6613257368e+01    0.4082003    0.3260741  41.35  0.001426308    1.100    0.091
        40 -12.2698    105.8188    131.8768   5.5080943799e+01   3.3779546564e+01    0.7054583     0.469456 -51.81  0.002139332    1.465    0.318
        41 -11.9086     94.3624    131.3612   5.8298523113e+01   3.6010262213e+01    0.4162829    0.3035592 -64.46 0.0004849405    1.363    0.267
        42  -9.2344    165.9733    132.0190   3.9962388478e+01   2.1558013123e+01    0.2371024    0.1860477 -76.25 0.0007126304    1.696    0.411
        43 -11.4590    135.7895    129.1954   4.6374183711e+01   2.8452258114e+01     1.230376     0.210001 -49.20  0.002594986    6.453    0.845
        44  -9.7594    160.5014    127.9761   4.0191624792e+01   2.3538296212e+01    0.2471367    0.1465143 -42.76  0.001040592    1.612    0.380
        45 -11.0140    113.9761    125.5719   5.1311857601e+01   3.3749717477e+01    0.3541785    0.3023686  19.71 0.0008579932    1.349    0.259
        46  -9.3430    143.9071    122.7160   4.2757909949e+01   2.8200051516e+01    0.2170959    0.1996938  57.42 0.0004336896    1.139    0.122
        47 -10.4295    101.4461    120.6432   5.3744682374e+01   3.7408622491e+01    0.2943278    0.2568223 -16.55 0.0003939321    1.360    0.264
        48  -9.0898    162.1787    119.8123   3.7787114409e+01   2.4886263668e+01    0.2063867    0.1782907 -13.67 0.0004603011    1.264    0.209
        49 -10.1904     86.1854    118.4057   5.7902718745e+01   4.0776775914e+01    0.5009196    0.2155237 -62.79  0.001636996    2.600    0.615
        50 -10.3915    109.2569    116.1474   5.0330518564e+01   3.6989415182e+01    0.3428073    0.2671462 -26.01  0.001037102    1.542    0.351
        51 -10.1257    158.2066    114.0143   3.7175674523e+01   2.6963423485e+01     0.364107     0.246143 -64.54  0.001044743    1.881    0.468
        52 -11.3548    120.8150     98.9986   4.2359023558e+01   3.8607681452e+01    0.4217308    0.3344296  64.66  0.001952349    1.408    0.290
        53 -12.2665    115.5942    107.8289   4.6311903449e+01   3.7684638882e+01    0.9294333    0.6198756 -86.56  0.003462749    2.491    0.599
        54 -11.9065    118.4282    103.2997   4.4254495910e+01   3.8140479266e+01    0.5473171    0.4021779  71.28  0.001512568    1.716    0.417
        55 -10.8470     81.8284    109.5766   5.7196584537e+01   4.3811464295e+01     0.320215    0.3091702 -75.58 0.0006961435    1.034    0.033
        56 -11.3312     38.2416    235.7845   8.5139180268e+01   1.9627236792e+01    0.1490518    0.1176254  72.06 0.0005886945    1.141    0.124
        57 -10.5366    134.5679    105.3051   4.0483167668e+01   3.4123151603e+01    0.4894933     0.151237 -45.63  0.001430518    3.126    0.680
        58  -9.8474    151.0896    105.6197   3.6548461887e+01   3.0322832657e+01    0.2976396    0.2101712 -60.00 0.0008975397    1.582    0.368
        59  -9.7078    113.4935     94.5063   4.3118444587e+01   4.1243347946e+01    0.1602174    0.1541661 -54.52 -1.595159e-05    1.008    0.008
        60 -19.4934     13.3448    141.9501   8.4731868531e+01   4.3671767405e+01     18.96071     5.570167 -82.37   0.06632695    3.234    0.691
        61 -10.6158    125.5467     87.5702   3.7644892395e+01   4.0068271367e+01    0.2945941    0.2553374 -79.96 0.0002993479    1.273    0.215
        62 -12.1722     52.9130    231.9548   8.1913082426e+01   1.8674529899e+01    0.2214121    0.1485863 -66.94 0.0008343561    1.705    0.413
        63  -8.7233    156.7758     87.0078   2.9996322917e+01   3.2783542732e+01    0.2086792    0.1242229 -39.55 0.0003865169    1.592    0.372
        64 -11.5292     60.9906     86.2900   5.8525253659e+01   5.3170540780e+01    0.7902742     0.288267  46.83   0.00166279    3.521    0.716
        65 -10.7498     47.2876    229.1925   8.2891867468e+01   1.9875576212e+01    0.1778864    0.1062556  58.82 0.0008944677    1.391    0.281
        66 -10.1314     86.5999     76.8266   4.6079403245e+01   5.0936019847e+01    0.5312887    0.2938828  64.77  0.001769409    3.288    0.696
        67  -8.5548    124.3083     76.7005   3.4512067260e+01   4.2634697413e+01     0.160403    0.1241804 -77.96 0.0001904317    1.597    0.374
        68  -9.6404     98.8567     75.1505   4.1416290525e+01   4.8762973218e+01    0.3131123    0.2189812  60.87 0.0009426206    1.674    0.402
        69 -12.9671    177.6139     66.2730   1.9969291602e+01   3.1478192630e+01    0.8050777    0.5582513 -50.16 0.0008420133    1.362    0.266
        70 -11.1976     45.4040     71.4132   6.0634738995e+01   5.9062557011e+01    0.2616281    0.2371037 -81.57 0.0005953425    1.204    0.169
        71 -10.1349     76.0189     70.6607   4.7802763562e+01   5.4373229086e+01    0.3258429    0.2496665  55.18  0.001576004    1.489    0.329
        72 -11.0328     32.6518     67.8134   6.5386278326e+01   6.1444173445e+01    0.2453692    0.2356794 -42.22 0.0004346435    1.100    0.091
        73  -9.4517    148.7966     65.1650   2.4963875964e+01   3.8812255046e+01    0.2323691    0.2004512 -64.69 0.0005202402    1.165    0.141
        74 -13.8665    194.0905     53.4542   1.3890138297e+01   2.9526540400e+01     1.232241      1.04083  37.44  0.003612044    1.466    0.318
        75 -12.5765    200.2166     48.0325   1.1636373490e+01   2.8870037739e+01    0.5715823    0.4657441  37.81  0.001694258    1.566    0.362
        76 -11.0406     63.5393     60.3799   4.9025188518e+01   5.8894936208e+01    0.3922181     0.254236  29.02  0.001066022    1.716    0.417
        77 -11.3435     55.8185     59.7179   5.2086385698e+01   6.0310610883e+01    0.4824781    0.2484413  44.15  0.002032734    2.206    0.547
        78  -9.4243    140.1889     57.8191   2.4357382817e+01   4.2254372143e+01    0.2297626    0.1982324 -65.40 0.0004892813    1.178    0.151
        79 -10.0096     55.0178     55.0510   5.0670536725e+01   6.1462220649e+01    0.2179871     0.199994 -25.55  0.000389892    1.017    0.017
        80 -10.5814     72.7969     53.2126   4.2462212693e+01   5.8707387065e+01    0.4474423    0.2448319  57.39  0.001751763    2.552    0.608
        81 -11.7407     58.9216    231.9748   8.0669480252e+01   1.7945938430e+01    0.1738909    0.1480491  83.42 0.0006170808    1.219    0.179
        82 -11.1487     31.6684     49.7968   6.0051150443e+01   6.5802275842e+01    0.2705661    0.2250179 -60.56 0.0007624435    1.238    0.192
        83  -9.4092    114.2813     40.0150   2.3824673142e+01   5.1659639671e+01    0.1993957    0.1924648 -43.24 0.0003458744    1.049    0.046
        84  -9.3275     90.4272    246.8578   7.5448997227e+01   1.1241218219e+01    0.1344062    0.1137295 -64.92 0.0004843634    1.454    0.312
        85  -9.6966     45.0806     33.2509   4.5883505300e+01   6.7404662286e+01    0.2251467    0.1781093 -33.94 0.0004329903    1.171    0.146
        86 -10.9159     60.8653     21.3459   3.2284150575e+01   6.6530946755e+01    0.2909704    0.2380934  47.77 0.0007742295    1.283    0.221
        87  -8.8153    189.4801     14.9853   3.6302326488e+00   3.5615962652e+01    0.1988073   0.07777059 -49.76  0.000472743    2.314    0.568
        88 -11.1218     59.7679    245.6794   8.1464750560e+01   1.5296458833e+01     0.124656    0.1181031 -62.41 0.0007040619    1.427    0.299
        89  -9.9957     24.3996    245.4158   8.8311001294e+01   1.9308714952e+01    0.1049628   0.08570794  58.78 0.0007909632    1.165    0.142
        90  -9.9204     86.1704    240.5218   7.5748439680e+01   1.2900653164e+01    0.1859036     0.109667 -57.69 0.0006105261    2.043    0.511
