#   1 NUMBER                 Running object number                                     
#   2 MAG_AUTO               Kron-like elliptical aperture magnitude                    [mag]
#   3 X_IMAGE                Object position along x                                    [pixel]
#   4 Y_IMAGE                Object position along y                                    [pixel]
#   5 X_WORLD                Barycenter position along world x axis                     [deg]
#   6 Y_WORLD                Barycenter position along world y axis                     [deg]
#   7 A_WORLD                Profile RMS along major axis (world units)                 [deg]
#   8 B_WORLD                Profile RMS along minor axis (world units)                 [deg]
#   9 THETA_WORLD            Position angle (CCW/world-x)                               [deg]
#  10 FWHM_WORLD             FWHM assuming a gaussian core                              [deg]
#  11 ELONGATION             A_IMAGE/B_IMAGE                                           
#  12 ELLIPTICITY            1 - B_IMAGE/A_IMAGE                                       
         1 -11.2635      7.0431     19.2450   8.6964184489e+01   7.1703976217e+01    0.5421807    0.2356651  -6.09  0.002333508    3.543    0.718
         2 -11.9471      6.4151     11.9959   8.3998171696e+01   7.2862011007e+01    0.5361661     0.277938 -21.19  0.003139602    1.780    0.438
         3 -11.0741     13.0556     12.8239   8.0469725782e+01   7.2112109025e+01    0.2577129    0.1457361 -18.65   0.00142668    1.622    0.383
         4 -10.8213     24.5544      8.0157   7.1676352073e+01   7.1415625482e+01    0.2308962    0.1343349  16.36  0.001385879    1.588    0.370
         5 -11.3549     21.9871      2.4369   7.0067979389e+01   7.2400504152e+01     0.416678    0.1659197  28.62  0.002109079    2.382    0.580
         6 -11.1167    225.2174      2.0020   2.8042197897e+01   2.9875561254e+01    0.2707191    0.2535497  87.41   0.00211191    1.384    0.278
         7 -10.9907      8.9626      2.0534   7.7325797735e+01   7.3973317419e+01    0.5109337    0.1682482  26.74  0.002464421    2.931    0.659
         8 -10.2002      1.6127      6.1727   8.4108861480e+01   7.4114159353e+01    0.2382492    0.1251291 -32.07  0.001497465    1.576    0.365
         9 -11.8414    228.9904      5.4790   2.8475497601e+01   2.8748330425e+01    0.5132935    0.1861982  66.27  0.002584266    2.604    0.616
        10  -9.9753     72.1236    239.7288   1.0869620716e+02   1.3929098840e+01    0.3486013    0.1495796  36.70  0.001620498    2.025    0.506
        11 -13.2896    226.1115    196.8340   6.8942839440e+01  -1.3656667870e+00     4.044775    0.9977192 -37.32   0.01312355    3.903    0.744
        12 -14.4971    245.2336     19.8863   3.0142697226e+01   2.3927738215e+01      11.1484     1.883064 -32.62   0.03019392    8.853    0.887
        13 -12.4825    241.1875    178.2391   6.2740752912e+01  -3.9941062111e-01     1.196623    0.7251643 -44.13   0.00644907    1.568    0.362
        14 -12.0748    226.5314    220.2901   7.3155267330e+01  -5.2492250185e+00      1.06109    0.4715827 -23.12  0.004496478    2.863    0.651
        15 -13.7530    245.9248    162.5942   5.8902709132e+01   1.5651790845e+00     2.691859     1.228768 -49.54   0.01183308    2.412    0.585
        16 -11.9788    238.5755    217.8960   7.0570340218e+01  -6.4454839660e+00    0.6174352    0.3558885 -17.87  0.002155617    1.707    0.414
        17 -13.8357    246.6572    239.0885   7.2811502532e+01  -1.0473505728e+01      1.56589    0.8034957 -20.39  0.008779974    1.849    0.459
        18 -12.7217    247.2378    225.3892   7.0382353394e+01  -8.6201205079e+00     1.101932    0.4613357 -22.09  0.004813429    2.967    0.663
        19 -12.7225    247.9856    214.9406   6.8421339511e+01  -7.1768788773e+00     0.675743    0.3378573 -29.92   0.00259753    1.717    0.418
        20 -11.1676    205.2498    232.4954   7.9287360980e+01  -4.2899151286e+00    0.5322649    0.3931512  11.83  0.002488907    1.199    0.166
        21 -11.8236    192.2103    244.7892   8.3852647986e+01  -4.4281727442e+00    0.9433904    0.5100688  13.02  0.004591537    2.180    0.541
        22 -10.9763    202.0067    240.5363   8.1248086907e+01  -5.1053725653e+00     0.490925    0.3084371  -2.88  0.001627558    1.738    0.425
        23 -10.3391    211.9250    225.2767   7.6766144436e+01  -4.0597672087e+00    0.3855221    0.2034996 -24.45  0.001283494    2.021    0.505
        24 -10.9554    216.7075    221.3418   7.5168817046e+01  -4.0879460617e+00    0.5639648      0.32678 -10.95  0.002586816    2.060    0.515
        25 -11.5439    106.3902    240.5071   1.0135365340e+02   8.9424024779e+00    0.5998672    0.2537787  40.68  0.002680365    2.016    0.504
        26 -11.1116    149.7276    237.7430   9.1554249003e+01   2.9454571608e+00    0.4451338    0.2457681  25.03  0.002088696    1.817    0.450
        27 -11.4247    127.4407    248.0360   9.7754909290e+01   4.4082567741e+00    0.6691417    0.2790834  44.01  0.002954411    2.221    0.550
        28 -11.8831    116.4270    244.8908   9.9716388551e+01   6.6177934245e+00    0.9290037    0.3888089  52.62  0.003622043    3.113    0.679
        29 -11.3955    161.3317    235.0335   8.8664349063e+01   1.6741654290e+00    0.8592892    0.4052534  16.32  0.003074399    3.690    0.729
        30 -11.0880    191.0055    231.9001   8.2006935896e+01  -2.1849577752e+00    0.6697876    0.4297402   9.85  0.003321853    1.650    0.394
        31 -10.5386    170.2630    240.0797   8.7568505879e+01  -5.3635468544e-01    0.4733897    0.2817232   7.69  0.001858574    2.171    0.539
        32 -11.0939    168.9126    249.5846   8.9280346469e+01  -1.9222165848e+00    0.7032017    0.3124574  28.78  0.002962034    2.076    0.518
        33 -11.1031    134.3686    245.0631   9.5884002264e+01   3.9235632396e+00     0.465132    0.2554634  32.16  0.002058948    1.610    0.379
        34 -10.4371    153.1742    249.8802   9.2574291440e+01   3.0044473181e-01    0.7585641    0.1912124  41.54  0.002595975    3.816    0.738
        35 -12.4392    145.7554    245.7010   9.3546758406e+01   2.1153356925e+00     1.505021    0.6371012  22.47  0.005637363    3.313    0.698
        36 -11.2008    177.5889    243.7067   8.6621432756e+01  -2.2030695938e+00    0.6730716    0.3923425  10.22  0.002703272    2.072    0.517
        37 -10.3975    183.8530    237.1013   8.4304971440e+01  -2.0159163593e+00    0.3921737    0.2645591 -16.08  0.001555619    1.594    0.373
        38 -10.6552    164.0961    244.9810   8.9592258490e+01  -4.6336903675e-01    0.4491876    0.2567736  24.76  0.001528063    1.646    0.393
        39 -10.6633    157.7188    245.5388   9.1004066001e+01   3.7601548120e-01    0.4321649    0.2747996  12.53  0.001855329    1.772    0.436
        40 -10.5357    110.4625    249.0863   1.0150195773e+02   6.6972128241e+00    0.4260623     0.163063  47.77  0.001754006    2.631    0.620
        41  -9.3402    103.9985    250.5137   1.0303830956e+02   7.3582583549e+00    0.2035902    0.1083148  36.51 0.0006170123    1.600    0.375
        42  -9.6794     74.4512    250.5052   1.0923401773e+02   1.1448989177e+01    0.3537952   0.08883344  37.55  0.001356912    3.044    0.672
        43 -10.3267     65.0565    248.7876   1.1101911596e+02   1.3020312886e+01    0.5212351    0.1799446  46.32   0.00229695    2.395    0.583
        44  -9.8482     50.0818    250.0476   1.1416518150e+02   1.4646576114e+01    0.4072557    0.1558449  34.48   0.00192044    2.333    0.571
        45 -10.1322     36.5036    248.2384   1.1673106467e+02   1.6612193015e+01    0.4913138    0.1962466  56.43  0.002378303    2.264    0.558
        46 -10.0126     19.9490    248.6331   1.1995181368e+02   1.8350436891e+01    0.3567033    0.1805803  50.62  0.002103773    1.569    0.363
        47  -9.8705     12.2396    248.9147   1.2141296993e+02   1.9088416735e+01    0.3374755    0.1778314  51.14    0.0018234    1.496    0.332
        48  -9.5454      4.0895    250.2866   1.2297336090e+02   1.9620841483e+01    0.2484715    0.1331144  34.30  0.001532807    1.860    0.462
        49  -9.0130     37.8178    240.0327   1.1589527555e+02   1.8143132209e+01    0.2400485    0.1188823  48.56  0.001290049    1.676    0.403
        50 -10.9906    136.7249    238.8629   9.4523269959e+01   4.7129756706e+00    0.4195074    0.2045587  40.65  0.001961821    1.838    0.456
        51 -11.0230    120.1973    238.7577   9.8113371413e+01   7.2319303702e+00    0.4691487    0.1584084  36.87  0.001847645    2.523    0.604
        52  -9.8737     44.7942    237.0427   1.1423580009e+02   1.7953874604e+01    0.3677067    0.1252327  51.70  0.001557356    2.680    0.627
        53  -9.5106      6.3926    235.8292   1.2184898763e+02   2.2331686883e+01     0.288372    0.1404706  67.69  0.001616662    1.763    0.433
        54 -10.6163    177.1445    232.9136   8.5007096316e+01  -3.2714581925e-01    0.4984474     0.306517 -18.21  0.002352788    1.986    0.496
        55  -9.9800    171.2814    232.6895   8.6193837333e+01   5.8760320421e-01    0.3466586    0.1983962  17.70  0.001653363    1.959    0.490
        56 -10.0161     93.5217    235.2566   1.0355571155e+02   1.1874585064e+01    0.4262205    0.1760342  40.15  0.001871419    2.064    0.515
        57 -10.1866    130.4838    234.8681   9.5326262909e+01   6.4225734796e+00    0.2806694    0.1691608  19.44  0.001338945    1.925    0.480
        58 -11.0730    141.6757    234.3092   9.2792152060e+01   4.8107524144e+00    0.4293034    0.2073269  40.02  0.001970149    1.872    0.466
        59 -10.0503    153.4992    232.6217   8.9970750781e+01   3.3062695023e+00    0.2718207    0.1512479  30.67  0.001073015    1.648    0.393
        60  -9.5779    110.1548    232.6999   9.9543926912e+01   9.9446103613e+00    0.3154639    0.1144019  32.21  0.001205389    2.665    0.625
        61  -9.4243     13.8026    231.3989   1.2016016757e+02   2.2543527159e+01    0.2733571    0.1431584  47.93  0.001582006    1.603    0.376
        62 -10.4845     15.3902    240.4183   1.2036355161e+02   2.0492537636e+01    0.5860703    0.2088304  43.64  0.002972923    2.187    0.543
        63 -10.2695    146.5359    230.1212   9.1103523971e+01   4.8506113494e+00    0.2873808    0.1682944  19.09  0.001332626    1.975    0.494
        64 -10.2155    125.1666    229.7698   9.5789204921e+01   8.2418786442e+00    0.3789636    0.1568082  26.23  0.001398767    2.976    0.664
        65  -9.0950     39.5749    229.8133   1.1476067556e+02   2.0114393560e+01    0.1772715    0.1030839  86.03  0.000950194    1.706    0.414
        66  -8.9190    158.3425    229.3068   8.8409071970e+01   3.1702356840e+00    0.1388029   0.09792715  -1.60 0.0004155812    1.689    0.408
        67  -9.0357     58.5337    230.0000   1.1070220113e+02   1.7766704142e+01    0.2793299   0.06652834  32.17  0.000938312    3.964    0.748
        68  -9.0398     32.1913    228.9888   1.1625094465e+02   2.1130118195e+01    0.1928994    0.1040127  54.38 0.0008657968    1.605    0.377
        69  -9.8531      4.6423    227.7817   1.2177081951e+02   2.4196307827e+01    0.3037027    0.1621011  70.83  0.001761873    1.591    0.371
        70  -9.4044    183.9957    226.4952   8.2531541830e+01  -2.3881040530e-01    0.4229878    0.2013457  19.57  0.001714961    2.764    0.638
        71  -9.4846    174.9260    226.8983   8.4485787238e+01   1.0588893203e+00    0.2923453    0.1743965  13.15  0.001381568    2.002    0.500
        72  -9.9792    102.6941    230.1375   1.0088824186e+02   1.1588416560e+01     0.289753    0.1245505  44.99  0.001229953    2.141    0.533
        73  -9.1854     48.2346    230.0766   1.1293713780e+02   1.9031246605e+01    0.2655782    0.1196792  55.45  0.001238811    2.117    0.528
        74  -9.9792    199.2033    224.8695   7.9177298205e+01  -2.1972197994e+00    0.3279163    0.2130235 -13.43  0.001341824    1.653    0.395
        75  -9.2507     10.9452    225.7243   1.2040162243e+02   2.4042884416e+01    0.2331956    0.1258264  53.00  0.001349716    1.559    0.358
        76 -10.1799    206.1518    223.3044   7.7539064825e+01  -2.9319843524e+00    0.3748715    0.2366028 -13.60  0.001401317    1.705    0.413
        77  -9.5994    190.5656    224.0709   8.0775496792e+01  -7.9854474061e-01    0.3210782    0.1952584 -21.16  0.001077566    1.836    0.455
        78  -9.3854    163.2374    225.1756   8.6690374196e+01   3.1735878218e+00    0.2310656    0.1368329  -7.68 0.0009495167    2.789    0.642
        79 -10.1671    134.8696    229.7069   9.3616199276e+01   6.7473970738e+00    0.2237887    0.1642759  14.43  0.001197417    1.486    0.327
        80  -9.1042     32.7258    223.0293   1.1569075344e+02   2.2379798741e+01    0.2817033   0.09749031  52.90  0.001177838    2.714    0.632
        81  -9.3465    130.9847    223.0000   9.3493253129e+01   8.6936701043e+00    0.2336231   0.07236715  35.21 0.0008035349    2.950    0.661
        82  -9.5119     18.5959    221.6945   1.1858264932e+02   2.4170552178e+01    0.2205131    0.1097647  52.83  0.001148595    1.733    0.423
        83  -8.9076    180.6997    220.8590   8.2258241446e+01   1.2546993005e+00    0.2192066    0.1540581 -17.59  0.001170757    1.513    0.339
        84  -9.5298      1.9723    220.3960   1.2190952026e+02   2.6036981592e+01    0.2455869    0.1260156  78.13  0.001365686    1.693    0.409
        85  -9.1264    185.9301    219.5914   8.0952959017e+01   6.8046796841e-01    0.2592207     0.169083 -22.59  0.001216896    1.632    0.387
        86  -9.0822     55.9877    220.2147   1.1033059162e+02   2.0251426694e+01    0.1558384     0.150675 -72.85  0.001023613    1.237    0.191
        87 -10.4652     55.9802    216.4360   1.0995808595e+02   2.1108656095e+01    0.2872678    0.1733919 -74.69 0.0005763348    1.637    0.389
        88 -10.1834    202.4043    216.6911   7.7111214586e+01  -1.2832408197e+00    0.4772755    0.2566526 -22.97  0.001692033    2.170    0.539
        89 -10.0628    210.8457    216.4413   7.5418707920e+01  -2.4652446331e+00    0.3378997     0.227147 -21.77  0.001161718    1.402    0.287
        90  -9.3060    193.6771    215.7467   7.8691648655e+01   1.8268586854e-01    0.3169026    0.1998434 -14.52  0.001492365    1.846    0.458
        91  -9.6468     12.5222    216.8390   1.1953816234e+02   2.5847201859e+01    0.2627031    0.1148698  49.33  0.001344196    1.967    0.492
        92  -8.9784    101.0856    214.9110   9.9248834826e+01   1.5100591829e+01    0.2009729    0.1674835  64.50   0.00112926    1.209    0.173
        93 -10.5317    217.3703    209.9933   7.3009564704e+01  -2.3230069041e+00     0.537447    0.3061588 -21.32  0.002620672    1.870    0.465
        94  -9.7610      2.2691    212.3800   1.2140754680e+02   2.7784448612e+01     0.248972    0.1525566  75.85  0.001377425    1.354    0.261
        95  -9.2298    210.5161    210.5294   7.4415845693e+01  -1.4224532060e+00    0.2876186    0.1831401   4.13  0.001263408    1.814    0.449
        96  -8.5139    186.8256    209.3550   7.8953123399e+01   2.3913830112e+00    0.1912775     0.117853  22.06 0.0006873941    1.693    0.409
        97  -8.4900    200.4438    209.4612   7.6198308087e+01   2.6382223313e-01    0.1365394    0.1135607  -6.25 0.0001235105    1.063    0.059
        98  -9.3827    206.4565    205.9623   7.4367034276e+01  -3.1032096403e-02    0.2555841    0.1709745   9.67   0.00118884    1.625    0.385
        99 -10.1149    123.9898    206.0130   9.2479919090e+01   1.3417012661e+01    0.2011335     0.190502  31.14  0.001163786    1.017    0.017
       100  -8.8454      1.6282    205.7813   1.2116030635e+02   2.9331078942e+01    0.1758729   0.09127814  86.15 0.0009052904    1.665    0.399
       101  -8.1761    206.2793    201.3758   7.3547293282e+01   8.0542749635e-01    0.1425147   0.09346743 -12.31 0.0004831668    1.704    0.413
       102  -8.9026    210.1414    199.2937   7.2403544145e+01   5.8396784305e-01    0.2468217    0.1613295 -27.76  0.001302615    1.430    0.301
       103  -9.4810    133.0059    199.0094   8.9161969903e+01   1.3448736923e+01     0.202459    0.1938135  28.29            0    1.007    0.007
       104  -9.8877      3.7815    197.0094   1.2015002131e+02   3.1174795805e+01    0.3243692    0.1565118  80.84  0.001622696    1.935    0.483
       105  -9.2272    215.1919    196.5022   7.0907532164e+01   3.0853979139e-01    0.2490743    0.1650134 -35.23  0.001071175    1.368    0.269
       106  -8.9271    138.9218    199.0939   8.7770969195e+01   1.2420912774e+01    0.1966507    0.1831043  53.22            0    1.130    0.115
       107  -9.3124    215.0819    189.0677   6.9498668951e+01   1.6441467998e+00    0.3378013     0.159925 -32.58  0.001149119    2.069    0.517
       108  -9.0279      4.5154    188.4935   1.1941012035e+02   3.3126373889e+01    0.1266166    0.1003157  84.01  0.000126859    1.013    0.013
       109  -9.9990    225.3397    171.8725   6.4212736616e+01   3.1209863231e+00    0.5273082    0.2506191 -29.06  0.002224995    2.281    0.562
       110  -9.8113    223.8598    182.4819   6.6586427575e+01   1.4586651173e+00    0.4068989    0.2091535 -29.02  0.001472278    1.956    0.489
       111  -9.3995    225.5247    178.4749   6.5496474379e+01   1.9118476851e+00    0.2497434    0.1820113 -18.79 0.0008204302    1.310    0.237
       112  -9.1163     31.5565    183.0964   1.1243294290e+02   3.1939715134e+01    0.1925512    0.1703407 -56.27 6.184042e-05    1.262    0.208
       113  -8.7485    210.8840    180.9012   6.8688372193e+01   3.7992034078e+00    0.2378352    0.1423376 -18.64  0.001070059    2.037    0.509
       114  -9.3780      1.6585    178.0944   1.1933730987e+02   3.5855387540e+01    0.2614373   0.09829903 -86.79  0.001097303    2.508    0.601
       115  -9.2955    219.0050    176.4929   6.6284712422e+01   3.2966165639e+00    0.2781702    0.1651083 -27.84  0.001347665    1.656    0.396
       116  -9.0478    218.8620    166.4520   6.4275419890e+01   5.1628397494e+00    0.2919699    0.1636731 -26.98   0.00131988    1.907    0.476
       117  -9.2512    221.3350    161.0678   6.2722238497e+01   5.7452279849e+00    0.2827559    0.1113759 -35.43  0.001083665    2.452    0.592
       118  -8.4213    175.4669    150.6547   6.9518626566e+01   1.6242886751e+01    0.1468027    0.1401331  -4.11 3.828607e-05    1.056    0.053
       119 -10.1619    223.5068    145.5219   5.9088229936e+01   8.2497855440e+00    0.2929192    0.1211637 -40.37  0.001133823    2.098    0.523
       120 -14.3318    249.3208    146.0076   5.5076605984e+01   3.8879481140e+00     5.914009     0.885658 -44.08   0.01511815    6.254    0.840
       121  -8.7318    218.3307    137.3150   5.8213017506e+01   1.0704984183e+01    0.1409866     0.106154  -7.10 0.0006757131    1.680    0.405
       122  -9.9040    225.5646    132.7717   5.6024872874e+01   1.0232520195e+01    0.2760553     0.120162 -37.55  0.001137977    2.067    0.516
       123 -10.7558    222.2504    126.5457   5.5216176199e+01   1.1981448877e+01    0.3836333    0.2517157  -4.81  0.001641388    2.709    0.631
       124 -11.4907    233.4535    210.6931   7.0185479582e+01  -4.6597969895e+00    0.5660543    0.2870421 -22.70  0.001942312    2.110    0.526
       125  -7.9041    129.8028    106.9959   6.9719111014e+01   3.5426880834e+01     0.189337     0.121259 -44.54 0.0007979894    1.533    0.348
       126 -13.5122    244.4037    194.4373   6.5287443893e+01  -3.5277098780e+00     2.529062    0.6655918 -32.40  0.007759274    4.935    0.797
       127  -8.5335    128.0078     91.0003   6.5715494426e+01   3.9184434855e+01    0.1715215     0.168838 -37.16            0    1.012    0.012
       128 -12.1926    236.7538    197.4943   6.7171314820e+01  -2.9807030023e+00     1.469314    0.2986275 -37.15   0.00450461    4.745    0.789
       129 -12.1709    248.6682    202.2692   6.6020367973e+01  -5.3293585409e+00    0.8642213    0.3259492 -27.79  0.003500858    3.040    0.671
       130 -13.3720    211.9530    245.2272   8.0099659157e+01  -7.1253433584e+00     2.437614    0.8960736  31.22   0.01119635    2.514    0.602
       131 -11.3738    216.8348    231.0091   7.6818604358e+01  -5.6252457092e+00     0.538383    0.3515978  -1.83  0.002084097    1.534    0.348
       132 -11.1692    228.6714    227.1721   7.3967670771e+01  -6.5863090353e+00    0.5871865     0.303341 -19.48  0.002848309    2.136    0.532
       133  -9.2946    172.0230     50.0133   4.4852480832e+01   3.5918046045e+01    0.1945713    0.1756819 -84.81            0    1.010    0.010
       134 -11.8060    225.4996    241.4445   7.6959687244e+01  -8.2885688832e+00    0.6820514    0.3568382 -32.39  0.002993316    1.777    0.437
       135 -12.9214    233.7747    230.4388   7.3609113772e+01  -7.7174162257e+00     1.509191      0.64534 -27.74   0.00718283    2.364    0.577
       136  -9.5509      8.6444     37.1933   9.3161771810e+01   6.8510878625e+01    0.1792824   0.08264805 -42.85 0.0009520759    1.724    0.420
       137  -8.3705    173.9499     34.0655   4.0362753026e+01   3.7588177574e+01    0.1520814    0.1346581 -80.78            0    1.033    0.032
       138 -11.3582      6.8495     27.4405   9.0497088229e+01   7.0371499906e+01    0.4796074    0.1384834 -37.47  0.002054567    2.975    0.664
       139  -9.7843     89.4759    249.1546   1.0595958426e+02   9.6676344038e+00    0.3792612    0.1620968  35.73  0.001765653    2.010    0.502
       140  -9.7717    222.1216     22.1079   3.2358067777e+01   2.8297691184e+01    0.1679666    0.1122341 -68.60            0    1.274    0.215
       141  -9.9539     18.1292     21.1599   8.1548336627e+01   7.0370269008e+01    0.1775349    0.1254085  -8.40 -0.0006383859    1.173    0.147
       142 -11.1435     15.7129     17.8073   8.1340952187e+01   7.1120870807e+01    0.3615985    0.1867712   2.13  0.001883614    2.280    0.561
       143 -10.6378     97.0881    244.2287   1.0380442739e+02   9.5570606062e+00    0.5062983    0.1839022  40.95   0.00215608    2.283    0.562
       144 -10.5646     84.7584    244.0478   1.0642896420e+02   1.1329035552e+01    0.5205455    0.1595692  39.64  0.002099453    2.606    0.616
       145  -9.6656     44.7195    244.4041   1.1481800573e+02   1.6432545553e+01    0.3672376    0.1417695  47.08  0.001764573    2.107    0.525
       146 -10.4515     19.0015     12.8900   7.7145172492e+01   7.1463282951e+01    0.2552909    0.1283804  14.69  0.001368009    2.097    0.523
       147 -10.0912      3.4385    242.9583   1.2275551558e+02   2.1148062314e+01    0.3748876    0.1758007  58.41  0.002177713    1.702    0.413
       148 -10.3040     56.4083    241.2663   1.1216236022e+02   1.5649774303e+01    0.5041563    0.1346825  43.81  0.002011091    2.891    0.654
       149 -10.0366     29.6898    240.3051   1.1755004470e+02   1.9001496955e+01     0.412113    0.1959374  64.68   0.00213312    1.989    0.497
       150 -11.4778    127.6405    239.9262   9.6643854975e+01   5.8871901974e+00    0.5245708    0.2359937  41.69  0.002366543    1.983    0.496
