#   1 NUMBER                 Running object number                                     
#   2 MAG_AUTO               Kron-like elliptical aperture magnitude                    [mag]
#   3 X_IMAGE                Object position along x                                    [pixel]
#   4 Y_IMAGE                Object position along y                                    [pixel]
#   5 X_WORLD                Barycenter position along world x axis                     [deg]
#   6 Y_WORLD                Barycenter position along world y axis                     [deg]
#   7 A_WORLD                Profile RMS along major axis (world units)                 [deg]
#   8 B_WORLD                Profile RMS along minor axis (world units)                 [deg]
#   9 THETA_WORLD            Position angle (CCW/world-x)                               [deg]
#  10 FWHM_WORLD             FWHM assuming a gaussian core                              [deg]
#  11 ELONGATION             A_IMAGE/B_IMAGE                                           
#  12 ELLIPTICITY            1 - B_IMAGE/A_IMAGE                                       
         1  99.0000    232.0858     29.4236   2.7976922939e+01   2.3350640299e+01     2.213693     1.259027 -33.91   0.01214784    1.421    0.296
         2 -10.7802    237.6053     14.9460   2.4125264674e+01   2.3701781708e+01    0.4708487    0.2522219 -17.14  0.002437246    1.989    0.497
         3 -12.9510    184.1662     91.0100   4.9433873588e+01   2.5652617742e+01      2.35338     1.487622 -33.86    0.0114326    1.495    0.331
         4 -11.3315    206.4074     17.8721   2.6774790542e+01   3.0233334429e+01     1.098099    0.3550121 -31.10  0.004424338    2.435    0.589
         5 -14.1590    181.1288     78.2666   4.6548637188e+01   2.8329552705e+01     5.807398     2.674352 -47.43  0.001932219    2.268    0.559
         6 -12.4565    219.6794     35.9790   3.0559878959e+01   2.5261717420e+01     2.304672    0.4008336 -41.16  0.007588837    3.709    0.730
         7 -12.6211    249.8037     32.1815   2.7476129653e+01   1.9538880560e+01     1.711444    0.3396821 -24.13  0.004931708    5.198    0.808
         8 -14.6990    225.6118     82.6659   4.1531937663e+01   1.8259528409e+01     7.399769     2.017066 -41.14   0.02687648    3.248    0.692
         9 -14.0335    241.9893     58.1409   3.4080028428e+01   1.8149110661e+01     4.707564     1.042975  61.47   0.01757833    4.603    0.783
        10 -11.1911    122.0246    100.9962   6.5287570309e+01   3.7834367063e+01     1.543816    0.8734173 -70.49  0.005241324    3.209    0.688
        11  -9.4626    213.3496     25.2745   2.8261361479e+01   2.7854944868e+01     3.798781     1.842112  11.81  0.009672868    8.833    0.887
        12 -10.4316    134.2174     19.9322   3.5033941438e+01   4.8718098233e+01    0.4968692    0.2844082 -19.97   0.00155314    1.949    0.487
        13  -8.3187    232.9382     11.4925   2.3528751330e+01   2.5004061885e+01    0.3155839    0.1559817  -3.50  0.001311687    3.436    0.709
        14  -9.2705    128.5797     11.3928   3.2447067878e+01   5.1209426133e+01    0.3596681    0.2106333 -14.10 0.0009838965    1.997    0.499
        15 -10.1212    216.5290      6.7956   2.3190984296e+01   2.9014051029e+01    0.5138302    0.2212348 -14.35  0.002152734    2.856    0.650
        16 -10.2720    120.1307      9.2670   3.2810982372e+01   5.3768286416e+01      0.40281    0.3160217 -45.14  0.001050699    1.267    0.211
        17  -8.9628     92.0365      9.6986   3.8399667821e+01   6.1393971511e+01    0.2688868    0.1859136 -54.93 0.0009013828    1.575    0.365
        18  -9.1145     79.4261      8.5613   4.1043837559e+01   6.4811057054e+01    0.2525471    0.2332803   0.74 0.0006941134    1.146    0.127
        19  -8.7383    187.9323      7.6396   2.5156318188e+01   3.5718764365e+01     0.240145    0.1699954 -39.65 0.0002719052    1.253    0.202
        20  -8.5074    182.0352      3.2385   2.4231529339e+01   3.7613540968e+01    0.2869329    0.1921325  -8.72  0.001327052    1.785    0.440
        21 -11.2912    249.8755      2.8435   2.0753733651e+01   2.2400056071e+01    0.3209836    0.1945796  -7.65  0.001813572    2.081    0.520
        22  -8.3734    207.1742      2.0011   2.2402835633e+01   3.1600509115e+01    0.1942589    0.1381485  16.93 0.0007191811    1.993    0.498
        23  -8.2347    171.9307      2.4907   2.4701586717e+01   4.0281711155e+01    0.2056928    0.1281762  86.89 0.0008102536    1.537    0.349
        24  -8.7553    137.1040      1.6595   2.7468267963e+01   4.9757799017e+01    0.2171125    0.1722379 -72.97 0.0005397766    1.174    0.148
        25  -7.7679    201.5346    181.5367   6.5606061012e+01   9.0254568727e+00    0.1189235   0.09657416   9.28 0.0008084491    1.018    0.018
        26  -9.2318    174.2810    249.5851   7.9934976683e+01   4.5166279335e+00    0.2048152    0.1523153  46.09  0.001205282    1.708    0.414
        27  -9.1933    136.2212    249.5107   8.6663045082e+01   9.2071094856e+00    0.3235147     0.113345  42.46  0.001475903    2.390    0.582
        28  -9.2627    222.4905    177.9997   6.1604700184e+01   6.4497816666e+00    0.1706422   0.09959477 -27.68   0.00104216    1.618    0.382
        29 -10.2173    238.2631    175.7213   5.8857264734e+01   4.5598970569e+00    0.2788258     0.239404  79.49  0.001396941    2.505    0.601
        30  -9.6487    213.2403    176.3794   6.2784509347e+01   7.9655694271e+00    0.3012624    0.1812294  20.17  0.001215643    1.654    0.396
        31  -9.7794    228.7505    171.8587   5.9581067898e+01   6.2998836397e+00    0.2714016    0.2109039 -25.44  0.001264326    1.308    0.235
        32 -10.1234    230.7561    167.8424   5.8569803284e+01   6.4912985123e+00    0.3705685     0.177594 -41.19  0.001955323    2.489    0.598
        33  -8.5178    218.2233    172.1600   6.1250885959e+01   7.7648178009e+00    0.1681183    0.1302502   4.14 0.0004137379    1.096    0.088
        34  -8.2719    188.9650    170.4690   6.5870386555e+01   1.2455627887e+01    0.1795433    0.1102332  37.70 0.0004568927    1.514    0.339
        35 -10.6859    241.9594    165.0824   5.6464242459e+01   5.2565249941e+00    0.3104815    0.2041196  -5.55  0.002056123    1.379    0.275
        36 -11.5803     14.0338    160.4291   1.0710735001e+02   4.0414758347e+01    0.4857776      0.33112 -69.66  0.002898249    1.584    0.369
        37 -11.7906    202.8352     83.0945   4.4564545229e+01   2.2812871868e+01     1.363436     0.607003  45.88  0.004801894    2.570    0.611
        38 -10.2276    195.6573    244.2642   7.5740394014e+01   2.5318829849e+00    0.1806823    0.1311037  22.06 0.0003857739    1.100    0.091
        39  -9.4018    162.2389    243.3761   8.1312596642e+01   6.6960357827e+00    0.2303046    0.1371687  35.74 0.0002273843    1.326    0.246
        40  -9.0697    163.8994    239.0567   8.0516783942e+01   6.9975159201e+00    0.1604217    0.1322107  16.47 0.0003791635    1.148    0.129
        41  -8.3752    130.6884    236.6986   8.6389282997e+01   1.1588927995e+01    0.1963679    0.1343852  75.50  0.001187347    2.605    0.616
        42  -8.4817    164.9352    234.4822   7.9785414145e+01   7.4147554643e+00    0.1518102    0.1242128  14.68 0.0003395704    1.135    0.119
        43  -8.2558    103.2278    231.8104   9.1311340589e+01   1.5877785072e+01    0.2012982   0.09472618  58.03 0.0009693986    2.898    0.655
        44 -10.0028    131.9430    226.8589   8.5077956374e+01   1.2794199814e+01    0.1871714    0.1770868 -26.66 0.0005768125    1.346    0.257
        45  -7.8662     82.2859    223.6791   9.4931982193e+01   1.9870305208e+01    0.1200528   0.06983406  55.05 0.0002726248    1.595    0.373
        46  -8.5294    227.4739    159.5107   5.7542399244e+01   7.9663261816e+00    0.1180752   0.09495898  -1.52 0.0001014016    1.026    0.026
        47  -8.2144    169.7954    158.4127   6.7257719737e+01   1.7483586605e+01    0.1776729    0.1139241  30.19 0.0001871388    1.528    0.345
        48 -10.3991     68.1191    144.2770   8.9841618651e+01   3.7891308844e+01     1.900854    0.4731405  41.61  0.006269681    3.239    0.691
        49 -12.5564     29.9095    152.0966   1.0203309662e+02   4.0832401201e+01    0.7896296    0.6431426  30.42  0.001663539    1.315    0.240
        50 -12.5008     41.2764    147.8499   9.8280917881e+01   4.0587861381e+01     1.021938    0.8967831  31.74  0.003670085    1.260    0.206
        51  -7.8261    152.5246    156.7676   7.0483447068e+01   2.0814996859e+01    0.1742745    0.1306913 -60.00 0.0009324943    1.687    0.407
        52  -8.4171    136.2943    155.5585   7.3839702666e+01   2.3949153102e+01    0.2187288     0.169961 -63.92 0.0005305434    1.558    0.358
        53  -8.6570    206.5322    152.4938   5.9491881013e+01   1.2130647164e+01     0.355851    0.1593391 -32.63  0.001711129    2.159    0.537
        54  -7.8944    203.7092    152.3578   5.9932889735e+01   1.2612643920e+01    0.1620515    0.1271775  53.47 0.0006704148    1.597    0.374
        55  -8.4178    107.9665    155.0856   8.0596507579e+01   2.9048764299e+01    0.1967112    0.1773564  45.18            0    1.029    0.028
        56 -11.7168     14.6981    145.1791   1.0608943034e+02   4.3936953031e+01    0.6652313    0.3856317  64.50  0.003575699    1.483    0.326
        57 -10.0148    163.0504    146.8387   6.6357520536e+01   2.0614115449e+01    0.5074264    0.3209935 -74.17  0.001930261    3.850    0.740
        58 -12.2222    235.0327     51.5060   3.3118670160e+01   2.0272739823e+01    0.6642637     0.487163 -36.66   0.00133808    1.118    0.105
        59  -9.7587    173.8462    148.7093   6.4584184555e+01   1.8330272865e+01    0.2401112    0.1799989 -20.26  0.001344186    1.413    0.292
        60  -9.1917    223.7697    145.6471   5.5455878351e+01   1.0272655555e+01    0.2595411    0.2013893  67.68  0.001310751    2.083    0.520
        61 -11.2335    215.7518    142.3787   5.6026693853e+01   1.1993951045e+01    0.6230742    0.4680596 -75.57  0.003328667    2.665    0.625
        62  -9.8844    192.1819    144.1482   6.0277388052e+01   1.5765066871e+01    0.3601089    0.2501272 -39.84 0.0005848518    1.493    0.330
        63 -10.0345    193.6906    141.0133   5.9372600669e+01   1.5967072955e+01    0.5736797    0.2725148 -52.63  0.002203233    3.645    0.726
        64  -9.5504    184.4818    143.7489   6.1578583982e+01   1.7198401005e+01    0.2744671    0.1592693  55.85  0.001120331    2.192    0.544
        65  -9.7279    166.3228    143.0024   6.4914425575e+01   2.0657989898e+01    0.4274785    0.2745754 -67.26  0.001370555    2.816    0.645
        66  -9.4619    134.3232    147.6126   7.2799937339e+01   2.5820139232e+01     0.606811    0.2379909 -56.32  0.002101676    3.605    0.723
        67 -10.2665    144.4396    139.1614   6.8783247529e+01   2.5514891216e+01    0.4198442    0.2781183 -66.71 0.0009554311    2.167    0.538
        68  -9.3048    173.9422    125.6859   5.9684579084e+01   2.2113059558e+01    0.3369924    0.1958968 -48.29 0.0005524039    1.911    0.477
        69 -11.1708    179.8858    135.7859   6.0768851600e+01   1.9304652778e+01    0.5893842     0.397887 -23.59  0.002576375    1.582    0.368
        70  -9.4616    175.9077    131.3410   6.0561650637e+01   2.0787526055e+01    0.3008366    0.1866246 -40.74  0.001075682    1.627    0.386
        71 -13.4474    237.1939     69.8959   3.7270368571e+01   1.7655062855e+01      1.30836    0.9687547 -80.64  0.004641831    1.710    0.415
        72  -9.4463    191.0415    132.4834   5.8043466845e+01   1.7740564607e+01    0.2675491    0.1939981 -30.79   0.00108917    1.328    0.247
        73  -9.0440    159.0934    132.7174   6.4223892906e+01   2.3834688042e+01    0.2696136    0.2079398 -41.15 0.0004668411    1.336    0.251
        74  -8.6283    160.0031    128.2421   6.3046957744e+01   2.4452039093e+01    0.3198981     0.260558 -77.91   0.00168173    1.625    0.385
        75  -9.0492    136.3687    129.0201   6.8480941792e+01   2.9063023682e+01    0.3239826    0.1390329 -45.72  0.001240896    2.438    0.590
        76  -7.5242    114.7391    130.2563   7.4164709469e+01   3.3079155189e+01    0.1389643    0.1098332  73.77 0.0006796225    1.439    0.305
        77  -8.5258    223.0350    129.0284   5.2208274188e+01   1.2565159245e+01    0.1885387    0.1577902  -2.13 0.0004315229    1.093    0.085
        78  -7.2674     91.5043    127.5192   8.0080262888e+01   3.8023660168e+01    0.1469691    0.1379905  60.53 0.0002565159    1.044    0.042
        79  -8.8839    201.9247    125.9469   5.4792386533e+01   1.6712352941e+01    0.1967608    0.1763683 -21.32 0.0005359774    1.064    0.060
        80 -11.3715    250.1804     63.3186   3.4551316709e+01   1.6035208995e+01    0.3303441    0.1768908 -28.86 0.0005673037    1.512    0.339
        81  -8.0158    205.2922    122.3579   5.3467540194e+01   1.6616302610e+01    0.1655648    0.1239412  58.97 0.0005362204    1.625    0.385
        82  -8.2823    166.0337    121.6642   6.0318858943e+01   2.4392598318e+01    0.1909779    0.1764233  38.00 0.0004434371    1.075    0.070
        83  -8.5080     58.5994    120.2176   8.9119648763e+01   4.5150108340e+01    0.2118905    0.1591973  88.97 0.0004679531    1.334    0.251
        84  -8.7699     83.7497    219.6568   9.4277640678e+01   2.0359441986e+01    0.1606965    0.1533451  43.24 0.0006409999    1.261    0.207
        85  -9.3780    221.9715    117.5445   4.9921940906e+01   1.4283278411e+01    0.2579775    0.1980213 -61.31  0.001049055    1.785    0.440
        86  -7.7501    168.2606    117.6283   5.8934654901e+01   2.4636124680e+01    0.1408219    0.1092277 -67.39 0.0005798383    1.654    0.395
        87  -8.9667    200.5380    115.8755   5.2778234405e+01   1.8461651875e+01    0.2558899    0.1824977  72.54  0.001243263    2.022    0.505
        88  -9.3613    173.1501    114.9292   5.7349116667e+01   2.4085995988e+01    0.3306968    0.2593207 -15.12  0.001290264    1.402    0.287
        89  -9.6316    134.8600    110.7738   6.4566821688e+01   3.3021510165e+01    0.6771696    0.1639329 -45.35  0.001886825    4.235    0.764
        90 -10.2142    206.0381    109.8423   5.0540500943e+01   1.8292418195e+01     0.528799    0.3304917  32.50  0.002689008    1.862    0.463
        91  -8.3232    160.2990    112.3522   5.9273172795e+01   2.7238757273e+01    0.1479066    0.1131208   4.48 0.0005334434    1.694    0.410
        92  -8.8300    224.6470    218.6899   6.7709056814e+01   1.6959572131e+00    0.2051392    0.1491742  47.63  0.001439081    2.223    0.550
        93  -7.5457     89.3357    104.2358   7.5642407599e+01   4.3902066614e+01    0.1429905    0.1210327   7.51 0.0002087222    1.540    0.351
        94 -10.2337     77.8823    103.6362   7.9261859315e+01   4.6168582641e+01    0.2559792    0.2292528 -78.60  0.000237612    1.089    0.082
        95  -9.7421    206.3124    101.8088   4.8629608616e+01   1.9402847483e+01    0.3740171    0.1948655 -45.18  0.001520816    1.974    0.494
        96  -9.9507    169.4497     96.4819   5.3456470166e+01   2.8016551719e+01     0.412256    0.3288421 -82.80  0.001176353    1.567    0.362
        97  -9.6926    164.4429     99.1365   5.5108365985e+01   2.8675931494e+01    0.3716704    0.3581738  70.53  0.001165253    1.073    0.068
        98  -8.8896    160.6582     99.6965   5.6006155183e+01   2.9422299880e+01    0.2857033    0.2107567  37.92  0.001124795    1.456    0.313
        99 -10.5019    137.2670     99.1822   6.0989730252e+01   3.4796516068e+01    0.5330994    0.4338458  13.43  0.001252029    1.561    0.359
       100  -8.2811    143.9539    106.5114   6.1354851455e+01   3.1875656742e+01    0.2268676    0.1445784  48.19  0.001018711    1.551    0.355
       101  -8.2921     73.9926     98.4866   7.9383986126e+01   4.8120855929e+01     0.229992    0.1445034  41.73 0.0007512974    1.564    0.361
       102  -9.9424    145.1201     94.2949   5.7854344575e+01   3.3944874672e+01    0.3577264    0.2923723 -57.79 0.0005891208    1.276    0.216
       103 -10.9237    161.5854     90.3568   5.3331631151e+01   3.0854796562e+01    0.3329886     0.270099 -25.21 0.0007086371    1.300    0.231
       104 -11.0408    194.3611    157.4542   6.2511362527e+01   1.3438329709e+01    0.7048353    0.4697972 -58.56  0.003599474    2.510    0.602
       105  -9.3660    168.7675    100.8942   5.4725150502e+01   2.7414578554e+01    0.5363925    0.2706472 -48.12 0.0004498855    2.139    0.532
       106  -9.5595    134.9850     90.6723   5.9182967766e+01   3.6991179166e+01    0.2162213    0.1931146  59.09  0.000387227    1.109    0.099
       107  -9.3227    139.9689     90.0274   5.7830970908e+01   3.5952294745e+01    0.2322673    0.2228397 -72.14 0.0004629476    1.027    0.027
       108  -9.4817    126.8019     90.1374   6.1046798692e+01   3.8997508433e+01    0.2157617    0.1897857  15.26 0.0009218134    1.360    0.265
       109  -9.5825    127.3639     85.8816   5.9665413376e+01   3.9721553053e+01    0.3089649    0.2236779  42.18  0.001377809    1.453    0.312
       110 -10.2438    149.4487     83.0318   5.3735664442e+01   3.5006330055e+01    0.4122064    0.2812338 -12.89   0.00174786    2.087    0.521
       111 -11.2846    157.6599     77.7852   5.0552191487e+01   3.3952564435e+01    0.8730967    0.2728848  45.69  0.002604595    3.820    0.738
       112  -9.4024    140.2227     78.5954   5.4424420676e+01   3.8041778171e+01    0.2851928    0.2115075 -41.65 0.0006499203    1.335    0.251
       113  -9.3989    150.9129    103.2119   5.8958309639e+01   3.0958801865e+01    0.3262505    0.3123219 -88.98  0.001171788    1.077    0.072
       114  -9.6851    151.1584     71.3173   4.9897942969e+01   3.6648755850e+01    0.3282471    0.2842885 -10.02 0.0003670982    1.341    0.254
       115 -10.0087    154.4189     68.2063   4.8310856200e+01   3.6363902535e+01    0.3890174    0.2392292 -50.06  0.001695022    1.659    0.397
       116 -10.5761    153.7084     64.3312   4.7246185432e+01   3.7181333411e+01    0.6303793    0.2791448 -47.97  0.002296077    2.381    0.580
       117  -7.5660    209.3096    163.6462   6.1143105057e+01   1.0187488279e+01    0.1082207   0.09685598 -64.92 0.0007043678    1.724    0.420
       118  -9.8284    143.9335     59.4755   4.7585605030e+01   4.0467185406e+01    0.4388508     0.311428  80.29  0.001739257    1.582    0.368
       119  -7.6451    113.2867     61.6850   5.5510874432e+01   4.7865815308e+01     0.159376    0.1193891 -74.99 0.0002699211    1.585    0.369
       120  -7.7414     72.6026     58.4763   6.7782260871e+01   5.7844385858e+01    0.1499135     0.142091 -74.25  8.27258e-05    1.031    0.030
       121  -9.7006    164.4086    161.1143   6.8834004080e+01   1.7983397235e+01    0.2273876    0.1913631  31.33  0.000187909    1.085    0.078
       122 -10.3320    134.6897     51.1997   4.6654630157e+01   4.4222021649e+01    0.5212303    0.2800338 -39.73  0.002125768    1.801    0.445
       123  -7.9373     78.5105    219.0468   9.5354212941e+01   2.1135171707e+01    0.1458833    0.1149016 -85.15  0.000528387    1.514    0.340
       124  -8.8218    113.9361     49.0874   5.0675814940e+01   4.9984553246e+01    0.2275999    0.2155708 -82.47  0.001202804    1.015    0.015
       125  -8.8863    103.2080     48.5495   5.3375323420e+01   5.2806728014e+01    0.2910601    0.2047168 -38.92 0.0008005729    1.439    0.305
       126  -9.2273    198.8755     39.9635   3.3544889724e+01   2.9502306572e+01    0.3366002    0.1639835 -32.31 0.0007136069    1.791    0.442
       127  -9.6411    163.0682     37.2191   3.6994282080e+01   3.8780192480e+01    0.3874238    0.2261473 -29.44  0.001003353    1.686    0.407
       128 -10.1655    110.5719     36.9700   4.6666907071e+01   5.2846243989e+01    0.6655838    0.2591345 -42.47  0.002319759    2.550    0.608
       129  -9.6052    122.8046     37.6042   4.4107476799e+01   4.9494680090e+01    0.2253789    0.1441298  79.23 0.0009066833    1.731    0.422
       130  -9.4772    204.1406     33.1565   3.1151426685e+01   2.9081897021e+01    0.3038364    0.2095426 -46.62 0.0006138518    1.257    0.204
       131 -10.2880    132.2975     30.0922   3.9309375113e+01   4.7982288928e+01    0.4991434     0.225694 -35.18  0.001933315    2.097    0.523
       132 -10.2515    171.2742     27.6672   3.2865165658e+01   3.7832816106e+01    0.4086815    0.2258059 -25.42 0.0005093885    1.823    0.451
       133  -9.5271    162.9370     29.5092   3.4470788444e+01   3.9793901769e+01    0.3228467     0.212594 -32.01 0.0006815759    1.467    0.318
       134  -9.1835    164.4635     24.5174   3.2627767701e+01   3.9986448896e+01    0.3162398    0.2387069 -31.40  0.000717616    1.308    0.235
       135  -9.4029    179.3390     23.7264   3.0764271617e+01   3.6213867262e+01    0.4401344    0.3285227  90.00  0.002343435    1.328    0.247
       136  -8.7776    159.8121     24.7951   3.3280748495e+01   4.1188970487e+01    0.2292709    0.1952433 -16.21 0.0004636458    1.312    0.238
       137  -8.0233    159.7490     20.9191   3.1969707328e+01   4.1651585410e+01    0.2008101    0.1909663  52.06 0.0003448374    1.186    0.157
       138  -8.4162    243.6191     22.9296   2.5694149360e+01   2.1693411980e+01     0.246965    0.1292326 -68.35  0.001302176    2.049    0.512
       139  -8.7146    155.0209    213.6774   7.8981995828e+01   1.1458022424e+01    0.1670645    0.1506234   6.84  0.001241202    1.189    0.159
       140  -9.0478    130.4124     18.7876   3.5174256104e+01   4.9899534198e+01    0.2238299    0.1967654  21.63 0.0004609725    1.332    0.249
       141  -9.1226    144.5069     21.4912   3.4119854611e+01   4.5711920673e+01    0.2846448    0.1069597 -38.35  0.001036485    2.387    0.581
       142  -9.3598     92.3228     20.8361   4.4042231887e+01   5.9971959927e+01    0.3074263    0.2486308 -38.64 0.0008670531    1.260    0.206
       143  -8.0525    226.2952     17.3146   2.5336854601e+01   2.5836035899e+01    0.2335108    0.1335273  26.35  0.001041902    3.146    0.682
       144  -8.3682    223.0184     17.2774   2.5524727205e+01   2.6548545416e+01    0.2766885    0.1711838 -40.18  0.001213319    1.303    0.233
       145  -8.3642      1.5688     15.7505   9.3985469109e+01   7.7392348333e+01    0.1729118    0.1125626 -81.96 0.0005944372    1.648    0.393
       146  -8.9700     37.2157    214.5692   1.0411701889e+02   2.6815661470e+01    0.1602488    0.0993987  22.70 0.0009599924    1.745    0.427
       147  -9.5096    188.1109    209.3491   7.2314670564e+01   7.4137650407e+00    0.3732755    0.2686279  64.45  0.002120277    2.956    0.662
       148  -7.7839    210.5128    209.4046   6.8561593546e+01   4.4326935979e+00    0.1107076    0.0820207  12.61 0.0001620237    1.042    0.040
       149  -9.0211     15.8788    202.0665   1.0838564019e+02   3.1364396193e+01    0.1677232    0.1289446  54.16 0.0004370385    1.058    0.054
       150  -9.1626    194.8277    198.6389   6.9534749039e+01   7.8144726576e+00    0.2741435    0.1800914 -55.02  0.001550508    2.775    0.640
       151  -8.9638    191.4063    192.0982   6.9097030041e+01   9.1374338318e+00    0.4319533    0.2377676 -57.25  0.001812674    4.777    0.791
       152  -7.9788     63.4837    194.5424   9.6689106916e+01   2.7583453032e+01    0.1301911   0.09807101  51.79 0.0002956501    1.070    0.065
       153  -9.4764    249.7442    158.2693   5.4174134453e+01   4.9637704885e+00    0.2333394    0.1281956 -18.36  0.001416204    1.621    0.383
       154  -9.3753    213.6493    186.3449   6.4414246365e+01   6.6875226665e+00    0.1804563   0.08891401 -42.94 0.0009458958    2.629    0.620
       155  -8.8199     18.8832    186.6388   1.0706005024e+02   3.4211715723e+01    0.1727794    0.1441642  81.22 0.0003518778    1.226    0.184
       156  -8.0072    169.9846    185.0293   7.1883784776e+01   1.3345931675e+01    0.1756092     0.146884  62.12 0.0007260035    1.635    0.388
       157  -9.0629    242.0404    183.2538   5.9595731522e+01   3.2461287211e+00    0.1729317     0.127926 -10.62 0.0004545492    1.125    0.111
