#   1 NUMBER                 Running object number                                     
#   2 MAG_AUTO               Kron-like elliptical aperture magnitude                    [mag]
#   3 X_IMAGE                Object position along x                                    [pixel]
#   4 Y_IMAGE                Object position along y                                    [pixel]
#   5 X_WORLD                Barycenter position along world x axis                     [deg]
#   6 Y_WORLD                Barycenter position along world y axis                     [deg]
#   7 A_WORLD                Profile RMS along major axis (world units)                 [deg]
#   8 B_WORLD                Profile RMS along minor axis (world units)                 [deg]
#   9 THETA_WORLD            Position angle (CCW/world-x)                               [deg]
#  10 FWHM_WORLD             FWHM assuming a gaussian core                              [deg]
#  11 ELONGATION             A_IMAGE/B_IMAGE                                           
#  12 ELLIPTICITY            1 - B_IMAGE/A_IMAGE                                       
         1 -15.6524     12.2349     24.3325   9.6569948305e+01   6.9883249603e+01     3.085325     1.364846 -35.11   0.01667967    1.833    0.454
         2 -14.0080     24.5590     49.4220   9.9501130057e+01   6.4192709962e+01     1.233669     0.678201 -31.32  0.006696842    1.673    0.402
         3 -14.7548     44.4712     42.2877   8.8243482337e+01   6.3522468166e+01     2.161614     1.411108 -26.55  0.009603309    1.377    0.274
         4 -14.5746     80.0257     69.8195   8.4281817667e+01   5.3053124561e+01     2.847647     1.579984 -16.05   0.01024705    3.232    0.691
         5 -11.4893     73.3364      1.5608   5.8604881707e+01   6.4402505258e+01    0.3527134    0.2206797  57.96 0.0006675278    1.749    0.428
         6 -13.3545     83.2455     22.6565   6.5032491147e+01   6.0236805357e+01    0.8663576    0.5964506  44.55 0.0007615461    1.384    0.278
         7 -13.4930    123.6191     10.4852   4.9666170714e+01   5.2536063632e+01     1.452189    0.6086276  52.14 0.0001111804    1.977    0.494
         8 -12.8677     75.8393     13.5536   6.3413869775e+01   6.2738624246e+01    0.5697079    0.3957014 -20.04  0.001421921    1.435    0.303
         9 -13.9793    104.4050      4.8010   5.1605710439e+01   5.7531639930e+01     1.249453    0.8975368  71.12  0.006997245    1.529    0.346
        10 -14.0558     86.2645     12.0208   5.9444356508e+01   6.0816285479e+01     1.315349     0.510381  53.71  0.002126256    2.394    0.582
        11 -14.1202     86.3363      3.8179   5.5781733348e+01   6.1569859769e+01     1.511264     0.557443  56.93   0.00641211    2.505    0.601
        12 -11.8907     64.7188     17.8203   6.9341508281e+01   6.4281702079e+01    0.4854943    0.3028182  25.67  0.001600866    1.514    0.340
        13 -12.5916    185.7659     12.6644   4.0815460641e+01   3.6818817910e+01      0.60605    0.4998786 -38.70  0.003479671    1.286    0.222
        14 -14.5245     37.1314     84.8590   1.0407179525e+02   5.5407414252e+01     1.815698     1.079983 -43.75  0.008826372    1.476    0.322
        15 -11.3519    175.2583     14.0595   4.2500030196e+01   3.9310075724e+01    0.3269222    0.2503668   2.65  0.001784796    1.676    0.403
        16 -11.6106    149.7330      8.5141   4.4403742708e+01   4.6273436056e+01    0.6096021    0.2552366  73.45  0.002418845    2.443    0.591
        17 -12.1049    192.8031      5.7803   3.8201167214e+01   3.5760595163e+01    0.4540155    0.3463568 -54.60  0.001732073    1.285    0.222
        18 -11.5262    188.5370      4.7904   3.8381839941e+01   3.6903230717e+01    0.3808006     0.219783 -14.28  0.001063794    2.259    0.557
        19  -9.7225     66.5611      8.2621   6.4118618719e+01   6.5044600553e+01    0.1611968     0.107749  -3.92 0.0005426453    1.448    0.310
        20 -12.2722    137.4300      4.9992   4.5197977386e+01   4.9641698780e+01    0.5729405     0.368485  60.52  0.002062662    1.333    0.250
        21 -10.7489    143.0175      2.4942   4.3466908374e+01   4.8463824718e+01    0.3012637    0.2313598  81.29 0.0009517852    1.273    0.215
        22 -15.5864     57.9127     70.9962   9.2645497274e+01   5.6141663043e+01     2.952382     1.284021  34.97   0.01262805    2.496    0.599
        23 -10.3002    168.4942      2.0136   3.9860110509e+01   4.2136486941e+01     0.223533    0.1609206  72.55  0.001259179    1.213    0.176
        24  -9.4174    211.5690      1.4914   3.5385817134e+01   3.1662673418e+01    0.1262341    0.1074249 -80.74  0.000125484    1.017    0.017
        25 -11.3131    202.9870    172.4701   7.8973139624e+01   6.4946474892e+00    0.3471638    0.1748636 -32.91  0.001466614    2.050    0.512
        26 -14.7212     96.8803     71.3949   7.9193749199e+01   4.9677766175e+01     1.696215     1.264268  16.78  0.004246708    1.516    0.340
        27  -9.9235    185.4975    167.4811   8.1538439462e+01   1.0798136800e+01    0.1474573    0.1369432   8.24 8.837949e-05    1.004    0.004
        28 -11.1187    214.1854    164.2271   7.5014540250e+01   5.8277604127e+00    0.2486363    0.1472703   2.85 0.0009538606    2.814    0.645
        29 -12.8368    141.5563     96.2750   7.4171584889e+01   3.5057636851e+01    0.7176191    0.4440612 -41.98  0.002499592    1.601    0.375
        30 -11.9799    134.8189     98.2715   7.6491085890e+01   3.6172383752e+01    0.5985841    0.3836305  29.63  0.000987562    1.869    0.465
        31 -12.3018    134.7591     92.7253   7.4895191339e+01   3.7337565212e+01    0.5129415    0.4321014  30.67 0.0009638261    1.233    0.189
        32 -11.5077    188.7663     94.4885   6.3106163184e+01   2.4182223016e+01     0.394948     0.315371 -83.65 0.0009999932    1.554    0.357
        33 -10.9706    113.9994     97.2183   8.1948015829e+01   4.0873338685e+01    0.3458936    0.2915766 -60.05  0.000813668    1.285    0.222
        34 -12.8572     69.2143     92.0701   9.4628208278e+01   4.9907112334e+01    0.6174955     0.464557 -64.99  0.003197236    1.426    0.299
        35 -12.6736      8.5079     65.1853   1.1047604133e+02   6.1958981447e+01    0.4629096    0.2890486 -47.89  0.002137036    1.243    0.196
        36 -13.5730      5.4286     82.7046   1.1501853511e+02   5.8202290290e+01     1.156102    0.4483002 -52.87  0.005754333    1.900    0.474
        37 -12.3427      2.2864     67.2977   1.1336589454e+02   6.1806291476e+01    0.5255893    0.2986564 -73.32  0.002956952    1.638    0.389
        38 -10.2175    249.5615     86.6877   5.1413678626e+01   1.1915002721e+01    0.2232854    0.1625312 -76.52  0.001086455    1.708    0.414
        39 -11.2039    114.0045     86.9672   7.8917641597e+01   4.3062258849e+01    0.2342158    0.2247323 -21.55  0.000381918    1.015    0.015
        40 -13.3632    128.0618     81.8756   7.3401275048e+01   4.1035210765e+01    0.9472408    0.5048249 -27.71  0.003522021    2.312    0.567
        41 -13.2549    121.4280     80.9532   7.4937803662e+01   4.2694970452e+01    0.9550511    0.6433106   7.62  0.003835695    2.259    0.557
        42 -13.2489    115.9184     76.9255   7.5225997551e+01   4.4688286395e+01     1.042657     0.591099 -26.25   0.00410077    2.150    0.535
        43 -12.4197    115.9882     69.0270   7.2626746671e+01   4.6180207068e+01    0.4504617    0.3857262 -42.52  0.001967608    1.207    0.171
        44 -11.6529    118.6833     65.0330   7.0528513569e+01   4.6311764584e+01    0.3731866    0.2829856 -40.36 0.0007013815    1.344    0.256
        45 -12.7755    124.7535     72.5751   7.1348942239e+01   4.3567468009e+01    0.6049219    0.3023789  51.19  0.002088376    2.063    0.515
        46 -11.3438    121.5591     70.4610   7.1535411777e+01   4.4680264574e+01    0.3075165    0.2605021  11.58 0.0005179395    1.261    0.207
        47  -9.2773    164.9596     81.7692   6.4420822243e+01   3.2282628033e+01    0.1946961    0.1286094  52.08 0.0002722288    1.513    0.339
        48 -12.3853    146.9682     77.5042   6.7235273420e+01   3.7445355601e+01    0.4861752    0.4066556 -75.29  0.002003809    1.441    0.306
        49 -12.7299    144.0043     75.1302   6.7215932994e+01   3.8593366442e+01      0.63584    0.3845828 -28.57  0.001662102    1.807    0.447
        50 -11.7017      2.8785     74.1005   1.1442880153e+02   6.0270548164e+01    0.5071028    0.2628447 -67.99  0.002820793    1.563    0.360
        51 -11.5127    152.4084     73.1543   6.4630011291e+01   3.6909402675e+01    0.3215041    0.2307132  58.97  0.001472309    1.439    0.305
        52 -10.1594    182.6833     71.9691   5.8044119089e+01   2.9609038232e+01     0.205991      0.18926 -44.41 0.0004151567    1.073    0.068
        53 -10.3924    170.8481     72.2934   6.0421205859e+01   3.2496132761e+01    0.3709397    0.2470039  81.54  0.001538545    2.048    0.512
        54 -10.9770    146.1223     66.8413   6.4112576316e+01   3.9547671730e+01      0.27441    0.2363952  -9.86 0.0007287794    1.256    0.204
        55 -10.6675    214.3725     61.4661   5.0067171784e+01   2.3558392149e+01    0.3805377    0.2469593 -21.04  0.001778881    1.826    0.452
        56 -10.8509    168.9160     62.9758   5.8049695287e+01   3.4521530412e+01    0.5422732     0.209357  58.39  0.001877246    2.593    0.614
        57  -9.7251    210.1902     61.8017   5.0751690844e+01   2.4501276359e+01    0.1835383    0.1653472  28.99 0.0002663056    1.298    0.229
        58  -9.8311    189.8719     59.4717   5.3269950599e+01   2.9817084531e+01    0.2118163    0.1435677  65.21  0.000492719    1.491    0.329
        59 -12.0052    124.8252     57.3548   6.6254320649e+01   4.6232885094e+01    0.4515238    0.2869403  42.98 0.0008411955    1.535    0.349
        60  -9.4075    227.3419     57.2996   4.7300278459e+01   2.1161031222e+01    0.1340168    0.1068184  26.29 0.0003364939    1.671    0.401
        61 -10.8921    174.6794     56.4809   5.5039074358e+01   3.4084105902e+01    0.2571222    0.2449896  89.10 0.0004164929    1.031    0.030
        62 -11.5011    152.7257     53.6584   5.8457997025e+01   4.0048290324e+01    0.4788626    0.2936401  33.72  0.002023189    1.951    0.487
        63 -12.0356    133.6026     53.7925   6.2825262032e+01   4.4731475616e+01    0.5161122    0.3294958  62.51  0.001547533    1.711    0.416
        64  -9.7462    121.9810     52.6768   6.5383565783e+01   4.7650623230e+01    0.1999947    0.1823847  33.88 0.0003742004    1.046    0.044
        65 -11.6736    145.3385     50.4870   5.9017357841e+01   4.2368562966e+01    0.3903956    0.3067423 -40.25  0.000826221    1.327    0.246
        66 -11.3239    137.5654     48.4356   6.0078867228e+01   4.4588623219e+01    0.3710725    0.2683657 -55.09 0.0009133997    1.650    0.394
        67 -11.1571    140.2076     43.7001   5.7887668555e+01   4.4623460418e+01    0.3918052    0.2782196  70.55  0.001125661    1.553    0.356
        68 -12.5175    122.0202     43.7981   6.2228523201e+01   4.8991903028e+01    0.3216718    0.2755759 -10.68  0.000663016    1.202    0.168
        69 -10.2482    176.2211     44.5158   5.1249238674e+01   3.5427031257e+01    0.3222125     0.202163 -57.80  0.001442016    1.840    0.456
        70 -10.4765    181.5950     43.4313   5.0062746653e+01   3.4214865954e+01    0.2552278    0.2321768  73.66 0.0005795364    1.051    0.049
        71 -11.5713    157.1880     43.5876   5.4363542208e+01   4.0386814001e+01    0.3616821    0.2441848  54.79 0.0007753799    1.393    0.282
        72 -14.2292     69.4097     54.5954   8.2830270655e+01   5.7753414983e+01      1.31794    0.9862803  34.78  0.005449752    1.411    0.291
        73 -11.9182    217.1840     38.8697   4.3981078292e+01   2.6071483214e+01    0.4426771    0.3117026  46.09   0.00160061    1.669    0.401
        74 -11.3118    196.6104     40.1448   4.6927378025e+01   3.0893714569e+01    0.4605838    0.2617139 -56.99  0.001599487    1.946    0.486
        75 -11.4582    202.0599     38.7219   4.5815173684e+01   2.9737145515e+01    0.3395103    0.2809829 -84.26   0.00190023    1.170    0.145
        76 -10.7300    159.9388     36.1643   5.1516253530e+01   4.0676305101e+01    0.2120765    0.2063377 -31.39 0.0002883707    1.096    0.087
        77  -9.8789    130.0193     37.0458   5.7885458072e+01   4.8022991778e+01      0.21013    0.1711179 -75.07 0.0003268305    1.550    0.355
        78  -9.7659    140.7437     34.8230   5.4771173592e+01   4.5680094118e+01    0.2515723    0.1340241  27.84 0.0007697858    2.727    0.633
        79 -13.0140     80.5343     31.9206   6.9882512767e+01   5.9539136093e+01    0.8812969    0.5720252  48.92  0.003444714    1.654    0.395
        80 -11.0488    240.0295    157.7933   6.8903944233e+01   2.1772391908e+00    0.3403967    0.1818129 -37.91   0.00160614    1.736    0.424
        81 -11.4276    199.1648    154.8980   7.5941559636e+01   1.0442758130e+01    0.3989099    0.1936664 -48.81  0.001533815    2.408    0.585
        82 -12.0892    233.5014    153.9847   6.9218588646e+01   3.9759566395e+00    0.3721619    0.2740707  33.79  0.002017664    1.411    0.291
        83 -12.7145    248.0796    145.1130   6.4808984849e+01   2.7983289576e+00     1.164438    0.4026879 -39.14  0.004495765    2.584    0.613
        84 -10.9084     18.7854    154.2208   1.2026990666e+02   4.0444298193e+01    0.2022341     0.114226 -45.55  0.001066762    2.133    0.531
        85 -10.1179    139.0092    152.2758   8.8951206009e+01   2.3331316855e+01    0.2197984    0.2025234  40.81 0.0007737101    1.069    0.064
        86 -12.0618     58.5880    144.4021   1.0870812851e+02   3.8663304559e+01    0.8507741    0.4009556  54.31  0.003497821    2.603    0.616
        87  -9.5103    240.4929     34.4594   4.0457978998e+01   2.1317994182e+01    0.1283555    0.1122402 -64.99 0.0002004354    1.041    0.039
        88 -10.6332    176.5365     33.4793   4.7961963166e+01   3.6794281598e+01    0.2624265    0.2238394  86.27 0.0006287681    1.141    0.124
        89 -10.7030     97.4459     33.5993   6.5153812775e+01   5.5912691767e+01     0.267843    0.2113544  20.48 0.0007028311    1.212    0.175
        90 -10.6169    150.8224     31.7329   5.1761610137e+01   4.3539726639e+01    0.4050774    0.2668239  61.37  0.001977864    1.411    0.291
        91 -10.1599    104.8699     29.5096   6.1405520568e+01   5.4841112051e+01    0.2632691    0.1715154  37.03 0.0005738703    1.445    0.308
        92  -9.7445    108.9694     28.0061   5.9716140916e+01   5.4110044909e+01    0.2718717    0.1577735  41.19   0.00117776    1.601    0.375
        93  -9.7791    216.4805     29.0379   4.1618493653e+01   2.7482756380e+01    0.1970848    0.1270306 -32.77  0.001025218    1.573    0.364
        94 -11.5943    241.7866     22.6110   3.7683694725e+01   2.2491253845e+01    0.3291388    0.2315233 -73.24 0.0006307829    1.302    0.232
        95 -10.7262    140.0491     21.1801   5.0262784314e+01   4.7451304646e+01    0.2911074    0.2082971  50.24 0.0007548783    1.267    0.211
        96 -11.5884    149.5620     21.8070   4.8749450712e+01   4.5000427943e+01    0.3765166    0.2355563  55.42  0.001335227    1.430    0.301
        97 -10.5420    208.8666     18.9118   3.9906302142e+01   3.0486831601e+01     0.296122    0.1946347 -46.10  0.001121958    1.446    0.309
        98 -12.9012     47.1651    142.2747   1.1149672150e+02   4.0536432207e+01     0.507549    0.4703138  16.56  0.003060223    1.320    0.242
        99 -10.3327     90.3353    145.6902   1.0027373293e+02   3.3792927679e+01    0.1525993    0.1098093  73.84 0.0005028456    1.679    0.404
       100 -12.0706    213.2945    142.0210   7.0231672337e+01   9.9522175571e+00    0.7707338    0.3686317  54.82  0.002947422    2.689    0.628
       101 -11.6547     76.3318    136.5462   1.0241533468e+02   3.8180825392e+01    0.3785855     0.128908 -57.10  0.001339599    2.640    0.621
       102 -10.0069    132.8267     14.1556   4.9192956133e+01   4.9952543822e+01    0.1879032    0.1456608  35.03 0.0003864039    1.271    0.213
       103 -11.0021    224.1050    134.0242   6.6394566856e+01   9.1957981478e+00    0.3870857    0.2132145  46.91  0.001722608    1.953    0.488
       104 -10.6754     33.9564    135.7342   1.1419297500e+02   4.3499410003e+01    0.1813607    0.1604509  89.10  0.001024577    1.089    0.082
       105 -13.4907    203.8057    124.6132   6.7916167460e+01   1.5146159500e+01    0.8373673    0.6900431 -55.27  0.004272839    1.335    0.251
       106 -11.1708    121.9612    127.3932   8.7671178586e+01   3.2427352317e+01    0.4169449    0.3920989  48.53  0.001416308    1.083    0.076
       107 -10.2514     29.6023    153.7801   1.1755323170e+02   3.9574988279e+01    0.1822508    0.1037201 -84.74 0.0009439729    1.617    0.381
       108 -13.1614    218.5793    120.9052   6.4281828673e+01   1.2652033744e+01    0.6208892     0.391527  57.29  0.002843426    1.858    0.462
       109  -9.6042    199.4856    105.4919   6.3946142561e+01   1.9656944883e+01     0.152137    0.1444483 -41.85 2.499079e-05    1.032    0.031
       110 -10.4425     34.2515    177.4330   1.1887577433e+02   3.3594584726e+01    0.2122516    0.1243021  26.08  0.001144785    2.123    0.529
