#   1 NUMBER                 Running object number                                     
#   2 MAG_AUTO               Kron-like elliptical aperture magnitude                    [mag]
#   3 X_IMAGE                Object position along x                                    [pixel]
#   4 Y_IMAGE                Object position along y                                    [pixel]
#   5 X_WORLD                Barycenter position along world x axis                     [deg]
#   6 Y_WORLD                Barycenter position along world y axis                     [deg]
#   7 A_WORLD                Profile RMS along major axis (world units)                 [deg]
#   8 B_WORLD                Profile RMS along minor axis (world units)                 [deg]
#   9 THETA_WORLD            Position angle (CCW/world-x)                               [deg]
#  10 FWHM_WORLD             FWHM assuming a gaussian core                              [deg]
#  11 ELONGATION             A_IMAGE/B_IMAGE                                           
#  12 ELLIPTICITY            1 - B_IMAGE/A_IMAGE                                       
         1 -14.3380     68.7031    144.3308   9.8529978632e+01   3.7358807880e+01     4.662495     2.434743  72.66  0.004334306    4.475    0.777
         2 -13.5570    203.5214     41.6482   3.9351321524e+01   2.9642001071e+01     1.506011     1.281637  13.71  0.007025551    1.665    0.399
         3 -13.4437    215.3285     30.7750   3.5546567974e+01   2.8407126606e+01    0.9215553    0.7850158  36.61  0.003095261    1.614    0.380
         4 -12.6730    241.3002      5.6944   2.8258638316e+01   2.5871529635e+01    0.7596703    0.5371882 -86.25  0.005322131    1.205    0.170
         5 -10.7202      2.1133      5.4124   8.6166963023e+01   7.4068026376e+01    0.6290147    0.1126027 -46.75  0.002213281    5.584    0.821
         6  -8.9271     55.3123      5.6612   5.8781586691e+01   6.7005720889e+01    0.1045345   0.09818004 -67.25 0.0007046047    1.693    0.409
         7 -10.2804    110.9727    203.0152   9.6979590777e+01   1.6423946568e+01    0.2615686    0.1806091  43.11 0.0005854891    1.363    0.266
         8 -10.3816    102.0080    249.6206   1.0509997194e+02   8.2041189408e+00    0.2869295    0.1869674 -75.12  0.001174971    1.924    0.480
         9 -15.0769      4.7776    156.1809   1.1841532297e+02   4.0817554754e+01     6.864896     1.145265 -73.57   0.02124883    4.447    0.775
        10 -13.2435     18.0701    217.3468   1.1994382021e+02   2.5310828944e+01    0.6743221    0.5305149 -25.64  0.004300584    1.985    0.496
        11  -8.7445     82.7688    194.6124   1.0271312386e+02   2.2723851201e+01    0.1997708    0.1212803  44.15 0.0004339529    1.568    0.362
        12  -9.9488    147.4869    187.3675   8.5406501189e+01   1.3638059103e+01    0.4702127     0.294374 -69.13   0.00190696    2.458    0.593
        13 -16.7855     15.7830    242.8912   1.2189663562e+02   2.0199698028e+01      6.60466     2.422855  23.84   0.02833516    4.101    0.756
        14 -10.5854     81.6927    182.7800   1.0127860798e+02   2.5740018956e+01    0.5878796    0.3863392  84.38  0.002440338    1.925    0.481
        15  -9.3842     99.4984    180.9498   9.6330067743e+01   2.3431363721e+01    0.2521698     0.209991  10.62 0.0005924025    1.392    0.282
        16 -11.5802     65.5082    172.5721   1.0406785771e+02   3.0557251474e+01    0.5345865    0.3184477 -39.39  0.002368898    2.079    0.519
        17 -11.3254     70.1414    167.8661   1.0209885213e+02   3.1118676550e+01    0.3639435    0.2854272 -37.66 0.0006205594    1.443    0.307
        18 -10.0263    186.9850    175.4794   7.4003690275e+01   8.9484061551e+00    0.3615775    0.3049378 -48.32  0.001316158    1.296    0.228
        19 -10.7092    115.0374    172.8736   9.0811642397e+01   2.2762206678e+01    0.4723294    0.2141277  35.85  0.001770951    2.186    0.543
        20 -12.4920     79.0346    159.2448   9.8186470781e+01   3.2039485515e+01     1.263323    0.6492231  53.77 0.0004295128    2.411    0.585
        21 -12.8302     66.8109    154.7694   1.0092564281e+02   3.4925572818e+01     0.620425    0.4464013 -48.16 0.0009593525    1.384    0.277
        22 -10.6228     31.8829    155.1625   1.1097023798e+02   3.8858847500e+01    0.3861209    0.3171663  69.30  0.001516225    1.223    0.182
        23 -11.6078     86.3688    152.8035   9.4905145713e+01   3.2560490048e+01    0.6614004     0.474002 -20.79  0.001696905    1.849    0.459
        24 -10.4463    133.6402    144.4540   7.9902466013e+01   2.6088069288e+01     1.120941    0.2953823 -53.67  0.002668824    5.135    0.805
        25  -8.2413    111.9794    150.2534   8.7093866691e+01   2.8832145157e+01    0.1983633    0.1343563  37.26 0.0004622418    1.495    0.331
        26 -11.2644     53.8537    147.6612   1.0355402984e+02   3.8420789460e+01    0.6669441    0.2751705 -62.39  0.002620366    2.151    0.535
        27 -10.8905     58.0325    145.7879   1.0199719201e+02   3.8391691015e+01    0.3728339    0.3255717 -65.37  0.002012035    1.049    0.047
        28  -8.9762    174.9678    149.0178   7.0868016794e+01   1.6701782925e+01    0.1903035    0.1741896 -29.40 0.0004491374    1.038    0.037
        29  -9.3876     48.0402    145.1948   1.0489275241e+02   3.9737269965e+01    0.2440157    0.1792007   8.59  0.001245258    1.696    0.410
        30  -9.8064     32.0344    144.0549   1.0948093615e+02   4.1685003502e+01    0.2244063    0.1497529  70.83  0.000674832    1.690    0.408
        31 -10.3276    101.0064    138.6140   8.7688520223e+01   3.3697535605e+01    0.6022076    0.3805953 -21.67  0.002305759    2.374    0.579
        32 -11.6994     88.0787    138.1812   9.1445490365e+01   3.6008650712e+01    0.3203292    0.2715195 -40.19 0.0004107383    1.175    0.149
        33 -14.7207     37.7519    195.2484   1.1382045299e+02   2.8329342119e+01       4.2794     1.752691  69.91  0.009764859    3.760    0.734
        34  -9.8675    105.9222    130.8657   8.4455500226e+01   3.4724520036e+01     0.440546    0.2877862 -56.83  0.001892245    1.570    0.363
        35  -9.4823    110.6378    129.3704   8.2714820936e+01   3.4204052736e+01    0.4145947    0.2701864  13.18  0.001092152    2.209    0.547
        36 -10.1514    134.8208    128.2342   7.5687022891e+01   2.9634247985e+01    0.5374388    0.3158844 -42.10  0.002175672    1.686    0.407
        37 -10.7282     44.0619    129.2664   1.0348354446e+02   4.4284286532e+01    0.3245265    0.2477504  49.60  0.001733743    1.467    0.318
        38 -13.5927     49.8270    187.5188   1.1007324569e+02   2.8817361242e+01     1.654403     1.119911  74.26  0.007193241    1.513    0.339
        39 -10.4042     97.6363    125.3960   8.5632166494e+01   3.7574842983e+01    0.3292649    0.2707843   2.52    0.0010525    1.408    0.290
        40 -10.3759    239.9686    169.1767   6.2500676793e+01   1.1598551920e+00    0.1922474     0.169873 -38.50 0.0004929338    1.254    0.202
        41 -10.7628     46.7423    124.6464   1.0178140205e+02   4.5176612715e+01    0.3338904    0.2645271  11.34  0.001804813    1.456    0.313
        42  -9.9083    122.2000    198.5847   9.3538223186e+01   1.5565834932e+01    0.3885666    0.2638814 -69.07  0.001828132    1.796    0.443
        43  -9.7983     25.1942    120.3804   1.0812630001e+02   4.8324297613e+01    0.4098446    0.1070199  39.01   0.00137614    4.267    0.766
        44  -9.0428    107.0480    118.5291   8.1072571793e+01   3.7496518385e+01    0.2242783    0.2029119 -39.12 0.0003519857    1.072    0.067
        45  -8.9164     82.5331    116.9970   8.8349883569e+01   4.2221230338e+01    0.2278613    0.1450745 -53.52 0.0003710061    1.501    0.334
        46 -10.0710    231.2040    113.7854   5.2178533948e+01   1.2378643861e+01    0.2758773    0.2399665 -41.44 0.0007453175    1.007    0.007
        47  -9.7352     39.8720    113.3149   1.0193077263e+02   4.8776824775e+01    0.2249225    0.1781589 -72.09 0.0003899933    1.243    0.195
        48 -11.8164    247.9278    109.0610   4.8760761774e+01   1.0113718319e+01    0.5416123    0.3220759 -35.74  0.002839947    1.472    0.320
        49 -10.3873     33.1627    108.7487   1.0338251346e+02   5.0562565060e+01    0.4424387    0.2263179 -74.65  0.001151905    2.186    0.543
        50 -14.7582      9.3284    207.4982   1.2114183202e+02   2.8307063789e+01     1.405056     1.143042 -47.20  0.008507266    1.609    0.379
        51  -8.8083     45.1986    105.1791   9.8370933449e+01   5.0242410052e+01    0.1854892    0.1642009  77.41 0.0005338393    1.337    0.252
        52  -9.5786    119.2059    103.7870   7.3532248522e+01   3.8441806476e+01    0.2158452    0.1841075  -5.52 0.0004422781    1.301    0.232
        53  -9.9071     38.7570    101.8933   9.9981883196e+01   5.1722617467e+01    0.3855932    0.1544925  39.12  0.001516489    2.912    0.657
        54  -9.1417    120.6129     97.8410   7.1443593892e+01   3.9434696647e+01    0.2210909    0.1463183 -53.52  0.000637761    1.656    0.396
        55  -8.8784     32.8347     96.5417   1.0101172691e+02   5.3588207117e+01    0.2244401    0.1504781 -64.09  0.000771506    1.394    0.283
        56  -9.2311    205.3850    110.1173   5.5561381829e+01   1.8185999060e+01    0.2296106    0.2035507  30.87 0.0006687333    1.275    0.216
        57  -9.8325     36.3173    161.3530   1.1050815193e+02   3.6845717765e+01    0.3840886    0.1983984  39.53  0.001486139    1.984    0.496
        58  -9.5865     73.1960     83.7065   8.2520160961e+01   5.1498664644e+01    0.2881524    0.2276958  59.71 0.0009857304    1.686    0.407
        59  -8.4997    159.6882     82.7173   5.7358726460e+01   3.3533985992e+01    0.1489078    0.1185625  17.91 0.0002448148    1.571    0.364
        60  -8.3337    184.6742     76.7136   5.0897022137e+01   2.8723877750e+01    0.1411412    0.1138328  22.09 0.0002611892    1.607    0.378
        61  -9.1578     50.4383     63.5327   8.4953323260e+01   5.9045724841e+01    0.3183561    0.2001848  50.72  0.001485381    2.399    0.583
        62 -10.3956      1.8749     62.6052   1.0610211937e+02   6.3487381887e+01    0.3506671    0.1196663 -61.14  0.001582413    2.266    0.559
        63 -10.0486     13.4721     59.9473   1.0018534955e+02   6.3419329630e+01    0.2490778    0.1860312 -47.29 0.0004896695    1.129    0.114
        64 -12.8273    193.7746     48.5825   4.2292701335e+01   3.0930674192e+01     0.858673    0.7681136  29.24   0.00115357    1.408    0.290
        65 -10.4793    119.5836    245.3425   1.0086553826e+02   6.4375699138e+00    0.3035123    0.1650321 -43.99  0.001516148    2.240    0.554
        66 -11.1976     95.0642    242.2432   1.0576116829e+02   1.0599239791e+01    0.4992561    0.2302109 -62.84   0.00236805    2.481    0.597
        67  -9.7771    187.8452     30.8998   3.8640063408e+01   3.4608677013e+01    0.1922223    0.1752669  58.01 0.0006605627    1.227    0.185
        68 -10.3651      2.5035     25.2025   9.4663872544e+01   7.0859352248e+01    0.2374227    0.2006515  44.22   0.00112684    1.888    0.470
        69  -9.1639    197.8471     23.7919   3.5750252826e+01   3.3138052782e+01    0.2347742     0.178753 -16.18  0.001056276    1.751    0.429
        70  -8.5188     60.0038     48.3201   7.5548946619e+01   6.0502847838e+01    0.2031069    0.1033313  54.54 0.0007040722    4.213    0.763
        71  -8.7355    189.0863     14.7220   3.4503455085e+01   3.6141838494e+01    0.1820227    0.1441989  84.83 0.0008043533    1.091    0.084
        72  -9.0301     89.0664    210.6066   1.0332776740e+02   1.8103745839e+01    0.2163904    0.1783122  84.80   0.00122776    1.263    0.208
        73 -10.5973    192.9544    194.7325   7.6603546261e+01   4.1955288909e+00     1.156456    0.6361573 -66.24   0.00292062    8.229    0.878
