#   1 NUMBER                 Running object number                                     
#   2 MAG_AUTO               Kron-like elliptical aperture magnitude                    [mag]
#   3 X_IMAGE                Object position along x                                    [pixel]
#   4 Y_IMAGE                Object position along y                                    [pixel]
#   5 X_WORLD                Barycenter position along world x axis                     [deg]
#   6 Y_WORLD                Barycenter position along world y axis                     [deg]
#   7 A_WORLD                Profile RMS along major axis (world units)                 [deg]
#   8 B_WORLD                Profile RMS along minor axis (world units)                 [deg]
#   9 THETA_WORLD            Position angle (CCW/world-x)                               [deg]
#  10 FWHM_WORLD             FWHM assuming a gaussian core                              [deg]
#  11 ELONGATION             A_IMAGE/B_IMAGE                                           
#  12 ELLIPTICITY            1 - B_IMAGE/A_IMAGE                                       
         1 -13.0477    195.4160     30.8857   6.6723339852e+01   3.2290677322e+01    0.9719132     0.749468  29.84  0.005451812    1.732    0.423
         2 -13.8681    208.5248     14.9041   6.1442928585e+01   3.1030715956e+01     1.286943    0.9165969  40.37  0.007422253    1.843    0.457
         3 -11.8460      2.1193     12.4466   1.1435875412e+02   7.0286192830e+01    0.8927908    0.1125155 -46.63   0.00290329    7.139    0.860
         4 -11.8192      2.3163      4.2183   1.1090385979e+02   7.1369717455e+01    0.5631815    0.2816491   5.11  0.003612074    1.988    0.497
         5  -9.8577    189.7309     15.5663   6.3753866999e+01   3.5381041452e+01    0.1795754    0.1096665  81.46 0.0006587785    1.532    0.347
         6  -9.9593    205.0058    250.5005   1.1311254553e+02  -7.3419718292e+00    0.1930978      0.10423  36.63 0.0004453703    1.559    0.359
         7 -10.4134    184.4358    250.2574   1.1701731260e+02  -3.9478329710e+00    0.2742532    0.1471667  31.42  0.001389501    1.710    0.415
         8 -10.8189    169.8285    248.4186   1.1958480977e+02  -1.2083440661e+00    0.3329892    0.2346461   4.81  0.001330768    1.934    0.483
         9 -11.5697    149.7639    247.8934   1.2345272730e+02   2.2926895249e+00    0.4504594    0.3157715 -64.28  0.002581703    1.837    0.456
        10 -10.8176    143.3641    249.3678   1.2491236783e+02   3.1304159329e+00      0.24403    0.1919211  55.25 0.0006043641    1.180    0.153
        11 -12.3587    134.0269    249.0179   1.2669474547e+02   4.7620705041e+00    0.7710325    0.5918916  46.70  0.004788245    1.080    0.074
        12 -11.5253    135.5163    241.0595   1.2533826766e+02   5.9070126652e+00    0.3346362    0.2827576  14.47  0.001908957    1.450    0.310
        13 -10.9334    121.5695    244.7775   1.2859556912e+02   7.5880416294e+00    0.2969532    0.2141667 -87.12  0.001530578    1.686    0.407
        14 -12.4881    125.9474    240.4851   1.2717443526e+02   7.6345797298e+00    0.6499467    0.4235702  43.51  0.003627578    1.313    0.238
        15 -11.5654    134.1001    232.6322   1.2445023965e+02   7.6852048004e+00     0.319372    0.3089227  49.49 0.0009691027    1.143    0.125
        16 -11.3650    115.1873    250.3810   1.3052339363e+02   7.6304908333e+00    0.4989258    0.3313781  36.55 0.0007669564    1.466    0.318
        17 -11.5950    109.7880    247.9152   1.3127380228e+02   8.9435023131e+00    0.5397224    0.4894407 -68.76  0.003141262    1.303    0.233
        18  -9.9309    102.7809    247.4227   1.3256607664e+02   1.0148649508e+01    0.2067303    0.2008732  73.25 0.0007502241    1.281    0.219
        19 -11.1013     98.7586    246.8774   1.3327597710e+02   1.0880091815e+01    0.5235459    0.3402276  72.69  0.002988029    1.626    0.385
        20 -11.0300     88.0134    248.4072   1.3547761583e+02   1.2244087384e+01    0.4562128    0.2986366  51.72  0.001178685    1.257    0.204
        21  -8.8899     75.3334    250.6543   1.3804932977e+02   1.3690746364e+01     0.202207    0.1000052  46.48 0.0008558524    1.674    0.403
        22  -9.2262     69.3959    250.5689   1.3912106572e+02   1.4548249096e+01     0.407119   0.05409081  44.06  0.001353059    4.655    0.785
        23  -9.3551     63.2098    249.8580   1.4017202103e+02   1.5536628654e+01    0.1900468      0.17878  88.72 0.0009074089    1.391    0.281
        24 -10.8718     74.2908    242.0670   1.3741534032e+02   1.5461640177e+01     0.542998    0.3721055 -35.48    0.0029357    2.721    0.632
        25 -11.4850     59.9923    245.6500   1.4038411976e+02   1.6767080654e+01    0.4375374    0.3286076 -80.18  0.001699572    1.310    0.237
        26 -11.2689     66.4989    244.2943   1.3907598068e+02   1.6135419490e+01    0.4248146     0.270952  31.94  0.002469975    1.950    0.487
        27 -11.5703     33.3833    201.7431   1.4147525555e+02   2.9053706160e+01     0.380638    0.2078648  40.11   0.00054251    1.872    0.466
        28 -13.1850     14.9984    138.3444   1.3866569413e+02   4.5008803590e+01     1.483168    0.4676057  41.07   0.00543359    3.498    0.714
        29 -14.7624      3.5927    178.1973   1.4542398697e+02   3.7055066094e+01     6.923055    0.7103664 -72.73   0.01871626    7.398    0.865
        30 -13.0223     13.7857    238.8173   1.4791202673e+02   2.3623888799e+01    0.6600146    0.4456767  57.69  0.004834408    1.268    0.211
        31 -13.5921     28.0206    247.0329   1.4606497325e+02   2.0498350120e+01     1.264125    0.7764518  74.89  0.008588909    1.302    0.232
        32 -13.6159     40.6262    243.9826   1.4369010798e+02   1.9579025480e+01     1.184945    0.8794991  47.25  0.008373117    1.385    0.278
        33 -13.2775     36.7173    228.3822   1.4316293583e+02   2.3110426934e+01    0.9228822    0.4215131  48.48  0.001813863    1.893    0.472
        34 -14.5186     43.3428    218.6618   1.4108206406e+02   2.4299438578e+01      1.52579     1.408516 -15.17   0.01077126    1.705    0.414
        35 -10.5784     84.6321    241.9006   1.3543931178e+02   1.3976657987e+01    0.3095778    0.2629935  23.26   0.00170242    1.620    0.383
        36 -11.0913     84.8651    234.3671   1.3458283609e+02   1.5402489615e+01    0.4220836    0.3052695  72.18   0.00182544    1.273    0.215
        37 -10.1086     84.5938    229.8805   1.3413552878e+02   1.6333906950e+01     0.227166    0.2075331  -9.55 0.0007884559    1.628    0.386
        38 -12.1001     98.7866    232.3938   1.3159353730e+02   1.3632559126e+01    0.6098703    0.4740216  52.68  0.002727309    1.114    0.102
        39 -11.2393     96.9255    239.7775   1.3283026083e+02   1.2498927663e+01    0.5052594    0.3543635 -39.63  0.002835431    2.121    0.528
        40 -11.0194    112.9323    230.3348   1.2846873949e+02   1.1729865131e+01    0.3899365    0.2848923  34.54  0.001565866    1.427    0.299
        41 -11.5328    105.4650    228.6839   1.2978048032e+02   1.3285581392e+01    0.5112315    0.3113853  48.73   0.00215553    1.428    0.300
        42 -10.4898     91.3690    241.7987   1.3413544052e+02   1.2975323885e+01    0.2843685    0.2194313  78.43  0.001054782    1.218    0.179
        43 -10.7539     89.9376    238.0802   1.3400254651e+02   1.3907338288e+01    0.2813269    0.2702599  13.90  0.001697955    1.437    0.304
        44 -11.5316    245.2409    241.7299   1.0421153041e+02  -1.2283850555e+01    0.2488608    0.1640746 -34.07  0.001535745    1.636    0.389
        45 -10.0509    173.0575    240.5508   1.1775389675e+02  -4.9659779549e-01    0.2493237    0.1642399  82.27  0.001049295    3.497    0.714
        46 -10.7128    116.5899    238.6627   1.2880730476e+02   9.5355083839e+00    0.4285863    0.2791864 -33.38  0.002035996    2.479    0.597
        47 -11.1446    122.3232    233.1077   1.2692187197e+02   9.6182651752e+00    0.3850425    0.3257792 -50.85  0.001812047    1.395    0.283
        48 -10.7939    127.1688    234.1600   1.2607842108e+02   8.5948884204e+00    0.2624983    0.1825769  40.63  0.001108382    1.291    0.226
        49  -9.3991     71.6900    236.4929   1.3735405203e+02   1.6916719516e+01    0.2179563    0.1284043  80.53  0.001177271    1.832    0.454
        50 -10.5179    164.8105    242.2130   1.1964870940e+02   6.5574823538e-01    0.1940611    0.1615984  51.62 0.0004127454    1.186    0.157
        51 -10.3822    165.9909    234.6689   1.1825408075e+02   1.7181341829e+00    0.1931554    0.1576798  39.44  0.001153269    1.057    0.054
        52 -10.8004    156.7571    231.6368   1.1966042946e+02   3.8792856140e+00    0.2342091    0.2282862  22.64 0.0003548771    1.132    0.117
        53 -10.6168     63.0106    232.9945   1.3866281017e+02   1.8822199615e+01    0.1774923    0.1445979  71.95            0    1.035    0.034
        54 -10.9087    142.0399    229.7496   1.2239879394e+02   6.8292941711e+00    0.4284854    0.2204769 -42.22  0.001961575    2.418    0.587
        55  -8.8500     57.5024    230.9812   1.3951679862e+02   1.9969207903e+01    0.1672067    0.1061478 -77.15 0.0008395435    1.495    0.331
        56  -8.9063    172.9670    236.0166   1.1706100068e+02   2.6625766912e-01    0.1538766    0.1382378  30.49   0.00034455    1.052    0.049
        57 -10.8183     79.4315    226.1433   1.3474455657e+02   1.7861153767e+01    0.4697655    0.2690592 -69.65   0.00169714    1.788    0.441
        58 -10.6762    123.0023    250.0121   1.2896861300e+02   6.4201515894e+00    0.2992237    0.1828592  51.53  0.001662778    1.401    0.286
        59 -10.3674     92.4481    226.0339   1.3210488749e+02   1.5898744714e+01    0.2889872    0.1750029  55.62      0.00104    1.495    0.331
        60 -10.4167    132.3006    224.5509   1.2365272013e+02   9.5282620248e+00    0.2629299    0.2176397 -39.82  0.001533762    1.453    0.312
        61  -9.7691    129.2628    221.0227   1.2376924435e+02   1.0749326316e+01    0.2459628    0.1869613 -86.70  0.001335676    1.575    0.365
        62 -10.0912    117.2099    224.3155   1.2677324941e+02   1.2189093074e+01    0.2272249    0.1999203  81.28 0.0002834978    1.133    0.117
        63 -10.5030    160.7301    223.6012   1.1756643483e+02   4.6083657178e+00    0.2625877    0.2288689   6.89 0.0005239913    1.279    0.218
        64 -11.2681    142.3873    221.6739   1.2109903123e+02   8.2849849173e+00     0.414194    0.2286501  39.53  0.001081152    1.639    0.390
        65 -10.0771    110.7183    220.7841   1.2764516748e+02   1.3993199698e+01    0.4050443    0.1123265 -55.22  0.001419765    3.808    0.737
        66 -11.1620     72.6800    210.0372   1.3426860073e+02   2.2219272022e+01    0.4258945    0.2875221  26.77  0.001798185    1.943    0.485
        67 -10.6858     70.6642    218.5521   1.3566311324e+02   2.0703441221e+01    0.4643581    0.2611724 -72.22  0.002303421    1.771    0.435
        68  -9.6284     67.8530    214.5952   1.3579484523e+02   2.1934398398e+01    0.1922398    0.1529633 -85.15 0.0004702981    1.154    0.133
        69  -9.7469    104.9417    218.7722   1.2858670295e+02   1.5365641064e+01     0.204621    0.1799723 -82.36 0.0003115802    1.160    0.138
        70 -10.1588     99.7005    217.4893   1.2951943059e+02   1.6488932119e+01    0.2457488    0.1952809 -32.59 0.0009910682    1.781    0.438
        71  -8.4527     94.0000    217.9182   1.3077284771e+02   1.7315818686e+01    0.2070138   0.07295197 -60.64 0.0004320013    2.978    0.664
        72 -10.8954    137.3552    214.4713   1.2103909216e+02   1.0595238058e+01    0.4001236     0.269726  86.07  0.001280781    2.226    0.551
        73  -8.4980    133.6616    217.7093   1.2233499089e+02   1.0620299206e+01     0.133194     0.107579   8.27 0.0004721548    1.643    0.391
        74  -9.8564     88.1609    213.0023   1.3137192397e+02   1.9264541954e+01    0.2650374     0.181809  89.83 0.0007829331    1.562    0.360
        75  -9.9789     77.3163    220.9005   1.3457759462e+02   1.9250372102e+01    0.2194158     0.182771  77.05 0.0005012258    1.038    0.037
        76  -9.4718    101.8941    211.7318   1.2827156573e+02   1.7331475769e+01    0.3219956    0.1369436  58.29  0.001171458    3.145    0.682
        77 -10.3959    107.2627    209.3919   1.2677971936e+02   1.6928750710e+01    0.3792183    0.2749297 -23.77  0.001254365    2.260    0.558
        78 -10.6937    112.5380    208.3678   1.2548026912e+02   1.6245168592e+01    0.2595631    0.2288473  64.92  0.000308379    1.023    0.022
        79  -9.8010    140.9872    213.3217   1.2007445848e+02   1.0161462622e+01    0.3514565    0.1717532  49.07   0.00150329    1.957    0.489
        80 -10.7577     92.1649    204.7940   1.2942110471e+02   2.0392415342e+01    0.6525429    0.2702438  49.65  0.002438365    2.342    0.573
        81 -10.3582     93.5280    201.4770   1.2865856729e+02   2.0895697873e+01     0.684436    0.3939343  79.43  0.002914631    2.535    0.605
        82 -11.5346    134.9934    237.0257   1.2488681218e+02   6.7234099736e+00    0.5811127    0.3067822  30.66  0.002078583    2.174    0.540
        83  -9.0541     32.8520    206.8741   1.4205404640e+02   2.8013614762e+01    0.1645581    0.1376055 -74.79 0.0003243145    1.252    0.201
        84 -10.9136    246.4982    205.9993   9.7502887879e+01  -7.4345035076e+00    0.2607653     0.164778  19.18  0.001395805    1.665    0.399
        85  -8.9230    148.8239    204.7900   1.1694963062e+02   1.0404563681e+01    0.2416783    0.1603154  -1.54 0.0009607906    2.917    0.657
        86 -10.5149    102.7931    202.7547   1.2679287561e+02   1.9097648418e+01    0.4756995    0.2822964  67.29   0.00162602    2.067    0.516
        87  -9.7485     98.1031    196.5136   1.2691551938e+02   2.1240402939e+01    0.4894709    0.2194571  50.97  0.001380435    2.260    0.557
        88  -9.8914    102.7332    195.9322   1.2578209467e+02   2.0596581980e+01    0.2140327    0.1900747  73.58  0.000596434    1.034    0.033
        89  -9.1792     74.9295    203.4318   1.3298268465e+02   2.3324119746e+01    0.3001851    0.2101216   7.84 0.0007010861    2.659    0.624
        90  -8.9947    133.0119    202.6939   1.2007410351e+02   1.3780646467e+01    0.1969724    0.1762118  49.81 0.0003176807    1.034    0.033
        91  -9.2844    125.8357    205.5159   1.2212070388e+02   1.4499936941e+01     0.225966    0.1859587  80.32 0.0006557174    1.302    0.232
        92 -10.0813     84.0004    202.0115   1.3082824623e+02   2.2276145173e+01    0.3527682     0.236078 -38.02  0.001701386    2.150    0.535
        93  -9.4354     85.7189    195.6919   1.2957993792e+02   2.3406592753e+01    0.3096808    0.1997327 -83.16 0.0002194481    1.725    0.420
        94 -11.6894    104.4600    238.2760   1.3117187792e+02   1.1589459464e+01    0.7024511     0.508737 -15.17  0.003511108    2.824    0.646
        95  -8.5909    183.1488    200.4068   1.0878166407e+02   4.7076514187e+00     0.189796    0.1276639  50.32 0.0003819971    1.538    0.350
        96  -9.6427    168.9077    197.2940   1.1122951431e+02   8.0442441139e+00    0.4321811    0.1789343 -45.29  0.001468534    2.586    0.613
        97  -8.8127    127.8103    199.8072   1.2075270909e+02   1.5340258123e+01    0.1866495    0.1562249  77.01 0.0004123037    1.260    0.206
        98  -9.7229    115.0746    200.0783   1.2364865605e+02   1.7567539537e+01    0.2039545    0.1890335  70.50 0.0003125693    1.030    0.029
        99 -11.0737     99.2077    223.4515   1.3039771519e+02   1.5347705720e+01    0.4119641    0.2936796  64.31  0.001058994    1.323    0.244
       100  -9.3187    119.9758    199.4829   1.2245497045e+02   1.6826220730e+01    0.2099868    0.1304416  43.56 0.0003545326    1.499    0.333
       101 -11.4587     62.8259    194.8401   1.3454046976e+02   2.6931166743e+01    0.3384783    0.2785832 -46.94    0.0018454    1.492    0.330
       102 -10.2223     55.7646    198.4008   1.3648807138e+02   2.7079096244e+01     0.586594    0.1769661  44.31  0.002361154    2.999    0.667
       103 -10.1712     57.4784    193.8536   1.3558719449e+02   2.7864798386e+01    0.3191825    0.2360064 -63.35  0.001906539    1.333    0.250
       104  -8.5760    149.7301    198.7466   1.1568969036e+02   1.1452740841e+01    0.1329197    0.1107447   7.73            0    1.449    0.310
       105  -9.7214    133.8917    197.8161   1.1905460643e+02   1.4637941858e+01    0.1954042     0.160836  72.25 0.0003917103    1.299    0.230
       106 -12.9705     11.9574    212.8840   1.4650113875e+02   2.8955529140e+01    0.9882925    0.5595148  50.41  0.005051252    1.626    0.385
       107  -9.7837     38.5243    193.5337   1.3960724163e+02   3.0262750865e+01    0.5136594    0.1579459 -66.84  0.001503198    2.778    0.640
       108  -9.6829     41.0007    188.5365   1.3854727705e+02   3.1086682845e+01    0.3109224    0.1616113 -70.07  0.001287207    1.691    0.409
       109 -10.0189    113.0774    193.8419   1.2310190536e+02   1.9273125156e+01    0.5101017    0.2452109 -59.87  0.001438298    2.241    0.554
       110 -11.1502    249.5117    194.0929   9.4672947764e+01  -6.0835055554e+00    0.3262725    0.2550984  13.12  0.001971787    1.231    0.188
       111 -13.9749      5.9665    245.1913   1.4955758584e+02   2.3228318631e+01     1.520731    0.8199304 -82.67  0.007009066    1.539    0.350
       112  -9.6741     20.3084    192.2816   1.4324357995e+02   3.2482962511e+01    0.3639417    0.1584317 -85.67  0.001756013    2.298    0.565
       113  -8.9719    159.8085    194.3871   1.1267067491e+02   1.0390552900e+01    0.2003771     0.131571  32.80  0.000266131    1.552    0.356
       114 -10.2419    119.8585    193.1332   1.2143752668e+02   1.8218389597e+01    0.3251602    0.2558994 -31.15  0.001245918    1.616    0.381
       115  -9.2657     25.7375    192.4169   1.4215074927e+02   3.1902775946e+01     0.216332    0.1497209  76.70  0.000829476    1.271    0.213
       116  -9.8770    191.4398    191.4874   1.0532713321e+02   4.7804642509e+00    0.2474808    0.2311236  12.21 0.0006453087    1.018    0.018
       117  -8.9819     84.7621    192.2292   1.2930398405e+02   2.4328910310e+01    0.1663241    0.1574158 -44.83  0.000380188    1.281    0.220
       118 -10.1763     32.5913    189.5055   1.4044183234e+02   3.1814940726e+01    0.3238626    0.2768285  69.32  0.002245886    1.153    0.133
       119  -9.6470     30.1021    184.2279   1.4042974481e+02   3.3252391640e+01    0.2647168    0.1738285 -59.03  0.001312057    1.505    0.336
       120  -9.3760    135.1930    189.9721   1.1738548213e+02   1.6060100150e+01    0.2120985    0.1863399  76.74 0.0003583885    1.188    0.159
       121  -9.5571     72.7628    192.9451   1.3210221527e+02   2.5963259986e+01     0.184301     0.167012 -69.49 0.0003769526    1.185    0.156
       122  -9.5511     15.3176    189.9920   1.4404932310e+02   3.3463046118e+01    0.1649712    0.1191562 -83.37 0.0006185519    1.106    0.096
       123 -11.0070    249.7813    187.6196   9.3353612520e+01  -5.1062328737e+00    0.3757449    0.2265463 -27.32  0.001953156    1.585    0.369
       124 -10.0365     76.7814    188.7712   1.3062708230e+02   2.6316945426e+01    0.2523007    0.2215082  30.93 0.0006200864    1.353    0.261
       125 -11.7113     68.4983    187.4025   1.3232101972e+02   2.7821936477e+01    0.3034089    0.2485338 -49.08 0.0007276751    1.411    0.291
       126  -9.3749    111.2234    187.6393   1.2250723812e+02   2.0970808129e+01    0.2364926    0.1855182 -73.71 0.0006528288    1.330    0.248
       127  -9.6245    140.0638    183.2745   1.1503731657e+02   1.6565669256e+01    0.2219314    0.2073763  69.16 0.0002013891    1.063    0.059
       128  -9.1455     37.5149    184.0207   1.3880651430e+02   3.2494112225e+01    0.1926342    0.1497525  48.71  0.001232193    1.345    0.257
       129  -9.7658     24.6251    184.1569   1.4158787512e+02   3.3832126267e+01    0.2178157    0.1690874  35.19 0.0006018946    1.549    0.354
       130 -12.7417    248.1612    101.6874   7.5606410135e+01   9.7198719091e+00    0.8420964    0.5600745 -43.56  0.004449853    1.349    0.259
       131 -12.8813    246.9849    158.4067   8.7894296595e+01   2.1153640865e-01     1.850279     1.040022 -60.26  0.007382118    3.131    0.681
       132 -13.2673    248.4073    114.7586   7.8382284352e+01   7.4618213084e+00     1.473344    0.8827533 -26.67  0.006917269    1.929    0.482
       133  -9.7404    115.1336    177.4370   1.1981649137e+02   2.2562873896e+01    0.4689418    0.2287998 -61.52  0.001848869    2.315    0.568
       134  -8.8908     47.9161    179.7971   1.3600516752e+02   3.2241785605e+01    0.1552456    0.1006279  35.46 0.0008539616    1.716    0.417
       135  -9.8189     20.0009    179.0965   1.4207278456e+02   3.5406153170e+01    0.1758336    0.1420898 -83.00 0.0003256807    1.056    0.053
       136 -10.3100     12.3737    178.3709   1.4361834390e+02   3.6268336996e+01    0.2293357    0.1924342 -63.78  0.001252966    1.298    0.229
       137 -11.1620     11.8782    173.7560   1.4329400468e+02   3.7328176308e+01    0.3887745    0.1817829 -57.90  0.001595602    1.963    0.491
       138  -9.3715     92.8205    178.1652   1.2527604339e+02   2.6247615099e+01    0.2018801    0.1737943  76.73 0.0002395984    1.119    0.106
       139  -8.8047     83.7128    178.3382   1.2747308577e+02   2.7654190737e+01    0.1440797    0.1000312  77.74 0.0003033271    1.635    0.388
       140  -9.2249    182.3391    176.7849   1.0428358088e+02   9.4256041625e+00    0.2188829    0.1873239 -64.51 0.0006656303    1.360    0.265
       141 -11.5849     77.8183    175.1622   1.2838659248e+02   2.9283671173e+01    0.2818491    0.2735142 -70.57 0.0007812929    1.162    0.139
       142  -9.0281     68.6444    175.8318   1.3067064182e+02   3.0454742351e+01    0.1956514    0.1522628 -77.06 0.0004337455    1.187    0.157
       143 -11.3589     64.6740    173.5569   1.3128319156e+02   3.1529879897e+01    0.4790239    0.2671245 -47.64  0.001131974    1.992    0.498
       144 -10.1145     68.7587    166.8540   1.2929671456e+02   3.2528048596e+01    0.2593465    0.2134886 -59.25 0.0005499927    1.186    0.157
       145 -10.6701    107.7630    172.8925   1.2077228669e+02   2.4919944965e+01    0.2531508    0.2297777  83.10 0.0003315703    1.070    0.066
       146 -11.8569     24.2820    162.1640   1.3931635714e+02   3.8803295140e+01    0.2481957    0.2051551 -55.83 0.0003832569    1.280    0.219
       147 -10.4623     18.9711    172.4982   1.4163593240e+02   3.6971196510e+01    0.3771625    0.2064907  59.38  0.002096186    1.913    0.477
       148 -12.2159     13.7693    165.4664   1.4206666813e+02   3.9005851943e+01    0.6180976    0.4215584 -83.20  0.003375288    1.205    0.170
       149 -10.5951     28.5431    171.0022   1.3934818095e+02   3.6383651451e+01    0.4086597    0.3006775 -89.37  0.001899381    1.182    0.154
       150  -8.9392     95.2858    172.6551   1.2376149924e+02   2.7113751086e+01    0.1478726    0.1057605  79.78 0.0007019548    1.647    0.393
       151  -9.1569     45.9733    172.3388   1.3551588348e+02   3.4180093054e+01    0.1697907    0.1495803  72.61 0.0003574045    1.120    0.107
       152  -8.9005     52.5487    170.9620   1.3379428988e+02   3.3705307362e+01    0.1832252    0.1141846 -67.07 0.0001315576    1.429    0.300
       153  -8.3545    150.7227    170.2802   1.1001262738e+02   1.7252589991e+01    0.1461431    0.1181988  80.78            0    1.503    0.335
       154 -11.2250     44.4928    166.4324   1.3509678539e+02   3.5713183651e+01    0.5716209    0.2194847 -53.12 0.0007486509    2.491    0.599
       155  -8.9583    126.2473    167.4481   1.1525640922e+02   2.2745340153e+01    0.2106787    0.1366586  53.35 0.0007521097    1.598    0.374
       156  -8.7272     58.4871    167.4935   1.3189077144e+02   3.3759838722e+01    0.1343112    0.1158689 -88.11  9.77185e-06    1.039    0.038
       157  -9.5085     33.0548    164.0118   1.3748917492e+02   3.7516201595e+01    0.3317155    0.1284224 -66.27  0.001502145    2.149    0.535
       158  -8.5105    171.3534    166.7290   1.0457411013e+02   1.3735964166e+01    0.1520309    0.1196727  76.51 0.0003651684    1.635    0.388
       159 -10.8421     89.5244    159.5633   1.2288824928e+02   3.1111832356e+01    0.4054919    0.2477209 -73.87   0.00104748    1.915    0.478
       160  -8.8521     40.6407    161.7280   1.3539493418e+02   3.7233514452e+01    0.1224627   0.09224417 -37.26 0.0005744928    1.650    0.394
       161  -8.9601     78.7688    158.9171   1.2550175504e+02   3.2940472579e+01    0.1859556    0.1086134 -58.39 0.0008646428    1.602    0.376
       162  -9.0280     73.5360    159.5188   1.2692823180e+02   3.3570033963e+01    0.1389531    0.1248623 -84.40 7.443865e-05    1.028    0.027
       163  -9.6398     71.7959    156.5502   1.2687042803e+02   3.4518482357e+01    0.2813866    0.2327956 -11.97  0.001550185    1.619    0.382
       164  -8.7991     52.4847    158.4551   1.3203902123e+02   3.6622326769e+01    0.1317305    0.1153598 -76.69 0.0001132834    1.018    0.018
       165 -11.4283     31.6981    155.7501   1.3677189404e+02   3.9549895806e+01    0.4184236    0.2696901 -47.02  0.001636809    1.657    0.397
       166 -12.2130     23.1587    154.5489   1.3867933202e+02   4.0639472673e+01    0.4969988    0.3554235  79.42  0.003083148    1.390    0.280
       167 -10.6472     23.5354    149.4826   1.3795999845e+02   4.1760330444e+01    0.1932519    0.1791746 -58.74 0.0008658334    1.209    0.173
       168 -12.1405     85.7918    166.5927   1.2505711747e+02   3.0059404479e+01    0.6020718    0.5093231  40.23  0.003400188    1.251    0.201
       169 -10.0794     84.5684    155.4292   1.2340272546e+02   3.2871900891e+01    0.2297295    0.1825847  24.31 -2.479081e-06    1.485    0.326
       170  -9.1903    228.3699    155.2826   9.0501337429e+01   4.2542590889e+00    0.1983637    0.1253594 -46.61 0.0004920429    1.603    0.376
       171 -10.8927     98.2772    151.0305   1.1902451071e+02   3.1654873577e+01    0.3634212    0.3383709 -35.86  0.001240698    1.161    0.139
       172  -9.3066    101.6674    146.3350   1.1719110568e+02   3.2162449800e+01     0.339528    0.1902591 -30.29   0.00125016    2.854    0.650
       173 -12.9364     11.5652    205.7781   1.4605210705e+02   3.0464183535e+01     1.162823    0.6852503   9.07   0.00593461    3.884    0.743
       174 -10.0103    113.8870    150.6557   1.1492590678e+02   2.8939686734e+01    0.3312024    0.2582556 -62.46  0.000719776    1.308    0.236
       175  -9.6082     86.5054    150.2090   1.2193058551e+02   3.3794650663e+01     0.255836    0.1366768 -61.42 0.0004190572    1.864    0.464
       176  -8.9472     53.0951    146.1829   1.2997731619e+02   3.9420442073e+01    0.1828417    0.1449419  76.64  0.000410615    1.345    0.256
       177 -10.5538     56.3364    149.6842   1.2970348873e+02   3.8201690360e+01    0.3359652     0.270848  29.29  0.001975999    1.439    0.305
       178 -12.4327     68.2417    144.3850   1.2567009307e+02   3.7882095610e+01    0.6784664    0.5223703  88.45  0.002397839    1.435    0.303
       179 -11.6590     73.4308    139.5692   1.2337868650e+02   3.8280400845e+01    0.4605447    0.4160384   0.14  0.002695107    1.304    0.233
       180  -9.7084     76.9766    147.0315   1.2383807716e+02   3.6007580201e+01    0.2026988    0.1881166 -64.49            0    1.039    0.038
       181  -9.9345     39.7546    146.6505   1.3350366048e+02   4.0823993258e+01    0.2157321    0.1562948  48.24 0.0008860225    1.509    0.337
       182 -11.6009    248.3000    142.6479   8.4361768524e+01   2.6787996079e+00    0.6776073    0.4843601 -16.87  0.002687191    1.597    0.374
       183 -10.4415    133.3671    141.5497   1.0798787426e+02   2.7183213885e+01    0.6094345    0.2583126 -51.04  0.002150518    2.447    0.591
       184 -11.2942     32.7976    140.7363   1.3442763650e+02   4.2899177208e+01    0.2675797     0.184002  85.00  0.001115991    1.586    0.369
       185  -9.0526     41.5459    140.4668   1.3209578804e+02   4.2068028403e+01    0.1298504    0.1107439 -65.62 0.0001145332    1.030    0.029
       186 -10.5070     56.1417    138.9189   1.2794053178e+02   4.0747816700e+01    0.2249387    0.2019453 -49.42 0.0003517844    1.124    0.110
       187 -11.1242     60.8485    137.0193   1.2632330096e+02   4.0597310451e+01     0.323355    0.2495923 -84.17   0.00179245    1.381    0.276
       188 -12.1119     63.1797    221.3175   1.3746153857e+02   2.1173921849e+01     1.134848    0.4765733 -75.28  0.003580027    2.660    0.624
       189  -9.0675     50.9768    138.2038   1.2920967648e+02   4.1536942948e+01     0.240285   0.09419275  33.87 0.0009036403    2.753    0.637
       190 -10.1559     46.6519    138.0658   1.3034936843e+02   4.2065898063e+01     0.259484    0.1455436 -58.46  0.001314726    1.529    0.346
       191 -10.0010    110.0126    136.3194   1.1283226546e+02   3.2967557440e+01    0.3501185    0.2733516  -2.18  0.001083189    1.731    0.422
       192  -9.0313     35.2865    148.6595   1.3492847385e+02   4.0823063214e+01    0.1295305   0.08746492  78.82 0.0007018755    1.638    0.390
       193 -11.3440     45.1471    131.3363   1.2961849043e+02   4.3792577466e+01    0.3935451    0.3324283  89.67  0.002439219    1.228    0.186
       194 -11.2636     33.0657    131.0023   1.3287010686e+02   4.5109523096e+01    0.4705603    0.1330381 -59.93  0.001236774    2.695    0.629
       195 -10.9743     30.1520    126.6295   1.3296795816e+02   4.6380536836e+01    0.2786639    0.1664411  16.01  0.001027739    2.200    0.545
       196  -8.5965     65.9220    181.9897   1.3217573001e+02   2.9414828077e+01    0.1561754    0.1381389  78.17 0.0003339096    1.048    0.046
       197 -11.7108     66.6988    128.4713   1.2306092726e+02   4.1811568878e+01    0.4030046    0.3215493  86.03    0.0022152    1.461    0.316
       198  -9.6993    116.4032    128.7020   1.0937869674e+02   3.3479269515e+01    0.3437127    0.2319425   0.82  0.001004216    2.607    0.616
       199 -11.3402     24.0787    127.2203   1.3472401634e+02   4.6782922365e+01    0.2994936    0.2182918 -50.64  0.001163582    1.247    0.198
       200 -10.3666    209.9385    125.7374   8.7297538863e+01   1.3568460472e+01     0.291131    0.2252517 -40.04 0.0005033765    1.252    0.201
       201 -12.4710     20.5906    121.5253   1.3480608124e+02   4.8354218797e+01    0.5969208    0.2791267  17.58  0.002951719    2.857    0.650
       202 -11.6856     30.4343    119.2269   1.3165820831e+02   4.8031255686e+01    0.3940719    0.2402571  44.16  0.002185385    1.942    0.485
       203 -11.8328      9.3317    120.6380   1.3776888971e+02   4.9385868052e+01    0.4628199    0.2434718  10.56  0.002518205    2.665    0.625
       204 -12.4467     13.4195    114.3858   1.3570882138e+02   5.0483704469e+01     0.556844    0.2931562  43.57  0.003045591    2.345    0.574
       205 -12.7752    248.3680    133.9759   8.2507149411e+01   4.1639806322e+00     1.134254    0.8436595 -20.17  0.005919611    1.469    0.319
       206 -10.4841     68.0000    115.2932   1.1990027984e+02   4.4646669287e+01    0.4027245    0.1927034  20.00  0.001530365    3.239    0.691
       207 -10.0928     54.5701    120.7176   1.2497700382e+02   4.5150329857e+01    0.2722282    0.2008765  14.00  0.001209422    1.657    0.396
       208 -10.9032    168.0900    113.2141   9.2784013696e+01   2.5560298973e+01    0.3664009    0.3080855 -88.55  0.000865243    1.393    0.282
       209 -11.0786    249.6262    150.9287   8.5889348508e+01   1.0116631415e+00    0.5337861    0.3101841 -38.14  0.002633049    1.554    0.357
       210  -9.2849    203.4986    111.5063   8.5143527003e+01   1.7680764669e+01     0.146848    0.1445373 -43.80 -2.789854e-05    1.043    0.041
       211 -11.9928    245.4161    163.6333   8.9249185850e+01  -3.9810599593e-01    0.6549098    0.3524474 -48.99   0.00297259    2.076    0.518
       212  -8.8627     44.9181    105.4672   1.2472046524e+02   4.9672434916e+01    0.1726419    0.1283423  27.37 0.0004147019    1.527    0.345
       213 -11.1814     15.0967    104.1713   1.3354997083e+02   5.2601157859e+01    0.2736081     0.159281  -1.62  0.001511024    2.371    0.578
       214 -10.5861     17.2605     99.0645   1.3198309579e+02   5.3549037067e+01    0.1805051    0.1739954  17.35 0.0002566819    1.267    0.210
       215 -12.7984    248.3400    171.7372   9.0412539729e+01  -2.2761384205e+00     1.095146    0.4740331 -40.11  0.004756663    2.146    0.534
       216  -8.7092     42.6800     92.2747   1.2248953389e+02   5.2757043584e+01    0.1163593   0.09832086  75.73 0.0002459356    1.573    0.364
       217 -10.5002    250.0216     86.5166   7.2107623748e+01   1.1826687873e+01    0.2195649    0.1630903 -45.93 0.0006768255    1.210    0.173
       218  -9.1058    157.6843     77.6739   8.5640764443e+01   3.4664454602e+01    0.1530258    0.1163896  18.86 0.0004300236    1.671    0.402
       219  -8.6025     45.7086     74.6900   1.1702377321e+02   5.6007585824e+01    0.1305143   0.08420204 -24.45 0.0002545372    1.584    0.369
       220 -10.4846     81.5571    246.6749   1.3651134529e+02   1.3528871567e+01    0.4020472    0.2291634 -89.41  0.002146501    2.085    0.520
       221 -11.9058    199.7105    246.3933   1.1346550709e+02  -5.8954151547e+00     0.568943    0.2167606  41.47    0.0023269    2.283    0.562
       222 -10.5149    193.9283    245.0416   1.1436397532e+02  -4.7420008829e+00    0.1956725    0.1778718 -10.34 0.0003677801    1.204    0.170
       223 -10.3347    222.8383    244.6846   1.0880670296e+02  -9.3368440560e+00    0.2033401    0.1311336  21.26 0.0009405231    1.412    0.292
