#   1 NUMBER                 Running object number                                     
#   2 MAG_AUTO               Kron-like elliptical aperture magnitude                    [mag]
#   3 X_IMAGE                Object position along x                                    [pixel]
#   4 Y_IMAGE                Object position along y                                    [pixel]
#   5 X_WORLD                Barycenter position along world x axis                     [deg]
#   6 Y_WORLD                Barycenter position along world y axis                     [deg]
#   7 A_WORLD                Profile RMS along major axis (world units)                 [deg]
#   8 B_WORLD                Profile RMS along minor axis (world units)                 [deg]
#   9 THETA_WORLD            Position angle (CCW/world-x)                               [deg]
#  10 FWHM_WORLD             FWHM assuming a gaussian core                              [deg]
#  11 ELONGATION             A_IMAGE/B_IMAGE                                           
#  12 ELLIPTICITY            1 - B_IMAGE/A_IMAGE                                       
         1 -10.9106     11.7225     46.5964   1.0730274172e+02   6.7800131727e+01     0.823053    0.1082226 -60.55  0.002674026    3.882    0.742
         2 -11.5634     14.4832     39.3725   1.0371660599e+02   6.9303977532e+01    0.5976995    0.3973887 -80.63  0.002657215    1.677    0.404
         3 -12.5727     61.8876     44.0287   8.0337706693e+01   6.2218812661e+01    0.6733733    0.4185461 -44.35 0.0004936584    1.560    0.359
         4 -10.7692    209.0404     33.9546   4.3100217537e+01   2.8147044425e+01    0.6516269    0.3844538  -5.61   0.00290682    2.452    0.592
         5  -9.7294     31.8777     12.8834   8.0729849775e+01   7.2928757070e+01    0.5861953    0.3093355  36.67  0.002934788    1.959    0.489
         6 -10.7810     16.4810     17.5204   9.3956181574e+01   7.3905220175e+01    0.4741098    0.4188865   4.32  0.001797487    1.175    0.149
         7 -10.6064     26.2840     22.0323   8.9392668745e+01   7.1949502863e+01    0.6779585     0.438313 -15.43  0.002249877    1.824    0.452
         8 -10.6653     18.2496     23.7939   9.5607630389e+01   7.2441356493e+01     0.462179    0.1903342 -58.71  0.002049053    2.310    0.567
         9 -10.9876    222.0209     26.5635   3.9992108617e+01   2.6048384930e+01    0.4463103     0.335226  15.80  0.001263948    1.834    0.455
        10 -10.4557    225.4029     15.6804   3.6999296390e+01   2.6468059682e+01    0.4371139    0.1793673 -42.18  0.002041062    1.957    0.489
        11 -11.5492    230.9209     15.4546   3.6568534623e+01   2.5289924110e+01    0.6711956    0.3235099 -48.62  0.002695752    1.753    0.430
        12 -11.2751    165.9447     18.4847   4.3311500980e+01   4.0628659793e+01     0.477366    0.3382614  28.81  0.001013001    1.795    0.443
        13 -10.6887      1.9645     24.9254   1.0754996693e+02   7.3355055903e+01    0.3243243    0.1663904 -70.42 0.0007802133    1.816    0.449
        14  -9.1856     73.4125      8.2443   5.7870423654e+01   6.5640882261e+01    0.4947561    0.1593356  47.56  0.001619692    2.812    0.644
        15  -9.3921     68.1443     11.3473   6.1520648636e+01   6.6443174395e+01    0.3614929    0.1852265  65.19  0.001493624    2.515    0.602
        16 -10.1117     60.7416     17.3792   6.7940843746e+01   6.7163905086e+01    0.4438669    0.2978039  24.78  0.001573463    1.669    0.401
        17 -10.9967     67.6230     15.4544   6.4015692377e+01   6.6007917567e+01    0.3973987    0.3621143 -75.43 0.0005464751    1.352    0.260
        18 -10.8665    183.0755     17.4760   4.1073304640e+01   3.6325351027e+01    0.7594402     0.361847  38.95  0.001648155    3.118    0.679
        19 -12.3137    116.9627     22.3374   5.2809692297e+01   5.3173347508e+01    0.2980677    0.2789684 -26.28 0.0003742849    1.122    0.109
        20 -10.2046    127.9688     19.3098   4.9359226639e+01   5.0633087562e+01    0.5581228    0.2988157 -48.07   0.00234694    2.035    0.509
        21 -10.9785     93.6279     19.7069   5.7470401790e+01   5.9431141103e+01    0.2819997    0.2757709 -82.22 0.0001690764    1.091    0.084
        22  -9.5436     23.5759      1.3329   7.8838219829e+01   7.6026818548e+01    0.1797087    0.1391281  34.56 0.0001223219    1.391    0.281
        23 -10.4854     18.0308      1.7738   8.3446197364e+01   7.6681673893e+01     0.481721    0.2638434  15.22  0.002435658    2.217    0.549
        24 -11.6617      5.5823     15.9686   1.0156453312e+02   7.5104217448e+01    0.5342399    0.4319824  47.14  0.001185093    1.574    0.364
        25  -7.4862      6.1326      9.4347   9.8090601243e+01   7.6417525489e+01    0.3619472    0.2715858 -19.89 0.0009610626    1.245    0.197
        26 -11.4577     16.5700      7.8054   8.8573997145e+01   7.5781885933e+01    0.4738884     0.286227 -56.97  0.001577229    1.872    0.466
        27 -11.3863     24.9264      6.7456   8.1592130991e+01   7.4952904480e+01    0.2303393    0.1910771 -29.15 0.0003403935    1.118    0.105
        28 -11.6052     20.5710      6.1044   8.4392903128e+01   7.5624670478e+01    0.7690444    0.4257532  -4.36  0.003426384    2.897    0.655
        29  -9.2985     45.4754     15.5424   7.4306493441e+01   7.0317917911e+01    0.4072847    0.2545224  36.71  0.002117944    1.601    0.375
        30  -9.8449    209.3170     14.3354   3.7837180526e+01   3.0259156616e+01    0.3424591    0.2365065   6.28  0.001776881    2.039    0.509
        31  -9.5888    211.8368      9.0080   3.6244252802e+01   3.0209924763e+01    0.4558674    0.2643809  85.85  0.002373024    1.748    0.428
        32 -10.1130    209.1396      4.7213   3.5301590074e+01   3.1253410366e+01    0.3236138     0.226716  55.59  0.001131219    1.635    0.388
        33  -9.3198    206.3431      1.7427   3.4695844141e+01   3.2189529863e+01    0.2473375    0.1544418 -67.12 0.0002370802    1.487    0.328
        34  -9.6922    116.9805     15.1849   4.9805861809e+01   5.4008664540e+01    0.3264421    0.2260238  45.22 0.0007780592    1.442    0.306
        35 -10.3913    243.2060     13.9062   3.5430923470e+01   2.2869040738e+01    0.2614369    0.2035177 -15.88  0.001231938    1.441    0.306
        36  -9.0226    112.3809     14.8222   5.0606093290e+01   5.5255221136e+01    0.2656996    0.1321052 -29.60  0.001113592    2.043    0.511
        37  -9.7210    179.3167     13.2807   4.0187310449e+01   3.7719202849e+01    0.2365139    0.1958372  79.95 0.0002640045    1.168    0.144
        38 -10.9132    175.9582     11.0304   3.9832857686e+01   3.8807051084e+01    0.5084565    0.3307663  41.40 0.0003937268    1.849    0.459
        39 -10.9576    133.0913     12.7915   4.5916347996e+01   4.9978993148e+01    0.2482226    0.2445139 -16.60 0.0003187688    1.100    0.091
        40  -8.2945     55.7714     10.9907   6.6474751799e+01   6.9084002191e+01    0.2355204    0.1742226  32.59 0.0009112249    1.309    0.236
        41  -9.2406     41.3570     11.1640   7.3936612546e+01   7.1723693861e+01    0.2992539    0.1718005  28.64 0.0008533287    1.902    0.474
        42  -9.2397     37.4945      9.8417   7.5353663129e+01   7.2573873788e+01    0.1811131    0.1657911  31.33 0.0003581106    1.214    0.176
        43 -10.1336     48.1819      8.2885   6.8458943243e+01   7.0932075611e+01    0.5593827    0.2191267  42.22  0.001006756    2.501    0.600
        44  -9.2488     51.7822     13.2547   6.9717119206e+01   6.9531587959e+01     0.352985    0.1812038 -27.43  0.001596459    2.074    0.518
        45  -8.4094     52.7043      9.3077   6.6877939392e+01   6.9923014806e+01    0.1848677     0.165598  71.25            0    1.413    0.292
        46  -9.4099    219.2868     12.1677   3.6540274820e+01   2.8190384664e+01     0.247216    0.1972363 -66.43  0.001124316    1.126    0.112
        47  -9.0602    145.6074      9.2092   4.2731224163e+01   4.6982727644e+01    0.5123838    0.2886587  34.78   0.00218915    2.257    0.557
        48 -10.2092    147.1902     12.8497   4.3828666590e+01   4.6195391835e+01    0.3230682    0.2114364  63.56 0.0007055689    1.434    0.303
        49  -9.6337    150.6174     11.8182   4.3000304800e+01   4.5384637523e+01    0.2405242    0.1919023 -83.56 6.944646e-05    1.220    0.181
        50  -8.7418     75.4835     12.5707   5.9542268204e+01   6.4643602289e+01    0.2698655    0.1860799 -47.09  0.001354294    1.683    0.406
        51  -9.0600     78.8806     11.6532   5.7912707000e+01   6.3971133727e+01     0.248508    0.1812671  -2.61 0.0005673902    1.538    0.350
        52  -8.3800     98.2044     12.0020   5.2588086866e+01   5.9216630942e+01    0.1805965    0.1140771 -23.50 0.0003810556    1.673    0.402
        53 -10.5613    192.0155      7.9914   3.7470791724e+01   3.5057266819e+01    0.3874633    0.2928189 -56.07 -0.007547014    1.190    0.160
        54 -10.9297    194.0877      3.8582   3.6132902275e+01   3.4941296785e+01     0.828262    0.2512477  63.57   0.00316576    3.038    0.671
        55  -9.5825    224.7104      9.0536   3.5398210944e+01   2.7290758492e+01    0.2288813    0.1661577 -61.69 0.0001669351    1.211    0.174
        56 -10.5991    164.9214      7.5148   3.9851056064e+01   4.2017703980e+01    0.3609379    0.2298465 -45.25 0.0004545542    1.503    0.335
        57 -11.2174    160.3860      2.6698   3.8723047378e+01   4.3657097518e+01    0.5297325    0.3283133  72.11  0.000528944    1.499    0.333
        58 -10.4761    202.5665      8.7519   3.6851489735e+01   3.2418256379e+01    0.2734992    0.2194767 -83.33  0.000186723    1.177    0.151
        59  -9.1638    138.5420      7.5563   4.3089394940e+01   4.9036275170e+01    0.3027477    0.1444442  -4.72 0.0009297579    3.083    0.676
        60  -9.4835    127.7475      8.5086   4.5094098933e+01   5.1839964013e+01    0.4176287    0.1653247  74.55  0.001517738    2.600    0.615
        61 -10.8236    108.8426      6.1727   4.7504774463e+01   5.7076947807e+01    0.7765083    0.4497155  57.72  0.003583917    1.554    0.356
        62 -11.6885    118.2219      2.1177   4.4012240850e+01   5.4969845137e+01    0.5646985    0.2181581  71.86  0.001839636    2.450    0.592
        63  -9.6765     92.2593      8.0650   5.2173905792e+01   6.1135797392e+01    0.2231054    0.1884005  54.85 0.0004123497    1.102    0.093
        64  -9.6528     86.5624      6.4312   5.2855594790e+01   6.2716257960e+01    0.3811854    0.2394464  66.64  0.001849385    1.594    0.373
        65 -10.9917    248.1447      4.7484   3.3072515032e+01   2.2770006512e+01     0.347573    0.2593285  -7.66 0.0006217954    1.670    0.401
        66  -9.2483    120.4906      8.6029   4.6366435676e+01   5.3767149570e+01    0.2702935    0.2256085  12.72  0.001466369    1.352    0.261
        67 -10.5013    237.8949      2.7235   3.3121962771e+01   2.5064438176e+01    0.2681118    0.2395014  79.19  0.001888831    1.292    0.226
        68 -10.7690    180.3973      2.4562   3.6807427330e+01   3.8488854159e+01    0.4199916    0.2633041 -71.24  0.002126415    1.557    0.358
        69  -9.2603     38.9132      4.1697   7.0763092159e+01   7.3191052923e+01     0.285943     0.198982  36.61  0.001408599    1.399    0.285
        70 -10.3304     31.0983      3.6008   7.5199329009e+01   7.4562997043e+01    0.3407561    0.2458623 -59.82   0.00116667    2.161    0.537
        71  -9.2542    224.1951      3.8993   3.4152320619e+01   2.7904389772e+01    0.2584312    0.1650553 -15.39  0.001423168    1.785    0.440
        72  -9.0296    174.1295      4.9071   3.8108172534e+01   3.9867901664e+01    0.2349639    0.1624383 -61.59  0.001228706    1.377    0.274
        73  -8.8803    243.7029      2.6031   3.2803744135e+01   2.3873670072e+01    0.2367114    0.1422209  -8.19  0.001274107    2.212    0.548
        74 -10.3896    218.1614      2.9459   3.4270330374e+01   2.9345348949e+01    0.3019023    0.2478014  65.46  0.001042381    1.375    0.273
        75  -9.8964    144.8329      3.3283   4.0694744629e+01   4.7736630088e+01    0.4639394    0.2291153  77.95   0.00168253    1.949    0.487
        76  -9.8537     90.6233      1.8617   4.9439372527e+01   6.2156182382e+01    0.4251825    0.2556392  77.95  0.001037186    1.851    0.460
        77 -10.3863     73.9329      1.9630   5.4122915619e+01   6.6202000890e+01     0.374881    0.2352956  59.46  0.001124854    1.516    0.341
        78  -9.7402     68.8144      2.4802   5.6117931146e+01   6.7330496423e+01    0.3255875    0.2345487   6.05  0.001743997    1.510    0.338
        79 -10.2539     49.4751      2.4504   6.4002536855e+01   7.1457406426e+01     0.372131    0.2005913  31.73 0.0005144669    2.013    0.503
        80  -9.3731     81.2661      2.0539   5.1988089895e+01   6.4445845224e+01    0.3168139    0.2250658 -88.09  0.001335062    1.801    0.445
        81  -9.5372      3.2627      2.5057   9.6909642981e+01   7.7999612096e+01    0.3417757    0.1639892 -21.42  0.001653403    2.476    0.596
        82  -8.8653    127.8742      1.6399   4.2313960160e+01   5.2432778104e+01    0.2304123     0.147479  52.79 0.0008254287    1.494    0.331
        83  -9.0500    186.0322      1.3475   3.6025664095e+01   3.7167981128e+01    0.1903373    0.1176233  82.30            0    1.544    0.352
        84  -9.7540     61.9554      5.4023   6.0433463067e+01   6.8522644110e+01    0.2398246    0.1920446 -16.35 0.0005630114    1.253    0.202
        85 -10.2192      6.0249     98.1776   1.1791363589e+02   5.5358249348e+01    0.4925582    0.2459236  25.95  0.002485404    2.143    0.533
        86  -9.4618    201.5073    249.5191   8.8819290115e+01  -1.3061592371e-01    0.1914372    0.1310282  21.67 0.0007233301    1.057    0.054
        87  -9.9348    115.9268    248.7836   1.0417218851e+02   1.0929825086e+01    0.2000346    0.1750921  37.05  0.001005341    1.183    0.155
        88  -9.2211     46.9471    115.2135   1.0545880193e+02   4.7405843383e+01    0.3819916    0.1665662  43.33  0.001053613    2.239    0.553
        89  -8.6062    122.1507    112.3916   8.1469651393e+01   3.5426902359e+01    0.2142944    0.1389406  54.73  0.000500532    1.643    0.391
        90  -9.9745     62.9458    110.7592   9.9234788776e+01   4.6419426359e+01    0.3567189    0.1869429 -58.19 0.0002908166    1.819    0.450
        91  -8.6653     62.5150    104.5511   9.8137170699e+01   4.8024732852e+01     0.222762    0.2168216  76.63 0.0006917041    1.059    0.056
        92  -8.9482     66.3242    103.3218   9.6550350147e+01   4.7766348894e+01    0.2467367      0.18586   2.05  0.000788597    1.816    0.449
        93  -9.2838    232.0081    109.9996   5.9031821804e+01   1.3146156312e+01    0.1611235    0.1389458 -19.57  0.001017384    1.000    0.000
        94  -9.0271    105.7471    109.9504   8.5465163998e+01   3.9274593004e+01    0.2015772    0.1918328 -87.97 0.0002079478    1.056    0.053
        95  -8.3475     70.0000    109.9739   9.6703842985e+01   4.5565956381e+01    0.2363155   0.08065644 -60.08 0.0005807718    2.871    0.652
        96  -9.9212     30.4199    108.1552   1.1016830669e+02   5.0965803862e+01    0.4274787    0.2623051 -72.44  0.001606504    1.473    0.321
        97  -9.7812    128.3804    108.9494   7.8959793251e+01   3.4854667731e+01    0.3823282    0.1982746  50.81  0.000968207    1.992    0.498
        98  -9.1314     36.9407    108.3531   1.0787487274e+02   5.0261614412e+01    0.3328252    0.1752108 -50.75  0.001518208    1.949    0.487
        99  -9.9318     36.1833    103.7344   1.0743457414e+02   5.1511336565e+01    0.3571869    0.3250718 -32.00  0.001482047    1.261    0.207
       100 -10.3066    137.3101    107.4350   7.6301709439e+01   3.3248010267e+01      0.27286    0.2532849  83.61 0.0005248789    1.158    0.137
       101  -9.7280    117.9642    105.5304   8.0880923727e+01   3.7782662146e+01     0.329926    0.2283243 -36.72 0.0009506074    1.580    0.367
       102  -9.2361     92.8896    106.1181   8.8417516511e+01   4.2609803856e+01    0.4266506    0.1559843  42.41  0.001457572    2.671    0.626
       103  -9.7306     74.4305    104.7902   9.4100754063e+01   4.6137118535e+01    0.2704509    0.1811758 -52.34  0.001274968    1.479    0.324
       104  -9.6403    100.3008    103.3649   8.5451885261e+01   4.1840131761e+01    0.2693536    0.2337691 -25.93 0.0009708459    1.313    0.238
       105  -9.8193    101.2516     99.0334   8.4043099022e+01   4.2641212365e+01    0.4665223     0.348512 -67.84  0.001500575    1.505    0.336
       106  -8.3845    174.9597    102.9690   6.6811824778e+01   2.5785624963e+01    0.1685423    0.1631429 -10.30 -0.001877172    1.006    0.006
       107  -9.5625     50.8244     99.1064   1.0122518980e+02   5.0983482745e+01    0.2235323    0.2079566  38.75 0.0004032951    1.145    0.127
       108 -11.0553    110.2877     99.0710   8.1360733729e+01   4.0797117531e+01    0.6425996     0.479576  33.38  0.001928475    1.436    0.304
       109 -10.7727    103.8387     90.4915   8.0915504955e+01   4.4032987318e+01    0.5828266    0.3453851  64.14 0.0009930085    2.366    0.577
       110  -9.2528     84.8256    102.1745   9.0037993547e+01   4.5003348419e+01    0.2066278     0.177183 -28.37 0.0003836482    1.340    0.254
       111  -8.9927     78.1969     99.8556   9.1681919402e+01   4.6709708744e+01    0.2171101    0.1951293  54.29 0.0007058684    1.111    0.100
       112 -10.1425     79.0471     96.0925   9.0467805749e+01   4.7468784150e+01     0.554009    0.2969214  13.89  0.001645933    4.607    0.783
       113 -10.4591     17.2789     98.0897   1.1367861170e+02   5.4633784490e+01    0.4300857    0.3390572  24.36   0.00173502    1.429    0.300
       114  -9.4576     12.9039     95.3280   1.1501417120e+02   5.5642476720e+01    0.4684366     0.102705 -67.05  0.001645322    3.262    0.693
       115  -9.4972    124.5498     97.9964   7.7086178874e+01   3.7986236942e+01    0.3824196    0.2640118  -2.62  0.001499017    2.491    0.599
       116 -10.0139     57.0756     99.5632   9.9033313139e+01   5.0037226179e+01    0.2700056    0.1987742 -64.94 0.0004266913    1.293    0.226
       117  -8.9933     42.7425     99.5674   1.0430768472e+02   5.1849252753e+01    0.1997565    0.1208031  42.89 0.0009553923    1.682    0.405
       118  -9.3264    108.9146     95.4671   8.0784723494e+01   4.1877959407e+01    0.3714962    0.2516559  60.90 0.0009421828    1.702    0.413
       119  -8.5599     67.0297     97.9913   9.5114628492e+01   4.8973144776e+01    0.1728074    0.1657175  85.68 0.0004045135    1.019    0.019
       120  -9.0842     35.7489     83.0648   1.0388267902e+02   5.6788840954e+01    0.3251132    0.1922318 -70.04  0.001561859    1.587    0.370
       121  -9.8895     33.9610     97.7748   1.0730051059e+02   5.3251705528e+01    0.2304255    0.1814173 -80.29  0.001293979    1.172    0.147
       122  -9.7010     20.5527     81.0357   1.0991661392e+02   5.8697550484e+01     0.710862    0.3496855 -85.08  0.003119676    2.186    0.542
       123  -9.9167     33.3464     91.6116   1.0648546436e+02   5.4877180074e+01    0.4927379    0.2583501 -41.80  0.002179462    2.189    0.543
       124  -9.9125     27.9062     91.7135   1.0865355767e+02   5.5371780937e+01    0.2143513    0.2041164  41.01    0.0005472    1.158    0.136
       125 -11.2888     29.6592     85.7442   1.0691989416e+02   5.6721455619e+01    0.7078534    0.4912147 -14.72  0.003643401    1.880    0.468
       126  -9.5428    135.4919     96.0653   7.3721354693e+01   3.5952642167e+01    0.2335683    0.1512661 -42.26 0.0005553894    1.555    0.357
       127  -9.1217    130.1584     96.6287   7.5233935246e+01   3.7032735959e+01    0.2094272    0.1416613  37.19 0.0001069543    1.574    0.365
       128  -9.5773     41.9983     94.8276   1.0371007723e+02   5.3133730826e+01    0.3623403    0.2150109  70.67  0.001104944    2.145    0.534
       129  -9.5342     23.5867     94.9686   1.1084573332e+02   5.4924106826e+01    0.2995282    0.2076048  72.61  0.001609306    1.484    0.326
       130  -8.7022    179.1759     93.8163   6.3635522269e+01   2.6419092206e+01    0.2047574    0.1700678  -1.62 0.0006867577    1.362    0.266
       131  -9.8885     47.1607     92.8391   1.0133479739e+02   5.3020982854e+01    0.4217141    0.2025925 -57.69  0.001811614    1.890    0.471
       132  -9.8194     52.0455     93.9724   9.9712162617e+01   5.2113713349e+01    0.2492352    0.1913346 -61.49            0    1.224    0.183
       133 -10.4107     48.7158     88.3145   9.9763239924e+01   5.3960339232e+01    0.5086988     0.253615  51.31            0    2.378    0.579
       134 -10.1399    116.7744     91.8837   7.7518347479e+01   4.0977326492e+01     0.266713    0.2479209  30.14 0.0002689727    1.122    0.109
       135  -9.6990     16.2405     86.7939   1.1260027334e+02   5.7566450449e+01    0.4306046    0.2761054 -43.77  0.002297778    1.640    0.390
       136  -9.3525      7.3877     89.1551   1.1646856600e+02   5.7542595398e+01    0.3114715    0.1757901  41.76   0.00084115    1.845    0.458
       137  -8.8274     11.0130     86.1651   1.1465303917e+02   5.8076121925e+01    0.3684117    0.1301069 -66.20  0.001552931    2.260    0.558
       138  -9.8455    124.4165     87.7214   7.4216991948e+01   4.0149422781e+01    0.4728517    0.2709725 -54.23  0.001868029    1.975    0.494
       139 -10.5099    129.5317     85.6945   7.2275151615e+01   3.9391493230e+01    0.4322984    0.3656295  30.95  0.001370778    1.276    0.216
       140 -10.0157    132.8918     81.9137   7.0292026315e+01   3.9355570673e+01    0.2678286    0.2301504  28.42  0.000522742    1.272    0.214
       141 -10.2314     87.3466     87.0376   8.5228437184e+01   4.8094880817e+01    0.6848708    0.3388741 -54.53   0.00267611    2.071    0.517
       142 -10.0200     43.1720     88.2257   1.0193451310e+02   5.4662187190e+01    0.3667485    0.2263665  31.36  0.001277783    1.709    0.415
       143  -8.5396     94.2525     86.9888   8.2929848346e+01   4.6763962745e+01    0.2072367    0.1910175 -44.18 0.0003377344    1.099    0.090
       144  -9.3055     70.1159     86.6649   9.1201966549e+01   5.1239434487e+01    0.2464268    0.2004253 -71.17 0.0007253904    1.262    0.208
       145 -10.0544     80.2400     83.5009   8.6676300863e+01   5.0235123471e+01    0.5059751    0.4483512  -1.80  0.002668844    1.314    0.239
       146 -10.5312     73.6923     80.9019   8.8296799154e+01   5.2005990458e+01    0.5657464    0.3753892 -40.70  0.002609286    1.594    0.373
       147  -8.7391     63.2977     87.3369   9.3913627437e+01   5.2157900695e+01    0.1493711    0.1103025 -28.64 0.0003937081    1.655    0.396
       148  -9.3744     55.5423     86.9978   9.6795455034e+01   5.3375824710e+01    0.3765541    0.1561416  28.50  0.001406207    2.733    0.634
       149  -9.4030    181.1447     85.8990   6.1172489678e+01   2.7291113411e+01    0.2297664    0.1919577 -59.28 0.0004934009    1.285    0.222
       150 -10.2405    155.0356     84.6767   6.5956012856e+01   3.3600971703e+01    0.4019098    0.2733128 -38.44  0.001064251    1.453    0.312
       151 -10.6342    151.1169     80.3772   6.5558288008e+01   3.5311479691e+01     0.478022     0.323167  55.44   0.00217832    1.499    0.333
       152 -10.2245    117.8750     84.3774   7.5018137445e+01   4.2311987349e+01    0.3607596    0.2357533 -39.33  0.001580664    1.575    0.365
       153 -10.3506     59.3748     83.4078   9.4415086224e+01   5.3706486453e+01    0.3710865     0.266881  50.96  0.001845422    1.489    0.329
       154  -9.0752     49.7002     83.6993   9.8314680755e+01   5.4982403271e+01    0.1940678    0.1291221  43.60 0.0004117897    1.573    0.364
       155  -8.8746     47.3017     81.7094   9.8814036578e+01   5.5784701159e+01    0.2263656    0.1829674  73.68 0.0005637434    1.362    0.266
       156  -9.3402     53.6683     81.5437   9.6195330194e+01   5.4980203815e+01    0.3061332     0.145809 -48.42  0.001105985    2.052    0.513
       157  -9.4898     42.0986     80.9440   1.0078189750e+02   5.6611414151e+01    0.3071607    0.2996212 -24.24  0.001877036    1.112    0.100
       158  -8.5678     38.4450     79.5210   1.0199476522e+02   5.7384489935e+01    0.1889284    0.1284726 -81.56 0.0001707989    1.558    0.358
       159  -9.8575    178.9027     80.8333   6.0195999671e+01   2.8638025318e+01      0.29015    0.1856448  -2.80 0.0008784982    2.488    0.598
       160  -9.3366      1.9835     79.7722   1.1765469431e+02   6.0175568649e+01     0.320181    0.1651912 -73.56  0.001633815    1.608    0.378
       161  -9.3245      1.2990     74.4593   1.1735404651e+02   6.1529942263e+01    0.3738537    0.1140935 -80.95  0.001207029    2.985    0.665
       162  -8.1064     14.1607     79.2765   1.1238142046e+02   5.9605922497e+01    0.3937835    0.1797553   9.10  0.001728404    2.815    0.645
       163 -10.9560     17.4374     73.8936   1.1006548956e+02   6.0727899752e+01     0.318837    0.3083537 -63.18 0.0005782428    1.106    0.096
       164 -10.1821    158.1612     76.7929   6.3011683837e+01   3.4250868298e+01    0.2847236    0.2491739 -19.51 0.0002795345    1.215    0.177
       165  -9.5824     68.9587     74.2123   8.8117960950e+01   5.4382091613e+01    0.5567594    0.2251546 -42.47  0.001736409    2.763    0.638
       166  -9.2537     61.6609     76.7170   9.1712059848e+01   5.4976013394e+01    0.4327026    0.1944328 -57.10 0.0009573818    2.157    0.536
       167  -9.5242     64.5127     75.4980   9.0234500280e+01   5.4814909431e+01    0.4000655    0.2644428  78.10  0.001672699    2.362    0.577
       168  -8.4885    129.7058     77.6789   6.9806361995e+01   4.0927728928e+01    0.1547639    0.1236497   8.52 0.0004144349    1.613    0.380
       169  -9.4376    116.0109     77.1466   7.3320740264e+01   4.4217132853e+01    0.2268154    0.1704691 -21.92 0.0005029907    1.607    0.378
       170  -9.8721    110.3757     76.8506   7.4852695732e+01   4.5549983989e+01    0.2959243     0.275539 -60.14  0.000822365    1.088    0.081
       171 -10.0555     53.1411     70.1917   9.3348074299e+01   5.7804394563e+01    0.3223891     0.210941 -60.05 0.0006764693    1.474    0.321
       172 -10.5372     83.4344     74.4320   8.2816723710e+01   5.1708033574e+01    0.4650624    0.2929336  25.06 3.997694e-05    2.059    0.514
       173 -12.0346     79.6532     70.1685   8.2812913488e+01   5.3380885915e+01     0.407184    0.3225415 -15.09  0.000178161    1.569    0.363
       174 -10.8342     89.4668     72.8730   8.0216846101e+01   5.0861154773e+01    0.5358561    0.3601774 -48.17   0.00156806    1.476    0.322
       175 -10.2664     94.3286     72.3139   7.8400364185e+01   4.9981818159e+01    0.8254018     0.310479 -48.81  0.002783094    2.732    0.634
       176  -8.7817     28.4136     75.3474   1.0544048487e+02   5.9453360419e+01    0.2597229    0.1083507 -61.23 0.0009227245    2.028    0.507
       177 -10.9727    170.6053     73.3636   5.9596154521e+01   3.1824388152e+01    0.3392149    0.3032335  24.92  0.000930045    1.232    0.188
       178 -10.9058    143.7080     72.2325   6.4745765064e+01   3.8571829318e+01    0.6359906    0.4741168  22.35  0.002893311    1.719    0.418
       179 -10.1719    143.7784     66.3174   6.2870571626e+01   3.9598183669e+01    0.3297353     0.304648  46.12 0.0008710745    1.103    0.093
       180  -9.7147    147.5262     64.4812   6.1472943154e+01   3.8980368668e+01    0.2616732    0.2350108  21.33 0.0006794357    1.239    0.193
       181  -8.3080     37.4403     75.4593   1.0150243687e+02   5.8506655854e+01    0.1386279    0.1243237 -55.59 0.0001877342    1.053    0.051
       182 -11.1623    152.0733     72.6701   6.3049168191e+01   3.6448186520e+01    0.2961825    0.2583164 -47.63 0.0004984482    1.139    0.122
       183 -11.3287    199.7079     71.7788   5.4383228189e+01   2.5254871528e+01     0.272241    0.2512215 -12.09 0.0003631409    1.127    0.113
       184  -9.2807    173.3633     69.1226   5.7875324818e+01   3.1841922817e+01    0.2874382    0.1965011  42.01 0.0008165934    1.610    0.379
       185  -9.6367    181.7127     72.0207   5.7265295057e+01   2.9385679714e+01    0.2104984    0.1838726 -28.56 0.0006210025    1.130    0.115
       186 -10.7687     46.0925     68.2530   9.5853128284e+01   5.9230797714e+01    0.6061019    0.4148993 -36.47  0.001720812    1.571    0.364
       187  -8.7657    101.1549     69.8335   7.5377063842e+01   4.9041216945e+01    0.2285684    0.2067158 -85.68  0.000393696    1.207    0.171
       188  -8.9405     10.0033     69.5808   1.1274573018e+02   6.2294670317e+01    0.2753259    0.1510449 -48.97  0.001401578    1.700    0.412
       189  -8.7407     64.0726     69.4812   8.8598972516e+01   5.6295003157e+01    0.2150926    0.1440406  36.85 0.0006916152    1.550    0.355
       190 -10.1560     30.4018     69.1866   1.0319356998e+02   6.0794022290e+01    0.7946796    0.4524904  54.28  0.003673164    2.166    0.538
       191 -11.1330     32.5667     64.4459   1.0102381954e+02   6.1737421001e+01    0.3254098    0.2857068  66.43 0.0009571175    1.254    0.203
       192 -10.5371     31.5289     58.6724   9.9985742219e+01   6.3240408719e+01    0.3731405    0.3087558  43.69  0.001214735    1.336    0.251
       193 -10.2745     15.0161     64.5428   1.0948347612e+02   6.3225571359e+01     0.977578    0.3191212  43.66   0.00362392    3.684    0.729
       194 -11.1108      2.2898     67.1865   1.1599689306e+02   6.3289316173e+01    0.3845201    0.2594977 -73.98  0.001711952    1.250    0.200
       195 -10.0633      5.4308     63.5218   1.1396474880e+02   6.4045562058e+01    0.3150072    0.1974685 -29.57  0.001104931    1.774    0.436
       196 -11.2406      1.8375     61.8091   1.1546393330e+02   6.4634975990e+01    0.6102352    0.1932461 -68.22 0.0007553694    2.398    0.583
       197 -10.8463      6.0226     59.0186   1.1293410296e+02   6.5122860241e+01     0.408081     0.302516  49.11  0.001384122    1.518    0.341
       198  -9.8753    120.3056     66.6016   6.8703320420e+01   4.5283929690e+01    0.5053961     0.339231 -30.27  0.002230009    1.632    0.387
       199 -11.0943    135.0466     64.6452   6.4328395197e+01   4.2055275622e+01    0.6388487    0.4324457  73.82  0.002762075    1.796    0.443
       200  -9.7785     75.3133     65.5771   8.2910438614e+01   5.5211741607e+01    0.3556449     0.235108 -29.76 0.0004346827    1.824    0.452
       201  -8.4988    170.8216     64.8410   5.7071183664e+01   3.3137472949e+01    0.2049743    0.1664916 -63.07 0.0002768706    1.303    0.233
       202  -9.7602     83.1917     63.7348   7.9350936127e+01   5.4090696830e+01    0.5036268    0.3471717 -76.93   0.00158536    2.184    0.542
       203 -12.1653     53.0453     75.0939   9.4762483390e+01   5.6639724902e+01    0.3413732    0.2941518  36.43 0.0003326875    1.223    0.182
       204  -9.9738     25.1104     54.1826   1.0200298918e+02   6.4943971699e+01    0.3532472    0.1935491 -58.35  0.001316238    1.580    0.367
       205 -10.4981     23.4191     62.7989   1.0502221937e+02   6.3007906058e+01    0.6006426    0.2819915 -32.23  0.001858363    2.806    0.644
       206  -9.5584     22.1342     58.5876   1.0466377219e+02   6.4144323592e+01    0.3534214    0.2264146 -61.63  0.000950161    1.362    0.266
       207  -9.8977    203.6043     63.4147   5.1617588993e+01   2.5573374638e+01    0.3917796    0.2434412  78.78  0.001365731    2.006    0.501
       208  -9.2785     98.1320     63.8669   7.4297415941e+01   5.0922608584e+01    0.3991565    0.1913868  44.56  0.001344886    2.101    0.524
       209  -8.6125    184.9507     63.4736   5.4336113864e+01   2.9918809742e+01    0.2106271    0.1430581  62.50 0.0007432697    1.538    0.350
       210  -8.6877     66.7278     63.7027   8.5653298532e+01   5.7166923395e+01    0.1987913    0.1326049   6.65 0.0001834107    2.338    0.572
       211 -10.5577     70.4160     59.8138   8.2823876675e+01   5.7372704512e+01    0.3103958    0.2709229 -74.67 0.0005719013    1.283    0.221
       212  -9.8051    193.8272     60.5596   5.2198881373e+01   2.8236999337e+01    0.3151025    0.2300261 -21.40  0.001603722    1.437    0.304
       213  -8.1996    110.2647     62.2926   7.0034148330e+01   4.8476505848e+01    0.1475591    0.1211785   7.40 0.0006907539    1.504    0.335
       214  -8.0852    212.3020     61.2572   4.9927335331e+01   2.3922269464e+01    0.1274702    0.1031286  22.52 0.0001689787    1.509    0.337
       215  -8.3189    115.9944     61.0373   6.7973783591e+01   4.7357378005e+01    0.1826263     0.175958  58.74 0.0006810171    1.027    0.027
       216  -9.2493     53.4355     60.9462   9.0378155204e+01   5.9929705409e+01    0.2592471    0.2116788  13.60 0.0007599304    1.376    0.273
       217 -10.2008    151.1444     59.6243   5.9174243992e+01   3.8878389012e+01    0.4603755    0.2612979  66.15  0.001887993    1.927    0.481
       218  -8.7780     15.9835     59.9225   1.0807158611e+02   6.4294897221e+01    0.1962676    0.1412303  62.99 0.0007313475    1.606    0.377
       219 -10.6029    105.2022     57.7934   6.9924987185e+01   5.0510392898e+01     0.276345    0.2434493 -39.38 0.0002723062    1.144    0.126
       220 -11.0740    161.0524     59.2088   5.7128931923e+01   3.6448453967e+01    0.6689057    0.4121653  -7.59 0.0008444896    2.514    0.602
       221  -8.6545    181.2077     58.6048   5.3525701213e+01   3.1542611711e+01     0.202237    0.1311388  51.03 0.0009421327    1.616    0.381
       222 -10.6548    169.2669     56.0422   5.4703124907e+01   3.4873471461e+01    0.6272746    0.3838051  45.65  0.002792435    1.779    0.438
       223  -9.7934    136.6698     55.9416   6.1045615417e+01   4.3145528604e+01    0.3648648    0.2783764 -23.67  0.001620989    1.435    0.303
       224  -9.3779    106.3614     66.1198   7.2515325713e+01   4.8630824593e+01    0.3197969    0.2087598  35.20 0.0006390686    1.727    0.421
       225  -8.7983     60.1748     57.6745   8.6318425308e+01   5.9614985568e+01    0.2525326    0.1936643 -63.44  0.001290408    1.400    0.286
       226  -8.7394     48.5386     57.8746   9.1586828353e+01   6.1345076836e+01    0.2118461    0.1279976 -51.34 0.0009995173    1.533    0.348
       227 -10.2305    225.7085     55.5789   4.6937161526e+01   2.1765799550e+01    0.2796177    0.2133938 -25.68 0.0005039147    1.246    0.197
       228  -8.9545    128.0336     40.5080   5.7500509462e+01   4.7799824885e+01    0.2197594    0.1979041  63.03  0.000556545    1.081    0.075
       229 -11.3175    125.1558     45.6655   6.0077135788e+01   4.7741975544e+01    0.5867538     0.477857 -41.04 0.0009591469    1.241    0.194
       230 -10.0419    123.0052     52.1630   6.2972498785e+01   4.7217560247e+01    0.5632783    0.2727854  46.30  0.002150073    2.112    0.526
       231  -8.1838     64.7427     56.3412   8.3898320563e+01   5.9135328278e+01    0.1410304    0.1138249 -84.57 0.0006958934    1.584    0.369
       232  -9.6507     32.2594     41.9459   9.4265481816e+01   6.7040264538e+01    0.3553378    0.2803766 -74.01  0.001557124    1.442    0.307
       233 -11.8429     41.0948     38.1980   8.7993227692e+01   6.6731475413e+01    0.5243663     0.322855 -16.93  0.001131388    2.304    0.566
       234 -10.0530     46.9781     47.3365   8.8612354802e+01   6.3934414906e+01    0.5201074    0.3065135 -33.66  0.001619772    1.892    0.471
       235  -9.2510     42.7728     44.3429   8.9576616113e+01   6.5181869197e+01    0.2804144    0.2323928 -67.46 0.0005750991    1.331    0.249
       236  -9.6791     44.2536     55.5663   9.2839700656e+01   6.2462936743e+01    0.3187901    0.2410314 -33.79  0.001217534    1.354    0.262
       237 -10.1894     42.3282     50.1443   9.1933035116e+01   6.3954615816e+01    0.4947718    0.1520983 -50.68  0.001754047    2.840    0.648
       238 -10.8999     37.8976     46.2109   9.2789666906e+01   6.5409645122e+01    0.4662694    0.3373508  67.44  0.002368351    1.948    0.487
       239  -9.8234     25.1981     38.8320   9.7152131607e+01   6.8496736223e+01    0.3574507    0.2563725  -1.12 0.0006961924    1.590    0.371
       240  -9.9322     14.1627     54.5991   1.0784904385e+02   6.5717967230e+01    0.5836524    0.2543207 -56.24   0.00269753    1.873    0.466
       241  -9.7622     20.0246     50.7019   1.0375789287e+02   6.6215927199e+01    0.3796138    0.2039216 -56.76  0.001099288    1.578    0.366
       242 -10.0554     17.1949     46.3519   1.0413915665e+02   6.7471196543e+01    0.4310235     0.295128  17.61  0.002438736    1.626    0.385
       243  -9.4522      8.3117     43.9062   1.0861109775e+02   6.8645839862e+01    0.2205086    0.1812103 -46.49 0.0003577079    1.095    0.087
       244  -8.4109     25.4367     47.5474   9.9906182332e+01   6.6479574691e+01    0.2342554    0.2064873 -62.00 -4.516014e-05    1.092    0.084
       245  -9.4328     27.3519     44.2167   9.7782670195e+01   6.7059701357e+01    0.2360842    0.1715137 -51.52 0.0007262037    1.221    0.181
       246 -10.8928      6.8527     50.4812   1.1089679555e+02   6.7155281292e+01    0.3627289    0.2544311 -72.01  0.001224001    1.259    0.206
       247 -11.2703      5.3083     37.8280   1.0892096134e+02   7.0237941759e+01    0.6017169    0.4874955  73.43  0.003815558    1.436    0.304
       248  -9.9505      4.9024     31.8592   1.0757972625e+02   7.1637549683e+01    0.3781264    0.2332917  -6.96  0.001769894    1.832    0.454
       249  -8.4602    192.2960    248.3388   9.0223630435e+01   1.1268719938e+00    0.1090492   0.06597188   8.14  0.000507134    1.655    0.396
       250  -8.8371     30.2382    246.9906   1.2044206931e+02   2.1242858372e+01    0.1222073   0.07839073  87.79 0.0008910837    1.649    0.394
       251 -10.5270    191.6056     54.0952   5.0710333013e+01   2.9674951229e+01    0.3476765    0.2519142 -21.27  0.001080215    1.459    0.315
       252 -10.4673    149.1515     54.9690   5.8068971032e+01   4.0131075206e+01    0.3102287    0.2601086 -85.40 0.0002931736    1.292    0.226
       253  -9.3084     83.6640     45.9924   7.2452487533e+01   5.7548283743e+01    0.3409193    0.1733165 -54.67 0.0009762386    2.607    0.616
       254  -9.4779     90.8055     40.9115   6.7868712845e+01   5.6883951964e+01    0.3607932    0.3052219 -82.44  0.001016231    1.440    0.306
       255 -10.8078     89.0523     49.5973   7.2008004260e+01   5.5705264042e+01    0.8974785    0.5369156 -69.93  0.003151022    3.301    0.697
       256 -11.0581     94.6691     49.6624   7.0153476452e+01   5.4443291643e+01    0.5017318    0.3763129  35.86  0.001442615    1.404    0.288
       257 -11.0123     93.9687     45.1695   6.8590255410e+01   5.5416252092e+01    0.3872266    0.2962241  32.30 0.0002848203    1.408    0.290
       258  -9.6150     82.5622     51.8007   7.5174011122e+01   5.6665667932e+01    0.5628479    0.3234041 -42.16  0.002447553    1.729    0.422
       259  -8.8048     79.3606     48.6671   7.5120752248e+01   5.7940441796e+01    0.2623925    0.1431161 -52.53 0.0007435695    2.089    0.521
       260  -9.4179     52.5463     54.0191   8.8419425258e+01   6.1633321254e+01    0.3611247    0.2323766 -51.16 0.0009645221    1.470    0.320
       261 -10.0124     53.7709     50.1516   8.6440222642e+01   6.2296005901e+01     0.275955     0.202213  22.98 0.0003663525    1.506    0.336
       262 -10.5768     31.1416     52.8484   9.8495174575e+01   6.4663928615e+01    0.5323373    0.2617176  31.58  0.002277058    2.147    0.534
       263  -9.7887     41.6027     21.9713   8.0036604695e+01   6.9850302571e+01    0.2678801    0.2518162  66.68  0.001380948    1.349    0.259
       264  -9.9005     70.9259     51.7519   7.9627002453e+01   5.8985161811e+01    0.8146005    0.3893831 -38.13  0.003209143    2.234    0.552
       265  -9.9060     51.9185     28.9663   7.8183596154e+01   6.6874908927e+01    0.2509608    0.1902471  49.38 0.0003613252    1.486    0.327
       266  -9.7225     48.4222     25.1777   7.8044895832e+01   6.8160941187e+01    0.4729134     0.243955  41.27  0.001318682    1.994    0.498
       267 -10.8921     56.5861     33.9158   7.8300865530e+01   6.5136798591e+01    0.9549502    0.4453834  56.20  0.003355153    3.652    0.726
       268  -9.7690    163.5442    246.4486   9.5050298780e+01   5.0156243628e+00    0.1875065    0.1148303  26.30 0.0009818157    1.271    0.213
       269 -10.2187     65.5251     49.0747   8.0812321567e+01   6.0535746427e+01    0.3701279    0.2387201 -38.52  0.001750112    1.550    0.355
       270 -11.2862     68.9870     47.9645   7.8922451340e+01   6.0123070440e+01    0.5130869      0.26796 -48.94  0.002168925    1.945    0.486
       271 -10.1844     39.8612     58.0350   9.5732726878e+01   6.2448841221e+01     0.288657    0.2295492 -74.85  0.001073119    1.343    0.255
       272  -8.0950    212.4616     51.5788   4.7392569750e+01   2.5171729562e+01    0.1329012    0.1231548 -41.11 0.0001210876    1.052    0.050
       273  -9.3408    175.2778     50.3610   5.2012287145e+01   3.4198588857e+01    0.2704901    0.2418292 -62.72 0.0008073595    1.088    0.081
       274  -9.8811    155.5214     50.4942   5.5387119536e+01   3.9192882256e+01    0.3024428    0.2229841  44.22 0.0008596386    1.449    0.310
       275 -10.0610    152.3147     48.4614   5.5317226664e+01   4.0322105982e+01    0.4039497    0.2172269  59.80 0.0009819007    1.822    0.451
       276  -9.5375    234.4323     47.7240   4.4133158345e+01   2.0916702878e+01    0.4082248    0.1940423 -65.17  0.001689338    3.034    0.670
       277 -10.0357    181.0231     48.8669   5.0706069546e+01   3.2978249652e+01    0.2798701    0.2295329  80.10  0.001496203    1.259    0.206
       278 -10.1511    114.3036     46.5120   6.3129678873e+01   5.0330088986e+01    0.4601899    0.2830946 -20.93   0.00154245    2.009    0.502
       279  -8.6577    224.5074     48.5304   4.5305802314e+01   2.2910762696e+01    0.1314953    0.1162392 -42.22 0.0002366193    1.026    0.026
       280  -8.5475    196.5821     48.2294   4.8408995249e+01   2.9284436640e+01    0.1862661    0.1326587 -16.15 0.0004797362    1.574    0.365
       281  -9.5848     31.8048     47.8580   9.6569590820e+01   6.5752603157e+01    0.1866451    0.1730628 -44.35 0.0005188117    1.030    0.029
       282  -8.6303    204.0410     46.2991   4.6967804817e+01   2.7781172634e+01    0.1843168    0.1758776  82.70 0.0006279012    1.118    0.106
       283  -8.6595    164.8227     46.1560   5.2380043297e+01   3.7442032887e+01    0.1966321     0.172701  26.10 0.0004801092    1.303    0.233
       284  -8.7720    139.2640     44.6519   5.6583164020e+01   4.4270112253e+01    0.2596037    0.1913078   1.04 0.0008042067    1.793    0.442
       285 -10.2830    245.5870     42.6436   4.1942902192e+01   1.9262100756e+01    0.3899485    0.2142058 -11.52  0.001855308    2.424    0.588
       286  -9.2514    200.0531     43.3540   4.6633113827e+01   2.9095990830e+01    0.2116728    0.1856775 -19.33 0.0003750777    1.213    0.176
       287  -9.6575    186.0103     43.8875   4.8550052922e+01   3.2420753337e+01    0.3781437    0.1437071  53.17  0.001411254    2.703    0.630
       288  -9.6489    175.6908     43.9486   5.0011350952e+01   3.4985662937e+01    0.3257367    0.1926791 -52.58  0.001112213    1.758    0.431
       289  -9.1880    149.8788     43.8932   5.4246669544e+01   4.1625050669e+01    0.2242604    0.2007424  30.24 0.0004794882    1.235    0.190
       290 -11.9356    103.9513     39.1382   6.3075863704e+01   5.4078396772e+01    0.4811231    0.3700208 -57.08 0.0005869563    1.467    0.318
       291  -8.8049     53.3922     43.0592   8.3824405972e+01   6.3863045543e+01    0.2023629    0.1632923 -46.31 0.0005470632    1.196    0.164
       292 -10.7977    228.3133     38.0443   4.2327670143e+01   2.3360554488e+01     0.393477     0.192846 -41.92 0.0007242771    1.711    0.416
       293  -8.6959    190.7739     40.3919   4.6924905902e+01   3.1707258081e+01    0.2272535    0.1751304 -37.07 0.0005407011    1.218    0.179
       294  -9.1948    192.5935     37.2678   4.5809593066e+01   3.1658119598e+01    0.2571266    0.1853924  20.91 0.0005453674    1.891    0.471
       295  -8.3286    171.4340     40.5160   4.9582291779e+01   3.6527735301e+01    0.1475729    0.1330957 -63.09 0.0001319384    1.060    0.057
       296  -9.0371    158.3412     39.0363   5.1148730082e+01   4.0104331868e+01    0.3747312    0.2020211 -50.96  0.001010854    1.992    0.498
       297  -9.8406    186.6480     37.2493   4.6528663094e+01   3.3121610354e+01    0.3205495    0.2426235 -79.51 0.0009087431    1.381    0.276
       298  -9.8935    182.2902     39.0623   4.7623814052e+01   3.3974851473e+01    0.2342892    0.2032725  88.26 0.0006149801    1.148    0.129
       299  -9.7682    176.8513     36.5082   4.7581680593e+01   3.5672549820e+01    0.4923508    0.2595572  80.29  0.001707965    2.212    0.548
       300  -8.4302    165.9747     39.5133   5.0089193073e+01   3.8062270166e+01    0.2073668    0.1414749  67.01 0.0003924715    1.457    0.313
       301 -10.8286    117.9605     52.7050   6.4467493912e+01   4.8375558546e+01    0.4846089    0.3122684 -35.28 0.0006913066    1.582    0.368
       302  -8.6761     82.4370     38.6278   6.9779244926e+01   5.9146577691e+01    0.2382152    0.1946038 -57.66 0.0006453001    1.390    0.280
       303  -8.9053    238.2208     37.7819   4.1408679008e+01   2.1309818356e+01    0.1628808    0.1434894  -2.20  0.001053271    1.344    0.256
       304  -8.0928    202.6208     38.3318   4.4959416628e+01   2.9119830157e+01    0.1549762   0.08992925 -60.44 0.0001099458    1.859    0.462
       305 -10.3586    124.5200     30.9824   5.4644736226e+01   5.0074696094e+01    0.5606077    0.3690899  83.14  0.002482762    1.804    0.446
       306  -9.3666    135.8197     36.4329   5.4342410264e+01   4.6363295690e+01    0.3711706    0.2238031 -35.73  0.001255675    1.653    0.395
       307 -10.6901    131.1248     35.7018   5.5037030980e+01   4.7695044597e+01    0.4971057     0.447548  -2.19 0.0005017199    1.234    0.190
       308 -10.5851    116.4934     33.8499   5.7619703515e+01   5.1748455084e+01    0.5294987    0.3575283  11.99 0.0005879509    2.110    0.526
       309  -8.9914      1.4447    244.0876   1.2566193867e+02   2.4419645340e+01    0.1341556   0.08038141  79.03 0.0003808718    1.522    0.343
       310  -8.5864    211.8340     28.2011   4.1302856934e+01   2.8169685523e+01     0.166713    0.1502464  -9.85 0.0005433829    1.273    0.214
       311  -9.6013     86.5825     35.7428   6.7058891682e+01   5.8718602037e+01    0.4155596    0.2758031  -0.90  0.001623449    2.270    0.560
       312 -10.3764    217.4002     34.5537   4.2446898807e+01   2.6167554114e+01    0.4752777    0.2091113 -70.20   0.00172789    3.619    0.724
       313 -10.0844    142.7041     32.0100   5.1430483023e+01   4.5150721454e+01    0.5443175    0.2815557 -42.41  0.002257682    1.933    0.483
       314  -9.9919    145.6515     28.7651   4.9757455983e+01   4.4787722198e+01    0.5119873    0.3817597 -48.33  0.002564976    1.350    0.259
       315 -10.1614     71.6607     29.9522   6.9878876322e+01   6.2930303170e+01    0.3173669    0.2952725 -31.83  0.001843389    1.096    0.088
       316 -10.3133     76.9175     34.6147   7.0024557045e+01   6.1032072777e+01    0.7561441    0.2954136  46.13  0.002478537    2.519    0.603
       317 -10.3350     75.6638     27.2065   6.7004912924e+01   6.2524696330e+01    0.4728608    0.3722569 -87.38 0.0009408198    1.792    0.442
       318  -8.7997     75.6746     31.3069   6.8963439495e+01   6.1856926758e+01    0.2386976    0.1782387  63.53 0.0003829106    1.560    0.359
       319  -9.2624     47.5310     34.3069   8.2928692813e+01   6.6574923347e+01    0.2134856    0.1555844  18.13 0.0003501912    1.524    0.344
       320  -9.2465    158.8688     29.7005   4.7971438701e+01   4.1179870881e+01    0.3205702    0.2480988   5.32  0.001252237    1.623    0.384
       321  -9.3838    151.9938     32.2478   4.9912926079e+01   4.2666860138e+01    0.2731355    0.2535668  31.77  0.001246076    1.184    0.155
       322  -9.0085    155.3289     30.7093   4.8853074548e+01   4.1984579274e+01     0.228337    0.1746927  68.64 0.0005794535    1.270    0.213
       323 -12.1155    107.6035     29.1367   5.7901422438e+01   5.4679580847e+01    0.4995514    0.4066685 -29.66  0.002603797    1.271    0.213
       324  -8.8469    203.1445     32.0968   4.3195443368e+01   2.9749233276e+01    0.1960672    0.1777898   3.24 0.0007375886    1.301    0.232
       325 -10.9522    186.1146     30.3138   4.4555990858e+01   3.4106694861e+01    0.5916811    0.4054191  83.78  0.001584008    1.512    0.339
       326  -9.5132    202.8640    242.4344   8.7669270746e+01   4.5372531688e-01    0.1664495    0.1100882  11.64 0.0004254774    1.256    0.204
       327  -9.6601     37.8146     26.7281   8.4627303178e+01   6.9521171990e+01    0.6255933    0.3512577  39.56  0.003080973    1.915    0.478
       328  -8.9884    247.3195    238.6657   8.0080733681e+01  -4.3869229903e+00   0.08455967   0.07360673  16.44 0.0002817681    1.700    0.412
       329  -9.0978    221.0748    237.5002   8.3995774248e+01  -1.2532415552e+00     0.158736   0.08061907  29.39 0.0007864087    1.549    0.354
       330  -9.5923     21.5589     23.0989   9.3044216058e+01   7.2257985797e+01    0.2623862    0.1481848 -56.77  0.001344784    1.719    0.418
       331  -9.5613     34.0718     30.6116   8.8624411533e+01   6.9251349046e+01    0.5624541     0.340214 -74.66   0.00238447    2.989    0.665
       332  -8.8664    222.3252    233.2953   8.3201590004e+01  -9.7106331124e-01    0.1108964   0.06361122   9.06 0.0004422139    1.624    0.384
       333 -11.4355     24.6724     31.0225   9.4478058299e+01   7.0265353860e+01    0.6025254     0.317774  21.03  0.002753573    2.108    0.526
       334 -11.4596     19.1315     29.0757   9.7221380733e+01   7.1230938033e+01    0.3607339    0.2448823  23.06 0.0004323718    1.590    0.371
       335  -8.6005    232.7910     31.6204   4.0368255781e+01   2.3145367722e+01    0.1712766    0.1115309 -82.15  0.000580752    1.697    0.411
       336  -9.4212     55.5593     29.4577   7.6655703810e+01   6.6145496257e+01     0.213078    0.1837569 -36.23 7.499357e-05    1.141    0.123
       337  -9.3869    247.7688     29.8077   3.8806347185e+01   2.0273912078e+01    0.2763143     0.183579  34.13  0.001458239    2.197    0.545
       338  -9.1633     94.7867     29.8422   6.1794257581e+01   5.7736263318e+01     0.346413    0.1695069  46.18  0.001398748    2.007    0.502
       339  -8.5428     32.0233    232.7289   1.1950473252e+02   2.3461635356e+01    0.1349387   0.07362717  37.90 0.0003306162    1.422    0.297
       340  -9.6195    186.4910    231.5005   8.9033588410e+01   3.8060047914e+00     0.114885   0.08551716  18.96 4.247502e-06    1.031    0.030
       341  -8.3349    176.6759    231.3243   9.0775456829e+01   5.1467257236e+00    0.1055689   0.08097108  49.79  0.000704805    1.686    0.407
       342  -8.2879    195.7755     29.0318   4.3111230908e+01   3.1878417246e+01    0.1726048    0.1061553 -30.76 0.0003935382    1.538    0.350
       343  -8.8463    207.5357     26.5203   4.1251084194e+01   2.9359359553e+01    0.2140733    0.1660367 -83.35 0.0007229712    1.289    0.224
       344  -9.9188    205.8282     22.8757   4.0423289552e+01   3.0168083274e+01    0.3519469    0.2790914  70.00  0.001710066    1.322    0.244
       345  -9.5690    165.2034     26.1242   4.5890838353e+01   3.9953952995e+01     0.481853    0.2592073 -70.01  0.001920756    2.391    0.582
       346  -8.6039    162.4325    225.4065   9.2640349867e+01   7.8877429922e+00    0.2595516    0.1787027  85.15  0.001199774    4.433    0.774
       347  -8.5086    134.0016     27.4950   5.1382274361e+01   4.8038069109e+01    0.2103295    0.1231494 -81.28 0.0008087453    2.410    0.585
       348  -8.6764    100.2858     26.6275   5.8770882533e+01   5.6859792162e+01    0.2095381    0.1259412  48.57   0.00039338    1.595    0.373
       349  -8.8809    223.8255    225.1191   8.1773807851e+01  -2.9405870727e-01    0.1544261    0.1199916  13.91 0.0006601022    1.147    0.128
       350  -9.5413    242.1113     24.8510   3.8052042238e+01   2.1950966909e+01    0.2764009    0.1073307  46.60  0.001081456    4.119    0.757
       351  -9.7551    233.6094     24.3268   3.8534177081e+01   2.3777995619e+01    0.4372728    0.1882948 -82.08  0.001783609    3.326    0.699
       352  -9.2195    159.0984     24.6460   4.6248984035e+01   4.1730056781e+01    0.2373856    0.1809537 -45.28 0.0008484268    1.280    0.219
       353  -9.9748     62.1076     23.5229   7.0647212800e+01   6.5931334250e+01    0.5178157    0.2823415  37.65  0.001688814    1.898    0.473
       354  -8.6540    132.0228    225.3069   9.8565370568e+01   1.2196508100e+01    0.1687554    0.1269044  34.31 0.0005541815    1.043    0.042
       355  -8.2061      1.9835    224.2686   1.2511453180e+02   2.7786882882e+01    0.1282188   0.07207653  37.59 0.0003663476    1.444    0.307
       356  -9.1506    196.4639    222.4829   8.6006886952e+01   3.5580439356e+00    0.1156549   0.08731385  16.03 0.0001143709    1.023    0.022
       357  -9.0959     88.5995    220.9516   1.0706319276e+02   1.8873789330e+01    0.1998622    0.1401764  31.63 0.0005648528    1.279    0.218
       358  -9.0691    203.1262    217.8195   8.4158516318e+01   3.2202496659e+00     0.158686     0.126627  18.98 0.0002896552    1.122    0.109
       359  -9.5274    170.7693     23.6995   4.4388321718e+01   3.8788594180e+01    0.3685579    0.2184782  86.27  0.001135624    1.823    0.451
       360  -9.4049    174.3631     22.2040   4.3480873763e+01   3.8030428233e+01    0.3905687    0.1868778 -49.17  0.001031347    2.080    0.519
       361 -10.7425    153.7094     23.0770   4.6493356292e+01   4.3338136140e+01    0.2776823     0.245245  52.05 0.0002965644    1.177    0.150
       362  -8.9862    152.0631     18.3163   4.5081112026e+01   4.4314099475e+01    0.2247267     0.199989  -2.29 0.0006131078    1.283    0.221
       363  -9.0981    231.0289    209.1588   7.8170293480e+01   5.3575894783e-01    0.1718957    0.1142801   8.73 0.0004569472    1.251    0.201
       364  -9.7327    123.5589     22.6712   5.1555926236e+01   5.1401406713e+01    0.5608547    0.2823587 -74.76  0.001656652    4.028    0.752
       365  -9.0267    214.6274     22.7171   3.9617150314e+01   2.8139746531e+01    0.2288425    0.1375882 -70.22 0.0007136785    1.742    0.426
       366  -8.0195     80.5009     23.4079   6.3397988098e+01   6.2027250771e+01    0.1416978    0.1321155  29.53 0.0003548114    1.022    0.022
       367  -9.0528    189.0377     21.6656   4.1698965904e+01   3.4374252500e+01    0.2789668    0.1682728  13.98  0.001173896    2.735    0.634
       368  -9.4276    132.0634     21.5041   4.9460989622e+01   4.9287607270e+01    0.3150176    0.2459063  83.02   0.00109419    1.295    0.228
       369  -9.2269     35.2367    201.0797   1.1719865796e+02   2.9018951594e+01    0.2000604    0.0976242  63.43  0.001072795    1.871    0.466
       370  -8.8984    109.3982     21.7714   5.4295817665e+01   5.5203665174e+01    0.2615253    0.2039328  11.06 0.0008340848    1.504    0.335
       371 -10.9020    104.9191     21.0522   5.5073169618e+01   5.6438951849e+01      0.28309    0.2574992  70.31 0.0003764908    1.092    0.084
       372  -8.4658     85.9765     22.7462   6.1245405871e+01   6.0857335880e+01    0.1746113    0.1185863  53.50 0.0004105092    1.419    0.295
       373  -8.6332     10.4639     22.5074   1.0055351797e+02   7.3369361476e+01    0.1244889    0.1063285 -41.55 1.073327e-05    1.017    0.017
       374  -9.0896     36.0640     20.8874   8.2667793080e+01   7.0884114919e+01    0.2218872    0.1744217 -27.46 0.0006439522    1.183    0.155
       375 -10.5150    218.9993     19.1281   3.8338386911e+01   2.7533433563e+01     0.334654    0.2291638 -65.49  0.001326795    1.385    0.278
       376  -8.4742    120.4818    199.4616   9.7774715197e+01   1.8115952551e+01    0.1295546    0.1064158  43.03 0.0001964003    1.067    0.063
       377  -9.7618    199.3875     18.0579   3.9678733638e+01   3.2229023331e+01    0.3009838    0.2334647 -47.00  0.001235846    1.155    0.134
       378  -7.7217    140.2612     19.3282   4.7230074741e+01   4.7351367229e+01    0.1444551    0.1079862  30.50 0.0002331902    1.565    0.361
       379  -9.6360    144.5525     17.3490   4.5833257685e+01   4.6424145544e+01    0.3269452    0.2559071  56.33  0.001404985    1.256    0.204
       380  -8.6881      6.4983    194.5337   1.2330621917e+02   3.3066054866e+01    0.1130093   0.08837977  62.02 0.0001145539    1.050    0.048
       381  -8.2835     92.2031    188.3723   1.0280939013e+02   2.4410332625e+01    0.1871036    0.1003022  43.56 0.0006536905    1.579    0.367
       382  -9.2795     55.2683    181.2864   1.1099539154e+02   3.0833783855e+01    0.1896692    0.1784095  55.69 0.0004263548    1.181    0.154
       383  -8.8632     22.4923    179.4913   1.1890993394e+02   3.4770314207e+01    0.1232435   0.09567387  62.48 5.912443e-05    1.025    0.024
       384  -9.6102      7.2148    174.8157   1.2238324018e+02   3.7124443961e+01    0.1881918    0.1256818  60.85 0.0008508813    1.188    0.159
       385  -9.3076     17.4623    174.5251   1.1986464441e+02   3.6310038065e+01     0.120379   0.09777768  66.19 5.678912e-05    1.031    0.030
       386 -10.3193     17.5285    168.8384   1.1953296870e+02   3.7555039543e+01     0.215158    0.1894405 -29.19  0.001465105    1.568    0.362
       387  -8.3332     73.0000     16.8957   6.2747563243e+01   6.4634736416e+01    0.2129822   0.07836946 -30.83 0.0006753308    2.773    0.639
       388 -10.1775      6.8226    167.0094   1.2214047056e+02   3.8861503821e+01    0.2743534    0.1958163  -7.22   0.00166194    2.121    0.529
       389 -10.1537     14.1677    166.8111   1.2027401427e+02   3.8299576182e+01    0.1995249    0.1766739 -48.12 0.0007147769    1.469    0.319
       390 -11.7113     37.7402    159.2978   1.1353682238e+02   3.7738853550e+01    0.6354637    0.3140986  54.38  0.002463122    1.858    0.462
       391 -12.0957     30.3867    154.7979   1.1515991042e+02   3.9542383432e+01    0.5865185    0.3973016  67.68  0.002939482    1.320    0.242
       392  -9.8894      5.2462    141.4207   1.2128935486e+02   4.4833546962e+01    0.2334119    0.1998569 -60.22 0.0008313964    1.343    0.255
       393 -11.1727      2.4401    151.7369   1.2258552134e+02   4.2633023344e+01    0.7557859    0.1665095 -75.53  0.002844113    3.710    0.730
       394 -10.5808      4.2571    146.4223   1.2183290234e+02   4.3731729814e+01    0.3781886     0.197092  59.61  0.001364332    1.659    0.397
       395  -9.4196    249.1933    153.6035   6.5614800350e+01   4.5936507092e+00     0.160768   0.09756915  26.75 0.0003894057    1.691    0.409
       396 -11.4088     12.5245    152.1185   1.1987415683e+02   4.1777688980e+01    0.5496951    0.2687181  67.15  0.002795359    1.870    0.465
       397 -11.4040     13.6711    143.9432   1.1903820199e+02   4.3600959237e+01     0.433858    0.3064309 -33.42  0.002502578    1.953    0.488
       398  -8.7760    154.8956     14.0161   4.3208331127e+01   4.4020157546e+01    0.2033193    0.1956921 -83.90 0.0005528656    1.056    0.053
       399  -9.0359    139.4846     13.6245   4.5230086063e+01   4.8179008677e+01     0.278093    0.1582321  64.72 0.0008082929    1.620    0.383
       400 -10.5631     24.1808    162.6890   1.1742866345e+02   3.8326808818e+01    0.3516413    0.1655163  39.03   0.00180321    1.823    0.452
       401  -8.7611    230.1807    147.6363   6.7276747390e+01   8.2795954103e+00    0.1670717     0.104517  29.47 0.0004085008    1.633    0.388
       402  -9.6183     54.1570    146.0267   1.0752240146e+02   3.8952485606e+01    0.2096765     0.182532  45.06 0.0002672012    1.139    0.122
       403  -9.9249     45.9636    151.4372   1.1049168756e+02   3.8656002982e+01    0.2253509    0.1753369 -82.86 0.0002204192    1.229    0.186
       404  -8.7305     41.7115    139.0728   1.1035740954e+02   4.2097847704e+01    0.1908843    0.1576412  89.94 0.0007242118    1.112    0.100
       405  -9.1347    236.0393    137.0128   6.4233731519e+01   8.7575370416e+00    0.1877872    0.1615888 -10.27 0.0004566159    1.053    0.050
       406  -8.7890    230.6074    137.2065   6.5087853742e+01   9.6275316064e+00    0.1769456     0.105753 -20.08 0.0005935492    1.614    0.381
       407  -9.5168     34.3614    136.6028   1.1230329934e+02   4.3484435594e+01    0.2833676    0.1920175  31.60  0.001083411    1.514    0.339
       408 -10.4398      2.6089    134.8752   1.2169261888e+02   4.6565538146e+01     0.415127    0.2154692  84.52   0.00218734    1.688    0.407
       409 -10.2489     15.2880    135.2565   1.1794740865e+02   4.5549741081e+01    0.2282013    0.2067705  42.77 0.0008180559    1.213    0.176
       410 -10.4711     42.6751    131.7659   1.0918590908e+02   4.3776978145e+01    0.4641948    0.2468075 -53.55  0.002171819    1.979    0.495
       411  -9.6730     89.0181     13.1450   5.5594355225e+01   6.1370263190e+01    0.2043522    0.1940675  44.36 0.0004931005    1.023    0.022
       412  -8.3972    248.6814    133.6907   6.1756349145e+01   7.1704161093e+00    0.1238313   0.08232703   3.38 0.0002657349    1.639    0.390
       413 -11.3626     28.6783    132.0435   1.1357342626e+02   4.5161900801e+01    0.2465223    0.2115616  66.38 0.0003028021    1.061    0.058
       414 -10.5871     33.8466    128.8720   1.1161226676e+02   4.5435778772e+01    0.6281803    0.2972713 -49.43 0.0005452218    2.420    0.587
       415  -8.9209     30.0461    125.4940   1.1244362720e+02   4.6648519278e+01    0.1765769    0.1603482  70.20 -0.0001236813    1.071    0.066
       416 -10.3655     32.8072    121.8782   1.1112378970e+02   4.7279089099e+01    0.5692789    0.2741269  29.20  0.002627056    2.114    0.527
       417  -9.0429     23.4971    133.4461   1.1530583826e+02   4.5295862608e+01    0.2095749    0.1280233  19.54 0.0005884644    1.903    0.475
       418  -9.7820     20.2119    130.8964   1.1608909904e+02   4.6204766799e+01    0.3838097    0.1584364  55.81  0.001367822    2.420    0.587
       419  -9.5199     12.8177    127.2066   1.1808510693e+02   4.7698846692e+01    0.2597776    0.1654972 -51.39  0.001267958    1.742    0.426
       420 -10.1594      8.0139    133.0143   1.1997433338e+02   4.6640527616e+01    0.2320393    0.1830199  -6.19  0.001440309    1.692    0.409
       421 -10.2702     12.4226    130.9294   1.1849149107e+02   4.6821121481e+01    0.2098235    0.1735099  43.83 -0.0001541599    1.232    0.189
       422  -9.6290     61.6498    131.0822   1.0319421456e+02   4.1583276047e+01      0.23451    0.1744393  51.07 0.0004238488    1.283    0.221
       423  -8.3540    232.7242    128.3405   6.2914381964e+01   1.0486270131e+01    0.1209575   0.09281226 -50.41 0.0004624244    1.617    0.381
       424  -8.6796    217.7759    125.0422   6.4490606236e+01   1.3590936595e+01    0.1816786   0.09847672 -32.87 0.0008803856    1.684    0.406
       425  -8.6567     59.5533    125.0696   1.0289505088e+02   4.3343520229e+01    0.2134462    0.1335849 -72.04  0.001016717    1.591    0.371
       426 -10.9536      6.7798    123.9773   1.1974519150e+02   4.8917443878e+01     0.316207    0.2231474 -34.27  0.001835323    1.822    0.451
       427  -8.7001     95.0388    123.7430   9.1726226162e+01   3.8094147759e+01    0.2003932    0.1856683  47.48 0.0002028189    1.060    0.057
       428  -8.8984     72.0434    123.7196   9.8714016692e+01   4.1886387730e+01     0.200104    0.1766387  50.39 0.0003970223    1.102    0.093
       429  -9.0433    236.7788    121.0001   6.0764950792e+01   1.0794341138e+01    0.1827417    0.1264791  22.03   0.00103744    1.620    0.383
       430  -9.1163    123.5367    120.9887   8.3158646432e+01   3.3292913987e+01    0.2233203    0.1917754  46.15 0.0003322089    1.129    0.115
       431 -11.2503     19.8231    110.4305   1.1419501343e+02   5.1322323890e+01    0.5919383    0.4929494 -59.06  0.003645022    1.228    0.186
       432 -10.7603     27.5596    115.7925   1.1214490881e+02   4.9306932842e+01    0.4588452    0.3365428  76.97  0.001832797    1.290    0.225
       433 -10.9167     21.2063    119.7316   1.1471285457e+02   4.8879293805e+01      0.61698    0.3189654  55.16  0.002982907    1.917    0.478
       434 -10.2574     14.2158    113.7559   1.1647104442e+02   5.0920385565e+01    0.4218198    0.1590962  32.65   0.00163511    2.504    0.601
       435  -9.6835     93.5562    119.1280   9.1186420453e+01   3.9436188710e+01    0.2750358    0.2325865  -1.64  0.001050095    1.494    0.331
       436  -8.2293     61.9893    120.0034   1.0125738647e+02   4.4261274968e+01    0.1698138     0.154775 -88.47 0.0003623864    1.034    0.033
       437  -9.2260     44.3058    119.7853   1.0704064827e+02   4.6568580687e+01    0.2961152    0.1745232  37.53  0.001244914    1.666    0.400
       438 -10.6878     54.7172    118.0448   1.0331039796e+02   4.5727733227e+01    0.2346996    0.2027753  47.67 0.0002541373    1.151    0.132
       439  -9.2789      2.0938     92.8541   1.1890752370e+02   5.6903994468e+01      0.22915    0.1527468  46.97 0.0006998036    1.544    0.352
       440  -9.5386      7.8915    106.8029   1.1802442324e+02   5.3088543239e+01    0.4005648     0.201471 -76.76  0.001375239    1.700    0.412
       441 -10.8100      2.3575    114.8002   1.2054022192e+02   5.1444600255e+01    0.5670912    0.2579896  77.65  0.002659154    2.108    0.526
       442 -10.5239      4.1600    110.9993   1.1966101802e+02   5.2275100146e+01    0.4388747    0.2832223  64.26  0.002505423    1.445    0.308
       443  -9.4201      3.5730    104.4018   1.1934873965e+02   5.3945917077e+01     0.590663    0.2102954 -89.53  0.002374791    2.733    0.634
       444  -9.4742      6.0022     94.2608   1.1754376015e+02   5.6340812680e+01    0.2662867    0.2022016 -86.92  0.001139533    1.134    0.118
       445  -9.1823     83.5667    117.6248   9.3918597204e+01   4.1522052380e+01    0.2389637    0.1635257  58.59 0.0008618293    1.582    0.368
