#   1 NUMBER                 Running object number                                     
#   2 MAG_AUTO               Kron-like elliptical aperture magnitude                    [mag]
#   3 X_IMAGE                Object position along x                                    [pixel]
#   4 Y_IMAGE                Object position along y                                    [pixel]
#   5 X_WORLD                Barycenter position along world x axis                     [deg]
#   6 Y_WORLD                Barycenter position along world y axis                     [deg]
#   7 A_WORLD                Profile RMS along major axis (world units)                 [deg]
#   8 B_WORLD                Profile RMS along minor axis (world units)                 [deg]
#   9 THETA_WORLD            Position angle (CCW/world-x)                               [deg]
#  10 FWHM_WORLD             FWHM assuming a gaussian core                              [deg]
#  11 ELONGATION             A_IMAGE/B_IMAGE                                           
#  12 ELLIPTICITY            1 - B_IMAGE/A_IMAGE                                       
         1 -11.2776    119.5248     56.8446   2.9440790716e+01   4.6825418270e+01     1.651504    0.8882533 -68.28  0.004293554    7.152    0.860
         2 -11.3730     78.8845     35.7374   3.4045671593e+01   5.8375855730e+01    0.7061903     0.495242 -30.52  0.004010938    1.544    0.352
         3 -11.9598    104.4510     13.5324   1.8848625573e+01   5.5492569491e+01    0.4567367    0.3284665  -8.96  0.002712501    1.665    0.400
         4 -12.5135    105.6919     20.3820   2.0917117877e+01   5.4556264679e+01    0.3505768    0.3045436  88.42 0.0006509661    1.371    0.270
         5 -12.3940    113.9456     25.2566   2.0641043523e+01   5.2191554273e+01    0.8345472    0.3197281  46.60  0.002196406    2.288    0.563
         6 -12.0775     48.5180     13.0019   3.5958919967e+01   6.6477859843e+01    0.7620468    0.2266939  42.59  0.003233621    2.897    0.655
         7 -11.9338     26.0588     28.9018   5.2947971338e+01   6.7447321807e+01    0.6232767    0.3829989  -5.10   0.00324084    1.612    0.380
         8 -11.6559      6.7591     11.0458   5.5631212077e+01   7.1958325818e+01    0.5227244    0.4099849   9.41  0.003973067    1.291    0.225
         9 -11.7700     20.2588     22.0978   5.3079267388e+01   6.9085554933e+01    0.5797166    0.3304218 -25.68   0.00265805    1.572    0.364
        10 -10.8950      9.5561     19.5362   5.7694349790e+01   7.0480358202e+01    0.3461622     0.193919  -6.36   0.00104217    1.721    0.419
        11 -10.8320     12.8369      8.2261   5.0908548205e+01   7.1768894292e+01    0.3452221    0.2086895 -47.35  0.001245293    2.380    0.580
        12 -12.0640     16.4032     13.4902   5.1376695747e+01   7.0701575399e+01    0.6002458     0.273717 -25.71  0.003229683    2.175    0.540
        13 -11.9747     35.6816     19.4985   4.4420111991e+01   6.7599045124e+01    0.5204305    0.2735204 -26.98  0.002518271    1.878    0.467
        14 -12.1151    162.7121     28.1275   1.2493631708e+01   4.0388720053e+01    0.6683584    0.3099485  54.28 0.0009826706    1.949    0.487
        15 -10.9207     67.8622     19.2120   3.1347437653e+01   6.2449452458e+01    0.3173642    0.2938809  62.82  0.001338825    1.448    0.310
        16 -11.8969    165.1402     17.8161   9.4732559933e+00   4.0926750255e+01     0.513823     0.264331  46.71  0.002492301    2.138    0.532
        17 -11.1787     85.9064     14.3234   2.3819543133e+01   5.9404918930e+01    0.5459028    0.3036984  17.59  0.002655393    2.354    0.575
        18 -10.3447     89.2330      8.6011   2.0771772649e+01   5.9229394800e+01    0.2811771    0.2038395  -0.93 0.0009485987    1.576    0.365
        19 -11.7524    227.8969     15.2070   2.3706019518e+00   2.7169800805e+01    0.4160796    0.2179045 -80.27  0.001340653    1.872    0.466
        20 -11.8976    132.6541     15.3533   1.3777359850e+01   4.8854191914e+01    0.7870871    0.2408451  57.17  0.003172699    2.472    0.595
        21 -11.0624    191.8983     10.1584   4.5367167740e+00   3.5510345963e+01    0.4558555    0.2747168  -9.07  0.002314311    2.979    0.664
        22 -10.7118    207.8105      2.6165   1.4825238882e+00   3.2741015360e+01    0.4008382    0.1877108  84.26  0.001938956    1.928    0.481
        23 -10.0705    204.2641      1.5486   1.5538845647e+00   3.3614817635e+01    0.2103166   0.09451847  70.68 0.0006852123    1.867    0.464
        24 -11.6306    211.8746     10.4317   2.7456304748e+00   3.1069286357e+01    0.3866151    0.2569048 -45.03  0.001611612    1.500    0.333
        25 -10.5823    213.4859      5.4850   1.6053531721e+00   3.1234238201e+01     0.254126    0.1688917 -67.83   0.00126645    1.298    0.230
        26  -9.7332    165.2192      4.1926   6.0143912503e+00   4.2212162634e+01    0.2237248    0.1579139  38.21 0.0009950305    1.764    0.433
        27 -10.5789    168.8094      9.5153   6.9135835696e+00   4.0885235502e+01    0.4224994    0.1618303  59.57   0.00193896    2.162    0.538
        28  -9.7826    163.5321      8.8522   7.3930704904e+00   4.2182503333e+01    0.3353694    0.1619644 -43.08  0.001697172    2.208    0.547
        29 -10.8542    151.7847      7.6966   8.6275734580e+00   4.5049125419e+01    0.4317025    0.2692141  85.22  0.001438378    1.552    0.356
        30 -10.3552      1.2038      8.1857   5.7599468161e+01   7.2818508043e+01    0.2840597   0.07292678 -42.81  0.001310336    3.245    0.692
        31 -10.5713      2.0818      2.1473   5.4260042151e+01   7.3568609079e+01    0.2628905    0.1391784 -22.26  0.001682241    1.615    0.381
        32  -9.5971     78.0173      7.6909   2.3488398799e+01   6.1620174117e+01    0.1787979    0.1299454  47.55 0.0006961027    1.159    0.138
        33 -11.2677    184.5285      5.9386   4.3241320267e+00   3.7596372899e+01    0.3999936    0.2231894 -64.47  0.002173109    1.847    0.459
        34  -9.9734     63.1881      6.5056   2.7647665514e+01   6.4587956655e+01    0.2693865    0.1627867  41.55  0.001600933    1.335    0.251
        35 -10.0800    231.5449      6.4498   4.2187202603e-01   2.7370547720e+01    0.1795264    0.1245129  81.79 0.0001631685    1.264    0.209
        36 -11.1538    233.7512      2.7889   3.5958669165e+02   2.7306909458e+01    0.3435127    0.1802411 -71.36  0.001456262    1.684    0.406
        37 -10.8834    176.8596      5.8740   5.1125322239e+00   3.9360162256e+01    0.2970937    0.1660018  86.33    0.0005133    1.662    0.398
        38  -9.5175    122.0792      5.3818   1.2598589326e+01   5.2194727168e+01    0.1692473    0.1609166  18.53 0.0005166406    1.235    0.191
        39 -11.3326    242.8848      4.3465   3.5926521475e+02   2.5335539236e+01    0.2917843    0.1535549 -68.86  0.001477931    1.627    0.385
        40  -9.2981    245.7859      1.3381   3.5854909724e+02   2.5088029096e+01    0.1388891   0.08294418  73.91 0.0002586888    1.573    0.364
        41 -10.2467    142.4276      2.7890   8.5895125490e+00   4.7667087109e+01    0.2642291    0.2074498  29.42  0.001183547    1.536    0.349
        42 -10.8975    137.8653      4.1943   9.6555621023e+00   4.8619880141e+01    0.2713138    0.1978526  68.68 0.0004766521    1.121    0.108
        43 -11.4449    133.2895      2.4110   9.8374659611e+00   4.9833154670e+01    0.3324745    0.2337856  59.85  0.001564889    1.166    0.142
        44 -10.6743    113.6397      2.8257   1.3332002678e+01   5.4328937807e+01    0.3764144     0.254908  87.90  0.001303139    1.727    0.421
        45 -10.2632     72.8980      3.5699   2.3331335634e+01   6.2988145318e+01    0.4674483    0.1501454  43.68  0.002052922    2.442    0.591
        46 -11.1542     41.3595      3.8985   3.4776843881e+01   6.8562711331e+01    0.3390298    0.1807562  26.47  0.001222458    1.658    0.397
        47 -10.5152    218.7422      3.6399   8.2639351252e-01   3.0306706920e+01    0.2595576     0.176266  82.81 0.0009644146    1.235    0.190
        48 -10.5062    223.7828      2.6319   2.5604243778e-01   2.9356750754e+01    0.2208572    0.1639577 -82.33 0.0004049982    1.045    0.043
        49 -10.1563    105.5278      2.1569   1.4707359822e+01   5.6205669898e+01    0.2489237    0.1864118 -78.26  0.001072801    1.726    0.421
        50 -12.0472     22.8670     10.6757   4.6692602768e+01   7.0351123086e+01    0.4609898    0.2817581  13.96  0.002042433    1.419    0.295
        51  -9.5739     64.4726      2.0920   2.5331583184e+01   6.4732572038e+01    0.1496351    0.1111052  -9.52 0.0003584044    1.449    0.310
        52  -9.8812     13.3674      2.4769   4.7838620515e+01   7.2435255050e+01     0.210598   0.09030956  29.18 0.0008884362    2.089    0.521
        53  -9.2780    152.2360      1.3660   6.8783640210e+00   4.5487540852e+01    0.1728169    0.0993457  79.72 0.0005039536    1.548    0.354
        54  -9.4500     81.9795      1.1505   1.9818983187e+01   6.1348973937e+01    0.1695681   0.07156409  57.01 0.0004928038    1.959    0.490
        55 -10.1372     79.2409    115.5940   5.8450003894e+01   4.3196784243e+01    0.2460697    0.2287619 -53.48 0.0004077579    1.086    0.079
        56  -9.3012     67.7539    114.9974   6.2071983076e+01   4.5100952289e+01    0.2107063    0.1566721  56.53  0.001000996    1.627    0.385
        57 -10.3344     36.0045    102.9585   7.0387749217e+01   5.1828750159e+01    0.7162528    0.3289803   1.89  0.002562823    3.916    0.745
        58 -10.0019     31.7226     97.0946   7.0699357515e+01   5.3595172785e+01    0.3853332    0.2446435  58.25  0.001868256    2.311    0.567
        59  -9.9997     28.7812    100.7729   7.2536877960e+01   5.3015805812e+01    0.2264589      0.17452 -69.77 0.0004185061    1.324    0.245
        60 -11.7373     26.1229    106.9735   7.4684396120e+01   5.1798233822e+01    0.6547716    0.4630318 -39.33  0.002441382    1.321    0.243
        61 -11.7563     22.5674    114.3097   7.7201819100e+01   5.0352419890e+01    0.5417103    0.3136851  -4.85   0.00210585    2.275    0.561
        62 -11.4668     28.3452    113.1423   7.5043489648e+01   5.0143960329e+01    0.4354788    0.2853757   8.21  0.002035632    1.794    0.443
        63 -10.3231      7.5235    114.5425   8.2233480916e+01   5.1359262066e+01     0.231598    0.1971741 -50.14 0.0007106476    1.086    0.080
        64 -12.0474      2.4987    111.7721   8.3493121659e+01   5.2301655776e+01    0.4319985    0.2911154 -66.00 0.0008547377    1.225    0.184
        65 -11.2927      4.5282    105.6331   8.1938435504e+01   5.3622503891e+01    0.3752533      0.35063  -3.25  0.002039453    1.237    0.192
        66  -9.5901     12.7989    114.8406   8.0543531143e+01   5.0948824524e+01    0.2407919    0.0967414   7.06 0.0009721112    3.506    0.715
        67  -8.9451    104.3810    112.7333   4.9895697589e+01   3.9377843303e+01    0.1558575    0.1198781  69.72 0.0006988014    1.688    0.407
        68 -10.1456     49.2362    112.1361   6.7690455695e+01   4.8226614965e+01    0.2910784    0.1910191  32.05  0.001094301    1.614    0.381
        69 -11.6579     79.8272    108.2232   5.6451772709e+01   4.4806180757e+01    0.5296161    0.3318161  27.20 0.0009516775    1.703    0.413
        70 -10.7228     15.9387    109.5288   7.8654889466e+01   5.1988374888e+01    0.3260401    0.2074424  43.26  0.001026443    1.864    0.463
        71  -9.7557    101.7979    109.3896   4.9808647840e+01   4.0620161033e+01    0.2183453    0.1429416  27.42 0.0004716244    1.684    0.406
        72  -9.2241     45.4948    105.5684   6.7573728900e+01   5.0208649707e+01    0.2020306    0.1154317 -47.80 0.0005549245    1.574    0.365
        73 -10.9301     51.0120    100.1301   6.4370418158e+01   5.0812865888e+01    0.6757086    0.3519811 -32.56  0.002288623    2.249    0.555
        74 -10.3318     50.2703     91.8505   6.2611089712e+01   5.2767649616e+01    0.3189154    0.2357925  26.66  0.001356852    1.407    0.289
        75  -8.8151    182.4951    104.4784   2.8496482320e+01   2.4059154812e+01    0.1449604    0.1411841 -71.33 -1.17463e-05    1.014    0.014
        76 -10.2614     85.8861    103.6201   5.3289559414e+01   4.4817667737e+01    0.2501442     0.196061 -33.12 0.0005397662    1.293    0.226
        77 -11.5025     67.7537     95.9201   5.7372298702e+01   4.9469991948e+01    0.6301727    0.4613071  -6.21  0.003082539    1.606    0.377
        78 -11.1546     17.4724    100.6617   7.6588175048e+01   5.3951040309e+01    0.2352976    0.2005908 -44.54 0.0004866893    1.041    0.039
        79 -11.5514      9.2623     96.9644   7.8887010954e+01   5.5347525124e+01    0.4331496    0.3926588 -16.11 0.0008341747    1.192    0.161
        80  -9.8291     71.9471     84.3028   5.2683977543e+01   5.1299134828e+01    0.1937904    0.1877573   9.12 0.0003246336    1.116    0.104
        81 -11.8037     76.5081     79.9975   4.9816386907e+01   5.1419059539e+01    0.9240513    0.7206997  75.86  0.003711305    2.009    0.502
        82 -11.6827     79.4432     92.7816   5.2495732753e+01   4.8284327535e+01    0.7409007    0.6764804  48.13  0.004166567    1.214    0.176
        83  -9.6330    210.1159     98.3483   2.2194430914e+01   1.9146167603e+01    0.1846402    0.1674572  82.05 0.0004247527    1.125    0.111
        84 -11.4376    248.6669     95.9225   1.6247474760e+01   1.1951562223e+01    0.2312226    0.2260045 -16.96  0.001606477    1.253    0.202
        85 -12.2703    125.4362     94.7330   3.9054239223e+01   3.8829835465e+01     0.418537     0.303508  54.11 0.0003970035    1.416    0.294
        86 -10.4541     35.4693     92.4154   6.8267970006e+01   5.4295231213e+01    0.4863713     0.284588 -78.54  0.002153306    2.565    0.610
        87 -11.5647     45.0348     84.5948   6.2712114999e+01   5.4983196221e+01    0.5472571    0.4245677  12.94  0.001943854    1.320    0.242
        88 -10.3377     37.2579     86.0046   6.6059493655e+01   5.5535745415e+01     0.349105    0.2170676  10.62  0.001790134    1.793    0.442
        89 -10.5125     43.4743     94.4641   6.5765501839e+01   5.2985600668e+01    0.3355328    0.2545774   3.80  0.001866068    1.412    0.292
        90 -11.3170     41.7617     90.5884   6.5469890897e+01   5.4042969743e+01    0.4576662    0.2483867  39.06 0.0009299127    2.096    0.523
        91 -11.6814     21.2966     92.5276   7.3617794762e+01   5.5526952405e+01    0.8165783    0.5018478  89.46  0.002592497    2.479    0.597
        92 -10.3610     25.6682     87.6905   7.0923751299e+01   5.6256667984e+01    0.4465316    0.3230139  85.85  0.002411161    1.984    0.496
        93 -10.1168     28.6204     84.7018   6.9095764714e+01   5.6658456436e+01     0.286369     0.203987  38.79  0.001150038    1.665    0.399
        94 -11.6112     99.0470     91.2167   4.5692395946e+01   4.5032318573e+01    0.4081726    0.2529227  48.30  0.001813176    1.687    0.407
        95  -9.6924     89.8716     91.1539   4.8583006963e+01   4.6786288381e+01    0.2184452    0.2089053  83.42 0.0006107961    1.221    0.181
        96 -11.4809      7.3903     88.2172   7.8018775146e+01   5.7436519188e+01    0.4445687    0.3102321 -14.64  0.001789347    1.520    0.342
        97 -10.0118     66.6894     88.4962   5.5740454953e+01   5.1239809788e+01    0.3109466    0.2051909 -12.47 0.0008140793    1.949    0.487
        98 -10.1749    103.8718     87.4461   4.3130171273e+01   4.4831169131e+01    0.2562979    0.1774824 -36.30  0.001206626    1.500    0.333
        99 -10.2309     90.5478     85.9301   4.6856615768e+01   4.7728759733e+01    0.3378402    0.2990624  89.23  0.001808035    1.457    0.313
       100 -10.3100     52.0495     87.0067   6.0693346620e+01   5.3603272510e+01    0.2032236    0.1794886 -27.84  0.000291093    1.023    0.023
       101 -10.4963    143.2256     84.4893   3.1729480125e+01   3.6757504561e+01    0.2522124     0.245691 -60.83  0.000340401    1.065    0.061
       102 -11.1873    112.6383     83.1547   3.9300229558e+01   4.3842286046e+01    0.4926776    0.2692111  58.65   0.00191963    2.338    0.572
       103 -10.2520     67.1104     81.9583   5.3732740447e+01   5.2543006259e+01    0.3684126    0.2743925 -16.39  0.001918694    1.437    0.304
       104 -11.4725     53.0326     74.3842   5.6781860824e+01   5.6111608910e+01    0.6137568    0.3137397 -52.62  0.002797394    2.040    0.510
       105  -9.6109     46.4988     76.0140   5.9803954675e+01   5.6616534774e+01    0.2018995    0.1677302 -33.67  0.001200286    1.094    0.086
       106  -9.5186     92.5818     71.8320   4.1924398262e+01   5.0042382006e+01    0.2320192    0.2148538  54.94   0.00114016    1.216    0.177
       107 -10.9191     88.8998     77.8280   4.4971510670e+01   4.9628011072e+01    0.4933628    0.3080765  44.19  0.002154469    1.603    0.376
       108 -10.5805     94.6892     76.3974   4.2670484499e+01   4.8788488855e+01    0.4251777    0.2858506  48.44   0.00144124    1.534    0.348
       109 -10.7382     58.1012     77.6986   5.5818335460e+01   5.4743675019e+01    0.2508212    0.1866391 -36.79 0.0005343573    1.264    0.209
       110 -11.5223    248.0470     76.9286   1.2557934029e+01   1.4995532944e+01    0.3380613    0.1884016  69.47  0.001807585    2.031    0.508
       111 -11.0452     14.2380     74.7590   7.2543056123e+01   5.9948067984e+01    0.3085805    0.2480602 -83.98  0.001744807    1.583    0.368
       112 -10.7311     80.9951     73.0892   4.6151586729e+01   5.1976260076e+01    0.6371797    0.2278513 -45.85  0.002302923    2.944    0.660
       113 -10.4420     77.9791     67.8118   4.5518469875e+01   5.3488930272e+01    0.4366373    0.2676587 -64.71  0.001756449    3.078    0.675
       114 -10.6554     80.8293     98.1884   5.3508378265e+01   4.6882551912e+01    0.3656915    0.2635891  46.01   0.00137813    1.499    0.333
       115  -9.7641     24.5772     73.7014   6.8031543795e+01   5.9375208932e+01    0.2470329    0.1011437 -52.42  0.001128348    2.045    0.511
       116  -9.9188    103.2925     74.8762   3.9553731173e+01   4.7339039379e+01    0.2574052    0.1979486  51.68  0.001121213    1.340    0.254
       117 -10.8855      1.9571     71.3568   7.6862507259e+01   6.1397931572e+01    0.3419511    0.1695814 -58.44    0.0018602    1.635    0.388
       118 -11.5344     40.8562     70.0220   6.0339239983e+01   5.8502934085e+01    0.4469138     0.252836 -50.46 0.0009209797    1.695    0.410
       119 -10.6651     34.6238     71.7967   6.3391270972e+01   5.8821976727e+01    0.3950641    0.1970636  33.83  0.001909535    2.175    0.540
       120  -9.2933    154.0299     72.4659   2.6028759158e+01   3.6306847294e+01    0.2251598    0.1359543  53.71 0.0005349254    1.560    0.359
       121 -10.8199    122.7984     68.9514   3.2301285568e+01   4.4150525624e+01     0.414241    0.2777037  41.75  0.001188416    1.429    0.300
       122 -10.3801     13.9682     67.5967   7.0952140506e+01   6.1469246934e+01    0.3143833    0.1529625  10.63  0.001415051    2.270    0.560
       123 -10.3269     96.8870     65.5193   3.8569571825e+01   5.0300861430e+01    0.3017528    0.2448772   9.39  0.001253756    1.312    0.238
       124 -11.1361     92.5890     62.9099   3.9068428649e+01   5.1605886204e+01    0.5208074    0.3050569  47.31  0.002167271    1.674    0.403
       125 -12.4550      6.6051     62.1483   7.2802628658e+01   6.3056742263e+01    0.8443273    0.4371465 -29.10  0.004607134    1.791    0.442
       126  -9.7777     12.4858     59.4812   6.9518375536e+01   6.3217520955e+01    0.1884558   0.08778072 -45.75 0.0006472724    1.713    0.416
       127 -10.2917    201.7287     64.8739   1.5837530017e+01   2.6395525060e+01    0.2428236    0.1783071  77.91 0.0002323505    1.350    0.259
       128 -10.1362    158.7006     62.9286   2.2500640972e+01   3.6714592280e+01    0.3324733    0.1714837  45.63 0.0009526624    2.009    0.502
       129  -9.8462    104.8306     63.5709   3.5568207753e+01   4.8982765173e+01    0.2030524    0.1320014  58.60 0.0009356714    1.739    0.425
       130 -10.1827     51.4328     55.8144   5.1538038433e+01   5.9851198447e+01     0.465017    0.1947903 -31.77  0.001865031    2.824    0.646
       131 -10.3700     51.2055     61.3988   5.3482226633e+01   5.8870353435e+01    0.3209959    0.2223015  41.19  0.001749576    1.660    0.397
       132 -10.9790     40.3494     56.7705   5.6466419982e+01   6.1115234412e+01    0.4529906    0.3023724   0.19  0.002033551    1.562    0.360
       133 -11.0738     43.0000     60.9297   5.6689661124e+01   6.0019678184e+01    0.3493541    0.1779255 -50.37 0.0008106206    2.013    0.503
       134 -11.1646     46.2058     59.4079   5.4871866277e+01   5.9901515014e+01     0.318476    0.2667048 -26.60 0.0007837591    1.109    0.099
       135  -9.7174     84.2396     61.5736   4.1343457020e+01   5.3446166133e+01    0.2419732    0.1770085 -50.24  0.001251868    1.639    0.390
       136 -10.1173     65.0454     61.3004   4.8064616481e+01   5.6838002361e+01    0.2918542    0.2866237  -0.02  0.001214572    1.246    0.197
       137  -9.6360     57.9662     61.9957   5.1001603551e+01   5.7800162581e+01    0.1968859    0.1734847  74.08  0.001143547    1.693    0.409
       138  -9.7751    113.6861     61.1810   3.2329089788e+01   4.7455294580e+01    0.2171443    0.1833992 -55.35  0.001032833    1.382    0.276
       139 -10.7205     51.2540    249.4491   8.5245995405e+01   1.5824468289e+01    0.2275367    0.1106615  30.02  0.001142971    2.155    0.536
       140 -10.2133    124.7371     56.4995   2.8034218154e+01   4.5689622864e+01    0.2803667    0.2227412 -41.65 0.0005942452    1.378    0.274
       141  -9.9244    122.9062     44.5072   2.4758047825e+01   4.7814954526e+01       0.3725    0.2013761  51.67  0.001321894    1.624    0.384
       142 -10.6884    111.1350     40.5802   2.6371561098e+01   5.1006493482e+01    0.4680617    0.3448465 -48.36  0.002537086    1.630    0.386
       143 -10.2746    112.5072     50.5363   2.9259658902e+01   4.9334185396e+01    0.2564591    0.2170239  -2.35  0.000777389    1.313    0.238
       144 -11.4052    117.1785     45.1839   2.6350396061e+01   4.9033982264e+01    0.6181186    0.5010731 -37.56  0.003057961    1.375    0.273
       145 -11.9072    119.4933     37.6792   2.3396115485e+01   4.9482353419e+01    0.5592721    0.3813339 -53.36  0.001900415    1.842    0.457
       146 -11.8850     76.0840     53.1990   4.1291720498e+01   5.6336054061e+01    0.4485892    0.3127513  20.33 0.0009357787    1.458    0.314
       147 -11.9129     72.8631     47.4853   4.0412387718e+01   5.7812628453e+01    0.9586624    0.3534634 -48.64  0.002493812    4.463    0.776
       148 -10.5613     30.8238     53.2767   5.9475474803e+01   6.2824765324e+01    0.4294304    0.1893152  15.44  0.001680877    2.675    0.626
       149  -9.7007     27.7142     59.5589   6.2799087280e+01   6.1948330323e+01    0.7388132    0.3012869  32.83   0.00340053    2.632    0.620
       150 -10.7792     25.4483     55.7100   6.2637325611e+01   6.2900243454e+01    0.4235507    0.2396781 -17.08  0.001642648    1.915    0.478
       151  -9.1430    135.5544     59.2212   2.6304509816e+01   4.2766976378e+01    0.1924671    0.1409845 -14.72 0.0009431321    1.731    0.422
       152 -10.6898     88.1931     56.1007   3.8214869499e+01   5.3592851910e+01    0.5951715    0.2353075 -27.86  0.002025051    3.741    0.733
       153  -9.5531     91.8623     57.5560   3.7533199553e+01   5.2634274513e+01     0.269494    0.1990634  76.98   0.00118744    2.193    0.544
       154  -9.8680    106.8929     58.5035   3.3356806370e+01   4.9360974435e+01     0.213952    0.1312732  48.81 0.0006596549    1.516    0.340
       155 -10.2004    156.9641     53.9949   2.0405650893e+01   3.8452250973e+01    0.4367211    0.2957857 -84.98  0.002072454    1.887    0.470
       156  -9.5917    155.0000     49.9998   1.9677101248e+01   3.9484039735e+01    0.2621173    0.1726046 -18.65  0.001257408    2.027    0.507
       157  -9.5209     33.5242     56.7382   5.9394138750e+01   6.1895849237e+01    0.2095774    0.1024037  25.73 0.0008502862    2.054    0.513
       158 -10.1784    100.4270     54.9283   3.4054485601e+01   5.1293984008e+01    0.3436009    0.1974014  52.27 0.0009476767    1.720    0.419
       159 -10.3509    246.8000     54.3946   8.2888561883e+00   1.8475929105e+01    0.1569782    0.1050439  60.21 0.0006210604    1.676    0.404
       160  -9.3295     66.8349     53.8993   4.4876962500e+01   5.7823778969e+01    0.2931915    0.1675043 -61.92  0.001083974    4.102    0.756
       161 -11.1264     60.6175     48.5196   4.5336944806e+01   5.9715961687e+01    0.7024333    0.3628544 -32.78  0.003230478    1.989    0.497
       162  -9.9272     55.6491     50.4379   4.7976186498e+01   6.0167274340e+01    0.2028012    0.1344033  14.06 0.0004022964    1.545    0.353
       163 -10.0678     51.9879     48.4692   4.8754455787e+01   6.1033474188e+01    0.2914872     0.220301  35.21 0.0007082408    1.392    0.282
       164 -10.3647     46.9692     48.5219   5.0852894764e+01   6.1727805579e+01    0.3435101    0.2085018  13.39  0.001021101    1.754    0.430
       165 -11.6801     44.5642     44.4127   5.0395242327e+01   6.2736318431e+01    0.4327402    0.3408636 -29.36  0.001006663    1.232    0.188
       166 -10.3876     39.0458     44.2414   5.2732466177e+01   6.3476439602e+01    0.2980952    0.1853929  16.64    0.0010255    1.561    0.359
       167  -8.9600     93.5182     52.5055   3.5321677037e+01   5.3094132315e+01    0.1401771    0.1240271  24.97 0.0008103281    1.017    0.017
       168 -10.5945     11.0270     51.3518   6.7933357831e+01   6.4902938406e+01    0.2637727    0.1511637 -52.23  0.001528516    1.567    0.362
       169  -9.8734     13.3913     46.7670   6.5449599102e+01   6.5592239900e+01    0.2538852    0.1139307 -33.36  0.001282632    2.001    0.500
       170 -10.2913    239.9659     51.0336   8.3063195190e+00   2.0273804267e+01    0.1730136    0.1630121 -75.00  0.001019199    1.255    0.203
       171  -8.7855    215.2908     51.7060   1.1127436848e+01   2.5305340253e+01    0.1317446   0.08571042 -69.92  0.000194405    1.552    0.356
       172  -9.7468    144.8732     50.6069   2.1806009189e+01   4.1818532211e+01    0.2435397    0.1838828   8.13 0.0005886475    1.824    0.452
       173  -9.6765     82.5065     47.2377   3.7013900523e+01   5.6064971963e+01    0.3351918    0.1691861 -23.36  0.001422787    2.545    0.607
       174  -9.5041      2.0500     49.0107   7.1504558815e+01   6.5907339168e+01    0.1539563    0.1387317  48.42 0.0007749969    1.578    0.366
       175  -9.4566     34.0264     45.8041   5.5525690884e+01   6.3808717877e+01    0.2242532    0.1477422 -28.77  0.001109321    1.361    0.265
       176  -9.3907     26.4559     48.4530   5.9871692966e+01   6.4146611369e+01    0.1257017   0.09928935 -17.46 5.191409e-05    1.038    0.037
       177 -10.4929     29.8883     45.2456   5.7210492331e+01   6.4362194712e+01    0.3738571    0.2073708 -14.54  0.001890485    2.072    0.517
       178 -10.4369     22.7187     37.2047   5.7736239347e+01   6.6467350665e+01    0.4403793     0.176726  34.41  0.002101241    2.759    0.638
       179 -10.6603     21.0290     46.3168   6.1688520363e+01   6.5042910903e+01    0.4251022    0.2239613 -37.53  0.002190277    1.625    0.385
       180  -9.9885    235.1735     45.7640   7.7375713757e+00   2.1944128193e+01    0.2209559    0.1008522 -67.85 0.0009539424    2.823    0.646
       181  -9.6179    138.5913     44.6496   2.1357067833e+01   4.4122842529e+01    0.4038834    0.2220273  19.83  0.001391335    4.121    0.757
       182  -9.9052    200.6813     45.4300   1.1519877179e+01   2.9388284274e+01    0.2467549      0.11929  72.19 0.0009047808    2.078    0.519
       183  -8.8858    179.7336     45.3101   1.4351136795e+01   3.4235190434e+01    0.1348866   0.09390818 -70.80 0.0002280499    1.539    0.350
       184 -10.4795    156.0123     42.2017   1.7356078428e+01   4.0284495324e+01     0.257046    0.2477148  -5.26 0.0008559345    1.225    0.184
       185  -9.9705     57.2283     42.0258   4.4285491368e+01   6.1272120157e+01    0.2362322    0.1646663  31.37  0.001358234    1.326    0.246
       186 -10.1663     26.0491     43.0539   5.8228400914e+01   6.5141096338e+01    0.2283806     0.201529 -49.35 0.0009324806    1.466    0.318
       187  -9.0742     91.4303     41.4599   3.2147475250e+01   5.5118877792e+01    0.1339189    0.1196215  31.87 7.614786e-05    1.046    0.044
       188 -11.8124    126.8935    241.6805   6.8274211748e+01   6.5209458639e+00    0.3754313    0.2575228  48.86  0.002064974    1.396    0.284
       189 -10.4991      9.5166     31.0027   6.2122466309e+01   6.8659546738e+01    0.5745471    0.3436738  -0.54  0.003103287    1.574    0.365
       190 -10.2817      3.8898     39.7239   6.7915065166e+01   6.7530644079e+01    0.3090562    0.2067662  47.85  0.001826459    2.505    0.601
       191 -10.7974      4.2984     35.9596   6.6514180816e+01   6.8176925710e+01    0.4726945    0.2138305  22.33  0.002618857    2.271    0.560
       192  -9.9692    231.6312     37.7050   6.4747214588e+00   2.3716125682e+01    0.1694273   0.09427096 -48.94 0.0009442777    1.582    0.368
       193 -10.8231     61.2798     35.9046   4.0381318215e+01   6.1516147057e+01     0.450148    0.2720206  -7.84  0.001647458    2.071    0.517
       194 -10.2585     68.1494     32.4610   3.6502207378e+01   6.0797819495e+01    0.4156511    0.2257357  41.92  0.001620434    1.654    0.395
       195  -9.0193    195.3769     37.5433   1.0374983414e+01   3.1614625253e+01    0.1273144    0.1100106 -82.40 9.212271e-05    1.028    0.027
       196 -10.5377    152.9163     36.0957   1.6214937590e+01   4.1791401087e+01    0.2170882    0.1910426  56.77            0    1.105    0.095
       197 -11.5084    175.2849     33.6367   1.2085108081e+01   3.6763495593e+01    0.4534641    0.2837691 -51.28            0    1.658    0.397
       198  -9.0354     94.6801     36.3100   2.9372880385e+01   5.5124818310e+01    0.1257555    0.1060588 -88.40 0.0006588324    1.644    0.392
       199 -11.1085    146.6924    238.2621   6.3459392828e+01   4.0249037211e+00    0.4385826    0.3148167  76.31  0.002202617    2.291    0.563
       200  -9.2582    167.3843    238.2105   5.8994057735e+01   7.6904675800e-01    0.1605432    0.1289323 -56.59 0.0006544624    1.617    0.382
       201 -10.7685     72.6700    238.1001   7.9743100398e+01   1.5300780858e+01    0.2660899    0.2539383 -19.07   0.00178901    1.354    0.261
       202 -11.3855    106.4035     32.7698   2.4967819412e+01   5.3032335579e+01    0.4018618    0.2610242  17.25  0.001882309    1.977    0.494
       203 -11.3317    103.0812     32.8995   2.5871598652e+01   5.3747000289e+01    0.2382804    0.2216659 -31.57            0    1.242    0.195
       204  -9.2491     45.5780     24.5473   4.2171779681e+01   6.5536806655e+01    0.1832965    0.1098815 -28.76 5.307093e-05    1.668    0.401
       205 -12.2017     58.1071     29.8659   3.9234987698e+01   6.2868861172e+01    0.3632051    0.2617844   6.68  0.001129707    1.336    0.252
       206 -11.9049     49.3676     30.3079   4.2935398168e+01   6.4191119607e+01    0.5976503    0.2687389  34.45  0.002271268    2.031    0.508
       207  -9.2050     15.4196    233.8165   9.1307873593e+01   2.3055872428e+01     0.156452     0.092747 -67.20 0.0009426493    1.728    0.421
       208  -8.7338    189.6942    229.6986   5.2943464366e+01  -1.2508710164e+00     0.134221   0.09197741   0.23  0.000595095    1.596    0.373
       209 -11.1715     67.7615    240.6416   8.1048341454e+01   1.5450294129e+01    0.2654963    0.2157909   0.89  0.001180996    1.769    0.435
       210  -9.4334    164.7349    211.8060   5.5222374380e+01   6.0000324217e+00    0.1811714    0.1634373  60.11 0.0004985176    1.335    0.251
       211 -10.4659     13.9608     22.7068   5.6615777476e+01   6.9610679035e+01    0.2742116    0.1877123  13.22  0.001737171    1.329    0.248
       212  -9.1952     61.4153    206.7770   7.8946914365e+01   2.3635241766e+01    0.1722769    0.1199212 -59.38 0.0004639374    1.497    0.332
       213  -9.5322    152.3118    206.6355   5.7129133119e+01   9.1551093346e+00    0.1433906    0.1126306  72.45  0.000703949    1.758    0.431
       214  -9.8104     78.6121    204.1978   7.4477255088e+01   2.1833133711e+01    0.2792805    0.1836515  68.49 0.0009921341    1.720    0.418
       215 -10.8795     38.8347     22.1962   4.4142548460e+01   6.6814037590e+01    0.2225952     0.151322 -21.33 0.0003899297    1.388    0.279
       216 -11.3627      5.3774    200.8231   9.1277260524e+01   3.1121074845e+01    0.4403647   0.09618574 -64.53  0.001706296    3.581    0.721
       217 -12.7746      4.6397    183.3655   9.0196850579e+01   3.5163739589e+01    0.7510918    0.3972533 -85.00  0.004049705    1.663    0.399
       218  -9.5783     32.8066     31.2039   5.0635779990e+01   6.6317387985e+01    0.1682708    0.1162207  -8.39 0.0002971895    1.310    0.237
       219  -9.5838    187.6674     22.9336   7.9120869631e+00   3.5118871903e+01    0.1689302    0.1474023 -67.17 0.0005629893    1.148    0.129
       220 -11.2150    188.9744     27.4193   8.8047650030e+00   3.4307601799e+01     0.382733    0.2695779  58.63  0.001192471    1.406    0.289
       221 -12.0584    125.8925     28.1722   1.8988676573e+01   4.9120466860e+01    0.4474911    0.3231474  71.41  0.001480377    1.368    0.269
       222  -9.1858     86.3132     30.3495   2.9697714750e+01   5.7589936799e+01    0.1394372   0.08962197  21.29 0.0007046359    1.722    0.419
       223 -11.3318    182.9749     25.5947   9.1035674830e+00   3.5904017099e+01    0.3518196    0.2677053 -66.29  0.001254557    1.274    0.215
       224 -10.5553    230.1369     27.1736   4.5234716680e+00   2.5325936106e+01    0.2505156     0.171637  65.00  0.001090456    1.517    0.341
       225 -10.3262    150.7722     27.0978   1.4084149749e+01   4.3350573634e+01    0.2659581    0.1383607  44.23  0.001230943    2.072    0.517
       226 -11.0804    144.8376     25.6646   1.4675243901e+01   4.4922225445e+01    0.3825158    0.2239079  78.05  0.001335226    1.801    0.445
       227 -10.1951    148.2870     21.9822   1.3064836865e+01   4.4494106597e+01    0.3641673    0.1095582  50.74  0.001353728    3.015    0.668
       228  -9.5394     98.0102     26.2581   2.4896677807e+01   5.5615143969e+01    0.1934023    0.1487328  46.22 0.0006407359    1.108    0.097
       229 -10.2311    155.3130     23.3415   1.2335966285e+01   4.2677957982e+01    0.4193248    0.2309745 -37.00  0.001952302    1.989    0.497
       230  -9.7254    169.0158     23.6117   1.0427531230e+01   3.9397017656e+01    0.2590103    0.1302926  57.13  0.001266776    1.774    0.436
       231 -10.3901     59.7655     22.7353   3.5707167279e+01   6.3489763762e+01    0.2390117    0.1947106 -11.89 0.0007483874    1.238    0.192
       232 -10.7229    135.2884     22.3684   1.5398911388e+01   4.7537018974e+01    0.4442579    0.2659704  66.75  0.002307966    1.481    0.325
       233  -9.1376    223.7020     22.2945   4.1210368118e+00   2.7239560726e+01    0.1241831   0.07325789 -69.03 0.0002607081    1.567    0.362
       234 -10.7877    178.8950     20.8477   8.4648809828e+00   3.7379371014e+01    0.4324402    0.2059736  47.99  0.002001002    2.416    0.586
       235  -9.3465      5.5866     22.2222   6.0942628328e+01   7.0384382119e+01    0.1468257   0.08382133 -34.03 0.0005427327    1.425    0.298
       236  -9.5507     28.1360    175.8531   8.3766908263e+01   3.4846378412e+01    0.1776223    0.1436893 -53.35  0.000550368    1.311    0.238
       237 -10.4089    247.0146     20.2885   1.8586723224e+00   2.2764440521e+01    0.1658683    0.1247638 -77.70  0.001146128    1.061    0.057
       238  -9.7597    216.8050     20.1472   4.3031092925e+00   2.8948293941e+01    0.1863032    0.1332792 -72.44 0.0004395069    1.196    0.164
       239 -10.4121     15.9151    174.1096   8.6686689958e+01   3.6401560803e+01    0.3223642    0.1608246 -88.16  0.001537716    2.011    0.503
       240  -9.7985     74.7112     19.4127   2.9148602959e+01   6.1132752154e+01    0.2382149    0.1542302  13.72 0.0008934384    1.706    0.414
       241  -9.4627     46.9089     20.2941   3.9804931212e+01   6.5878821499e+01     0.174086    0.1310246  21.48  0.000672551    1.103    0.093
       242  -9.9597    199.1393     17.4788   5.4308346640e+00   3.3115525348e+01    0.1921424    0.1592869 -60.43 0.0003582131    1.192    0.161
       243  -9.2361     39.3121    173.6597   8.0619716743e+01   3.4211582969e+01    0.1434007   0.09146002  67.91 0.0007046115    1.696    0.410
       244 -10.9048      9.4389    155.2205   8.6530885340e+01   4.1460719831e+01    0.2667797    0.1808174  86.99   0.00153918    1.389    0.280
       245 -12.1444      8.9960    166.9919   8.7774395004e+01   3.8671848346e+01    0.5211053    0.2982255  39.56  0.002886074    1.805    0.446
       246 -10.3237    127.1407     16.6064   1.5157637932e+01   5.0025472104e+01    0.2407451    0.1781327  48.24 0.0007629553    1.220    0.180
       247 -12.1612     11.2584    162.4936   8.6769273311e+01   3.9570817755e+01    0.6034648    0.3049231  83.64  0.002850942    2.169    0.539
       248  -9.7614    147.9831     16.0013   1.1447952774e+01   4.5171434348e+01    0.3539388   0.08026496  50.14  0.001143259    4.151    0.759
       249 -11.3362    238.8854     16.4443   1.7543247321e+00   2.4802308606e+01    0.3643104     0.154271  71.13  0.001951782    2.170    0.539
       250 -10.0989    186.6108     15.0489   6.2006200127e+00   3.6211893575e+01     0.224485    0.1530591  69.86 0.0005199936    1.275    0.216
       251  -9.4739     75.9140     14.7809   2.6934292077e+01   6.1376589416e+01    0.1681893    0.1367729  38.08 0.0003074383    1.063    0.060
       252 -10.5353     13.7082    159.3315   8.5808325816e+01   4.0137560345e+01      0.30683    0.1856629  74.95  0.001030992    1.749    0.428
       253 -10.7235     13.5007    156.4266   8.5562601893e+01   4.0856556511e+01     0.252701    0.2000871  71.33 0.0006284016    1.245    0.197
       254 -10.5277     18.4453    164.9786   8.5138826844e+01   3.8376242317e+01    0.3389469    0.1947788 -58.10  0.001793149    1.604    0.376
       255 -10.0970    205.0892    163.3263   3.7273844456e+01   8.1632717236e+00    0.2643045    0.1982016 -42.54 0.0007223606    1.294    0.227
       256 -10.6682     27.9320    161.8229   8.2257097444e+01   3.8279642933e+01    0.3263718    0.2073722 -67.61  0.001750664    1.391    0.281
       257  -9.8080    211.1639     16.1547   3.9916978584e+00   3.0609282366e+01     0.165189    0.1404425  88.20 0.0002740856    1.130    0.115
       258  -9.3897    104.4051    155.2260   5.9601659466e+01   2.9368380369e+01    0.2174672    0.1481958 -67.18 0.0009532099    1.673    0.402
       259 -12.7973     22.9413    148.7556   8.2066183858e+01   4.1941652161e+01    0.6577016    0.3132187 -40.71  0.001504654    2.500    0.600
       260 -10.9375      4.5229    153.7768   8.7703474802e+01   4.2162144526e+01    0.2045594    0.1746996  34.91 0.0008228916    1.346    0.257
       261 -11.0314     16.5020    147.9386   8.3795712335e+01   4.2679440888e+01    0.2741869      0.19546 -70.22 0.0008407548    1.204    0.170
       262  -9.2714     65.9332     10.4984   2.8410844944e+01   6.3705140221e+01    0.1911362    0.1020229  47.22 0.0005879907    1.591    0.372
       263 -11.2870     47.7022    147.0285   7.4594114776e+01   3.9857054900e+01    0.6030424    0.4091223 -32.97  0.002996463    1.743    0.426
       264 -10.3550      3.0733    147.6914   8.7501834591e+01   4.3717446958e+01    0.1971354    0.1464692 -54.02  0.000774687    1.294    0.227
       265  -9.2411    103.9484    147.1910   5.8071622633e+01   3.1388689036e+01    0.2010137    0.1749384  -5.23            0    1.306    0.234
       266 -10.8024     33.1258    144.5230   7.8541808396e+01   4.2041432661e+01    0.2671731    0.2449343  67.13 0.0007798788    1.138    0.122
       267 -10.1049     40.7250    138.8286   7.5394287997e+01   4.2673059628e+01    0.3810096    0.2318497 -64.03  0.001824068    1.488    0.328
       268 -10.6513     80.2349    138.5538   6.3226681860e+01   3.7514373818e+01    0.2811639    0.2545082  46.05 0.0006009057    1.134    0.118
       269 -11.7690     23.4348    136.4343   8.0302901718e+01   4.4920551954e+01     0.601664    0.4175844  44.51  0.001809187    1.583    0.368
       270  -9.6736     31.9989    137.5271   7.7859034646e+01   4.3878308494e+01    0.2381633    0.1258755  30.89 0.0007229042    2.017    0.504
       271 -10.6679     30.1392    132.7961   7.7715835891e+01   4.5217167228e+01    0.3611729    0.2329627 -38.22  0.001013607    1.646    0.392
       272 -11.4657     12.2321    136.2036   8.3626093568e+01   4.5855517077e+01    0.5921907    0.2602463 -51.18  0.002781772    2.038    0.509
       273  -9.1332    104.0029    130.8025   5.4423768264e+01   3.5290286187e+01    0.2025208    0.1203079  37.80 0.0003895827    1.680    0.405
       274 -12.1699      4.3400    143.1992   8.6694031093e+01   4.4710998586e+01    0.7322575     0.419056  64.52  0.003671582    1.985    0.496
       275 -10.3592      7.7661    129.8160   8.4175881174e+01   4.7702255523e+01    0.2011481    0.1761691  54.42 0.0007095302    1.279    0.218
       276 -10.5424     10.3806    126.5534   8.2961924289e+01   4.8312613876e+01    0.4579237     0.204324 -69.97  0.002134758    1.907    0.475
       277  -8.8249     26.5179    127.5045   7.8038295996e+01   4.6837176798e+01      0.13294    0.1168812 -61.92 7.961175e-05    1.001    0.001
       278  -9.3811     22.8682    126.8764   7.9098623792e+01   4.7299919043e+01    0.1687504    0.1420756  83.75 0.0004178488    1.254    0.202
       279  -9.7598     33.3766    126.1643   7.5631266028e+01   4.6535420846e+01    0.1937291    0.1204386 -76.63 0.0009468245    1.678    0.404
       280  -9.8019      2.0433    125.8806   8.5434009593e+01   4.8994509844e+01    0.2316157    0.1565778 -75.60  0.001371628    1.274    0.215
       281 -11.1822    104.2296    122.4115   5.2360993544e+01   3.7205682211e+01    0.3923276    0.3513919  36.75  0.001232355    1.112    0.101
       282  -9.5961     18.8111    123.8939   7.9942940540e+01   4.8345720637e+01    0.1919773    0.1528251 -49.96 0.0004300075    1.146    0.128
       283  -8.9839     85.0004    123.2129   5.8411490645e+01   4.0452965360e+01    0.1846916    0.1209707  34.26            0    1.551    0.355
       284  -9.8585     56.1077    121.9050   6.7422780870e+01   4.5035305953e+01    0.2097411    0.1870419  70.34 0.0004621084    1.264    0.209
       285  -9.7634     44.6218    119.8581   7.0814006228e+01   4.6904391019e+01    0.2203577    0.1860151  79.51  0.000563083    1.367    0.269
       286  -9.9325     43.4963    115.9940   7.0436368576e+01   4.7960584340e+01    0.2989736    0.2171885 -74.23  0.001017432    1.477    0.323
