#   1 NUMBER                 Running object number                                     
#   2 MAG_AUTO               Kron-like elliptical aperture magnitude                    [mag]
#   3 X_IMAGE                Object position along x                                    [pixel]
#   4 Y_IMAGE                Object position along y                                    [pixel]
#   5 X_WORLD                Barycenter position along world x axis                     [deg]
#   6 Y_WORLD                Barycenter position along world y axis                     [deg]
#   7 A_WORLD                Profile RMS along major axis (world units)                 [deg]
#   8 B_WORLD                Profile RMS along minor axis (world units)                 [deg]
#   9 THETA_WORLD            Position angle (CCW/world-x)                               [deg]
#  10 FWHM_WORLD             FWHM assuming a gaussian core                              [deg]
#  11 ELONGATION             A_IMAGE/B_IMAGE                                           
#  12 ELLIPTICITY            1 - B_IMAGE/A_IMAGE                                       
         1 -12.1204     66.8759     16.2259   2.5356186559e+01   6.5442000256e+01    0.2469773    0.2154502 -32.00 0.0004105489    1.285    0.222
         2 -11.4759     92.0633      8.5109   1.5553072108e+01   5.9977443232e+01    0.2045597    0.1883002  29.91 0.0005720196    1.281    0.220
         3 -13.1652     86.9980      8.0559   1.6309170121e+01   6.1296051488e+01    0.4400412    0.3007235  34.21   0.00141229    1.773    0.436
         4 -12.1926    215.2246      2.7083   3.2658050781e+00   3.3050597981e+01    0.1785886    0.1406302 -52.64 0.0002936868    1.126    0.112
         5 -10.2003    100.3359      1.3180   1.1214783380e+01   5.8517066784e+01    0.1351895   0.08725396  47.01 0.0007048772    1.700    0.412
         6 -15.1232     46.1672    225.8935   8.2336634975e+01   2.0376874311e+01      1.23877    0.9511737 -78.97  0.004811848    1.531    0.347
         7 -13.9359    246.1525    249.6433   4.4512361979e+01  -2.2077012952e+00    0.2463326    0.1568261   4.86  0.001293693    1.312    0.238
         8 -11.7307    237.0470    250.5184   4.5923977758e+01  -1.6697074433e+00    0.1409622     0.081073   1.34 0.0003631414    1.375    0.272
         9 -10.5050    179.4519    250.5578   5.5286087633e+01   2.8977400899e+00    0.1094996   0.07893883  -2.58 7.544348e-05    1.003    0.003
        10 -12.2972    139.8078    248.7800   6.2710901471e+01   6.8204372505e+00    0.2906568    0.1625433 -50.10  0.001325801    2.147    0.534
        11 -12.5395    124.4378    248.8236   6.5933482484e+01   8.3161819417e+00    0.3254317    0.2571381  82.15  0.001636193    2.305    0.566
        12 -12.1656    119.7317    244.4546   6.6461230608e+01   9.4901052556e+00    0.1806527    0.1316697  19.40 0.0009706015    1.130    0.115
        13 -11.3581    106.5007    250.7055   7.0034921916e+01   9.7795686382e+00    0.1930921   0.08713472  22.20 -0.0003319397    1.771    0.435
        14 -12.1611     84.5143    250.6378   7.4985792602e+01   1.1941844365e+01    0.2564123   0.09483969  21.59 0.0006609468    2.199    0.545
        15 -11.0155     77.1137    250.3625   7.6667614171e+01   1.2703376483e+01    0.1778222    0.1252706  28.70  0.001128787    1.154    0.133
        16 -15.1654     65.4102    247.1324   7.9150108021e+01   1.4399579882e+01     2.019826    0.8059345  30.58  0.009770922    1.877    0.467
        17 -14.7944     70.1913    226.9419   7.6307389944e+01   1.7800798101e+01     2.517206     1.433941  67.43   0.01202658    2.594    0.614
        18 -16.4011     12.7534    186.9850   8.9173187727e+01   3.2166727357e+01     2.372409     1.880144 -75.36   0.01372063    1.337    0.252
        19 -15.4566     35.7524    229.3869   8.5221595935e+01   2.0595354549e+01     1.689379     0.989368  70.57  0.009056302    1.976    0.494
        20 -14.3187     36.1474    249.1729   8.6211682876e+01   1.6651828809e+01    0.9406115    0.4883781  46.59  0.003518318    1.697    0.411
        21 -16.5791     18.9567    211.9913   8.8674553396e+01   2.5772673016e+01     2.271629     1.223999  53.78   0.01157452    1.721    0.419
        22 -15.5746      2.3993    217.1949   9.3258384372e+01   2.5847170355e+01     1.173628    0.5260521 -83.87  0.005697873    2.408    0.585
        23 -14.9813      2.0702    226.5704   9.3606970253e+01   2.3850576910e+01    0.6588713    0.3315771 -85.81  0.003487516    2.181    0.542
        24 -15.2076      4.8411    249.3837   9.3538942673e+01   1.9073938727e+01     1.015697    0.2541097  17.54  0.003945394    3.539    0.717
        25 -17.1562      9.5633    240.2303   9.2173667186e+01   2.0510196346e+01     2.034655     1.254716  13.61   0.01205845    1.538    0.350
        26 -15.8246      6.7513    233.4948   9.2648175608e+01   2.2076467579e+01     1.117083    0.4814233 -60.20  0.005470724    2.803    0.643
        27 -11.3563     48.8555    250.1015   8.3264106112e+01   1.5372473485e+01    0.1716054    0.1273373 -17.96 0.0004477182    1.594    0.373
        28 -11.3126    168.7062    244.9559   5.6548802562e+01   4.6334799454e+00     0.148028    0.1138095  -9.40 0.0002809995    1.101    0.092
        29 -11.2807    205.4579    244.0140   4.9943002806e+01   1.5240927430e+00     0.177725    0.1240371  23.32  0.001347886    1.610    0.379
        30 -11.5290     77.8767    243.2281   7.5884118290e+01   1.3911132639e+01    0.2231262     0.138159  17.02 0.0007557295    1.362    0.266
        31 -12.0889    143.6806    242.0699   6.1107141777e+01   7.4673839312e+00    0.2789715    0.1333976  19.24  0.001514408    1.788    0.441
        32 -11.0632    125.9307    241.8395   6.4817266814e+01   9.2900392309e+00    0.2320126    0.1254715  42.25  0.001227992    2.235    0.553
        33 -11.3665    246.3782    241.1858   4.3357294629e+01  -1.2941342081e+00    0.1353273      0.09209   6.55  0.000337207    1.353    0.261
        34 -11.4742    198.4872    240.8562   5.0681110590e+01   2.5166222284e+00    0.1838353    0.1420195  30.70 0.0009030611    1.825    0.452
        35 -11.1363    187.0185    241.2785   5.2721950239e+01   3.4692537167e+00    0.1486363     0.105487   2.06 0.0001685464    1.094    0.086
        36 -10.5562    159.2848    241.3089   5.7886332656e+01   6.0514675194e+00    0.1167094   0.07038023 -10.94 0.0003205391    1.569    0.363
        37 -12.1197    108.1870    240.1566   6.8552256799e+01   1.1391065515e+01    0.3171261    0.1693864  13.26  0.001181907    1.714    0.417
        38 -11.8088    149.1470    238.4777   5.9541205945e+01   7.4759499571e+00    0.2625157    0.2214355 -46.76  0.001874589    1.572    0.364
        39 -12.4201    103.4670    236.8429   6.9271434438e+01   1.2460667451e+01    0.2737771    0.2406878  67.23  0.001414461    1.541    0.351
        40 -11.0308    168.6600    236.7881   5.5486909563e+01   5.8070164874e+00     0.135952   0.09983328 -42.82 0.0003412805    1.632    0.387
        41 -15.1012     36.8788    198.5860   8.2856064898e+01   2.7315907030e+01     1.734958     1.094771  86.81  0.005790704    1.810    0.448
        42 -11.3547    210.5538    235.7155   4.7983095597e+01   2.1449733400e+00    0.1271275   0.08641204 -34.71 0.0009358395    1.526    0.345
        43 -11.7440    222.9182    231.7045   4.5479989337e+01   1.6153624505e+00    0.1805453    0.1019371 -24.19 0.0007031794    1.353    0.261
        44 -11.6240    182.3257    232.0052   5.2298885301e+01   5.1822299203e+00    0.1999059    0.1629254   8.12  0.001248484    1.261    0.207
        45 -11.4236    194.7847    229.4479   4.9738144892e+01   4.3683959713e+00    0.1962889    0.1235798 -29.46 0.0006843929    1.367    0.269
        46 -11.0793    150.6814    230.3580   5.8169535300e+01   8.5876708047e+00    0.1081828   0.08957635  46.45 0.0007044516    1.758    0.431
        47 -10.8836    139.0607    229.7081   6.0505034837e+01   9.9151214060e+00     0.169691    0.1266741   9.82 0.0003751742    1.102    0.092
        48 -11.6726    178.2135    228.7566   5.2597936704e+01   6.0448896510e+00    0.1882655    0.1233452 -18.41 0.0004528156    1.298    0.230
        49 -11.8114    182.1805    225.3179   5.1384904025e+01   6.1540765598e+00    0.2264062    0.1453647  -9.31  0.000578511    1.358    0.264
        50 -12.2836     96.4066    228.4271   7.0014775876e+01   1.4745991719e+01    0.3201942    0.1702096   8.59  0.001096012    2.003    0.501
        51 -12.8418    232.4897    226.3236   4.3286476828e+01   1.4933720349e+00     0.326028    0.1494569 -20.91  0.001471811    1.922    0.480
        52 -11.3646    120.9693    227.2705   6.4159545639e+01   1.2283953031e+01    0.1797783    0.1369861   9.63 0.0004606692    1.100    0.091
        53 -11.0424     87.4736    220.4988   7.1331323567e+01   1.7249695163e+01    0.1828112    0.1129178  11.92 0.0005610649    1.549    0.354
        54 -11.4574     73.6952    212.9088   7.4045089533e+01   2.0318267584e+01    0.4472982    0.2861174 -34.06  0.002312766    1.827    0.453
        55 -12.3843     77.1635    219.4175   7.3817522722e+01   1.8589658864e+01    0.5201917    0.3356837 -78.45  0.002759249    2.055    0.513
        56 -12.2552     81.5287    225.4835   7.3334094416e+01   1.6906087869e+01    0.4610252    0.2577731 -12.58  0.002114955    2.470    0.595
        57 -13.0511     81.6723    221.5376   7.2894268390e+01   1.7674549206e+01    0.4189983    0.3165863  53.73  0.002464073    1.501    0.334
        58 -10.8639    222.4735    225.5137   4.4671704163e+01   2.4258511972e+00    0.1046486   0.07477192 -13.19 0.0001293249    1.042    0.041
        59 -11.7429    116.4277    225.2403   6.4942119223e+01   1.3144780409e+01     0.147549    0.1260705 -70.33 0.0006381526    1.605    0.377
        60 -12.0223     91.7726    224.5247   7.0709078671e+01   1.5990869436e+01    0.2086173    0.1757839 -51.41 0.0007378468    1.377    0.274
        61 -11.6625    212.0699    223.5191   4.6014630387e+01   3.5901713461e+00    0.1842479    0.1277238 -31.60 0.0004007922    1.367    0.268
        62 -13.1551     57.6881    221.8890   7.9056795784e+01   2.0100425860e+01    0.4661679    0.3654589 -41.64  0.002454518    1.467    0.318
        63 -11.9904    193.3646    220.7531   4.8735510658e+01   5.7134922381e+00    0.3415991   0.08834236 -42.16  0.001478935    3.491    0.714
        64 -12.1776    160.3596    222.6052   5.5153540554e+01   8.7977068656e+00    0.3088774    0.1789201  25.00  0.001174011    1.572    0.364
        65 -11.9964    246.1166    221.2344   4.0627652420e+01   1.0163733586e+00    0.1850447   0.09597767 -19.55  0.001074014    1.509    0.337
        66 -13.5569    174.2182    219.9602   5.2089000119e+01   7.7537551132e+00    0.3287451    0.2163977 -33.25 0.0007893126    1.402    0.287
        67 -13.0952    124.2598    221.6540   6.2702098069e+01   1.2916031119e+01    0.3510778    0.2055077  25.07   0.00193415    1.479    0.324
        68 -12.2701    238.0641    220.5209   4.1651260610e+01   1.7460595425e+00    0.1361961   0.08409996  15.29  0.001004923    1.587    0.370
        69 -12.6073    145.9116    216.4403   5.7246183589e+01   1.1386464123e+01    0.3502432    0.3190373  18.49  0.001946571    1.292    0.226
        70 -12.9213    140.1792    212.6139   5.7931067969e+01   1.2701231326e+01    0.5448511    0.2722878 -38.15  0.002254054    1.999    0.500
        71 -12.6601    142.4568    205.1105   5.6336905919e+01   1.3761356314e+01    0.3497568    0.2310642  26.06 0.0004423653    1.406    0.289
        72 -12.7062    145.7904    201.4650   5.5061381264e+01   1.4009627576e+01    0.2815596    0.2386481 -62.94  0.001072091    1.626    0.385
        73 -12.6133    129.6045    216.2643   6.0779561624e+01   1.3273740334e+01    0.2408317    0.2201973  85.62  0.000988538    1.601    0.375
        74 -11.8429    115.5991    217.2139   6.4120619384e+01   1.4710200229e+01     0.172165    0.1097933 -37.36 0.0006300327    1.636    0.389
        75 -13.1138    108.0695    215.0663   6.5634576061e+01   1.5985628202e+01    0.3546673    0.2679555  64.03  0.001883894    1.895    0.472
        76 -11.2642    226.0197    216.3495   4.2804042403e+01   3.2853330312e+00    0.1404742    0.1016809  -6.39 0.0003594469    1.111    0.100
        77 -12.4908     84.2762    214.7203   7.1502948431e+01   1.8770510870e+01     0.548664     0.203228  29.45    0.0014943    2.199    0.545
        78 -11.5073    156.4167    213.2389   5.4599516223e+01   1.0741819044e+01    0.2558099    0.1807508 -31.79  0.001013143    1.331    0.249
        79 -13.5665    159.1561    207.0912   5.3123936972e+01   1.1453009653e+01    0.5976105    0.4199668   0.53  0.003334687    1.312    0.238
        80 -13.3177    123.4662    209.7468   6.1283385448e+01   1.5186856362e+01    0.2716211    0.2350451 -44.71 0.0005072107    1.314    0.239
        81 -12.0303    247.4558    212.9858   3.9254728063e+01   1.8933070382e+00    0.1649504    0.1182891  -1.62 0.0003874435    1.238    0.192
        82 -11.1179    209.6817    211.6995   4.4653376545e+01   5.4006852786e+00    0.1138388   0.06576844 -11.79 0.0003703903    1.620    0.383
        83 -11.3403    187.2594    211.5826   4.8448334696e+01   7.6591533733e+00    0.1488818   0.09336746   9.07 0.0003258381    1.493    0.330
        84 -13.4152    228.9082    206.4381   4.0894997406e+01   4.3078886548e+00    0.3940086     0.295263 -34.41  0.001944973    1.448    0.310
        85 -11.3509    170.3743    210.2283   5.1380533867e+01   9.6769151642e+00    0.1761952    0.1342577  37.45 0.0003992359    1.666    0.400
        86 -12.1801    180.2598    207.8110   4.9145614141e+01   8.9747007500e+00    0.2594664    0.1892238  -6.22 0.0009200607    1.159    0.137
        87 -12.8566     50.9288    206.5704   7.9561235855e+01   2.4105537006e+01    0.5128914    0.3452471 -67.30  0.001529521    1.660    0.397
        88 -11.9121    104.2070    206.6405   6.5492037657e+01   1.8099140441e+01    0.3153798    0.2390382  79.23  0.001701811    1.987    0.497
        89 -11.6307     55.6330    205.0453   7.8128637021e+01   2.3967591058e+01    0.3879652    0.1438622 -63.42  0.001318827    2.819    0.645
        90 -11.1706     72.3855    206.4397   7.3709439830e+01   2.1850676438e+01    0.2487072    0.1736531 -74.58  0.001328477    1.727    0.421
        91 -11.9138    116.7357    205.9753   6.2345322225e+01   1.6716062215e+01     0.183849    0.1665324  -4.66  0.001170338    1.083    0.076
        92 -12.1856    238.8440    204.6817   3.9206833366e+01   3.6448006913e+00    0.1772343    0.1204658 -25.13 0.0003456223    1.125    0.111
        93 -12.4916    111.2222    203.7346   6.3369567375e+01   1.7829360687e+01    0.3049105    0.2000567  35.31 0.0006599014    1.463    0.317
        94  99.0000     65.1433    182.2775   7.2985551149e+01   2.8227343969e+01    0.7233944    0.4498973 -15.67  0.003176038    2.151    0.535
        95 -10.4248     79.3925    195.0762   7.0498380675e+01   2.3550567295e+01    0.6941601    0.4549314  50.06  0.003471129    1.659    0.397
        96 -12.1076     69.0668    187.1654   7.2433932989e+01   2.6599088506e+01    0.6690339    0.1973858  37.40  0.001905211    2.877    0.652
        97 -11.9526     75.8419    186.2154   7.0374724975e+01   2.6003577765e+01    0.9860169    0.3943985 -66.40  0.003739005    2.922    0.658
        98 -11.4688     91.0026    189.0439   6.6541687918e+01   2.3459489166e+01     0.281714     0.212106 -60.29 0.0009762646    1.474    0.322
        99 -12.7725     91.0637    200.4338   6.8041937425e+01   2.0972089472e+01    0.8277107    0.3942596 -28.91  0.003125971    3.248    0.692
       100 -12.3701     86.6125    201.8218   6.9387426348e+01   2.1209042490e+01    0.4824605    0.2816631  65.61  0.001602527    2.793    0.642
       101 -12.5490     92.9640    193.3702   6.6608940928e+01   2.2260325942e+01    0.8395599    0.3218183  35.14  0.003352398    2.305    0.566
       102 -12.9915    173.0216    195.5406   4.8574233855e+01   1.1750117776e+01     0.249881    0.2261304  12.41 0.0003302146    1.287    0.223
       103 -12.6416    119.9337    213.7846   6.2656221443e+01   1.4848264614e+01    0.3380768    0.1449846  33.72  0.001545142    2.110    0.526
       104 -12.1986    136.0094    199.5591   5.6926885529e+01   1.5561906643e+01    0.3664576    0.2561302  88.99  0.001661071    3.322    0.699
       105 -11.6882    212.4844    199.9894   4.2403514339e+01   6.7516270168e+00    0.1704417    0.1490134  20.47 0.0008318997    1.524    0.344
       106 -11.4382    180.9181    199.6275   4.7745242889e+01   1.0179681584e+01    0.1933808    0.1283244   1.57  0.001182184    1.461    0.316
       107 -11.3817    219.3892    198.2152   4.1052238419e+01   6.3099893586e+00    0.1384132   0.08591926 -38.64 0.0002633455    1.512    0.339
       108 -12.5874    201.6135    196.4678   4.3610146747e+01   8.3850673841e+00    0.2755776    0.1819483 -14.72 0.0005284495    1.323    0.244
       109 -13.0570    122.3983    196.5886   5.9635747532e+01   1.7846958064e+01    0.2896112    0.2397843  36.02  0.001240473    1.283    0.220
       110 -12.8930    110.5443    196.0881   6.2457371694e+01   1.9458462813e+01    0.3249161    0.2375533 -10.06 0.0003030516    1.453    0.312
       111 -11.9764    192.0402    195.3014   4.5055213005e+01   9.6044272036e+00    0.3211313    0.1888159 -18.80   0.00125668    1.647    0.393
       112 -11.3594    189.4376    192.4843   4.5054694243e+01   1.0332256472e+01    0.1944567    0.1493765 -33.31 0.0005401838    1.247    0.198
       113 -10.9841     94.5136    218.0516   6.9307448536e+01   1.6951498140e+01    0.1692355    0.1306626 -56.35 0.0004306892    1.500    0.334
       114 -11.7970    153.1082    195.4930   5.2566315199e+01   1.4172561595e+01    0.1840766     0.114545  24.89  0.000603762    1.531    0.347
       115 -11.0928    138.3028    197.3021   5.6065158622e+01   1.5694697580e+01    0.1334338   0.08947895 -12.42 0.0002298732    1.591    0.371
       116 -13.0089    176.2097    200.8449   4.8816183054e+01   1.0520190952e+01    0.3819072    0.1874894 -39.73  0.001335163    1.861    0.463
       117 -11.7005    162.0089    192.6439   5.0270898938e+01   1.3568834455e+01     0.282008    0.1098526  30.32  0.001256434    2.536    0.606
       118 -12.6441    133.4163    190.4311   5.6095277201e+01   1.7623322999e+01    0.3014947    0.2105546  -4.90  0.001623318    1.527    0.345
       119 -12.5762     50.7143    189.9916   7.8091352308e+01   2.7986490910e+01    0.3810474    0.2299571  11.17  0.001025056    1.739    0.425
       120 -12.1133     28.9037    173.4871   8.3270400992e+01   3.4256159923e+01    0.4448544    0.2446914  73.31  0.001927872    2.081    0.519
       121 -14.3331     23.6373    196.9113   8.6544160089e+01   2.8888532973e+01    0.9556589    0.5795897  16.70  0.003807725    1.579    0.367
       122 -11.0849     43.4504    186.8818   7.9948093297e+01   2.9490602658e+01    0.3195068    0.1681401  47.47  0.001204937    1.841    0.457
       123 -12.5313     36.5144    185.9831   8.1953655400e+01   3.0392734172e+01    0.4018863    0.2171887   8.89  0.001513993    2.048    0.512
       124 -12.7090     33.4995    184.4443   8.2739358509e+01   3.1058294096e+01    0.3073621    0.2438646  85.54  0.001046932    1.328    0.247
       125 -12.5057     38.8863    181.4275   8.0832698449e+01   3.1295254095e+01    0.3991719    0.2919349  48.79  0.002096742    1.295    0.228
       126 -13.1582     37.4738    178.0073   8.0958046749e+01   3.2294550849e+01    0.7962199    0.2980806  18.59  0.002915307    2.646    0.622
       127 -10.8854    167.9483    189.4762   4.8565690220e+01   1.3377481520e+01    0.1756612    0.1135521  26.54 0.0006072797    1.536    0.349
       128 -11.0401     97.1199    188.6835   6.4849549404e+01   2.2752208262e+01    0.1887377    0.1685122  -3.37  0.001102002    1.081    0.075
       129 -10.9663    206.4936    188.4620   4.1512601006e+01   9.0368079445e+00    0.1146657   0.08915956 -18.11 2.223392e-05    1.027    0.027
       130 -12.8391    110.1521    187.8858   6.1340081503e+01   2.1212935743e+01    0.2733227    0.2409694 -88.32  0.001181662    1.465    0.318
       131 -12.9455    127.5032    186.0021   5.6769439435e+01   1.9277578139e+01    0.2753438     0.241509  34.59  0.001208575    1.234    0.190
       132 -13.2782    122.9487    186.0092   5.7865235035e+01   1.9889125351e+01    0.3645104    0.2382671  17.17  0.001496496    1.517    0.341
       133 -11.9118    247.4660    185.9788   3.5167039666e+01   5.2437550669e+00    0.1816007    0.1165724  -2.06 0.0008300916    1.554    0.357
       134 -11.7159    163.9892    185.2705   4.8647849476e+01   1.4599811485e+01     0.208078    0.1637171 -32.99 0.0004826549    1.192    0.161
       135 -10.5080    239.3095    185.2839   3.6138817197e+01   6.1041408672e+00    0.1057556   0.06295121 -13.76 0.0002115515    1.569    0.363
       136 -12.5468     94.2656    182.7309   6.4752677701e+01   2.4443932388e+01    0.6563221    0.2921574 -64.14  0.002571637    2.761    0.638
       137 -12.2248     89.6372    181.9178   6.5906511657e+01   2.5238545793e+01    0.3817697    0.2990418  88.70  0.001813089    1.650    0.394
       138 -11.3069    210.3605    182.7760   3.9956900338e+01   9.4475858885e+00    0.1620388   0.08363963 -30.66 0.0003594384    1.618    0.382
       139 -11.6718    201.8456    182.6732   4.1309708025e+01   1.0421474677e+01    0.1921968    0.1278387 -24.38 0.0005243098    1.248    0.199
       140 -12.7381    157.4562    184.9611   4.9927850237e+01   1.5496440657e+01    0.3604271    0.1981598 -18.68  0.001661106    2.347    0.574
       141 -12.5733    142.1961    181.4542   5.2620897357e+01   1.8176834599e+01    0.2743995    0.2173122 -29.87 0.0008053583    1.189    0.159
       142 -12.0099     48.8923    183.0349   7.7935955326e+01   2.9871454977e+01     0.456693    0.2141568  29.69  0.001945054    1.847    0.459
       143 -10.9221     49.7081    179.6982   7.7339817134e+01   3.0609967001e+01    0.1975205    0.1758647 -20.59 0.0001546333    1.224    0.183
       144 -12.1656    151.5452    181.9303   5.0657294625e+01   1.6826300650e+01    0.2496646    0.1665841   4.28 0.0009580135    1.648    0.393
       145 -13.7813    117.8172    179.4740   5.8071626808e+01   2.1940417951e+01    0.5621961    0.3410837  47.92  0.001835299    1.985    0.496
       146 -12.6203    136.4885    181.1547   5.3864921666e+01   1.9014495705e+01     0.230879     0.171159  34.92 0.0006254259    1.387    0.279
       147 -12.1768    137.6237    177.0449   5.2901718418e+01   1.9663035965e+01    0.2457732     0.205849  23.12 0.0004906713    1.170    0.145
       148 -11.1936    221.6590    180.3187   3.7827920994e+01   8.5729277452e+00   0.09720743   0.08382234 -51.64 0.0007049471    1.714    0.417
       149 -11.3235    198.1009    180.1785   4.1509778551e+01   1.1237865491e+01    0.1733716    0.1282963 -16.21 0.0002844775    1.145    0.127
       150 -13.0043    127.1705    167.1530   5.3629436323e+01   2.3175060082e+01    0.2549337    0.2524073 -19.68 0.0006586587    1.155    0.134
       151 -14.2886    125.9372    172.8192   5.4935032001e+01   2.2177933540e+01     0.631087     0.396366 -62.17  0.001658272    2.014    0.504
       152 -12.7018    130.7874    169.3883   5.3156898609e+01   2.2179485093e+01    0.3317386     0.239926  14.15  0.001051826    1.433    0.302
       153 -12.3673     61.9240    177.0978   7.3314674855e+01   2.9869450120e+01    0.3743531    0.2333845  15.58  0.001160899    1.638    0.389
       154 -12.2988    224.9031    176.2777   3.6684695138e+01   8.7950032632e+00    0.3042362    0.1714751  26.52  0.001943221    2.032    0.508
       155 -13.5523    149.6719    176.0753   5.0046131922e+01   1.8171728895e+01     0.531486    0.3154454  53.92  0.001732811    2.786    0.641
       156 -12.3857    143.6895    171.6940   5.0584968613e+01   1.9850470597e+01    0.2092815    0.1778941 -14.05 0.0005118669    1.084    0.078
       157 -13.1741    106.1096    175.9590   6.0516378820e+01   2.4333812126e+01    0.3579967    0.2395994  27.61 0.0009673227    1.410    0.291
       158 -11.9774    247.9495    175.9957   3.3522378516e+01   6.4808010936e+00    0.1623185    0.1134113 -24.95  0.000312622    1.015    0.014
       159 -11.2433     53.8280    177.3959   7.5822522116e+01   3.0729601537e+01    0.3654397    0.1167102  35.54  0.001291324    2.593    0.614
       160 -11.9437    242.5219    175.5085   3.4142324391e+01   7.0772343989e+00    0.1645781    0.0994302  29.19 0.0009162634    1.985    0.496
       161 -11.9389    204.4825    173.9375   3.9393504516e+01   1.1442393241e+01    0.2547376    0.1429954 -49.23  0.001052179    2.079    0.519
       162 -10.6990     66.9868    175.0233   7.1517851899e+01   2.9767335864e+01    0.1713357    0.1546117  27.03 -0.005334738    1.032    0.031
       163 -11.9489    173.1172    173.5780   4.4831328774e+01   1.5440759105e+01    0.2297351    0.1566846 -31.93 0.0003365985    1.299    0.230
       164 -11.5347    173.5286    169.5123   4.4024461909e+01   1.6088358576e+01    0.2356801    0.1131388 -46.20  0.001090666    2.028    0.507
       165 -11.0202    176.4732    167.5492   4.3113741475e+01   1.6028987664e+01    0.1768708    0.1534729 -16.24 0.0006794675    1.046    0.044
       166 -12.4598    133.4763    173.8229   5.3304447656e+01   2.0890324765e+01    0.3326288    0.1827907  11.18   0.00138614    2.522    0.603
       167 -13.2853     90.6344    171.8515   6.4110095405e+01   2.7424911544e+01    0.5114348    0.2766668 -43.09  0.001559827    1.982    0.495
       168 -11.6115     95.0213    171.7703   6.2860554936e+01   2.6833136988e+01    0.2698926    0.1927612  15.60 0.0006174991    1.424    0.298
       169 -12.5824     79.2726    172.9227   6.7559941862e+01   2.8708423359e+01     0.393595    0.2474514  45.83  0.001823658    1.637    0.389
       170 -12.8876    100.1413    171.2717   6.1361442447e+01   2.6224737399e+01    0.2774988    0.2394382 -17.39 0.0007757659    1.181    0.153
       171 -11.3774     73.2351    171.7882   6.9193158187e+01   2.9770969443e+01    0.1932488    0.1611336 -15.11 0.0002222333    1.302    0.232
       172 -12.5483     20.3435    154.6646   8.4554674899e+01   3.9976988199e+01    0.4295781    0.2669662  -7.46  0.001051988    1.949    0.487
       173 -11.6042     42.9807    172.3350   7.8665882230e+01   3.3183630288e+01    0.3942011    0.1277845  36.79 0.0008259959    2.579    0.612
       174 -12.6749     40.7234    167.4205   7.8877473576e+01   3.4686698685e+01    0.6153236    0.2081781 -54.41  0.002165863    2.941    0.660
       175 -12.5741     39.4739    161.3335   7.8634400134e+01   3.6412535457e+01    0.6257846    0.3152324  -1.10  0.002278455    2.863    0.651
       176 -13.1765     31.3456    157.0814   8.0951592940e+01   3.8352763655e+01    0.6741842    0.4304615  56.71  0.003132945    1.603    0.376
       177 -12.0558     25.2366    153.8632   8.2765171468e+01   3.9779616053e+01    0.2780316    0.2152337  42.07 0.0004717594    1.219    0.179
       178 -11.6154    191.7543    171.6310   4.1106223405e+01   1.3356892799e+01    0.1512804    0.1104532  38.48 0.0009480648    1.661    0.398
       179 -12.4061    160.0376    169.0015   4.6595776323e+01   1.8038906538e+01    0.2031498    0.1742261 -16.65 0.0005107661    1.021    0.020
       180 -13.7429    152.7496    169.4455   4.8200289212e+01   1.8987373513e+01    0.5830893    0.2780317 -50.23  0.002193933    2.206    0.547
       181 -12.7481    156.9332    165.5865   4.6610455354e+01   1.9110673640e+01    0.2449304    0.2197066  -7.89 0.0003976891    1.044    0.042
       182 -12.0054     61.4865    170.9818   7.2676410568e+01   3.1440048794e+01    0.4119872    0.1986661  24.91  0.001680586    1.945    0.486
       183 -11.5912    197.6915    170.1000   3.9833068096e+01   1.2859166133e+01    0.1718305    0.1279707 -25.32 0.0004573344    1.097    0.089
       184 -11.5763    110.0997    170.1075   5.8486672087e+01   2.5053523326e+01     0.207741    0.1772057 -14.37 0.0002721291    1.179    0.152
       185 -12.4714     47.5048    161.8539   7.6015886438e+01   3.5411012408e+01    0.2723793    0.1856729  36.82  0.001273404    1.364    0.267
       186 -14.2326     53.6783    166.4689   7.4569841248e+01   3.3510641109e+01    0.8012692      0.55177  10.88  0.003821955    1.543    0.352
       187 -12.1801     72.0302    166.9848   6.8869928399e+01   3.1107899255e+01    0.2752296    0.2054186 -63.69 0.0006456992    1.422    0.297
       188 -12.1625     31.1914    167.5438   8.2010818127e+01   3.5591358290e+01    0.2769736    0.2180738  54.37  0.000359272    1.222    0.182
       189 -12.3401    212.2718    164.0364   3.6452983292e+01   1.2009110420e+01    0.2232177    0.1639492 -43.59 0.0003655334    1.406    0.289
       190 -12.8098    201.6312    165.7667   3.8421057751e+01   1.3048046505e+01    0.3661138    0.2088983  38.43  0.001415545    2.067    0.516
       191 -11.7573    170.5127    165.0061   4.3779404362e+01   1.7290226170e+01    0.2243356    0.1815478  50.00 0.0009033257    1.626    0.385
       192 -13.3113    111.3832    163.8218   5.7049214785e+01   2.6254135088e+01    0.4467036    0.2730907 -32.00  0.002015136    1.869    0.465
       193 -12.1762    103.7015    165.1685   5.9356467357e+01   2.7095687842e+01    0.3421394   0.08060402  36.28  0.001017692    3.736    0.732
       194 -13.8150     87.6374    163.9191   6.3704964653e+01   2.9720054235e+01    0.5348017    0.3717857  86.58   0.00240819    2.058    0.514
       195 -13.1832     83.6608    159.6761   6.4188770375e+01   3.1312686867e+01     0.377584    0.2175317  45.31   0.00162214    1.808    0.447
       196 -14.4523     77.7578    154.1915   6.5088900216e+01   3.3511461434e+01    0.5877268    0.5461288  27.72  0.003231585    1.034    0.033
       197 -14.1833     84.4375    144.7959   6.1325251027e+01   3.4863414177e+01      0.87416    0.3572094  29.78  0.003125177    2.434    0.589
       198 -13.0606      4.0533    160.5607   9.0554832653e+01   3.9562306084e+01    0.4376146    0.4089697 -40.84  0.002623087    1.185    0.156
       199 -12.8928     64.4084    163.7780   7.0786046281e+01   3.2893558498e+01    0.2986386    0.2552425  81.89  0.001582839    1.287    0.223
       200 -11.3663    229.6970    161.9126   3.3583803844e+01   1.0288772534e+01    0.1550664    0.1116323 -30.98 0.0004828198    1.089    0.082
       201 -10.6150    186.0243    162.2601   4.0415111532e+01   1.5634868334e+01    0.1366579    0.1034115  25.32 0.0002510313    1.419    0.295
       202 -12.2633     24.8470    161.0925   8.3553090063e+01   3.7869169673e+01    0.5076962    0.1598137  34.76  0.001806493    2.606    0.616
       203 -14.0759    120.2048    158.0090   5.3683155202e+01   2.6180192899e+01    0.5473709    0.4167098  26.81  0.002881681    1.297    0.229
       204 -12.1546    146.0101    157.9059   4.7508862894e+01   2.2201997854e+01    0.2930337    0.1942419 -54.98 0.0003835871    1.693    0.409
       205 -12.6409     95.5499    158.9846   6.0565344104e+01   2.9738724805e+01    0.3146238    0.2482578 -12.26 0.0003724465    1.423    0.297
       206 -12.9294     84.2436    149.8366   6.2310801417e+01   3.3644509520e+01      0.35838    0.2954678 -35.71 0.0004590896    1.273    0.215
       207 -11.7765    105.4775    158.8559   5.7748622902e+01   2.8267279442e+01    0.2732818     0.222288  61.12 0.0008977374    1.473    0.321
       208 -10.6724    231.4612    158.0128   3.2674798139e+01   1.0636964054e+01    0.1602809   0.07513199 -22.70 0.0008078408    2.463    0.594
       209 -12.2304    133.7825    156.6583   5.0075768042e+01   2.4345416880e+01    0.3330888    0.1933862 -65.20  0.001377184    2.617    0.618
       210 -12.6543    170.0382    159.7153   4.2883873124e+01   1.8294937414e+01    0.2795957    0.2404453 -46.48  0.001764742    1.274    0.215
       211 -12.1829    190.7013    155.5097   3.8356230257e+01   1.6117438712e+01    0.2305335    0.1724438 -45.69  0.000697834    1.361    0.265
       212 -13.7312     63.2728    153.1591   6.9591795988e+01   3.5763185046e+01    0.5870196    0.3306706 -70.75  0.002456346    1.969    0.492
       213 -11.2376    141.7432    155.6153   4.8023379418e+01   2.3314916223e+01     0.183449     0.126491  43.44  0.000580703    1.595    0.373
       214 -12.2300     88.5383    153.5834   6.1671641045e+01   3.2081847967e+01    0.2429937    0.2062724 -67.60  0.001013162    1.276    0.216
       215 -11.7480      1.9564    152.3330   9.0846084141e+01   4.1894444597e+01    0.3756067    0.1881636  56.90  0.001306206    1.938    0.484
       216 -12.2023      5.2225    149.9673   8.9560753047e+01   4.2339939729e+01    0.3625792    0.2487771  78.86  0.001820443    1.426    0.299
       217 -11.7672    212.2090    153.2157   3.4527992692e+01   1.3646937283e+01    0.1534667     0.122989 -44.42 0.0005132177    1.334    0.250
       218 -13.6847     51.9915    151.7652   7.3186931400e+01   3.7550348935e+01    0.6519964    0.3864228 -31.80  0.000796867    2.139    0.532
       219 -12.4262     57.8283    143.8547   6.9984798365e+01   3.8918159437e+01    0.2862159    0.2118652   0.91 0.0004462407    1.564    0.361
       220 -12.5947     43.6097    152.4361   7.6170296737e+01   3.8340018616e+01    0.3368064    0.2414385 -13.70  0.001314784    1.674    0.402
       221 -10.6506     12.9788    153.6444   8.7059884349e+01   4.0820360680e+01    0.2989308    0.1229377  27.11 0.0004269517    2.169    0.539
       222 -12.2101     12.1101    149.8900   8.7095448081e+01   4.1904124286e+01    0.3237919    0.1790418 -50.95 0.0008879921    1.910    0.476
       223 -10.6226    249.0306    151.9368   2.9429620331e+01   9.5222091571e+00    0.1265506   0.09065555 -28.91 0.0003391357    1.006    0.006
       224 -11.5992    224.8278    152.1377   3.2541098127e+01   1.2248506516e+01    0.1585776    0.1078847 -20.53   0.00039533    1.321    0.243
       225 -12.9941    168.1329    150.6406   4.1505610446e+01   2.0202599070e+01    0.2493021    0.2105666 -42.67  0.001536284    1.183    0.155
       226 -13.1030    133.8489    151.0749   4.8966556807e+01   2.5489935086e+01    0.3760749    0.2921633  50.24  0.001913906    1.489    0.328
       227 -12.2835     69.5372    150.3185   6.7078508806e+01   3.5650623347e+01    0.2784258    0.1542126 -69.43  0.001128919    2.037    0.509
       228 -12.6412    125.7855    149.0389   5.0526955274e+01   2.7225430818e+01    0.4557758    0.2733223  64.23  0.001723268    3.186    0.686
       229 -12.3747    108.6354    149.1185   5.5042432252e+01   2.9996186216e+01    0.3318559     0.272278 -52.30 0.0009049253    1.246    0.197
       230 -11.7946     20.4370    149.6418   8.4085020920e+01   4.1336342496e+01     0.335398    0.2382398 -24.13  0.001174373    1.643    0.391
       231 -11.6322    146.9408    148.7797   4.5508323956e+01   2.3852402107e+01    0.2281256    0.1820002 -37.14 0.0003349273    1.171    0.146
       232 -12.3325     95.8423    149.1535   5.8686793304e+01   3.2027078699e+01    0.2234926     0.208643  76.26 0.0008587302    1.187    0.157
       233 -10.5989     36.6957    149.3051   7.8219243997e+01   3.9923989840e+01    0.1585058    0.1029156  55.58 0.0003443752    1.600    0.375
       234 -12.7249      9.0931    130.9853   8.6758593643e+01   4.7343579485e+01    0.4664654    0.2242352 -12.00  0.001754433    2.733    0.634
       235 -13.7100     17.0271    141.8429   8.4637657137e+01   4.3754369316e+01    0.9796602    0.2879879  18.10  0.003184177    3.272    0.694
       236 -13.2676     26.9560    147.2268   8.1494222731e+01   4.1435526686e+01    0.6699525    0.4113793  86.71  0.002892057    1.769    0.435
       237 -11.9976     32.4813    147.7847   7.9553799927e+01   4.0761585868e+01    0.2653518    0.2398891 -27.15 0.0007128604    1.196    0.164
       238 -12.6265     41.5579    147.1318   7.6213353760e+01   3.9996137657e+01     0.366707    0.1889045 -68.47  0.001500292    1.952    0.488
       239 -13.2277     13.0469    134.7109   8.5521903833e+01   4.6033451670e+01    0.5455282    0.2896722  56.97  0.002290307    1.965    0.491
       240 -12.3511    119.7758    144.5660   5.1151417560e+01   2.9187487231e+01    0.3997783    0.2567098  58.60  0.001383827    2.153    0.536
       241 -11.7980    123.4004    143.5092   5.0003171357e+01   2.8812004972e+01    0.2213908    0.2088758   0.44  5.85199e-05    1.035    0.034
       242 -11.2273    228.9869    145.2701   3.0761290700e+01   1.2730649031e+01    0.1475178    0.1207704 -24.55  0.000333612    1.092    0.084
       243 -11.8650    170.4085    145.2308   3.9998917322e+01   2.0829863248e+01    0.1801056     0.114411 -48.86 0.0007512948    1.577    0.366
       244 -11.8639    103.7742    144.7784   5.5543820481e+01   3.1787303942e+01    0.3995503    0.2105822  39.77  0.001238676    1.877    0.467
       245 -12.3016    101.0173    141.6830   5.5712850209e+01   3.2965653615e+01    0.3552378    0.2792525  52.88  0.001182315    1.394    0.283
       246 -11.2848    194.9592    143.6962   3.5407193504e+01   1.7456059738e+01    0.1603324    0.1459496 -12.47 0.0004527108    1.133    0.117
       247 -12.0281    187.2977    143.2001   3.6574723909e+01   1.8643619158e+01    0.2014536    0.1840365 -21.16 0.0002879665    1.105    0.095
       248 -12.6734     70.3834    143.2150   6.5588326057e+01   3.7360668349e+01    0.2800543     0.261542  34.82 0.0002176573    1.039    0.038
       249 -11.0450    223.9864    142.6637   3.0951308850e+01   1.3724699912e+01    0.1508804     0.123984 -24.83 0.0003891289    1.081    0.075
       250 -11.7881    209.8690    142.8252   3.2953708544e+01   1.5535232758e+01    0.2310677    0.1523936  75.30   0.00107313    4.108    0.757
       251 -12.7141     51.8646    142.4783   7.1872339435e+01   4.0046263812e+01    0.4356773    0.1995336  37.92  0.001053555    2.037    0.509
       252 -12.9636     94.6854    140.4655   5.7336360567e+01   3.4295814062e+01    0.4655287    0.3438921  -2.40  0.001714207    1.704    0.413
       253 -11.3889    178.1508    142.3698   3.8001760564e+01   2.0151171719e+01    0.1960363    0.1647029  44.55 0.0006954532    1.411    0.291
       254 -10.9658      2.5059    142.4743   9.0099246919e+01   4.4551319108e+01     0.141816    0.1317679  66.55 0.0002486477    1.006    0.006
       255 -11.2682    128.3275    141.3052   4.8310346840e+01   2.8454739232e+01    0.1474705    0.1095673 -10.29 0.0003246331    1.650    0.394
       256 -11.2302     33.0254    141.4632   7.8610592352e+01   4.2441671706e+01    0.2280969    0.1446288  20.88  0.001022146    1.567    0.362
       257 -12.3438     40.8112    140.0875   7.5541243429e+01   4.1997840411e+01    0.3068288    0.1894697 -18.52  0.001252365    2.148    0.534
       258 -10.9724    132.6762    139.6716   4.6907631137e+01   2.8060517719e+01    0.1483845    0.1085595 -11.76 0.0007049496    1.696    0.410
       259 -10.9230    212.4838    137.9799   3.1664866688e+01   1.5922503506e+01    0.1776721   0.09511444 -38.22 0.0004200579    1.501    0.334
       260 -11.1153    232.8470    136.8407   2.8754652277e+01   1.3451127823e+01    0.1427778    0.1110653 -44.41 0.0003411899    1.285    0.222
       261 -11.4951    171.1864    136.8320   3.8147409133e+01   2.2212445225e+01    0.1842401    0.1409653 -20.58 0.0006691299    1.324    0.245
       262 -10.7524    109.4855    137.4986   5.2442103300e+01   3.2512698122e+01    0.1484424    0.1411084 -11.72 7.741316e-05    1.042    0.041
       263 -11.5984     90.0411    135.9793   5.7845492738e+01   3.6146128828e+01    0.2679659    0.2130774  48.95  0.000400185    1.306    0.234
       264 -13.4502     85.0263    134.8844   5.9204148053e+01   3.7234362589e+01    0.5330898    0.3285588 -46.49  0.002320961    1.659    0.397
       265 -13.4697     57.3331    133.6063   6.8448366488e+01   4.1716958504e+01    0.5385404    0.2692986  36.59  0.001772428    1.885    0.469
       266 -13.0182     44.8137    134.8770   7.3290325054e+01   4.2964730100e+01    0.6116701    0.2800468  53.50  0.002137848    2.687    0.628
       267 -13.6138     64.0141    121.8959   6.3768915898e+01   4.3871657715e+01    0.6621754    0.2276211 -49.99  0.002138208    2.893    0.654
       268 -14.4682     49.0415    129.5642   7.0836313201e+01   4.3896917816e+01     1.019933    0.4991125   7.57  0.003441551    3.010    0.668
       269 -13.0332     58.9814    125.3696   6.6329314136e+01   4.3689913946e+01    0.3682856    0.2798028   3.58  0.000968975    1.524    0.344
       270 -13.3331    102.3207    134.2069   5.3777366092e+01   3.4504596367e+01    0.6323096    0.2687822  26.30  0.002079041    3.146    0.682
       271 -13.2063     34.9076    131.7910   7.6631783517e+01   4.4924093375e+01    0.5537167    0.2947303   4.18  0.001661153    2.383    0.580
       272 -12.8350     35.5378    128.0743   7.5853321849e+01   4.5889157902e+01    0.3153467    0.2498224  70.76  0.000428552    1.334    0.250
       273 -11.0235    209.9435    134.0311   3.1273323002e+01   1.6873461630e+01    0.1451389    0.1158297 -32.13 0.0004754977    1.006    0.006
       274 -10.9329    128.4743    133.5046   4.6602539091e+01   3.0088166279e+01    0.1433398    0.1365495 -24.40 0.0002343949    1.003    0.003
       275 -11.2588    114.3423    133.3118   5.0210641213e+01   3.2618803947e+01    0.1536259    0.1149357 -10.43 0.0007046151    1.701    0.412
       276 -11.4158    230.1453    130.6387   2.7957892010e+01   1.4668777544e+01    0.1827531    0.1193489 -40.88 0.0004141568    1.247    0.198
       277 -11.1779     19.8084    131.4005   8.2535260719e+01   4.6443994035e+01    0.2086557    0.1399835  -3.36 0.0009474231    1.704    0.413
       278 -12.7932     64.9599    128.1518   6.4677318617e+01   4.2083953170e+01    0.3217872    0.2737839  69.02 0.0007630223    1.275    0.215
       279 -11.9233     94.0296    128.7823   5.5084679614e+01   3.7223389328e+01    0.3181151    0.1933486 -53.01  0.001374085    1.650    0.394
       280 -14.9974     75.4746    118.7581   5.8961735108e+01   4.2862659927e+01      1.06236    0.7733676  44.55  0.003840754    1.376    0.273
       281 -13.6404     81.6533    127.4642   5.8758248100e+01   3.9640075974e+01    0.5869741    0.3196224  36.96  0.001898947    1.779    0.438
       282 -12.4536     75.0505    125.0161   6.0474437318e+01   4.1337296788e+01    0.2902365     0.263661 -78.80  0.000595262    1.159    0.138
       283 -10.9142    130.5083    128.5121   4.4996885464e+01   3.0780554929e+01    0.1429105    0.1369351 -31.39 1.502245e-05    1.010    0.010
       284 -11.9675    125.1868    124.8101   4.5469597029e+01   3.2532055719e+01    0.3894878    0.2502936 -11.53   0.00125731    2.678    0.627
       285 -12.9120     26.6555    124.9915   7.9005738273e+01   4.7642087074e+01    0.4115056    0.3016482  71.11  0.001972002    1.453    0.312
       286 -12.1409    169.6438    126.0291   3.6156106682e+01   2.4397375028e+01    0.2203669    0.1891688  21.85 0.0002971748    1.296    0.229
       287 -11.6450    189.8836    121.5129   3.1763728090e+01   2.1853028680e+01    0.2113741     0.123556  41.35  0.001132664    2.019    0.505
       288 -11.6078      5.4057    124.1652   8.7693661406e+01   4.9482476038e+01    0.3507662    0.1263575  85.93  0.001140603    3.245    0.692
       289 -13.2494     20.7795    123.0176   8.1183500784e+01   4.8718004110e+01    0.3392132    0.2974494  -2.86 0.0006141464    1.214    0.176
       290 -11.9444    194.9643    122.7235   3.1230600125e+01   2.0856598029e+01    0.1654613    0.1486504 -33.41 0.0003460612    1.080    0.074
       291 -11.9845    186.2955    124.1540   3.2886305658e+01   2.1988464873e+01    0.2311919    0.1588689 -37.43 0.0008906581    1.247    0.198
       292 -13.2442    105.3452    121.2580   4.9994207646e+01   3.6976863286e+01    0.4839304    0.3227791  51.54  0.001633294    1.638    0.390
       293 -12.5823    100.4635    119.4664   5.1006341447e+01   3.8288953363e+01    0.3265588    0.2513011  87.19  0.001508189    1.725    0.420
       294 -11.5101    224.0955    120.3274   2.6770226167e+01   1.6950639470e+01     0.149093    0.1280355 -36.90 0.0004462313    1.122    0.109
       295 -10.4053     36.3322    119.2777   7.4170874521e+01   4.8246565257e+01    0.1572781    0.1122913 -28.60 0.0003416796    1.603    0.376
       296 -11.6605     94.5723    117.4190   5.2318697759e+01   3.9849630538e+01    0.2640783    0.2107437 -41.55  0.001292819    1.282    0.220
       297 -12.2231     57.2341    117.7712   6.5486081198e+01   4.5968501719e+01    0.2196044    0.1808187 -21.09  0.000877279    1.372    0.271
       298 -12.6352     23.1154    116.7387   7.9385183072e+01   5.0282797298e+01    0.5035678    0.2815003 -49.60  0.002139426    1.795    0.443
       299 -13.2439     17.9355    114.1661   8.1303706090e+01   5.1443831528e+01    0.5087694    0.3167277  37.68   0.00136597    1.582    0.368
       300 -12.2905      9.1624    117.5414   8.5513921231e+01   5.1119621387e+01     0.246547    0.2063849  33.92 0.0007341455    1.199    0.166
       301 -11.8703    241.6460    115.9496   2.3933058669e+01   1.5224253181e+01    0.1610515     0.144207 -45.65 0.0003323169    1.257    0.205
       302 -10.8719     29.4536    116.4269   7.6616833832e+01   4.9770286429e+01    0.1469209    0.1460162 -77.41 0.0001263187    1.017    0.017
       303 -11.1942    196.8949    115.4918   2.9449970495e+01   2.1710286132e+01    0.1595027    0.1247518  47.38 0.0009165454    1.533    0.348
       304 -13.2315     83.3144    111.3329   5.4509473510e+01   4.3358418190e+01    0.5815297    0.2826856 -51.64 0.0006208805    2.045    0.511
       305 -12.7215    115.8897    113.2822   4.5133452996e+01   3.6771727371e+01      0.38997    0.2725097  13.85  0.001670772    2.037    0.509
       306 -13.4180    107.9892    111.8175   4.6947820134e+01   3.8620221698e+01    0.5336623    0.3499796  15.23  0.002173594    2.309    0.567
       307 -13.0550     63.3749    112.2212   6.1927211604e+01   4.6505761349e+01    0.3929644    0.2719643 -62.21  0.001132586    1.480    0.325
       308 -13.0809     63.6235    105.8824   6.0358092989e+01   4.8109646577e+01    0.5142052    0.3310743 -30.46   0.00114003    1.979    0.495
       309 -11.9381     58.6803    114.0347   6.4140546743e+01   4.6748691090e+01    0.2129611     0.203195 -56.73 0.0007121653    1.058    0.055
       310 -10.6101    229.4651    112.4238   2.4624389556e+01   1.7334499728e+01    0.1137612   0.08734982 -39.06 4.975136e-05    1.042    0.040
       311 -10.5341    198.3061    112.3013   2.8582091252e+01   2.1989585034e+01    0.1185946   0.08996937  -9.97 0.0003284917    1.596    0.373
       312 -12.9810     11.7661    111.8936   8.3771800956e+01   5.2541060488e+01    0.2710699    0.2151493  42.86 0.0009718618    1.266    0.210
       313 -11.8997     89.9847    110.9932   5.2212438351e+01   4.2223894219e+01    0.2287986    0.2230318  50.79 -0.007547014    1.021    0.021
       314 -12.1614    217.9937    109.9717   2.5506071051e+01   1.9322244448e+01    0.2063727     0.171317  75.83 0.0007587367    1.619    0.382
       315 -12.0069     53.1338    110.1864   6.5522358299e+01   4.8585162675e+01    0.3262477    0.2162952  25.29 0.0006013628    1.532    0.347
       316 -11.4428    210.0462    108.5478   2.6218195711e+01   2.0727452091e+01    0.2331309    0.1345195 -48.31 0.0007983902    1.570    0.363
       317 -11.8338    113.7329    109.0310   4.4650500015e+01   3.8116239297e+01    0.2560142    0.2093193  44.54 0.0007962551    1.245    0.197
       318 -10.9685    237.0709    108.4465   2.3031830484e+01   1.6845146195e+01    0.1293842    0.1112569  47.06 0.0006973109    1.542    0.352
       319 -10.9645    121.7001    108.0069   4.2295722717e+01   3.6763750513e+01    0.2114793    0.1799023 -50.00  0.000577508    1.146    0.127
       320 -12.9477      2.9765    106.9482   8.7259924698e+01   5.4459210269e+01    0.3194188     0.286622 -32.98 0.0007892373    1.148    0.129
       321 -12.0680    158.9183    106.3939   3.3720607487e+01   2.9842357178e+01    0.2238012    0.1790728 -54.83 0.0006207046    1.229    0.186
       322 -11.4211     92.9681    105.7971   4.9932763911e+01   4.2888917813e+01    0.2333626    0.2112715  -0.41 0.0006927127    1.232    0.189
       323 -13.5760      9.9952    103.9726   8.3662512205e+01   5.4889345950e+01    0.7446319    0.4115094  50.58  0.002197505    1.927    0.481
       324 -11.4024    220.0094    104.3199   2.4142860396e+01   1.9841161490e+01    0.1501198    0.1292607 -41.02 0.0002833858    1.101    0.092
       325 -12.1445    153.0726     99.8146   3.3248275705e+01   3.2153484342e+01    0.3910001    0.3065095 -78.43   0.00209918    1.549    0.354
       326 -13.8588     78.4353     91.9934   5.1106266462e+01   4.8916313715e+01    0.5383356    0.3781837  57.01  0.001801873    1.578    0.366
       327 -12.3390     79.0823    101.9380   5.3596594728e+01   4.6417386858e+01    0.3291793    0.2648423  51.63 0.0005705324    1.272    0.214
       328 -12.7625     76.8257     97.0728   5.3106411440e+01   4.8010354016e+01    0.3541375    0.2745562 -43.49 0.0003188865    1.333    0.250
       329 -11.5997     58.2264     97.5158   6.0462892797e+01   5.1132959678e+01    0.4744193    0.2809272  46.78  0.001390793    1.765    0.434
       330 -12.3216    162.6630     99.5852   3.1414132269e+01   3.0343298596e+01    0.2309124    0.1451895 -55.82  0.000540039    1.681    0.405
       331 -11.0371     84.9424    100.7505   5.1244854514e+01   4.5606944005e+01    0.1978156    0.1310386  37.42 0.0003986897    1.511    0.338
       332 -12.2301     93.7698     98.5727   4.7752071267e+01   4.4397751387e+01     0.343612    0.2462156  77.23  0.001482609    1.939    0.484
       333 -11.9376     33.3367     98.1836   7.1656869870e+01   5.4407666731e+01    0.3588733    0.2548677   2.70 0.0005527905    1.591    0.372
       334 -11.1039     25.7055     98.6796   7.5369809533e+01   5.5086122792e+01    0.3278428    0.1841672  57.56   0.00131223    2.136    0.532
       335 -10.9321    118.1543     95.1478   3.9822828379e+01   4.0151620971e+01    0.1917092    0.1673965 -79.71 0.0003039712    1.237    0.191
       336 -12.0230     55.6460    101.6440   6.2551251425e+01   5.0469450023e+01    0.2583035    0.2463031  76.55 0.0002945553    1.077    0.071
       337 -11.8152     65.9740     94.5174   5.6533210756e+01   5.0590812802e+01    0.2405403    0.1508673  34.94  0.001027285    1.575    0.365
       338 -11.2149    104.6554     97.2431   4.4083641459e+01   4.2499838327e+01    0.2144279    0.1379355 -39.97 0.0009394129    1.627    0.385
       339 -11.0058    243.7455     90.7471   1.9046052077e+01   1.8285230442e+01    0.1453132   0.09576262 -49.19 0.0004604803    1.284    0.221
       340 -12.3200    189.3387     90.8121   2.5183021534e+01   2.6860522416e+01     0.302647    0.1631195  48.26  0.001096639    2.218    0.549
       341 -10.8158     41.1045     91.5481   6.6540677634e+01   5.5225607178e+01    0.2237493    0.1455819  30.40 0.0005315957    1.506    0.336
       342 -11.5403     69.3304     90.3089   5.4043887914e+01   5.1022020095e+01     0.157665    0.1223113 -12.01 0.0004903693    1.665    0.399
       343 -12.4457    149.2941     88.0155   3.0995119939e+01   3.5023181989e+01    0.3017637    0.2278037 -43.83 0.0009167041    1.228    0.186
       344 -11.8490    149.8191     83.6619   2.9761804641e+01   3.5674943176e+01    0.2649677    0.1883187 -26.55 0.0007162833    1.611    0.379
       345 -11.0775      3.4189     88.2315   8.5025246422e+01   5.9663800058e+01    0.2874263    0.1257508 -71.01  0.001142367    2.087    0.521
       346 -11.6697    125.8481     86.4561   3.5529010560e+01   4.0243638792e+01    0.4280261    0.1942349 -36.68  0.001629896    2.403    0.584
       347 -10.7993     38.9963     88.0491   6.6693631288e+01   5.6430098995e+01    0.1711611    0.1690414   5.54 0.0009351608    1.004    0.004
       348 -12.6135     54.8601     85.7849   5.8755715464e+01   5.4649968752e+01    0.5226947    0.4261873   3.25  0.002530613    1.410    0.291
       349 -11.2266     11.4272     86.3058   8.0480931635e+01   5.9710876495e+01    0.3928359    0.1865901  63.07  0.001425225    2.841    0.648
       350 -11.1538      7.1978     87.3632   8.2901359735e+01   5.9694296242e+01     0.204559    0.1232105  28.64  0.000271834    1.668    0.401
       351 -12.7729    161.4743     84.4341   2.7901538219e+01   3.3163367321e+01    0.3733991     0.230008 -19.66 0.0008993112    2.367    0.577
       352 -11.1658    177.2998     85.6970   2.5717623529e+01   2.9871446393e+01    0.1312212   0.09079695 -64.29 0.0002219562    1.587    0.370
       353 -10.5372    141.4677     85.5597   3.1883069255e+01   3.7087245814e+01    0.1401986    0.1302247 -62.50 0.0002173166    1.011    0.011
       354 -12.9590     62.9517     82.8596   5.4431898267e+01   5.3970210600e+01    0.3686646    0.2681916   9.05  0.001636327    1.787    0.440
       355 -11.0197    133.7706     84.2000   3.3120594208e+01   3.8968341981e+01    0.1860767    0.1664952  27.90 0.0007400704    1.304    0.233
       356 -12.9733     78.6949     82.1531   4.8084612206e+01   5.1130006889e+01    0.3092346    0.3023487 -12.28  0.000440519    1.078    0.073
       357 -10.8609    224.7677     80.0048   1.8749219755e+01   2.2490074852e+01    0.1557865    0.1162894 -43.34 0.0002581812    1.028    0.027
       358 -11.2923     10.6690     71.3553   7.8221339839e+01   6.3806509932e+01    0.3407045     0.196765  -7.59 0.0009362568    1.953    0.488
       359 -11.8715    112.4875     78.4892   3.6508156698e+01   4.4685994208e+01    0.3433952    0.2347299 -76.03  0.001501354    2.002    0.500
       360 -11.3963    115.5641     74.7402   3.4591241467e+01   4.4713881093e+01       0.2822    0.1910761 -27.52  0.001287718    1.811    0.448
       361 -11.9423     88.5552     79.0185   4.3689269448e+01   4.9782269640e+01    0.2943236    0.2220574  54.97 0.0006996355    1.338    0.253
       362 -12.2796     86.0963     73.9296   4.2867124324e+01   5.1376287314e+01    0.5246777    0.2072077 -43.36  0.001420531    2.643    0.622
       363 -11.3118     51.6953     79.3766   5.8314233524e+01   5.6755244370e+01    0.2704438    0.1689451  46.56  0.001150127    1.660    0.398
       364 -12.0071    161.6914     77.0443   2.5991353017e+01   3.4329201275e+01    0.1981997    0.1611433 -43.48  0.001156521    1.129    0.115
       365 -11.8016     70.7154     77.0292   4.9470701947e+01   5.3866095692e+01    0.2137348    0.1991038 -51.15 0.0004679623    1.100    0.091
       366 -14.1080      6.9422     77.7113   8.1573236347e+01   6.2349237026e+01     0.507227    0.3927099 -24.76  0.001637569    1.307    0.235
       367 -11.5581     75.1755     75.8385   4.7373870367e+01   5.3243504119e+01    0.2302309    0.2082997  84.47 0.0008252935    1.188    0.158
       368 -12.6396    106.6002     73.5760   3.6556182282e+01   4.6940137743e+01    0.4940433    0.3090428  72.62  0.002058892    2.144    0.534
       369 -12.3039    160.5207     73.7378   2.5327195569e+01   3.5099129617e+01    0.3310876    0.1727829  40.66   0.00142417    2.718    0.632
       370 -11.5173     51.7870     73.1840   5.6348821257e+01   5.8236403463e+01    0.4240927    0.1999031  42.09 0.0008605976    2.089    0.521
       371 -11.6510     71.4831     69.5200   4.6663429385e+01   5.5367400767e+01    0.3089211    0.2146164  10.99 0.0008028549    2.212    0.548
       372 -11.3533    189.0818     70.6466   2.0593695036e+01   2.9919894031e+01    0.1630028    0.1462672 -71.64  0.000407929    1.131    0.115
       373 -11.5334    178.5783     69.2312   2.1580097142e+01   3.2142761092e+01    0.2457748    0.1029307 -40.98 0.0009914953    2.008    0.502
       374 -11.0166    132.9908     70.3271   2.9349521319e+01   4.1599952310e+01    0.1883356    0.1730341  81.10 0.0003006225    1.078    0.072
       375 -12.1381      2.6872     71.1885   8.3033740910e+01   6.4342663401e+01    0.3936926    0.2301983 -81.87  0.001414854    1.766    0.434
       376 -12.0697    154.3372     68.1124   2.4837288369e+01   3.7290179972e+01    0.2509464    0.1879139  79.06 0.0002537859    1.440    0.306
       377 -11.6809     54.8004     68.4004   5.3357555967e+01   5.8825977113e+01    0.2107726    0.1420017  24.81  0.000446067    1.637    0.389
       378 -12.1294     60.0079     66.9604   5.0514339768e+01   5.8187516371e+01    0.2249469    0.2202616   0.06 0.0005077968    1.048    0.046
       379 -10.5617     67.5722     65.5389   4.6817284582e+01   5.7011874142e+01    0.1479909    0.1436275  51.45 9.691041e-05    1.008    0.008
       380 -11.4989    164.9623     64.0126   2.2131406132e+01   3.5673263910e+01    0.1968416    0.1694253 -55.18 0.0003313083    1.024    0.024
       381 -12.0341    100.4892     62.5786   3.4636658905e+01   5.0381407508e+01    0.3566951     0.146226 -39.46  0.001308932    2.541    0.606
       382 -11.9810     92.0556     63.8293   3.7531006137e+01   5.2073567222e+01    0.2334769    0.2094121 -55.69 0.0003200311    1.135    0.119
       383 -11.9835     10.0946     63.1044   7.6808704976e+01   6.6011162233e+01    0.4432374    0.2474547 -10.05   0.00145903    2.052    0.513
       384 -10.8392     12.2077     59.6081   7.4579830764e+01   6.6741864691e+01    0.2752967    0.1715356  42.81 0.0009302205    1.746    0.427
       385 -11.1126    124.4585     62.4657   2.8764343244e+01   4.4861249713e+01     0.270521    0.1362169  71.52  0.001032176    2.630    0.620
       386 -12.2560     41.7548     59.6127   5.6727629332e+01   6.3070297840e+01    0.3011413    0.2257484  43.79  0.001175545    1.340    0.254
       387 -12.3276    108.6583     59.1336   3.1324251787e+01   4.9093564520e+01    0.3160591     0.256165  74.32 0.0009553711    1.241    0.194
       388 -11.9080    109.6594     55.7002   2.9922487089e+01   4.9437665779e+01    0.2228556    0.2097564  37.20  0.000617747    1.198    0.165
       389 -12.7784    113.2812     52.0807   2.7853601270e+01   4.9168377617e+01    0.4397563      0.30856  -2.36  0.001633132    2.389    0.581
       390 -11.2349     18.4968     58.6088   7.0191217576e+01   6.6412373442e+01    0.2981712    0.1377792 -63.58  0.001210627    2.164    0.538
       391 -12.0256    198.8613     57.4124   1.6465130629e+01   2.9919514536e+01    0.2049817    0.1777324  29.18  0.001332602    1.618    0.382
       392 -12.5799     36.6229     55.2276   5.7943444764e+01   6.4881665504e+01    0.5252364    0.2945514 -43.01  0.001771473    1.870    0.465
       393 -11.7288    192.5180     57.5099   1.7137699436e+01   3.1094434272e+01    0.1235349    0.1009367 -53.17 1.825741e-05    1.003    0.003
       394 -11.6032    182.2939     57.0359   1.8149330405e+01   3.3141974480e+01    0.1771026    0.1401988 -47.94 0.0003917835    1.082    0.076
       395 -12.0168    160.0277     57.2864   2.1057518207e+01   3.7706568508e+01    0.1831057    0.1611503 -85.02 0.0006675688    1.108    0.098
       396 -10.8519     54.7233     57.0720   4.9256166934e+01   6.1335528140e+01     0.192285    0.1866996 -64.08 0.0005383744    1.090    0.083
       397 -12.7732     23.8939     55.7538   6.5831296383e+01   6.6511498968e+01    0.3532954    0.2976416 -12.91 0.0003061394    1.201    0.167
       398 -12.1828     19.8452     53.0978   6.7588127324e+01   6.7617636688e+01    0.2336488    0.2223236 -82.22 0.0003165622    1.170    0.146
       399 -12.6892    120.7928     52.7548   2.6452172929e+01   4.7283792914e+01    0.3399794    0.2358042 -49.59 0.0008807916    1.414    0.293
       400 -12.1810    195.3282     52.4011   1.5663575041e+01   3.1234838886e+01    0.1995127    0.1585292 -43.99 0.0003623861    1.115    0.103
       401 -12.7103    162.2731     50.3180   1.8879373743e+01   3.8208345569e+01     0.263941    0.2182216 -33.63 0.0003141717    1.279    0.218
       402 -13.1851     30.6018     50.2293   5.9613929094e+01   6.6912865402e+01    0.3332156    0.3098203  50.66 0.0007702844    1.166    0.142
       403 -10.8574    106.5247     51.4729   2.9227579159e+01   5.0872101161e+01    0.1443821    0.1331873  89.23 0.0008094806    1.018    0.017
       404 -12.2770    174.4918     49.9595   1.7286119811e+01   3.5678569708e+01    0.3150057    0.1251998 -48.55  0.001393836    2.242    0.554
       405 -11.9660    131.8093     50.6687   2.3656927087e+01   4.5015523724e+01    0.2858421    0.1067261  54.64  0.001095757    2.643    0.622
       406 -11.8428     99.2932     49.8050   3.0463213372e+01   5.2863803208e+01    0.2344266    0.1764289 -60.70  0.001184194    1.417    0.294
       407 -10.8428    205.4396     54.5247   1.5186903029e+01   2.9094003803e+01    0.1181025   0.09487786 -49.51 5.254348e-05    1.038    0.037
       408 -11.4387    204.8286     47.1787   1.3605205110e+01   3.0129083478e+01    0.1773583    0.1252555 -56.08 0.0003361381    1.166    0.142
       409 -11.5798     41.7748     46.9801   5.1718268796e+01   6.5824253891e+01    0.2609182    0.2021617  38.74 0.0007167736    1.229    0.187
       410 -11.5999    196.9082     44.1027   1.3594851512e+01   3.1984977252e+01    0.1852554    0.1300425 -58.34 0.0003572826    1.201    0.167
       411 -11.2471     95.5153     44.5235   2.9501212662e+01   5.4610496699e+01    0.1432303    0.1337597  66.35 0.0008094556    1.053    0.050
       412 -12.8863    158.4375     41.4095   1.6938014069e+01   4.0237609905e+01      0.24594    0.2110506 -56.48 0.0004137435    1.064    0.060
       413 -11.1302    203.0259     40.9773   1.2363396153e+01   3.1216328532e+01    0.1605784    0.1327419 -53.88  0.001140698    1.072    0.067
       414 -11.3458    205.9630     38.5187   1.1581132041e+01   3.0966056613e+01    0.1845323    0.1415073 -32.12 0.0006499622    1.342    0.255
       415 -10.9209    142.0015     41.4988   1.9185867718e+01   4.3941746869e+01    0.1868331   0.09855991  44.98 0.0008099544    2.485    0.598
       416 -12.2793     34.2380     40.6872   5.3320374036e+01   6.8404649645e+01    0.3186308    0.1819559  39.78  0.001098463    1.670    0.401
       417 -13.5328     28.9842     36.3665   5.4661497201e+01   7.0129696512e+01    0.4178431    0.3225945  10.77  0.001417199    1.358    0.264
       418 -13.3377     30.5033     31.9848   5.1465605369e+01   7.0748324141e+01    0.3810838     0.317323  19.36  0.001634429    1.150    0.131
       419 -11.6913    124.5547     39.6240   2.1415743415e+01   4.8310128378e+01    0.2239545    0.2041297 -84.65 0.0001910668    1.029    0.028
       420 -11.3896    119.0312     38.6674   2.2100974180e+01   4.9771999273e+01    0.2807797    0.1684819 -53.55  0.001340947    1.702    0.412
       421 -11.0898     87.6352     39.6831   2.9782659454e+01   5.7251002359e+01    0.1494796    0.1074585  29.81  0.000703996    1.772    0.436
       422 -11.7786     80.5945     35.9637   3.0327569517e+01   5.9499840162e+01    0.4061974    0.2162022 -48.48  0.001757044    2.098    0.523
       423 -12.8949      8.3383     35.8413   7.0033987632e+01   7.2818729173e+01    0.3980099     0.255434 -73.30  0.001510408    1.860    0.462
       424 -11.8027    158.3245     34.5063   1.5035039945e+01   4.1135274851e+01    0.3018238    0.2225558  -0.62  0.001007362    2.089    0.521
       425 -11.1766     53.2447     34.2227   3.9919166218e+01   6.5996226361e+01    0.1910421    0.1664828  85.65  0.001054993    1.352    0.260
       426 -11.9449    106.8229     32.2977   2.2226092216e+01   5.3609259781e+01    0.2462468    0.1742801 -48.81 0.0008719126    1.424    0.298
       427 -11.2709     96.0660     32.1841   2.4562397195e+01   5.6274826527e+01    0.3312118    0.1985297  -6.99  0.001342965    2.962    0.662
       428 -11.6191     96.5203     27.5203   2.2591586161e+01   5.6771981613e+01    0.2294074    0.1500783 -56.39  1.14189e-05    1.647    0.393
       429 -12.5464     46.1942     30.9074   4.1691222544e+01   6.8020311100e+01    0.3320406    0.2516985 -17.74  0.001323208    1.587    0.370
       430 -12.1271     45.5017     25.6614   3.9232407045e+01   6.9020004158e+01    0.3177329    0.2293593 -44.64  0.001026776    1.547    0.354
       431 -11.2081     36.7075     32.9379   4.8042077596e+01   6.9488704760e+01    0.1820198    0.1740494 -22.66 0.0001684083    1.111    0.100
       432 -11.9574     84.9766     29.7156   2.6371481877e+01   5.9330613764e+01    0.1963301    0.1705707  72.14 0.0003006122    1.057    0.054
       433 -11.7527     67.6346     29.0832   3.1512784245e+01   6.3579599610e+01    0.1874612    0.1763599 -43.72 0.0005626981    1.159    0.137
       434 -11.1014     19.6970     29.1793   5.7784292821e+01   7.2954954666e+01    0.1983272    0.1740306 -83.24  0.001152781    1.485    0.327
       435 -10.9770     60.2305     27.9884   3.3779888315e+01   6.5447980013e+01    0.1690104    0.1184045 -35.68 0.0003241934    1.565    0.361
       436 -12.3707     84.4537     24.4372   2.4214960308e+01   6.0146867374e+01    0.3124255     0.184907 -69.94  0.001209303    2.324    0.570
       437 -10.8711    128.7988     24.6070   1.5768725939e+01   4.9177222068e+01     0.178775    0.1145351  89.25  0.000133121    1.534    0.348
       438 -12.4017     67.1346     24.0335   2.9227179381e+01   6.4400942646e+01    0.2765214    0.1804387 -89.45  0.001245451    2.166    0.538
       439 -11.5377    131.8301     17.1662   1.2928398211e+01   4.9265433262e+01    0.2052383    0.1697425 -52.95 0.0003331254    1.159    0.137
       440 -10.6868    133.0010     20.9448   1.4011336230e+01   4.8578646456e+01    0.1845758    0.1317379 -67.05 0.0003025392    1.299    0.230
       441 -10.3059    123.4895     19.5011   1.4791430880e+01   5.1037257110e+01    0.1337176    0.1161118 -83.01  0.000285568    1.005    0.005
       442 -11.4931     80.8272     18.1393   2.2311605595e+01   6.1798727546e+01    0.1877177    0.1527695  41.26  0.000494353    1.311    0.237
       443 -10.2119    198.2724    249.2664   5.1834882248e+01   1.4596214342e+00    0.1035762   0.05903926  -9.61 0.0006862566    1.473    0.321
       444 -10.4786    122.7329     11.6860   1.2195100447e+01   5.2027152349e+01    0.1218727   0.09563284  42.59 0.0002285565    1.547    0.354
       445 -11.9834    114.8312    247.1405   6.7827827781e+01   9.5409902208e+00    0.3141255    0.1566378 -49.91  0.001733742    2.263    0.558
       446 -10.8568     97.5302    249.5073   7.1920390923e+01   1.0863553252e+01    0.1216795   0.09579901  18.06 0.0005610216    1.033    0.032
       447 -11.3385    214.8827    247.1639   4.8841799778e+01   3.7548393553e-01    0.1409083    0.1061608  -8.19 0.0003807378    1.202    0.168
