#   1 NUMBER                 Running object number                                     
#   2 MAG_AUTO               Kron-like elliptical aperture magnitude                    [mag]
#   3 X_IMAGE                Object position along x                                    [pixel]
#   4 Y_IMAGE                Object position along y                                    [pixel]
#   5 X_WORLD                Barycenter position along world x axis                     [deg]
#   6 Y_WORLD                Barycenter position along world y axis                     [deg]
#   7 A_WORLD                Profile RMS along major axis (world units)                 [deg]
#   8 B_WORLD                Profile RMS along minor axis (world units)                 [deg]
#   9 THETA_WORLD            Position angle (CCW/world-x)                               [deg]
#  10 FWHM_WORLD             FWHM assuming a gaussian core                              [deg]
#  11 ELONGATION             A_IMAGE/B_IMAGE                                           
#  12 ELLIPTICITY            1 - B_IMAGE/A_IMAGE                                       
         1 -15.3665    238.0449    165.2907   4.3607936026e+01   9.7260506447e-01     3.996373     3.088167  10.21   0.02253243    1.333    0.250
         2 -15.5645    235.4784    126.9612   3.5630723851e+01   7.9634532018e+00      2.76396     1.685966  12.22   0.01079456    3.028    0.670
         3 -16.7684    221.7850     77.1314   2.5875076709e+01   1.9481135205e+01     4.338836     2.297904 -53.46   0.01822783    2.030    0.507
         4 -15.7180    248.3362     50.0362   1.6056106921e+01   1.7647034526e+01      3.27581     1.032283 -40.13   0.01282405    2.585    0.613
         5 -16.2018    248.6940     64.8995   1.9382607827e+01   1.5402092344e+01     7.536772     2.483826 -53.33   0.02258581    4.094    0.756
         6 -16.5070    234.9730     67.7900   2.1756324317e+01   1.7965327824e+01     2.079514    0.9515766 -48.43  0.008757101    2.079    0.519
         7 -15.2090    209.1149    116.8731   3.7874981073e+01   1.5367207950e+01     3.723713     2.276235 -65.00   0.01455684    2.506    0.601
         8 -15.9880    219.1427     90.3886   2.9582918439e+01   1.7860384093e+01      4.64116      2.30254  71.52   0.01669445    3.109    0.678
         9  -7.7957    192.0021      9.9868   1.2474154955e+01   3.5933806871e+01    0.2036691    0.1327904   7.68 0.0009714235    2.454    0.593
        10 -10.7165    137.1822      8.4145   1.9756504994e+01   4.9719276410e+01    0.5876324    0.3161012 -89.52  0.002401712    2.833    0.647
        11  -7.3085    199.8764      7.9229   1.1088826840e+01   3.4212526776e+01     0.193271    0.1382712  41.96  0.001059607    1.704    0.413
        12  -8.5935    250.7031      3.8919   5.8632674838e+00   2.2940092891e+01    0.1555081   0.09586073 -40.27 0.0003227459    1.512    0.339
        13  -8.3864    195.7979      3.5508   1.0390703838e+01   3.5647982173e+01    0.1877303    0.1675712   9.06 0.0008054498    1.454    0.312
        14  -9.7642    119.4870      3.1753   2.1226484624e+01   5.4394922786e+01    0.3896168    0.1589505  50.61   0.00172952    2.010    0.503
        15  -8.4984     99.0608      3.9915   2.6085235911e+01   5.8922532504e+01    0.1903587    0.1653944  32.60 0.0003233588    1.031    0.030
        16  -9.3294    220.7169      2.6719   7.8737382716e+00   2.9778168894e+01    0.1794607    0.1626817 -66.38 0.0003744533    1.160    0.138
        17  -8.9631    103.0764      9.8433   2.7459922084e+01   5.7516874790e+01    0.1909085    0.1774726  72.67  0.001223544    1.261    0.207
        18  -7.9098    137.5411      1.4890   1.7353210473e+01   5.0232746549e+01    0.1327645    0.1143065  56.79 7.107793e-05    1.020    0.019
        19 -15.1229    240.8552    110.6033   3.1005716679e+01   9.6823959827e+00    0.7892679    0.7190613  58.24  0.003306298    1.230    0.187
        20 -15.0490    241.5988    103.6509   2.9283376969e+01   1.0702971773e+01     1.252705    0.6523332  73.09  0.004690932    3.435    0.709
        21  -8.6481    178.2095    230.8168   6.7210596949e+01   8.3403457013e-01    0.2565873    0.1872186  51.86 0.0006958522    1.452    0.311
        22 -16.2629    244.0961     94.7128   2.6846827722e+01   1.1670109862e+01     1.715648    0.8724099  49.43  0.007692622    2.211    0.548
        23 -16.6175    246.6038     83.4474   2.3898023727e+01   1.2970614397e+01     1.286888     1.214762 -80.53  0.006209545    1.122    0.108
        24  -7.0862     84.2704    231.3570   8.5817682525e+01   1.5906144563e+01    0.1055062    0.0957953 -32.45 0.0002638042    1.641    0.391
        25  -9.4838    242.6719    221.3776   5.3617861079e+01  -8.0852233426e+00    0.2341855    0.1862897 -56.59  0.001419405    2.211    0.548
        26  -8.5794    185.8869    218.1476   6.3680772245e+01   1.5387361866e+00    0.2000877    0.1841723 -23.69 0.0003407609    1.211    0.174
        27  -9.9167    231.0634    215.2083   5.4591140076e+01  -5.4893558510e+00    0.2561217    0.2145426  11.35 0.0004409142    1.053    0.050
        28  -7.4780    186.8248    207.7998   6.1729352933e+01   3.0790547439e+00    0.1735431    0.1492008  53.82 0.0002325823    1.311    0.237
        29  -8.3383    195.5134    229.2416   6.3624466254e+01  -1.7939879097e+00    0.2389447    0.1695573  23.71 0.0005535337    1.277    0.217
        30 -10.0250    206.9881    201.6067   5.6628941929e+01   5.4439052587e-01    0.4670842    0.3145659   8.72 0.0009101114    1.746    0.427
        31  -7.3717    132.9184    199.0326   7.1603106796e+01   1.4436908971e+01    0.1585073    0.1429127  55.39            0    1.010    0.010
        32  -7.9159    178.0008    198.6808   6.1910724578e+01   6.2599196972e+00    0.1998518    0.1624888  33.21 0.0004990062    1.121    0.108
        33  -9.0969    183.0001    194.9074   6.0189897978e+01   6.0133854141e+00    0.2123679    0.1993446 -31.55  0.001275216    1.157    0.136
        34 -14.1338    249.0006    130.9746   3.4345572185e+01   4.6516940518e+00    0.7866652    0.3550859 -39.23  0.003061895    1.956    0.489
        35 -14.4917    247.8808    118.9100   3.1823608233e+01   6.8793394568e+00    0.7697199    0.3996815 -38.09  0.003529628    1.689    0.408
        36  -7.1294    100.7160    175.7629   7.5255516856e+01   2.5050361181e+01    0.1234652    0.1115198  -6.30            0    1.450    0.310
        37 -15.1923    237.2294    134.2813   3.6998200952e+01   6.3520414417e+00     1.659634     1.195424 -63.87  0.008176619    1.886    0.470
        38  -9.1781    193.9693    167.5768   5.2512457306e+01   8.9423308531e+00    0.3445078    0.2395017  23.74   0.00105981    1.607    0.378
        39  -9.6324    199.1385    164.7090   5.0848797336e+01   8.4505921244e+00    0.5414183    0.2498638 -36.21  0.001727636    2.248    0.555
        40  -7.6179    159.3031    159.9388   5.8429448618e+01   1.7529819471e+01    0.2096004    0.1927673 -53.10 0.0006388115    1.125    0.111
        41  -8.2228    166.5029    154.3617   5.5592723202e+01   1.7210330174e+01    0.2649939     0.236269  56.65 0.0008515998    1.159    0.137
        42  -8.8815    151.9685    152.5279   5.8543990375e+01   2.0635543843e+01    0.2364367    0.2134623 -50.07  0.001233838    1.126    0.112
        43  -7.8145    179.4460    151.2279   5.2031209496e+01   1.5127759414e+01    0.2097823    0.1439195 -54.85  0.000760526    1.643    0.391
        44  -8.9472    175.7660    149.0282   5.2340686719e+01   1.6357913183e+01    0.2557363    0.2138614  32.28 0.0002091908    1.216    0.178
        45 -12.4264    195.4390    144.2328   4.7066218365e+01   1.3120271872e+01    0.3633125    0.3531267  84.17 0.0002892277    1.139    0.122
        46 -10.3201    199.9381    142.8237   4.5829938876e+01   1.2437602620e+01    0.4060393    0.2846431 -42.10 0.0003428031    1.402    0.287
        47  -7.9628    132.8945    148.1905   6.2220031220e+01   2.5494060178e+01    0.2351035     0.203549  87.69 0.0005868014    1.264    0.209
        48  -7.5850     70.3173    146.6923   7.8159318945e+01   3.6616744931e+01    0.1443998   0.09967129  74.43 0.0007030446    1.633    0.388
        49  -8.3170    132.0810    140.8869   6.0825580487e+01   2.7327012701e+01    0.2892171     0.195978 -65.17   0.00125572    1.701    0.412
        50  -9.0143     38.3039    137.6800   8.5309262467e+01   4.2662695741e+01    0.2901755    0.1777805 -47.89 0.0004870113    1.715    0.417
        51 -10.0790    161.5436    130.9431   5.1322311376e+01   2.3258243257e+01    0.7478451     0.504099 -14.11  0.002952828    2.272    0.560
        52  -8.2340    116.1508    130.0717   6.2511902238e+01   3.2992809490e+01    0.2371112    0.2082329 -25.19  0.001069387    1.283    0.221
        53  -7.1646    189.6820    129.7181   4.4828481081e+01   1.7229463934e+01    0.1534889    0.1205984   8.69 0.0006991648    1.582    0.368
        54  -8.9745    171.6729    125.2110   4.7600191958e+01   2.2196893626e+01    0.3584193    0.2327435 -52.69  0.001197845    1.651    0.394
        55  -9.3299    163.2053    124.2060   4.9274776948e+01   2.4322809843e+01    0.3601006    0.2431797  25.69 0.0009983371    1.907    0.476
        56 -10.5995     54.6984    120.0265   7.7849066833e+01   4.5125936833e+01    0.4234136    0.3292474 -49.17  0.002158525    1.234    0.190
        57  -9.1467    176.7899    123.4949   4.6042313151e+01   2.1389120807e+01    0.4022318    0.3105292  19.33  0.001204506    1.589    0.371
        58 -10.3040     41.2739    120.0996   8.1804714877e+01   4.6596703224e+01    0.5967095     0.208116 -56.85  0.002468289    2.289    0.563
        59  -8.5080     65.5115    123.4782   7.5337200914e+01   4.2920951793e+01     0.140731    0.1253438 -64.51 -1.116321e-05    1.021    0.020
        60 -11.0204    140.4555    118.0960   5.3236065696e+01   3.0716752311e+01    0.5918728    0.4613204 -35.75  0.002046861    1.332    0.249
        61  -8.9955    181.4738    115.4859   4.3011931325e+01   2.1934792946e+01     0.417753    0.2938042 -29.52  0.001584688    1.524    0.344
        62 -10.0750    147.2692    115.2390   5.0794876292e+01   2.9836120719e+01    0.3995222    0.3065746 -74.92  0.001195559    1.642    0.391
        63 -12.0173    153.7337    108.6238   4.7475100564e+01   2.9782442036e+01     1.384994    0.8217137  58.32  0.005517867    1.927    0.481
        64 -10.6527    136.0469    104.4706   5.0762108691e+01   3.4666103414e+01    0.6742445    0.2500683 -49.65  0.002126009    2.926    0.658
        65  -7.1363     78.6438    111.3068   6.8855348911e+01   4.3975965873e+01    0.1479517    0.1104405  76.81 0.0007041505    1.723    0.420
        66 -10.8566    133.0353    108.4604   5.2625656340e+01   3.4457354814e+01    0.6162248    0.3536716 -46.82  0.002513353    1.721    0.419
        67 -10.2829    158.1214    102.1978   4.4697896213e+01   3.0095955149e+01    0.6164923    0.3904556 -36.24  0.001623708    1.620    0.383
        68  -8.2105    159.7047     95.9650   4.2609990631e+01   3.0980227886e+01    0.2704069    0.2184384  22.49 0.0002739495    1.459    0.315
        69 -10.7966    140.3540    103.0124   4.9256747945e+01   3.4018190166e+01    0.5465283    0.3030173 -45.17   0.00217992    1.786    0.440
        70  -8.0721    243.7493    226.3900   5.4304226789e+01  -8.8887467493e+00    0.1639831   0.09470332  25.61 0.0005941066    1.540    0.351
        71  -8.5820    165.9794     98.2827   4.1829755950e+01   2.9023147075e+01    0.2878137    0.2218186 -51.97 0.0003544718    1.333    0.250
        72 -10.7603    142.3664     90.0556   4.5084068127e+01   3.6244078965e+01    0.5039945    0.3543343 -55.67  0.001625048    1.574    0.365
        73 -10.5006    135.2310     95.2554   4.8400699274e+01   3.6804527589e+01    0.5229858    0.3748763 -18.00  0.001349773    1.794    0.443
        74  -8.3869    181.7264     94.6521   3.7483772625e+01   2.5941300632e+01    0.2621127    0.2357147 -48.66 0.0006942887    1.091    0.083
        75  -8.2500    169.9381     94.3464   3.9875268634e+01   2.8845106605e+01    0.2975388    0.2236595 -29.99 0.0007302178    1.405    0.288
        76  -7.7062    186.7956     92.1156   3.5789334952e+01   2.5192665345e+01    0.3682851    0.2421934  86.11 0.0009765088    2.319    0.569
        77  -9.6589    157.2854     79.7131   3.8506246656e+01   3.4694606223e+01    0.3176731    0.2631642 -41.27 0.0003450811    1.208    0.172
        78  -9.0738    156.6273     92.0906   4.2231802717e+01   3.2482035990e+01    0.3132211     0.278669  19.31 0.0006556063    1.243    0.195
        79  -9.7460    160.3008     85.6830   3.9562673309e+01   3.2840975934e+01    0.5660709    0.3381161  38.21 0.0007854369    1.904    0.475
        80  -9.2888    127.4071     90.3894   4.9065267599e+01   3.9551912490e+01    0.3031908    0.2235264 -82.75 0.0006334485    1.994    0.499
        81  -8.3353      3.4624     86.0578   8.8005047135e+01   5.7435925576e+01     0.184434   0.09203386 -67.55  0.000545324    1.539    0.350
        82 -10.2284    131.7498     81.9200   4.5387974342e+01   4.0296701019e+01    0.4207797    0.2919348 -88.88  0.001665578    2.434    0.589
        83  -9.3735    136.8476     76.9840   4.2568835108e+01   4.0080319988e+01    0.2643067    0.1765283 -64.04  0.001088223    2.038    0.509
        84  -8.2429    169.9188     70.5494   3.3122436075e+01   3.3216437870e+01     0.381389    0.2282857 -26.65   0.00134842    1.918    0.479
        85  -7.7975    185.7154     70.6290   3.0113407388e+01   2.9265857230e+01    0.1924095    0.1422934  71.96 0.0003739855    1.439    0.305
        86  -9.9502    150.8138     69.7141   3.6976774286e+01   3.8079730543e+01    0.3321646    0.2113266 -47.33  0.001444809    1.653    0.395
        87  -9.9250    139.1985     68.0495   3.9203978274e+01   4.1167720207e+01    0.3849265    0.2003039  42.26  0.001087794    2.006    0.501
        88  -8.6148    125.4659     66.0000   4.2048275151e+01   4.4716556038e+01    0.3307729   0.08437584  50.18 0.0009294007    3.892    0.743
        89 -10.5297    165.7885     61.4992   3.1286614129e+01   3.5763516861e+01    0.3100419    0.2831789  48.33 0.0003167074    1.100    0.091
        90  -9.7767    136.1631     62.8265   3.8285452383e+01   4.2797700140e+01    0.2684715    0.2062506 -46.85 0.0006101938    1.371    0.270
        91 -11.1882    150.2749     49.0257   3.0627044400e+01   4.1585405284e+01    0.6194502    0.4541758 -12.89  0.002985644    1.636    0.389
        92 -11.1353    146.6182     56.4179   3.3776312063e+01   4.1342616216e+01    0.6139895    0.3996955  32.93  0.002705506    1.804    0.446
        93  -8.2407    167.2325     56.6368   2.9550803841e+01   3.6176959983e+01    0.2716568    0.1976008  62.08 0.0005620872    1.347    0.258
        94  -9.2074    181.2551     57.6654   2.7261553276e+01   3.2482656945e+01    0.2806915    0.1751522 -56.86 0.0002379121    1.815    0.449
        95 -12.4177    187.6531     51.9258   2.4556455431e+01   3.1745862843e+01    0.8291216    0.4130368  45.79  0.001775568    2.250    0.556
        96  -8.7207    162.4858     55.8071   3.0233068123e+01   3.7499855656e+01    0.2648317    0.2009766  58.17  0.000383356    1.274    0.215
        97 -11.2502    141.7951     51.1207   3.3156048384e+01   4.3350807452e+01    0.5726193    0.3932338 -30.07  0.002733466    1.528    0.346
        98  -9.6947    118.4696     52.2616   3.9311197922e+01   4.8631409550e+01    0.3463697    0.1694848  47.58  0.001421921    1.965    0.491
        99 -11.2278    184.0748     41.9434   2.2321701237e+01   3.4078499406e+01    0.4508743    0.3472246  -8.94  0.001058584    1.647    0.393
       100 -10.4505    189.9893     32.5940   1.8835151833e+01   3.3828317252e+01    0.3792874    0.2223769 -28.73  0.001778739    1.852    0.460
       101 -10.5140    191.2281     27.6883   1.7323508759e+01   3.4130355560e+01    0.4871809    0.2857642 -17.35  0.001804633    2.239    0.553
       102  -7.8056    177.8976     41.9724   2.3321472782e+01   3.5637474953e+01    0.2467389     0.165725 -71.10  0.001132399    1.785    0.440
       103 -10.8673    140.3871     41.1772   3.0193091835e+01   4.5152843578e+01    0.5428642    0.3474239  82.42  0.002328173    2.193    0.544
       104  -7.2960    162.0403     41.0160   2.5795233374e+01   3.9785274219e+01    0.1695202    0.1653875  84.31 0.0003773614    1.040    0.039
       105 -10.5434    126.2707     39.2426   3.2774920946e+01   4.8800672765e+01    0.4549303    0.2069786  55.48  0.001840965    2.097    0.523
       106  -9.8803    177.1930     34.9125   2.1389146687e+01   3.6760536571e+01     0.284784    0.2311092 -83.07 0.0003659035    1.260    0.206
       107  -7.7058    183.9492     28.0197   1.8414495563e+01   3.5918682006e+01    0.1564211    0.1452192 -63.11            0    1.093    0.085
       108  -9.3716    124.7125     28.0288   2.9168595349e+01   5.0628538251e+01    0.1927016    0.1810075   7.80 0.0008434418    1.089    0.082
       109  -9.2167    118.9790     25.1793   2.9476011384e+01   5.2304504947e+01    0.2245666    0.1621583 -85.12  0.001091312    2.032    0.508
       110  -8.9695    133.4472     23.3199   2.5599152145e+01   4.9099825724e+01     0.266576    0.1322739  -4.91 0.0009629146    3.478    0.712
       111  -8.2514    144.3294     23.6756   2.3568079482e+01   4.6399103883e+01    0.1432814    0.1042003 -70.13 0.0002927745    1.700    0.412
       112  -9.3064    118.3086     17.8757   2.6932588554e+01   5.3278159174e+01    0.2964764    0.1569418  12.78  0.001096444    3.054    0.673
       113  -9.1073    234.8479    220.2647   5.4807029075e+01  -6.7676286636e+00    0.2909004     0.178832  28.60 0.0009437081    1.441    0.306
       114  -8.8542    238.2991    225.0302   5.5025498071e+01  -7.9172557766e+00    0.2029519    0.1384871  13.22 0.0006458742    1.313    0.238
       115  -8.4540    234.3051    224.0100   5.5558198547e+01  -7.1872433631e+00    0.2061879    0.1567819  30.56 0.0003617487    1.251    0.201
       116  -7.2491     93.3500    249.6545   8.5867438238e+01   1.1266177742e+01    0.1294279   0.07141714  64.50 0.0007041228    1.812    0.448
       117  -7.8873    187.6432    237.9855   6.6489746147e+01  -1.7956492438e+00    0.1602656    0.1432005  16.01 0.0004081871    1.116    0.104
       118 -14.7875    228.2782    113.4638   3.3687909764e+01   1.1811542351e+01     1.594409    0.9061733 -16.40  0.006108272    2.740    0.635
       119  -8.0526    204.0159    234.6676   6.2887018630e+01  -3.9468481465e+00    0.1760218     0.165203  15.84 0.0005313535    1.243    0.196
       120  -7.3969    196.1145    233.8521   6.4244212604e+01  -2.5659196410e+00    0.1786709    0.1253961  21.18  0.001056087    1.326    0.246
       121 -14.5598    229.5421    101.8502   3.0715959995e+01   1.3565409836e+01    0.7376168    0.5969593  14.06  0.002510841    1.556    0.357
