#   1 NUMBER                 Running object number                                     
#   2 MAG_AUTO               Kron-like elliptical aperture magnitude                    [mag]
#   3 X_IMAGE                Object position along x                                    [pixel]
#   4 Y_IMAGE                Object position along y                                    [pixel]
#   5 X_WORLD                Barycenter position along world x axis                     [deg]
#   6 Y_WORLD                Barycenter position along world y axis                     [deg]
#   7 A_WORLD                Profile RMS along major axis (world units)                 [deg]
#   8 B_WORLD                Profile RMS along minor axis (world units)                 [deg]
#   9 THETA_WORLD            Position angle (CCW/world-x)                               [deg]
#  10 FWHM_WORLD             FWHM assuming a gaussian core                              [deg]
#  11 ELONGATION             A_IMAGE/B_IMAGE                                           
#  12 ELLIPTICITY            1 - B_IMAGE/A_IMAGE                                       
         1 -15.0864      6.5193     92.6263   8.0617372919e+01   5.7106597702e+01     2.142599    0.8715636 -86.72  0.008671684    2.611    0.617
         2 -14.5435    113.3816     74.8687   3.5396353231e+01   4.5438340091e+01     2.159523     1.647742 -60.01  0.009898055    1.443    0.307
         3 -13.1925     48.8611     50.8781   5.0971056444e+01   6.3033787621e+01     2.198811    0.8771477  38.90   0.00872718    2.578    0.612
         4 -13.4116     19.9432     53.8567   6.6790723321e+01   6.5731332741e+01     1.529751    0.4305423 -53.56  0.005896519    2.696    0.629
         5 -13.3881    192.2639     47.4060   1.1280996505e+01   3.0733132338e+01     1.071568    0.5322781 -34.52  0.004718487    1.913    0.477
         6 -14.6900    242.5954     11.0237   3.5814470688e+02   2.4160805485e+01     1.676587     1.154246  -8.47  0.009853715    2.270    0.559
         7 -12.4609     50.9418     37.2726   4.4386796561e+01   6.5388317965e+01    0.7445031    0.4234948 -45.19  0.003585601    1.777    0.437
         8 -13.1326     36.0859     34.4566   5.0852902706e+01   6.8135429515e+01    0.9964792    0.6429518   8.09    0.0051055    1.818    0.450
         9 -14.2559    241.9236     45.4518   5.6232308346e+00   2.0188880541e+01     1.376904    0.6312582 -62.49  0.006139101    2.466    0.594
        10 -13.9361     40.5619      4.4363   3.2212170428e+01   7.2238676878e+01     1.730078    0.6944602  49.97  0.007614183    2.615    0.618
        11 -13.4676      8.2404     17.1828   6.0928752347e+01   7.4419475219e+01     1.289478    0.4788464 -41.76  0.006035436    2.286    0.563
        12 -14.2577      8.6298      4.9801   5.4135909808e+01   7.6584184287e+01     1.344399    0.5736293  15.74  0.006400479    2.688    0.628
        13 -12.9634    250.1810     29.0964   1.4828546107e+00   2.0612930612e+01     1.054044    0.1399262 -31.59  0.003033521    6.309    0.841
        14 -11.9581     92.5641     15.1214   1.8361019730e+01   5.9963192854e+01    0.5078683    0.4563444  28.09   0.00278736    1.121    0.108
        15 -13.5355     82.4356     17.6650   2.2464399220e+01   6.2055735424e+01     1.180938    0.8601491  29.31  0.006273082    1.422    0.297
        16 -13.2849     81.6033      5.4992   1.6829940316e+01   6.3558779229e+01     1.420657    0.6969074  30.56  0.006017219    2.546    0.607
        17 -11.3529    107.3471      9.7266   1.2537370593e+01   5.6871572936e+01    0.3233978    0.1859662  71.16  0.001530269    1.654    0.395
        18 -12.4584     95.2995      2.9732   1.2205070221e+01   6.0493233760e+01    0.7695732    0.4094671  64.73  0.003692241    1.656    0.396
        19 -13.5286     48.6511    149.4057   7.3337347109e+01   3.8571979264e+01     1.332165    0.8820771 -85.61   0.00662695    1.509    0.337
        20 -14.3620    245.9390    245.0494   4.3642068100e+01  -7.9224048294e+00     0.915983      0.75755  11.84  0.005659115    1.452    0.311
        21 -13.7534    229.3391    238.7553   4.5402414367e+01  -5.3855893378e+00    0.5748118     0.366405 -14.39  0.003231261    1.391    0.281
        22 -15.1073    117.5037    245.4112   6.7556932768e+01   8.3928193485e+00     2.011191    0.8917386  33.22    0.0101841    1.804    0.446
        23 -15.0269    187.5564    246.8882   5.3932088230e+01  -1.2853662362e+00     4.129299     0.565922  36.78   0.01273799    5.896    0.830
        24 -14.6297     89.5785    246.7873   7.3477036966e+01   1.1918378957e+01    0.9569887     0.550767  46.98  0.004439975    1.418    0.295
        25 -14.0038     78.9786    244.8216   7.5513322758e+01   1.3637287654e+01    0.7254127    0.4086268 -65.70  0.003541793    2.141    0.533
        26 -14.0567    153.0371    247.6297   6.0631414580e+01   3.1792657809e+00     1.188433    0.5466738  47.06  0.005802435    2.496    0.599
        27 -14.1374    139.2510    245.4361   6.3116757915e+01   5.3931578808e+00    0.8137832    0.6667228  59.64  0.004953583    1.505    0.336
        28 -17.0391     14.0953    138.2620   8.2718162195e+01   4.4884667740e+01     4.274593     2.469224  87.09   0.02166317    1.602    0.376
        29 -11.3234     21.9141    244.8380   8.7139514495e+01   2.0254194807e+01    0.6928966    0.6376677   5.98  0.005420938    1.594    0.372
        30 -13.5529     69.4708    237.0853   7.6892552664e+01   1.6254409046e+01     1.207503    0.5103446 -67.16  0.006056414    2.730    0.634
        31 -14.1109      7.6589    224.8823   8.9234506761e+01   2.5480049690e+01     1.829078    0.5837128  73.61  0.008018667    3.212    0.689
        32 -14.1168     51.3790    215.0799   7.9161103623e+01   2.2844545344e+01     1.504753    0.6056234  78.15   0.00559255    4.031    0.752
        33 -13.9580     39.2997    205.4108   8.1237999389e+01   2.6314316655e+01     0.796954    0.4785693  72.23  0.003279013    1.578    0.366
        34 -15.2491     52.4225    240.6952   8.0743016299e+01   1.7666363449e+01     1.465552    0.6626835  72.27  0.007126933    2.709    0.631
        35 -14.2716     32.5572    206.7730   8.2899376732e+01   2.6761651811e+01     3.055059     1.000292 -84.84   0.01195795    3.599    0.722
        36 -13.8186     30.5133    224.7882   8.4420427313e+01   2.3221825296e+01     2.357022     0.639816  59.68  0.008671233    4.043    0.753
        37 -15.3939      7.8120    198.4621   8.8147065012e+01   3.1003024150e+01     1.346808    0.7032651  73.17  0.005201252    1.654    0.395
        38 -15.4144      3.0854    171.7594   8.8038100089e+01   3.7485960887e+01     2.177088    0.4662577 -87.59  0.006635077    5.214    0.808
        39 -14.7056     38.4499    245.6671   8.3891195792e+01   1.8343665164e+01    0.8835546    0.3863782  70.13  0.003956144    2.428    0.588
        40 -10.5935     30.0618    234.3030   8.5014586119e+01   2.1394249378e+01    0.4353251    0.1522094  38.12  0.002187093    2.071    0.517
        41 -13.6805     94.1720    137.6939   5.7626033604e+01   3.4757655484e+01      1.21977    0.9867233  53.33  0.004129998    1.223    0.183
        42 -13.7491    108.2952    143.2059   5.4676630104e+01   3.0870165484e+01     1.145984    0.8089709 -74.29  0.005186519    1.696    0.410
        43 -14.8643    108.5040    125.1375   5.0706495067e+01   3.5157651916e+01     1.530313     1.235689 -31.65   0.00571936    1.411    0.291
        44 -10.7744     70.0613    144.9719   6.6200865573e+01   3.6827846241e+01    0.4131212    0.2208817  70.52  0.001501945    2.837    0.648
        45 -13.3631     61.5109    128.1616   6.6038510172e+01   4.2382711449e+01      1.41623    0.7311651 -55.77   0.00598484    1.854    0.461
        46 -12.7922     95.9559    123.8895   5.4161401541e+01   3.7846120864e+01    0.7835595    0.5264977 -38.83  0.002516323    1.694    0.410
        47 -14.6142     58.3413    106.0336   6.2796863865e+01   4.8556966850e+01     2.222157      1.34099 -55.95  0.009102129    1.558    0.358
        48 -13.2926     44.6211    104.3797   6.7558105553e+01   5.0764606195e+01     1.443803    0.8052966 -75.73    0.0057066    1.915    0.478
        49 -11.0216     31.9627    111.1960   7.3471244935e+01   5.0355429839e+01    0.5638938    0.1347661  25.64  0.001803268    4.105    0.756
        50 -11.3815    250.4194    106.3087   1.7837070573e+01   1.0070039234e+01    0.2513612     0.105098 -31.86  0.001138326    2.129    0.530
        51 -11.6242     28.9034     98.3003   7.2513167442e+01   5.3999611982e+01      0.78858    0.3020755 -59.61  0.003182239    2.179    0.541
        52 -12.6089     30.4355     76.2721   6.7404868573e+01   5.9434314213e+01     1.229391    0.8422626 -86.95  0.006185547    1.724    0.420
        53 -13.9795    220.1398    247.1149   4.8175916870e+01  -5.2943702353e+00    0.8905811    0.5485063  10.03  0.005414117    1.366    0.268
        54 -14.0626     21.0388     92.2647   7.4651571815e+01   5.6227403855e+01     1.603599    0.8253328 -75.23  0.007345384    1.835    0.455
        55 -12.3849     17.5529     77.9815   7.3601892375e+01   6.0105984437e+01     0.519848    0.3754197   1.43  0.002142664    1.598    0.374
        56 -14.0079    122.9921     93.4108   3.8326259543e+01   3.9368089964e+01     1.422643     1.008485  26.78  0.005489621    1.768    0.434
        57 -11.7611    178.8483     85.4466   2.3523196134e+01   2.7858963826e+01    0.5011981    0.4190358 -40.55  0.002661575    1.149    0.130
        58 -12.8802     81.8516    209.1537   7.1527839222e+01   2.0113176131e+01     2.852153     1.155572 -82.13  0.009158208    5.334    0.813
        59 -13.1089    101.4902     64.5347   3.5509594114e+01   5.0203068695e+01     1.150537    0.6738341  36.11  0.004743938    1.927    0.481
        60 -12.3400     58.0525     78.5985   5.6042482985e+01   5.5430915548e+01     1.062604    0.6653569 -72.69  0.004608244    2.038    0.509
        61 -12.7195     49.5508     80.0236   5.9981423745e+01   5.6297032863e+01    0.7793636    0.5354886 -42.65  0.003041122    1.430    0.301
        62 -12.8236     49.3573     73.6097   5.8275315707e+01   5.7866435093e+01    0.9690599    0.4249111 -47.85  0.003893761    2.135    0.532
        63 -13.4984    230.0423     76.9007   1.3882949667e+01   1.8169133511e+01    0.7472492    0.4391239 -45.51  0.003814291    1.459    0.314
        64 -13.4691    230.2834     69.4966   1.2165366136e+01   1.9206990338e+01     0.718824    0.4501616 -52.36  0.002808017    1.450    0.311
        65 -13.7023    190.5658     72.7000   1.8205414579e+01   2.7302252831e+01     1.172343    0.9716096  -9.86  0.005678093    1.491    0.329
        66 -12.4752     41.9804     70.2420   6.0588148272e+01   5.9623390727e+01    0.5008111    0.3127232 -46.34   0.00244844    1.492    0.330
        67 -15.1357     61.3367    193.8623   7.4911367678e+01   2.6206419656e+01     2.022314    0.7356347  52.69  0.007730979    2.848    0.649
        68 -11.1916      8.7530     58.1536   7.3816914723e+01   6.5507059043e+01     1.039457      0.42967 -57.24   0.00483681    1.906    0.475
        69 -12.1620      3.2836     55.2140   7.6087390731e+01   6.6485698026e+01    0.9169502    0.1483011 -57.93  0.003279468    3.318    0.699
        70 -15.0254     66.1206    213.2961   7.5617824512e+01   2.1371686297e+01     1.469955     0.786649  83.07  0.005660444    2.388    0.581
        71 -14.3093     28.0622     56.4859   6.3289836230e+01   6.4386770276e+01     1.543874    0.7986279  26.26  0.005994131    2.035    0.509
        72 -12.5780     27.6893     49.7048   6.1344574650e+01   6.5953415530e+01    0.5080345     0.310782  34.59  0.002163472    1.780    0.438
        73 -12.3633    178.2396     59.5010   1.6566365170e+01   3.2313915491e+01    0.5388639    0.4007228  60.76   0.00271869    1.369    0.270
        74 -12.9429     94.1641     53.9405   3.4023132643e+01   5.3849156417e+01    0.5799695     0.471341  33.57  0.002975429    1.263    0.208
        75 -12.7053     88.4226     52.3606   3.5344776153e+01   5.5403075485e+01    0.5049127    0.3992924  -9.71   0.00252058    1.509    0.337
        76 -11.4578    102.5135    229.4949   6.9031262975e+01   1.3230175398e+01    0.4846778    0.1687132  46.25  0.002000015    2.627    0.619
        77 -11.7436     98.3245    225.7613   6.9550319958e+01   1.4511421014e+01    0.5066428    0.3049894  54.51  0.002736079    1.646    0.393
        78 -13.4705    234.1174     33.1600   3.5440995526e+00   2.3314242157e+01    0.9890907    0.4560917  86.60  0.004643633    2.611    0.617
        79 -11.2041     78.3860     50.5856   3.8257780708e+01   5.7845508358e+01    0.3014157    0.2927642 -87.86  0.001690913    1.143    0.125
        80 -10.5629      1.4418     46.3662   7.5184569461e+01   6.8624784653e+01    0.2987264    0.1110803 -71.43  0.001285084    2.514    0.602
        81 -12.3579     45.6140    221.8353   8.0947092486e+01   2.2135667957e+01    0.5611664    0.2923127  85.43  0.002597124    2.117    0.528
        82 -13.6473     77.5081    223.0230   7.3919072705e+01   1.7901671351e+01    0.9223175    0.4526883  65.06  0.004160262    2.620    0.618
        83 -11.3470     94.4980    203.8582   6.7922139414e+01   1.9396538737e+01    0.3503354    0.2716081  47.61  0.001538522    1.125    0.111
        84 -12.0008     98.6960     28.0132   2.2291971729e+01   5.6906820892e+01    0.5911613    0.3947145  74.27  0.002274138    1.734    0.423
        85 -12.6693     48.4959    193.5800   7.8081083245e+01   2.7874906510e+01    0.7516896     0.346833  64.50  0.002819862    2.406    0.584
        86  -9.8289     18.6857    192.3273   8.5285418281e+01   3.1372165030e+01    0.1377891    0.0707614  59.69 0.0007043664    1.671    0.401
        87 -12.7624     21.3986    185.4839   8.4207286680e+01   3.2677082947e+01    0.5290235    0.2495807  68.65  0.001851203    2.041    0.510
        88 -11.1694     39.3844    185.3104   7.9662504547e+01   3.0838213751e+01    0.3407386    0.2060398  76.35   0.00107067    1.622    0.383
        89 -11.5945     65.1831    180.9439   7.2533521417e+01   2.8671518030e+01    0.4171056    0.3164063  51.94  0.001859091    1.175    0.149
        90 -11.0100     60.8566    178.6304   7.3411404049e+01   2.9794903490e+01    0.4463589    0.2562037 -74.33  0.002150421    1.796    0.443
        91 -11.5975    234.5557    169.1745   3.2743255671e+01   3.1875000723e+00    0.2759033    0.1771514 -18.84  0.001191865    1.468    0.319
        92 -11.5816      9.1224     25.8823   6.4027622294e+01   7.2638242972e+01    0.3623985    0.2528882 -30.66  0.001333183    1.248    0.199
        93 -13.1960      4.6916    238.2702   9.0274021171e+01   2.3155899081e+01    0.7585524    0.2603351  66.66  0.003836281    2.506    0.601
