#   1 NUMBER                 Running object number                                     
#   2 MAG_AUTO               Kron-like elliptical aperture magnitude                    [mag]
#   3 X_IMAGE                Object position along x                                    [pixel]
#   4 Y_IMAGE                Object position along y                                    [pixel]
#   5 X_WORLD                Barycenter position along world x axis                     [deg]
#   6 Y_WORLD                Barycenter position along world y axis                     [deg]
#   7 A_WORLD                Profile RMS along major axis (world units)                 [deg]
#   8 B_WORLD                Profile RMS along minor axis (world units)                 [deg]
#   9 THETA_WORLD            Position angle (CCW/world-x)                               [deg]
#  10 FWHM_WORLD             FWHM assuming a gaussian core                              [deg]
#  11 ELONGATION             A_IMAGE/B_IMAGE                                           
#  12 ELLIPTICITY            1 - B_IMAGE/A_IMAGE                                       
         1 -12.6102    202.2253     24.2855   3.5976928229e+01   3.2204460392e+01     2.307683     1.337182 -23.46   0.01230022    2.095    0.523
         2 -14.4479    172.8266     84.2366   5.5063397309e+01   3.0274596064e+01     2.614765     1.883173  35.77   0.01299059    1.648    0.393
         3 -15.4279    220.5243     28.6927   3.5365414471e+01   2.7864555807e+01     4.174814      2.91999  12.88   0.02258937    2.744    0.636
         4 -13.4864    223.1045     13.2450   3.1862489171e+01   2.9056965194e+01     1.387014    0.7200958  34.84  0.005477788    5.530    0.819
         5 -15.4504    226.6888     86.8182   4.7454964856e+01   1.8759367827e+01     7.586411     1.163746 -45.33   0.01752746    6.789    0.853
         6 -16.6903    244.6928     61.7485   4.0174670175e+01   1.9042677672e+01     5.662487     4.781307  53.20   0.02109581    1.501    0.334
         7 -13.0192    133.8382    102.2458   6.8445062079e+01   3.5523132008e+01     2.894351    0.6126239 -48.22  0.006562243    6.047    0.835
         8 -13.2033    120.6765    101.6044   7.1778471076e+01   3.8469307296e+01     2.089207     1.617519  45.79   0.01011586    1.301    0.232
         9 -15.4845    238.3201     51.1055   3.8574511745e+01   2.1618407484e+01     1.896606    0.5392126 -38.50     0.008118    2.709    0.631
        10 -14.8973    247.6015     20.8524   3.1791513868e+01   2.3537222880e+01     1.891669    0.6118926 -41.44  0.009627778    2.255    0.557
        11 -10.8740    179.2506     24.1689   3.8280896299e+01   3.7345150973e+01    0.5390669    0.3679597  69.38  0.003104694    1.379    0.275
        12  -9.7923    134.0000     18.0539   4.2610422103e+01   4.8779288773e+01    0.3430409    0.1432156 -25.84  0.001100223    2.691    0.628
        13 -11.0901    135.4484     12.0530   4.0452632193e+01   4.9014184274e+01     0.690777    0.2193342 -24.93  0.002655979    3.519    0.716
        14  -8.9935    194.6455     19.3316   3.5504549504e+01   3.4406631391e+01    0.1910343    0.1602682 -42.99 0.0006926213    1.233    0.189
        15  -9.6443    155.4083     13.7124   3.8236088371e+01   4.4045038895e+01     0.374894    0.2307482  -4.83  0.001861536    2.425    0.588
        16  -9.1401    146.0198     11.7590   3.8868208720e+01   4.6486383040e+01    0.2365376    0.1574166 -26.34  0.001122195    1.700    0.412
        17  -8.9401    118.6119      3.2176   4.0113873261e+01   5.3853282431e+01    0.1595984    0.1229139   5.62 0.0005531771    1.600    0.375
        18  -9.4980    115.9898     12.5136   4.3863805493e+01   5.3677821937e+01    0.2980277    0.2022959  68.04  0.001064139    1.319    0.242
        19 -11.1194    120.3095      8.8773   4.1808910208e+01   5.2967434985e+01    0.4369229    0.3546101  62.39  0.001457706    1.075    0.070
        20  -8.7757    192.1090      9.4619   3.3363116207e+01   3.5989318423e+01    0.1732218    0.1056477  77.46 0.0002792458    1.495    0.331
        21  -9.4202    182.0737      3.5639   3.2771661703e+01   3.8795697594e+01    0.2217657    0.1895836 -12.88  0.001489972    1.514    0.340
        22  -9.8894    249.2878      2.0784   2.8133182092e+01   2.5206976150e+01    0.2766106    0.1588181  85.61   0.00186295    1.669    0.401
        23 -10.2611    214.7350    169.2566   6.6652626331e+01   7.2063414483e+00    0.3679298    0.2716888  45.58  0.001716224    1.676    0.403
        24 -11.5323    235.6433    174.5755   6.4124557206e+01   3.3176056803e+00    0.4458037    0.3245344  36.51  0.001892856    1.610    0.379
        25  -8.3353     36.4951    181.0170   1.1199219775e+02   3.2001132472e+01    0.1836339    0.1230533 -73.50 0.0009748738    1.429    0.300
        26  -9.2270    235.1774    186.8333   6.6469444777e+01   1.5011395907e+00    0.2229515    0.1361849 -23.78 0.0005509688    1.425    0.298
        27  -8.9002    193.3210    234.9204   8.2266671258e+01  -3.3239950036e-01     0.165054    0.1512634 -40.09  0.001148155    1.562    0.360
        28 -10.3796    213.1897    229.0904   7.7610143289e+01  -1.9575719876e+00    0.1950795      0.15948 -10.83            0    1.164    0.141
        29  -8.9306    181.0051    229.0310   8.3778003138e+01   2.1742148496e+00    0.1837862    0.1496001   6.56  0.001192347    1.011    0.011
        30  -8.9831    182.4751    224.1200   8.2707335984e+01   2.7572367870e+00    0.1736165    0.1170836 -35.82 0.0005913725    1.517    0.341
        31  -8.8119    230.3506    221.8985   7.3388741331e+01  -2.9979438740e+00    0.1768339    0.1426295  15.96 0.0005743956    1.311    0.237
        32  -9.1845    183.3665    219.8110   8.1832706491e+01   3.3308523771e+00    0.1683735    0.1068887 -27.89 0.0002193718    1.558    0.358
        33 -10.9696    231.0618    167.9732   6.3617142259e+01   4.9983261490e+00    0.4660562    0.2270514 -45.00  0.002258798    2.089    0.521
        34 -12.8453      6.7030    158.1235   1.1819578830e+02   4.0253424561e+01    0.9312676    0.6605413  89.76  0.004023755    1.251    0.201
        35 -11.8650     11.9935    156.5113   1.1655762884e+02   4.0277224262e+01    0.7947917    0.3022729 -87.97  0.002709026    2.861    0.650
        36 -11.5444    191.2836    153.1386   6.7756354966e+01   1.3894346913e+01    0.6115714    0.4414903 -52.04  0.003172717    1.555    0.357
        37 -10.4660    245.2007    193.8676   6.6108452042e+01  -8.0792997248e-01    0.2090453    0.1836347  -3.37 0.0009460895    1.277    0.217
        38  -8.7702    159.6753    158.9874   7.5696941376e+01   1.8401460509e+01    0.2099985    0.1805775 -33.87 0.0005074707    1.129    0.114
        39 -10.6187    204.9485    153.3082   6.5207984303e+01   1.1524121075e+01      0.50964    0.4062577 -72.39  0.002747898    1.895    0.472
        40  -7.6931    218.6443    154.7148   6.3080882786e+01   9.0474121239e+00    0.1339222   0.09382819  -2.67  0.000702087    1.670    0.401
        41 -10.5335    133.7960    145.1750   7.9005829003e+01   2.6178169169e+01     1.157563     0.313572 -54.30  0.002789963    5.603    0.822
        42  -9.3540    173.4876    149.9955   7.0726165874e+01   1.7690147454e+01    0.2240813    0.1358822 -39.93 0.0005190703    1.573    0.364
        43  -7.9106    222.6674    149.3362   6.1318043838e+01   9.3103794180e+00    0.1258993    0.1002979 -64.41 0.0007052124    1.738    0.425
        44 -10.2182    145.4072    148.5629   7.6838189075e+01   2.3239425035e+01    0.4028504    0.3003944  82.62  0.001770557    2.139    0.533
        45 -12.3930     67.4232    140.8060   9.7402953700e+01   3.8483866016e+01       1.8429     1.325458 -86.69  0.006577562    1.641    0.391
        46 -12.1640     54.6341    141.1280   1.0154571511e+02   4.0078249643e+01    0.8174736    0.4658818 -70.60  0.001753176    1.789    0.441
        47 -11.7061     39.0509    146.0596   1.0724157630e+02   4.0564423107e+01    0.4029042    0.3395004  -4.63 0.0009615442    1.387    0.279
        48 -12.8685     47.1473    143.0001   1.0423859064e+02   4.0479205640e+01     1.061587    0.7852402 -59.08  0.003293416    1.276    0.216
        49  -9.9768    173.3049    137.6013   6.8024050621e+01   2.0170436993e+01    0.3040704    0.2450592 -70.85  0.001535432    1.615    0.381
        50 -10.3006    175.0201    142.1477   6.8680984851e+01   1.8949630615e+01    0.3646621    0.3158357  -5.10  0.001550414    1.181    0.153
        51 -10.6425    179.6689    146.1971   6.8603293654e+01   1.7294218280e+01    0.4152218    0.3260787 -55.55 0.0008250104    1.447    0.309
        52 -11.0265    183.5969    142.5771   6.7010690918e+01   1.7264328258e+01    0.5505454    0.3501143  55.43  0.001960283    2.001    0.500
        53  -9.8473    192.3311    144.0766   6.5619465558e+01   1.5388426457e+01    0.2251544    0.2057495  50.93 0.0004035289    1.278    0.217
        54 -10.0128    159.8871    143.4211   7.2281512650e+01   2.1571586882e+01    0.3858982    0.2636666  61.83   0.00171043    2.013    0.503
        55 -10.8182     27.3026    139.3963   1.1010923670e+02   4.3419213473e+01    0.3317911    0.2745927  -0.12  0.001895945    1.412    0.292
        56 -10.7794    145.0636    140.1794   7.5054410080e+01   2.5117757776e+01    0.4620277    0.2855206 -69.39  0.001073643    2.736    0.635
        57 -10.6442    142.0522    135.5539   7.4735420323e+01   2.6709247286e+01    0.3817959     0.279385 -45.81  0.001130676    1.354    0.261
        58  -8.2498    123.1462    143.5969   8.1464296953e+01   2.8535512315e+01    0.1939397    0.1453953  22.38 0.0002712533    1.449    0.310
        59 -10.4994    201.3768    139.6461   6.2972165807e+01   1.4577646652e+01    0.3815775    0.2057846 -35.70  0.001763655    1.706    0.414
        60 -11.3592    136.5259    128.4245   7.4445978203e+01   2.9364728566e+01    0.7803887    0.3665187 -54.48  0.002343752    2.510    0.602
        61 -10.3784    211.0325    135.6904   6.0425391991e+01   1.3575358138e+01    0.4448961    0.3469433 -28.64  0.002561712    1.154    0.133
        62 -11.3363    189.6839    136.1568   6.4394080811e+01   1.7345472533e+01    0.5340411    0.3450701 -33.43  0.002614465    1.470    0.320
        63  -8.2136    220.8029    134.4025   5.8538782852e+01   1.2119374961e+01    0.1649683    0.1225858  27.17 0.0006285317    1.563    0.360
        64  -9.8168    205.6950    122.2698   5.8407270925e+01   1.6875198491e+01    0.2927512    0.2066212 -55.89  0.000528448    1.576    0.366
        65 -11.1387    203.2434    132.8687   6.1166829231e+01   1.5454469936e+01    0.5614709    0.2892585 -52.52  0.001759431    2.330    0.571
        66 -10.4655    201.8515    125.7963   5.9852682936e+01   1.6967092094e+01    0.3392584    0.2322515 -56.76 0.0003964954    1.696    0.410
        67 -11.3124    160.0861    129.0152   6.8922880124e+01   2.4493508017e+01    0.5447497    0.3878234 -25.27  0.002153911    1.553    0.356
        68  -8.5822    217.4888    148.2583   6.1962446419e+01   1.0325996960e+01    0.1751699    0.1140258 -45.39 0.0004488787    1.507    0.336
        69  -8.9785    167.1253    134.1775   6.8568680378e+01   2.2050944221e+01    0.2309199    0.1977113  -6.30 0.0005875445    1.243    0.196
        70 -10.2207    171.1980    126.4111   6.5887588682e+01   2.2786150419e+01    0.2895848     0.234261  72.82  0.001460795    1.586    0.370
        71  -9.7618    172.2336    123.1952   6.4911025009e+01   2.3206849879e+01    0.4304402    0.2063835 -52.91  0.001407941    2.519    0.603
        72  -9.5880    143.7144    123.8739   7.1538419350e+01   2.8891921875e+01    0.3506974    0.2725144 -63.20  0.001327365    1.497    0.332
        73  -8.2653     94.2084    125.5762   8.5775140315e+01   3.8093551285e+01    0.2043981    0.1495094  20.37 0.0004655813    1.532    0.347
        74 -11.5007    132.6757     79.5868   6.2309885639e+01   4.0225184028e+01      0.53743    0.2921313 -46.34  0.001774245    1.906    0.475
        75 -11.8035    141.6142     96.0323   6.4823447369e+01   3.5074413593e+01    0.8084174    0.5490398 -49.59 0.0009865073    1.514    0.339
        76 -11.1925    125.4718     86.2803   6.6117006286e+01   4.0572277568e+01    0.9950802    0.2839006 -47.49  0.002724015    4.058    0.754
        77  -8.8625    242.3267    214.6545   7.0164554609e+01  -3.3878187675e+00   0.09852814   0.09093454 -38.71 0.0007050358    1.747    0.427
        78  -9.9163    150.0155    213.6287   8.7908023107e+01   9.1974568743e+00    0.2189781    0.1873699 -34.17   0.00049703    1.247    0.198
        79 -10.7417    167.6240    116.8073   6.4340725696e+01   2.5393769217e+01    0.4263948    0.3123624 -40.44   0.00200646    1.303    0.233
        80  -8.8970     71.9144    112.3265   9.0003800515e+01   4.5045711102e+01    0.2060171    0.1895311  19.21  0.000393995    1.115    0.103
        81  -9.9313    148.1597    105.4587   6.5798690224e+01   3.1769564366e+01    0.3294148    0.2731754  32.41 0.0007649991    1.280    0.219
        82  -9.2661    247.4019    211.2830   6.8771762642e+01  -3.5059082406e+00    0.1944686    0.1170324  13.46 0.0006579888    1.631    0.387
        83 -10.7283    158.1306    101.4475   6.2503090902e+01   3.0389348410e+01    0.4673405    0.3677161  32.22  0.001449509    1.408    0.290
        84 -10.3976    196.3745     97.4324   5.4256379534e+01   2.2989181327e+01    0.3229869    0.2283262 -34.74  0.001553334    1.339    0.253
        85  -8.9871    202.9670     96.2840   5.2930709610e+01   2.1849794419e+01    0.2976536     0.177763 -40.53   0.00146843    1.499    0.333
        86 -10.3953     89.8708     94.1500   7.9086129108e+01   4.6283632580e+01    0.2572795    0.2327982 -35.21  0.001355967    1.088    0.081
        87 -11.0543    149.1266     83.3773   5.9586999622e+01   3.5776457339e+01    0.6948612    0.3223024  34.69  0.002287179    3.433    0.709
        88  -8.6636    139.2811     83.3307   6.1812084872e+01   3.8028195256e+01    0.1490144    0.1187997   5.53 0.0004195856    1.606    0.377
        89 -10.8655    140.2266     78.0768   6.0071210276e+01   3.8770890011e+01     0.457994    0.3344151  39.95  0.002001985    1.442    0.307
        90  -9.0445    234.6846    210.1913   7.0680202161e+01  -1.8694697082e+00    0.1712285    0.1313353 -35.04 0.0007271554    1.454    0.312
        91  -8.4734     84.6577     76.6931   7.5585887919e+01   5.1041103712e+01    0.1548184    0.1150441  -0.90 0.0003193335    1.689    0.408
        92 -10.1108    164.1963     73.3853   5.3769072987e+01   3.4050670691e+01    0.3193457    0.2368686 -44.00 0.0005586711    1.312    0.238
        93 -10.3519    157.7503    114.9461   6.6029165310e+01   2.7821747803e+01    0.4267297    0.3852307 -64.11    0.0010279    1.191    0.160
        94  -8.9737    174.0035    113.8222   6.2296969417e+01   2.4648821148e+01    0.2812935    0.2051147 -40.14  0.001400337    1.297    0.229
        95 -11.1543    137.0245     71.6364   5.8907316369e+01   4.0647372009e+01    0.5120866    0.2744628 -52.76  0.002052096    2.222    0.550
        96  -9.8433    125.8360     65.4306   5.9670479527e+01   4.4311806414e+01    0.3296009    0.2218213 -47.94 0.0008004783    1.581    0.368
        97  -8.4998    163.4445     67.0246   5.2162784814e+01   3.5253273948e+01    0.2070572    0.1351149 -38.89  0.000386167    1.507    0.337
        98 -11.2703    135.1558     61.7078   5.6313793689e+01   4.2747854906e+01    0.5519092    0.2890003 -33.94  0.002332641    2.013    0.503
        99  -8.8479    180.8454     61.9130   4.7897634698e+01   3.2052964172e+01     0.195028     0.187328  17.41 0.0004607286    1.222    0.182
       100 -11.4278    144.2610     59.3967   5.3660970730e+01   4.0959781454e+01    0.5607224    0.3176768 -33.78    0.0022212    1.843    0.457
       101 -11.2323    145.0294     50.1266   5.0714474394e+01   4.2164280389e+01    0.5892709    0.3062294  63.09  0.002567538    1.905    0.475
       102  -8.9462     97.0209     59.9634   6.5859711549e+01   5.1731312977e+01     0.178717    0.1703679  -9.93  0.001008723    1.061    0.058
       103  -8.2011     72.5946     58.5024   7.3787493871e+01   5.6901493487e+01     0.141767    0.1311873  -0.38 9.174075e-05    1.019    0.019
       104  -8.4088    122.3002     50.2936   5.5624195901e+01   4.7562934521e+01     0.143353    0.1078704  25.53 0.0001695027    1.569    0.363
       105 -10.1426    110.5846     40.8614   5.5246359911e+01   5.1679104943e+01     0.319701    0.2076217 -60.91  0.001347081    2.111    0.526
       106  -9.4950    164.9199     39.9781   4.4393317198e+01   3.8797246388e+01    0.2117111    0.1878368 -82.06  0.001277293    1.049    0.047
       107 -11.2384    122.1238     38.1204   5.1567517076e+01   4.9318684434e+01    0.3858664    0.2915137 -32.57 0.0005235912    1.422    0.297
       108 -10.3227    159.5612     36.3707   4.4175619536e+01   4.0526960150e+01    0.2885473    0.2195148 -82.95 0.0007061189    1.345    0.257
       109  -8.8080    176.7262     35.6432   4.1586937027e+01   3.6580078225e+01    0.2170123    0.1875374  51.41 0.0007543419    1.294    0.227
       110  -8.7529     92.0080     36.2819   5.8640851660e+01   5.6550175271e+01    0.1884327    0.1709408  38.87 0.0005267816    1.018    0.018
       111 -10.9783    125.2805     32.2966   4.8923552294e+01   4.9299962833e+01    0.3653802    0.2664922  85.19  0.001905589    1.533    0.348
       112 -10.9605    127.0250     25.0252   4.6131945002e+01   4.9728697806e+01    0.4296359    0.2673976 -29.84  0.002194401    1.755    0.430
       113  -7.9965     78.6952     32.7069   6.1440466362e+01   5.9915364244e+01    0.1396537   0.09743441  20.68 0.0002682087    1.577    0.366
       114  -9.4029    167.8314     30.3579   4.1322044470e+01   3.9294902929e+01    0.2103143    0.1515842 -85.55 0.0005790809    1.387    0.279
       115  -8.2378    101.9990    209.0111   9.8445295822e+01   1.7213295055e+01    0.1521831    0.1451049  36.06 0.0009341766    1.054    0.051
       116 -10.8872    133.2274     23.5921   4.4537831679e+01   4.8382825990e+01    0.3460836    0.2740343 -10.95 0.0009052642    1.524    0.344
       117  -9.2037    227.1438    206.5819   7.1349450244e+01  -4.1969068636e-01    0.1910927    0.1786831  -6.68  0.001369629    1.438    0.305
       118  -8.7206    170.9586    203.9627   8.1747995242e+01   7.8251202331e+00    0.1933924    0.1645604  64.34  0.000537052    1.730    0.422
       119 -10.8393    193.0898    195.1765   7.5640367711e+01   6.0581766468e+00    0.9034404    0.4729168 -60.35  0.003033114    5.262    0.810
       120  -9.0015    130.5150     18.5097   4.3338042749e+01   4.9578591139e+01     0.201796    0.1202796  79.03 0.0009794856    1.726    0.421
       121  -8.7872    172.9085    199.1930   8.0502565512e+01   8.3882564506e+00    0.1865094    0.1701802  18.40 0.0003145218    1.163    0.140
       122  -9.1407     34.2939    196.3362   1.1394206988e+02   2.8572877636e+01    0.1899263    0.1816989 -59.17 0.0005698217    1.210    0.174
       123 -12.3412    210.8983    187.1433   7.0760542052e+01   4.8003165444e+00    0.8886279    0.7875606  47.83  0.005679477    1.563    0.360
       124 -11.0829    218.6936    183.2536   6.8627641738e+01   4.3163226359e+00    0.4784176    0.4113164  57.87  0.002247023    1.788    0.441
       125 -12.1749    226.0622    175.8475   6.5953634568e+01   4.4569806013e+00    0.9122173    0.5488505  16.84  0.004417866    1.970    0.492
       126 -11.0006    248.7264    185.1928   6.4005052445e+01   1.2361541964e-02    0.4134795    0.2879428 -40.82  0.001804292    1.517    0.341
       127 -10.6689    200.9013    174.0174   7.0131098155e+01   8.5322821394e+00    0.3888056    0.2821058 -12.96  0.001691536    1.378    0.274
       128  -8.1690    170.7153    186.3163   7.8638255485e+01   1.1112053725e+01    0.1254953    0.1130004  81.39 0.0006739398    1.584    0.369
       129  -9.2263    180.6337    182.1369   7.5745560783e+01   1.0296944383e+01    0.2646053    0.1253244 -50.48  0.001087035    2.513    0.602
       130 -13.8514    248.9492     83.1272   4.4094921758e+01   1.5327014067e+01     1.166487     0.267514 -40.15  0.004449094    3.208    0.688
