#   1 NUMBER                 Running object number                                     
#   2 MAG_AUTO               Kron-like elliptical aperture magnitude                    [mag]
#   3 X_IMAGE                Object position along x                                    [pixel]
#   4 Y_IMAGE                Object position along y                                    [pixel]
#   5 X_WORLD                Barycenter position along world x axis                     [deg]
#   6 Y_WORLD                Barycenter position along world y axis                     [deg]
#   7 A_WORLD                Profile RMS along major axis (world units)                 [deg]
#   8 B_WORLD                Profile RMS along minor axis (world units)                 [deg]
#   9 THETA_WORLD            Position angle (CCW/world-x)                               [deg]
#  10 FWHM_WORLD             FWHM assuming a gaussian core                              [deg]
#  11 ELONGATION             A_IMAGE/B_IMAGE                                           
#  12 ELLIPTICITY            1 - B_IMAGE/A_IMAGE                                       
         1 -14.1053    182.8791     31.6996   6.8819526362e+01   3.5718549311e+01    0.9091371    0.8647838  85.02  0.003232966    1.124    0.110
         2 -14.1979    189.4373     21.8693   6.5371986202e+01   3.5253778855e+01    0.7313343    0.6598264 -17.97  0.001293118    1.406    0.289
         3 -12.6204      8.8429    226.8039   1.4932196217e+02   2.6338124356e+01    0.3153036    0.2503173  -3.65   0.00213001    2.644    0.622
         4 -16.0135    123.3533    245.6672   1.2944701876e+02   6.7488271608e+00     5.268014      2.56205  41.92   0.02571049    1.723    0.420
         5 -11.8951    108.5589    205.3610   1.2714699065e+02   1.7363969957e+01    0.4091816    0.2837442  10.13   0.00180793    2.614    0.617
         6 -12.7348    198.1020    198.0837   1.0606862313e+02   1.7706001029e+00    0.9832925     0.646276  65.40  0.004266485    2.398    0.583
         7 -12.0766      2.9078    237.3595   1.5089486476e+02   2.4864097006e+01    0.1980599     0.175778 -10.31  0.001532294    2.231    0.552
         8 -19.3193     24.1623    136.3093   1.3788693748e+02   4.4908193133e+01     19.42958     2.906528 -69.20   0.04973378    6.761    0.852
         9  -9.6194     58.4138    196.4387   1.3711616776e+02   2.7103652084e+01    0.1275329    0.1097963  89.34 0.0007995122    1.089    0.082
        10 -11.0885    188.4879    186.5094   1.0581858153e+02   5.8575549306e+00    0.4651135    0.3168103 -65.10  0.002059961    2.093    0.522
        11 -10.2335      9.6590    214.1803   1.4839983945e+02   2.8818108557e+01    0.1076885   0.06011198  60.47 0.0006628066    1.508    0.337
        12 -11.6522    207.9999    186.0296   1.0161651956e+02   2.0769230988e+00    0.3310445    0.2510575 -13.62  0.001239062    1.470    0.320
        13 -11.9513    212.6316    182.3774   9.9924866935e+01   1.8502744641e+00    0.4734094    0.3041008  -1.33  0.001307725    2.382    0.580
        14 -10.9130     81.7367    186.9534   1.3063069558e+02   2.5938876362e+01    0.2853807    0.1877855  52.54  0.001461863    1.447    0.309
        15 -10.3128     71.4018    236.0692   1.3860158784e+02   1.6818932061e+01     0.207542    0.1333098  60.89 0.0004295407    1.296    0.228
        16 -10.4996     65.7769    233.1687   1.3940781724e+02   1.8202786321e+01    0.3716787    0.2538166  35.46  0.002209892    1.695    0.410
        17  -9.5690     89.3103    182.7215   1.2821753909e+02   2.5732527635e+01    0.1451361   0.09969359  70.84 0.0002185326    1.561    0.359
        18 -12.2134     84.0498    180.5880   1.2915342516e+02   2.7069029207e+01    0.4504243    0.2687505 -47.73  0.001665225    1.909    0.476
        19 -12.3399     87.1758    175.1353   1.2755392750e+02   2.7864477721e+01    0.3515348    0.2876469 -52.64 0.0008568827    1.309    0.236
        20  -9.9432     99.5036    180.5299   1.2542066872e+02   2.4552662836e+01    0.1444955    0.1326507  78.21 0.0003049989    1.023    0.022
        21 -10.2661     95.7400    179.8051   1.2621393649e+02   2.5359523992e+01    0.2037197    0.1541026  72.78 0.0007295615    1.358    0.264
        22 -11.0569    198.5043    177.8316   1.0189787173e+02   5.5209049495e+00    0.3801718    0.2750196 -58.27  0.001245915    1.697    0.411
        23  -9.9334     57.9343    177.4363   1.3492052054e+02   3.1554790838e+01    0.1860913    0.1232001  43.22 0.0007965131    1.543    0.352
        24 -11.6529    118.5686    173.6433   1.1956157099e+02   2.2735754146e+01    0.2991393    0.1814596  45.99 0.0007814673    1.585    0.369
        25 -11.3465    126.3560    172.8197   1.1749283301e+02   2.1435519171e+01    0.3668866    0.1577295  53.30  0.001241047    2.758    0.637
        26 -10.4535     81.5734    212.2228   1.3396846842e+02   2.0276958970e+01    0.3936527    0.2615996  37.84  0.002131983    1.575    0.365
        27 -11.0249    185.0027    168.2771   1.0278001822e+02   1.0243251665e+01    0.3097164    0.2563266 -73.03 0.0009262215    1.488    0.328
        28 -10.2254      6.6459    160.9141   1.4490188085e+02   4.0662702606e+01    0.1614499    0.1168482 -83.44 0.0008322871    1.068    0.064
        29 -12.4204     98.7056    158.0995   1.2169065882e+02   3.0030356891e+01    0.6134942      0.36946 -36.40  0.001765647    2.212    0.548
        30 -12.1224     66.5022    157.5556   1.2995693681e+02   3.5156909248e+01    0.4004628    0.2494675  83.67  0.001849464    1.994    0.499
        31 -11.4057    134.2353    146.9542   1.1015653649e+02   2.5867657366e+01     0.741979    0.1926266 -53.97  0.001810757    4.995    0.800
        32 -11.7601    109.5971    141.2873   1.1539137508e+02   3.2106814080e+01    0.5291948     0.251718 -37.31  0.001810128    2.893    0.654
        33 -12.3964     98.0210    142.3602   1.1876430043e+02   3.3944349261e+01    0.2780254     0.264596  19.66 0.0004529807    1.166    0.142
        34 -10.1186     81.9775    137.4594   1.2219661911e+02   3.7768076281e+01    0.2016018    0.1434465  37.12 0.0003430877    1.497    0.332
        35 -13.2987     46.5380    131.1252   1.3099414861e+02   4.3965820482e+01    0.5491924    0.3263731  45.49    0.0018246    1.890    0.471
        36 -11.2067    119.5386    129.4987   1.1000372917e+02   3.2956312566e+01    0.2675938    0.2326555 -64.80 0.0005545361    1.180    0.152
        37 -11.4914    160.3781    126.5027   9.8766317183e+01   2.4704392760e+01    0.2963884    0.2680164 -57.39  0.001049686    1.130    0.115
        38 -11.7122    104.7966    129.0457   1.1397130247e+02   3.5906405206e+01    0.4947733    0.3373375 -72.48  0.001161398    1.813    0.448
        39 -11.5435    115.9880    131.6837   1.1148726891e+02   3.3152046342e+01    0.3746022    0.2770201 -18.84 0.0008130116    1.838    0.456
        40 -10.3082    111.0702    120.0785   1.1006421024e+02   3.6809314018e+01    0.2226016    0.2179973 -82.65 0.0003255969    1.032    0.031
        41 -11.1466    168.4437    113.5090   9.3571461838e+01   2.5566117418e+01    0.3706173    0.2830419 -78.96  0.001133571    1.673    0.402
        42 -12.0100     79.4940    219.9729   1.3530690896e+02   1.8933256513e+01    0.5007313    0.2640339  52.89  0.001263324    1.680    0.405
        43 -10.2191    205.7088    110.0298   8.4898644237e+01   1.7357726919e+01    0.2177049    0.1982286 -47.57  0.000641368    1.076    0.070
        44 -13.7750    171.8118     42.8992   7.3636623905e+01   3.7049306782e+01    0.6891999     0.599531  -1.24  0.001427976    1.429    0.300
        45 -11.7448     88.0179    241.4477   1.3592811576e+02   1.3279591979e+01    0.2190441    0.1748565  77.44 0.0001345998    1.125    0.111
        46  -9.8341     93.0163    207.2840   1.3086568345e+02   1.9552309845e+01    0.1889658    0.1588177  68.49 0.0004696873    1.030    0.029
