#   1 NUMBER                 Running object number                                     
#   2 MAG_AUTO               Kron-like elliptical aperture magnitude                    [mag]
#   3 X_IMAGE                Object position along x                                    [pixel]
#   4 Y_IMAGE                Object position along y                                    [pixel]
#   5 X_WORLD                Barycenter position along world x axis                     [deg]
#   6 Y_WORLD                Barycenter position along world y axis                     [deg]
#   7 A_WORLD                Profile RMS along major axis (world units)                 [deg]
#   8 B_WORLD                Profile RMS along minor axis (world units)                 [deg]
#   9 THETA_WORLD            Position angle (CCW/world-x)                               [deg]
#  10 FWHM_WORLD             FWHM assuming a gaussian core                              [deg]
#  11 ELONGATION             A_IMAGE/B_IMAGE                                           
#  12 ELLIPTICITY            1 - B_IMAGE/A_IMAGE                                       
         1 -13.8171     68.0801    144.3320   8.9860950802e+01   3.7884079764e+01     4.254692     1.907882  83.46   0.01167516    5.855    0.829
         2 -12.4477      1.9312     81.3896   1.0621690595e+02   6.0987391894e+01     1.653959    0.1193464 -78.22  0.003690236    8.045    0.876
         3 -14.0468    229.1048     36.5028   2.9941771587e+01   2.3195573647e+01     2.270472     1.149218  42.06   0.01037336    2.923    0.658
         4 -11.9498      2.8352     22.6631   9.5358453958e+01   7.5721655984e+01    0.9312781    0.2242597 -66.95  0.003416368    3.249    0.692
         5 -13.0688      3.8347      7.4966   8.7627673443e+01   7.9077297046e+01     1.172612     0.896202 -65.15   0.00735892    1.299    0.230
         6 -11.3423     16.1572      1.9335   7.0582537881e+01   7.8880063157e+01    0.7352918    0.2421469  33.94  0.002931879    3.249    0.692
         7 -10.5773    250.3297     15.3687   2.3590487193e+01   2.1135086580e+01    0.4404429    0.1363566 -25.28  0.001634869    2.700    0.630
         8  -9.8775    119.3192     27.5658   4.0771318217e+01   5.1856069341e+01    0.3772008    0.2223068 -63.07  0.001512754    2.039    0.510
         9  -9.8552    135.0067    250.5183   8.6985468787e+01   9.2319176183e+00    0.1689871   0.07833681  34.47   0.00040089    1.544    0.352
        10 -12.5782     45.9796    175.8652   9.9492908302e+01   3.3623547224e+01    0.9037501    0.6367031  -9.64  0.001116846    2.383    0.580
        11 -11.7896     53.1145    170.0129   9.7089765972e+01   3.4036135495e+01    0.3125356    0.2739127  -3.45 0.0004860761    1.538    0.350
        12 -15.1816     18.8171    246.4469   1.0914826026e+02   2.3147950734e+01     10.13371     2.946448  20.77   0.03039332    8.757    0.886
        13  -8.2634     67.3057    205.2755   9.6702735051e+01   2.5032653186e+01    0.1076618   0.09137266   5.86 0.0001684781    1.546    0.353
        14 -15.5541     24.4168    178.3462   1.0526103041e+02   3.5437043518e+01     7.431891     2.261836  75.03   0.02563717    4.501    0.778
        15 -12.2348     77.9365    139.5278   8.6228001714e+01   3.7506043146e+01    0.4256993    0.3487439  85.59 0.0004187961    1.233    0.189
        16 -13.0716     74.2184    154.6909   8.9548112357e+01   3.4581704441e+01     1.685619    0.7590444  60.73  0.001558684    2.973    0.664
        17 -10.3352    132.4943    241.0202   8.6495705170e+01   1.0773980191e+01     0.193401    0.1149992 -62.71  0.001209707    2.650    0.623
        18 -11.0770     65.4500    160.8427   9.2761174407e+01   3.4453152742e+01    0.2948461    0.2451537  40.47 0.0004399011    1.152    0.132
        19 -13.3375     50.8524    156.5193   9.6369624659e+01   3.7377678920e+01    0.5760809    0.4483951 -60.28  0.001640601    1.460    0.315
        20 -10.7515     81.9322    148.6661   8.6520446409e+01   3.4764303304e+01    0.3563992    0.2197134 -34.27  0.001546745    2.517    0.603
        21 -14.5269     21.4005    194.3650   1.0678872066e+02   3.2374406530e+01     2.491153     1.039723  53.58  0.008082231    1.833    0.455
        22 -10.4123     90.9430    141.9669   8.2904208275e+01   3.4808032053e+01    0.3373042    0.2657481  51.90 0.0008373033    1.160    0.138
        23  -9.7440     94.4055    138.5941   8.1338963679e+01   3.4975976232e+01    0.3795691    0.2751155  -8.13  0.001704469    2.290    0.563
        24 -11.6578     66.9342    127.0961   8.7543035115e+01   4.2205394974e+01    0.6867561    0.3454527 -82.33   0.00260042    2.719    0.632
        25 -10.6476     91.3042    126.7315   7.9983413451e+01   3.8242361049e+01    0.2898902    0.2670035  18.93 0.0004062387    1.251    0.200
        26 -11.7823    244.3791    123.2454   4.8133057004e+01   9.8302166805e+00      0.37689    0.1408216 -30.05  0.001775845    2.253    0.556
        27  -8.6768    198.7463    222.8274   7.2422657700e+01   4.4388827747e+00    0.1335337    0.1060385  29.22 0.0004326678    1.309    0.236
        28  -9.5722    103.3180    119.0465   7.4874187571e+01   3.7765002770e+01    0.2403764    0.1988045  45.42 0.0006853613    1.163    0.140
        29  -9.7014    112.7708    124.9897   7.3563311623e+01   3.4600860523e+01    0.2360686    0.1759084 -15.48  0.001069766    1.986    0.497
        30 -10.6830    105.6439    130.6953   7.6702192051e+01   3.4713146520e+01    0.3778563    0.3472244  24.38 0.0009458094    1.193    0.162
        31  -8.5680    110.5348    167.4735   8.1950607211e+01   2.6101882821e+01    0.1380455    0.1186051  49.98 0.0008083567    1.059    0.056
        32 -10.8331     36.9538    124.9265   9.7149321868e+01   4.6745002504e+01    0.2577229    0.1775442 -81.34  0.001349935    1.373    0.272
        33  -9.5837    204.9371    110.6056   5.0884210706e+01   1.8393024555e+01    0.3221481    0.1965979  34.53   0.00161546    1.874    0.466
        34  -8.8682    109.2919    106.4331   7.0180366830e+01   3.9390908581e+01    0.2048374    0.1408426  56.35 0.0005842239    1.486    0.327
        35 -11.4587      5.0667     99.1522   1.0633801519e+02   5.6208364358e+01    0.6795926    0.2142605  86.19  0.002384195    3.340    0.701
        36 -10.3892     49.5755    222.4869   1.0185188842e+02   2.4017085873e+01    0.1916474    0.1277119  85.93  0.001166069    1.641    0.391
        37  -9.9512     41.5588     92.1527   9.0376482550e+01   5.4660381681e+01    0.2414002    0.1983381  41.63  0.000450854    1.237    0.192
        38 -10.2544    164.9810     85.2820   5.1286614280e+01   3.0938467972e+01    0.2065087    0.1950468  58.37 0.0004839185    1.089    0.082
        39  -8.6851    146.1738     74.4104   5.1861425643e+01   3.7341570102e+01    0.2077053    0.1459094  73.27 0.0004754477    1.611    0.379
        40  -9.7695     61.9969     69.8054   7.6081506654e+01   5.7243291933e+01    0.2370852    0.1807733  -6.21  0.001069741    1.920    0.479
        41 -10.1503    241.5067    101.5016   4.3914673851e+01   1.2971766584e+01    0.1227943    0.1016909 -22.15  0.000810648    1.007    0.007
        42 -10.1382    160.8794     68.0961   4.7080409887e+01   3.4779672286e+01    0.2376363    0.1916358 -64.86 0.0005135345    1.294    0.227
        43 -11.2463     53.0815     91.8126   8.5645993300e+01   5.3182948144e+01    0.5160636    0.4183554 -72.10   0.00182153    1.177    0.151
        44 -10.5409     13.3585     60.2758   9.7562125908e+01   6.5768551658e+01    0.2864709    0.2276984 -77.96  0.000529037    1.133    0.117
        45 -11.9133      9.5471     54.5239   9.8637966296e+01   6.7499424534e+01    0.4227488    0.3576696 -47.17  0.002342853    1.181    0.153
        46 -14.4341     11.3490    204.2689   1.0949075195e+02   3.1352713909e+01     1.184713     0.927842 -79.00  0.004675276    1.506    0.336
        47  -8.4487     94.5496     46.5155   5.5145376753e+01   5.5316731554e+01    0.1539026    0.1456303 -83.02  5.21942e-05    1.041    0.039
        48 -11.9270      2.2867     38.0553   9.9976030677e+01   7.2035918089e+01    0.5734766     0.364066  85.05  0.003077608    1.643    0.391
        49 -11.2006     22.0278    229.3436   1.0798809017e+02   2.5710980747e+01    0.2216396    0.2084398 -30.49 0.0009607284    1.631    0.387
        50 -10.8038     41.8313    215.7346   1.0315850289e+02   2.6098875992e+01    0.2584954    0.1807849  79.86  0.001067398    1.448    0.309
        51 -12.9961      9.6157    230.3540   1.1056264537e+02   2.6704495987e+01    0.8656116    0.3905617  51.62 0.0008187521    1.503    0.335
        52  -9.6004     76.7056    213.4905   9.5280041583e+01   2.2336098311e+01    0.2645983    0.1117019 -77.20  0.001213998    3.455    0.711
        53  -9.4652    189.8073     15.1689   2.7247637384e+01   3.4504740691e+01     0.216537    0.1641262 -54.70  0.001053903    1.152    0.132
