#   1 NUMBER                 Running object number                                     
#   2 MAG_AUTO               Kron-like elliptical aperture magnitude                    [mag]
#   3 X_IMAGE                Object position along x                                    [pixel]
#   4 Y_IMAGE                Object position along y                                    [pixel]
#   5 X_WORLD                Barycenter position along world x axis                     [deg]
#   6 Y_WORLD                Barycenter position along world y axis                     [deg]
#   7 A_WORLD                Profile RMS along major axis (world units)                 [deg]
#   8 B_WORLD                Profile RMS along minor axis (world units)                 [deg]
#   9 THETA_WORLD            Position angle (CCW/world-x)                               [deg]
#  10 FWHM_WORLD             FWHM assuming a gaussian core                              [deg]
#  11 ELONGATION             A_IMAGE/B_IMAGE                                           
#  12 ELLIPTICITY            1 - B_IMAGE/A_IMAGE                                       
         1 -12.3766    176.9096     49.5478   5.9389081525e+01   3.4559994097e+01     2.818497     1.470896  29.45  0.008161338    3.113    0.679
         2 -12.3873    196.0269     29.6186   5.0345212526e+01   3.2283651983e+01    0.9176447    0.8158103  14.25  0.001722249    1.294    0.227
         3 -11.0561     51.0743      8.4815   7.7248262172e+01   6.7553801540e+01    0.3999013    0.2215868  -7.67   0.00204688    2.022    0.505
         4 -11.6488    219.3069      4.0405   4.0741172686e+01   2.9250994539e+01    0.7332789    0.5039487  35.01  0.003344762    1.905    0.475
         5 -11.3617    213.8855      3.6546   4.1134269573e+01   3.0623930748e+01    0.5165154    0.4369434  77.67  0.002474305    1.121    0.108
         6 -10.3076     58.0294      3.0163   7.1647234973e+01   6.7117097281e+01    0.2814788    0.1736777  56.94  0.001489392    2.429    0.588
         7  -9.7331    163.5036    216.0954   1.0189065089e+02   6.8865001320e+00    0.3282902    0.2152583  11.81  0.001630504    2.324    0.570
         8  -8.8667    140.3224    250.1717   1.1061341318e+02   5.5307271263e+00     0.234969     0.119112  57.95  0.001091541    2.161    0.537
         9 -19.4882     15.0020    142.3466   1.2432162725e+02   4.3308977388e+01     18.38148     2.643282 -74.43    0.0507694    6.612    0.849
        10  -9.0636    114.1414    195.4850   1.0877164281e+02   1.9036221386e+01    0.1942413    0.1863656 -15.67  0.001081776    1.338    0.253
        11  -9.3819     80.0849    194.5380   1.1567944578e+02   2.4483033431e+01    0.3819316    0.1858989  50.66  0.001223244    1.846    0.458
        12  -8.6902    207.4899    194.4776   8.9785542724e+01   2.4082667002e+00    0.1342875    0.1148495  19.43 0.0002165971    1.003    0.003
        13 -11.9519     68.6156    188.4005   1.1734870057e+02   2.7338316535e+01    0.7018016    0.6114085 -85.94  0.004560228    1.161    0.138
        14  -8.6239     97.8128    192.5263   1.1177236044e+02   2.2248925976e+01      0.24675    0.1999363 -18.08  0.001404955    1.993    0.498
        15  -8.9362    191.2899    191.7237   9.2389620658e+01   5.8057190951e+00    0.2874337       0.2063 -74.11  0.001360071    2.565    0.610
        16  -9.1504     59.7930    185.4722   1.1885841966e+02   2.9105940834e+01    0.3180878    0.1789671 -76.48   0.00176032    1.657    0.396
        17  -8.8067     99.4505    180.8645   1.0983631380e+02   2.4400770741e+01    0.2324122    0.1842595  41.97  0.000580986    1.291    0.225
        18  -9.2795     72.0494    179.3752   1.1558608112e+02   2.8787273185e+01    0.3027088    0.1629925  60.67  0.001090158    1.898    0.473
        19 -11.8668     81.2855    171.8633   1.1259389753e+02   2.9113398325e+01     1.202598    0.9121937   3.40  0.006360234    2.267    0.559
        20 -11.9346     52.9503    149.9446   1.1621362095e+02   3.7817875360e+01     2.565057    0.7186381 -48.66  0.007903263    5.364    0.814
        21 -10.0438     89.8155    160.7528   1.0901159540e+02   3.0300188639e+01    0.2815287    0.2486268 -60.54 0.0005720406    1.196    0.164
        22 -11.1658     69.6429    134.3556   1.0968035134e+02   3.9343998949e+01    0.5495486     0.371105  65.08  0.002144142    1.659    0.397
        23 -12.0683     78.4650    155.6290   1.1090923177e+02   3.3159724036e+01    0.5419283    0.4420554 -86.31  0.001363489    1.120    0.107
        24 -13.3321     68.4214    144.2447   1.1160802080e+02   3.7188722877e+01     2.473589     1.223758  81.68  0.006763565    4.160    0.760
        25 -10.1354    120.3332    173.1206   1.0401886501e+02   2.2521401084e+01    0.2454977    0.1890388  34.15  0.001110565    1.391    0.281
        26  -9.0103     42.6670    171.3414   1.2101030159e+02   3.4190369803e+01    0.2196796     0.179244  39.78  0.001019924    1.454    0.312
        27 -10.3517    105.1081    171.7031   1.0720977579e+02   2.5432629453e+01    0.3466675    0.2566603  56.01  0.001904599    1.279    0.218
        28  -9.1638     74.9976    165.0618   1.1308585408e+02   3.1520449303e+01    0.2013513    0.1682412  79.47 0.0004679594    1.063    0.060
        29 -10.8975     95.8510    153.6967   1.0641830253e+02   3.0939183122e+01    0.5991981    0.4244785 -32.34  0.002312337    1.964    0.491
        30  -8.6720    113.9943    151.9682   1.0173087063e+02   2.8236091842e+01    0.3302011    0.1990087 -81.91  0.001315988    2.578    0.612
        31 -10.0316    133.7622    144.7770   9.5536099858e+01   2.6101382767e+01    0.9977574    0.2660911 -53.76  0.002657128    4.765    0.790
        32 -10.7824    107.4029    139.4968   1.0092317683e+02   3.2230280622e+01    0.5555922    0.3501487 -31.75  0.002383884    2.237    0.553
        33 -10.6458     95.5936    139.0787   1.0383604229e+02   3.4339852220e+01    0.2862232    0.2465595 -53.83 0.0004529929    1.164    0.141
        34  -8.2023     78.6225    134.3053   1.0732718596e+02   3.8091738120e+01    0.1472522   0.09962296  73.74 0.0007027574    1.775    0.437
        35  -9.4492    106.1335    130.8365   9.9452495977e+01   3.4447294579e+01    0.3415066    0.2954409  88.18  0.001534864    1.209    0.173
        36  -9.9353    114.6715    130.1415   9.7095082793e+01   3.3050822656e+01    0.3242724    0.2543069 -38.78 0.0007317916    1.361    0.265
        37  -9.1016    135.5444    129.0122   9.1572803774e+01   2.9197353173e+01    0.3523943    0.1466285 -52.85  0.001141937    2.631    0.620
        38  -9.5181    102.3542    125.7674   9.9349170260e+01   3.6286767207e+01    0.2917134    0.2393123 -31.50 0.0005124313    1.396    0.284
        39 -10.0360    119.4642    124.0842   9.4478197619e+01   3.3516169698e+01    0.4021488    0.2532327 -32.36  0.001696369    1.969    0.492
        40  -9.0387    134.7029    120.2154   8.9652108595e+01   3.1304825412e+01    0.3237613    0.1339065 -52.58  0.001080622    2.682    0.627
        41  -8.0435    153.0086    119.8304   8.5081238358e+01   2.7431195202e+01    0.2601549    0.1861451  79.15  0.001074576    2.049    0.512
        42 -12.3014     52.8284    116.8515   1.1117861923e+02   4.5598811595e+01    0.7811815    0.4461321 -69.73  0.003918667    1.593    0.372
        43  -8.9433    110.1348    118.8495   9.5699791056e+01   3.6480212083e+01    0.2177225     0.194909 -73.56  0.000359884    1.128    0.114
        44  -9.5958    156.9230    217.9748   1.0343318716e+02   7.7209917953e+00    0.1935715    0.1660381  43.21 0.0005104145    1.022    0.021
        45  -8.7381    168.1029    113.0380   7.9826886316e+01   2.5396863366e+01    0.2558752    0.1975415 -78.66  0.001126469    1.760    0.432
        46  -9.7919     62.0341    112.9860   1.0783990089e+02   4.5403318970e+01     0.210782    0.1880098 -74.00 0.0005974598    1.049    0.047
        47 -10.4448    119.4084    110.8685   9.1250933449e+01   3.6505922956e+01    0.3885696    0.2982877 -87.95  0.001791797    1.721    0.419
        48  -8.1126    205.5234    110.4239   7.1404390333e+01   1.7155776206e+01    0.1513882    0.1454284 -17.82 0.0003485866    1.020    0.020
        49  -9.1493    134.4300    104.7819   8.5700347520e+01   3.4720802387e+01    0.4047554    0.1496339 -42.11  0.001295429    2.672    0.626
        50 -11.4020     57.1678    102.4215   1.0712135481e+02   4.8495989216e+01     0.544891    0.1922769 -54.56  0.002178122    2.310    0.567
        51  -8.1511    130.7589    213.9782   1.0794890961e+02   1.2833527483e+01    0.1645384    0.1486085  66.71 0.0002975294    1.098    0.089
        52  -8.6705    113.5903    208.8302   1.1065793064e+02   1.6579060316e+01     0.165733    0.1147615 -81.18 0.0005336229    1.666    0.400
        53  -8.8421    108.1880    203.4194   1.1104839625e+02   1.8465150995e+01    0.1766953    0.1030997  51.80 0.0005125927    1.518    0.341
        54  -8.6395    185.4984     86.5071   6.8797930304e+01   2.6273982365e+01    0.1562946    0.1518495 -13.21 -7.04206e-05    1.021    0.021
        55  -8.2256     69.1546     72.1473   9.5582325087e+01   5.3783979173e+01    0.1786068    0.1582317 -70.06 0.0003539981    1.296    0.228
        56  -9.4866     96.7559    200.3523   1.1297500268e+02   2.0849350931e+01    0.3116681    0.2417275 -19.32  0.001078842    2.275    0.560
        57 -10.0012    162.5568     63.5868   6.6624482333e+01   3.6033104908e+01    0.3865988    0.3036728  89.60 0.0008133706    1.592    0.372
        58  -8.5042     93.6659    249.1236   1.1857324867e+02   1.2633210238e+01    0.1333722   0.09624526 -57.84 0.0009319602    1.798    0.444
        59 -11.4452    190.2952     36.5666   5.3214990086e+01   3.2885641819e+01    0.6484144    0.5313188 -14.90  0.002837561    1.345    0.256
        60  -9.0935    140.8226    245.4013   1.0998182122e+02   6.1444167450e+00    0.1848193   0.09060947 -56.65 0.0009985737    2.661    0.624
        61  -7.7512    160.2007    197.0353   9.9527957066e+01   1.0659913092e+01    0.1593872    0.1080308 -45.70  0.000391183    1.666    0.400
        62  -8.8466    168.9861    236.0289   1.0372585326e+02   2.9671347951e+00    0.1788778    0.1469814  37.37  0.000395294    1.030    0.029
        63  -8.0128     74.2956    226.3176   1.1996811586e+02   1.9181699640e+01   0.09446881   0.09156616 -31.28 0.0002708444    1.608    0.378
        64 -11.2880    174.3071    218.2267   1.0015177557e+02   4.6851467833e+00    0.8791027    0.3023778  31.10  0.002682255    5.079    0.803
