#   1 NUMBER                 Running object number                                     
#   2 MAG_AUTO               Kron-like elliptical aperture magnitude                    [mag]
#   3 X_IMAGE                Object position along x                                    [pixel]
#   4 Y_IMAGE                Object position along y                                    [pixel]
#   5 X_WORLD                Barycenter position along world x axis                     [deg]
#   6 Y_WORLD                Barycenter position along world y axis                     [deg]
#   7 A_WORLD                Profile RMS along major axis (world units)                 [deg]
#   8 B_WORLD                Profile RMS along minor axis (world units)                 [deg]
#   9 THETA_WORLD            Position angle (CCW/world-x)                               [deg]
#  10 FWHM_WORLD             FWHM assuming a gaussian core                              [deg]
#  11 ELONGATION             A_IMAGE/B_IMAGE                                           
#  12 ELLIPTICITY            1 - B_IMAGE/A_IMAGE                                       
         1 -17.0033     87.2722    136.8727   1.1176409640e+02   3.6802029834e+01     6.971465     3.684499 -26.55    0.0222058    3.806    0.737
         2 -18.4808     17.3005    189.1340   1.3834876051e+02   3.2754927504e+01     4.834564     2.781184 -80.77   0.02080194    1.473    0.321
         3 -18.1321     39.9256    168.8728   1.3054838440e+02   3.5343688157e+01     8.582611     3.012083 -74.36   0.02429534    3.308    0.698
         4 -15.6594    156.4798     31.0509   6.6222489716e+01   4.1853062046e+01     1.494349    0.7478254 -47.54  0.007179458    2.221    0.550
         5 -15.2691    157.6344     16.0177   6.2172010752e+01   4.3208765735e+01     1.684112    0.8314474 -83.61   0.00692057    3.264    0.694
         6 -15.2085    126.5592     30.6409   7.1531534321e+01   4.8688587102e+01     1.111373      0.94041 -84.81  0.005359191    1.348    0.258
         7 -16.2957    196.8366     20.7806   5.8391707611e+01   3.3847120600e+01     2.665835     1.576418 -48.53   0.01536175    1.667    0.400
         8 -15.2620    181.7787     24.7950   6.1065328497e+01   3.6771750313e+01     1.543391    0.6308136 -39.50  0.007256612    2.489    0.598
         9 -14.5671    194.9228     60.3509   6.7524772375e+01   2.9035886370e+01     1.956667    0.8112885 -53.01  0.007818395    2.639    0.621
        10 -15.7204    138.6763     24.4551   6.7441245320e+01   4.6648427686e+01      1.25094    0.9968487 -29.66  0.007842501    1.465    0.317
        11 -15.6794      8.7783     10.5304   1.0257908687e+02   7.0574942211e+01     1.606054    0.9860084 -10.09  0.009306171    1.342    0.255
        12 -13.7162     91.1046      9.4117   7.2603064345e+01   5.8225170248e+01    0.6090412    0.3216677  48.16  0.003439446    1.518    0.341
        13 -13.5129    170.7359      6.8743   5.8234109569e+01   4.1130754701e+01     0.366186    0.2552587  62.99  0.001746009    1.269    0.212
        14 -12.2065    123.8623      5.4730   6.4603889471e+01   5.1701310931e+01    0.3529975    0.1930196  41.22  0.001937346    1.815    0.449
        15 -12.7951    130.0213      2.9878   6.2858996541e+01   5.0554332244e+01    0.3984926    0.1478572  62.50  0.001878146    2.095    0.523
        16 -16.9582    163.6050     61.2617   7.2879278308e+01   3.6140472153e+01     4.755297     3.283867   2.78   0.02119452    2.624    0.619
        17 -12.2347     68.5117    206.1069   1.2855811356e+02   2.2474079748e+01    0.5949205    0.3017785  24.23  0.002425463    2.840    0.648
        18 -15.1762     52.6036    248.3557   1.3650801455e+02   1.5189595043e+01     1.068984    0.5570611  37.45  0.004139174    1.902    0.474
        19 -13.3288     58.0351    239.6591   1.3461707123e+02   1.6302185373e+01     0.504723    0.2995242 -75.91  0.001871789    1.638    0.389
        20 -12.3258     78.2992    210.2605   1.2684664591e+02   2.0045640936e+01    0.4742651     0.183619  45.17   0.00186797    2.439    0.590
        21 -12.1876     85.4744    206.9985   1.2473136317e+02   1.9715023037e+01    0.3383631    0.3115064  77.49  0.001814235    1.042    0.041
        22 -15.1961    135.2582    187.5662   1.0954170491e+02   1.5678349871e+01     2.099857    0.6713143 -50.36  0.006704742    3.092    0.677
        23 -15.2193    164.3658    175.4517   1.0028499803e+02   1.2813242158e+01     2.795116     1.271439 -42.15   0.01035473    2.253    0.556
        24 -16.2321    146.7662    178.3978   1.0498838125e+02   1.5605078123e+01     2.419665     1.858631  88.67  0.009275177    1.702    0.413
        25 -15.9630    151.2629    162.0202   1.0048067165e+02   1.8514133526e+01     2.364749      1.92474  38.60  0.009221191    1.269    0.212
        26 -11.8337    115.8431    201.4025   1.1667410522e+02   1.5977430146e+01    0.3543954    0.2363873  64.69  0.001600237    1.771    0.435
        27 -12.4824     75.2712    196.1124   1.2559834200e+02   2.3898491358e+01    0.5253299    0.4501508 -74.38  0.002236434    1.100    0.091
        28 -11.0762     87.3361    192.5353   1.2212802439e+02   2.2909726861e+01    0.2696198    0.1977551  63.22 0.0009074344    1.408    0.290
        29 -11.4368     96.2969    189.0480   1.1935513689e+02   2.2301433145e+01    0.3018662    0.2128816  49.00  0.001464125    1.408    0.290
        30 -12.8965     92.5009    167.5109   1.1652974656e+02   2.8290034676e+01    0.8265356    0.4348787  34.86  0.003387539    2.034    0.508
        31 -14.4119    123.1520    159.8918   1.0698948994e+02   2.4629874538e+01     1.134543    0.7917183  36.10  0.003852746    1.511    0.338
        32 -15.6087    120.3254    149.8855   1.0555572421e+02   2.7610299437e+01     1.560203     1.485671 -48.14  0.006405426    1.051    0.049
        33 -14.1988    105.0903    157.6793   1.1125754123e+02   2.8556913905e+01     1.095998     0.786632  38.23  0.003990067    1.452    0.311
        34 -13.8241    112.1702    154.9598   1.0880700717e+02   2.7927680811e+01    0.8866254    0.5319588 -59.50  0.002763362    1.707    0.414
        35 -12.4368     58.0257    130.9646   1.1912157589e+02   4.2596457118e+01    0.5425577    0.3774427 -57.60  0.002439786    1.288    0.224
        36 -15.1017    122.8899    124.8898   9.9010860099e+01   3.3012862263e+01     1.181142     1.034581 -30.65  0.005406709    1.201    0.167
        37 -14.4296    130.4141    117.8925   9.5280901860e+01   3.3021099970e+01     1.145511     0.591252  62.63  0.003782167    3.164    0.684
        38 -13.8266    132.3185    112.4458   9.3394852275e+01   3.3803678319e+01    0.7804796    0.5473014  68.05  0.003412127    1.803    0.445
        39 -13.2211     75.6602    127.3300   1.1304975953e+02   4.0977235945e+01    0.6181815      0.48829  -8.48  0.002996448    1.557    0.358
        40 -15.4131    150.3056    114.2734   8.9458533871e+01   2.9477538210e+01     2.086657    0.8878289 -46.85  0.007457577    2.334    0.572
        41 -13.2366     66.8475    212.0168   1.2968569530e+02   2.1311014753e+01    0.5421576    0.4478341  -0.13  0.002874826    1.795    0.443
        42 -13.8162    226.2602    115.6655   7.5075969981e+01   1.2705980971e+01    0.8615716     0.386811 -34.26  0.003333909    2.614    0.617
        43 -12.2857     59.4536    104.1772   1.1267672471e+02   4.8696393264e+01    0.4362749    0.3787556 -19.02  0.002415963    1.149    0.129
        44 -12.1910      2.3248     94.9626   1.2988890974e+02   5.6133909902e+01    0.4754287    0.2315519 -58.81  0.002185478    1.569    0.363
        45 -13.4194      2.7314     85.9053   1.2801532223e+02   5.8054321599e+01    0.4490775     0.312941 -45.73   0.00233632    1.126    0.112
        46 -13.0022     72.1913    244.6155   1.3224436909e+02   1.3264288558e+01    0.6412894    0.4213234 -54.59  0.003587686    1.770    0.435
        47 -12.7588     67.8631    241.4484   1.3279769390e+02   1.4553537824e+01    0.5944459    0.3640631 -46.23  0.003056574    2.238    0.553
        48 -14.3695    127.7882     71.8568   8.3395732928e+01   4.2639240836e+01     1.852848     1.376518  46.10  0.009602269    1.288    0.224
        49 -12.7021    108.7561    225.8424   1.2209502681e+02   1.1642841564e+01    0.5028423    0.4019425   7.35   0.00266734    1.702    0.413
        50 -14.2247    114.5697    191.3955   1.1526027023e+02   1.8572852521e+01     2.104516    0.7253883  50.18  0.006367273    3.650    0.726
        51 -13.3366    119.7950    228.1640   1.1997593675e+02   9.2967960008e+00    0.6804234    0.5052881  49.98  0.002041264    1.254    0.202
        52 -14.1106      4.8649     77.7494   1.2552873109e+02   5.9625750571e+01    0.9726521    0.4138623 -40.84  0.005041156    1.918    0.479
        53 -14.6135    118.7231    218.8657   1.1881403213e+02   1.1499790051e+01     1.526068    0.7538605  32.74  0.006310774    2.162    0.537
        54 -14.4361    100.2232    209.8586   1.2170289001e+02   1.6667889685e+01     1.448254    0.9548924 -78.55  0.006875461    1.732    0.423
        55 -12.9460      4.0245     33.5563   1.1367920154e+02   6.7731395508e+01    0.3415588     0.296669 -33.47  0.002700555    1.375    0.273
        56 -13.6592    102.9440    196.9413   1.1903072339e+02   1.9266912567e+01    0.7024993    0.5727612  -3.84  0.003535141    1.692    0.409
        57 -12.9425    194.4138    247.9871   1.0727825990e+02  -6.7637274042e+00    0.4255663    0.3283674  77.05  0.002271908    2.394    0.582
        58 -16.9035     16.4431    157.9394   1.3514706837e+02   4.0388922250e+01      2.90622     1.669974 -15.30   0.01347962    3.074    0.675
        59 -13.4962    196.8914    243.0764   1.0596958033e+02  -6.3277293510e+00     0.492862    0.2651155  37.52  0.002484122    1.749    0.428
        60 -12.3857     14.6131    247.8955   1.4356533047e+02   1.9879682341e+01    0.2698473    0.1871719 -84.69  0.001347264    1.247    0.198
