#   1 NUMBER                 Running object number                                     
#   2 MAG_AUTO               Kron-like elliptical aperture magnitude                    [mag]
#   3 X_IMAGE                Object position along x                                    [pixel]
#   4 Y_IMAGE                Object position along y                                    [pixel]
#   5 X_WORLD                Barycenter position along world x axis                     [deg]
#   6 Y_WORLD                Barycenter position along world y axis                     [deg]
#   7 A_WORLD                Profile RMS along major axis (world units)                 [deg]
#   8 B_WORLD                Profile RMS along minor axis (world units)                 [deg]
#   9 THETA_WORLD            Position angle (CCW/world-x)                               [deg]
#  10 FWHM_WORLD             FWHM assuming a gaussian core                              [deg]
#  11 ELONGATION             A_IMAGE/B_IMAGE                                           
#  12 ELLIPTICITY            1 - B_IMAGE/A_IMAGE                                       
         1 -13.2742      2.6668    131.5384   1.1404093774e+02   4.7429860135e+01     4.527223    0.8856319 -76.85   0.01203502    5.945    0.832
         2 -13.6505     36.1445    191.5203   1.1129506700e+02   2.9552197569e+01     4.655547     1.817115  66.40    0.0152222    4.285    0.767
         3 -11.9234    206.3582     44.6129   3.8495426674e+01   2.8786730988e+01     1.137789    0.5065435 -42.61  0.005393397    2.032    0.508
         4 -11.9779    214.9309     39.4106   3.6407334105e+01   2.7637603052e+01    0.8714896     0.646018 -64.99  0.004198047    1.166    0.142
         5 -11.2693    222.8866     32.2545   3.4111475589e+01   2.6887678950e+01    0.6133637    0.4223322  57.73  0.002195077    1.686    0.407
         6 -11.6813    233.7944     22.6341   3.1247175378e+01   2.5849013752e+01    0.6565788    0.5108784 -69.81  0.002767569    1.012    0.011
         7 -10.6394      2.1706     21.7272   9.0226963106e+01   7.1438584126e+01    0.7035342   0.07147296 -52.04  0.001883147    8.834    0.887
         8  -9.8239      2.3320      9.3191   8.4687811261e+01   7.3344383882e+01    0.3075467    0.1028906 -45.62   0.00150962    2.874    0.652
         9  -8.2790    250.5773      2.1815   2.6336074380e+01   2.4917200783e+01    0.2032463   0.07834412 -42.00  0.001145135    2.116    0.527
        10  -9.0382     57.2123    223.5831   1.0951219735e+02   1.9562610259e+01    0.3179488    0.1988902  42.09  0.001731924    1.436    0.304
        11  -9.1834     81.4653    249.7492   1.0679941141e+02   1.0887778391e+01    0.2770977    0.1886244  40.70  0.001413097    1.251    0.201
        12 -12.6446    102.9071    228.5853   9.9683592429e+01   1.2120726343e+01      3.66976    0.5459304  36.14   0.01011169    5.032    0.801
        13 -13.7141     21.3004    245.9176   1.1877388410e+02   1.8964065175e+01     3.955411     1.221497  27.52   0.01623266    3.845    0.740
        14 -10.1812     48.1242    182.9068   1.0730987190e+02   3.0308665950e+01    0.5083942    0.3652394  50.66  0.001752834    1.363    0.266
        15 -11.6858     11.1795    233.7650   1.2006023768e+02   2.2502851929e+01    0.8147101    0.5315136 -85.54  0.003901758    1.368    0.269
        16 -11.4678     25.8932    201.4257   1.1466357714e+02   2.8260523858e+01    0.4864304    0.3953748 -30.70  0.001000187    1.681    0.405
        17  -8.7219    101.8046    238.1686   1.0112361402e+02   1.0321970811e+01    0.2058696    0.1618522  57.18  0.001213346    1.240    0.194
        18 -10.4234     20.2299    195.3403   1.1548087063e+02   3.0264451042e+01    0.3683165    0.2331031 -79.47   0.00206995    1.393    0.282
        19 -10.9772      7.0460    188.7496   1.1806215927e+02   3.3020578683e+01    0.4219957    0.2623934  73.54  0.002401555    1.461    0.316
        20 -10.2834      2.1684    183.4939   1.1882910307e+02   3.4668321707e+01    0.4971915    0.2302586 -72.06  0.002517913    1.800    0.445
        21 -10.3132     55.7259    175.5342   1.0435653393e+02   3.1227699728e+01    0.4844087    0.3122053 -29.45  0.002199379    2.213    0.548
        22 -10.3379     61.4842    170.2620   1.0204253397e+02   3.1822201362e+01    0.3440976    0.2956557 -25.88 0.0008357572    1.386    0.278
        23  -9.0415     95.9778    168.9842   9.2331494513e+01   2.7015171163e+01    0.2459547    0.1799906  69.97  0.000900666    1.648    0.393
        24  -9.3507      7.9639    167.5511   1.1613518319e+02   3.8094965287e+01     0.200644    0.1462822 -83.74 0.0004885228    1.150    0.131
        25 -12.2507     68.3878    144.9742   9.5854004436e+01   3.7371989836e+01       1.6023     0.914946  78.14  0.003624671    3.182    0.686
        26 -11.7233     78.8732    155.0674   9.4610395022e+01   3.3242249657e+01     1.023779    0.9351569 -77.51  0.002395801    1.070    0.066
        27  -9.7503     35.2624    159.4953   1.0788378939e+02   3.7669876053e+01    0.5513873    0.2734302  62.80  0.001907819    2.630    0.620
        28 -11.7379     58.9381    156.6051   1.0066934400e+02   3.5656977793e+01    0.5787137    0.3288854 -44.43   0.00133177    1.894    0.472
        29  -9.8003     41.8380    208.9373   1.1162621572e+02   2.4761756564e+01    0.2424864    0.1548603  76.31 0.0006157135    1.555    0.357
        30  -7.9729     22.5002    147.5057   1.1003188905e+02   4.1946999931e+01    0.1358825     0.116577 -71.01 0.0008104538    1.032    0.031
        31  -9.3465     96.4701    140.1795   8.6483865374e+01   3.4140668857e+01    0.6186625    0.3888097 -13.12  0.002232417    2.888    0.654
        32 -10.6802     83.1509    139.5327   9.0311406613e+01   3.6531557577e+01     0.345949    0.2764943 -46.53 0.0003899497    1.223    0.182
        33  -9.1480    106.9128    130.7178   8.1293939691e+01   3.4574747529e+01    0.3797134    0.3228487  -0.73   0.00115975    1.363    0.266
        34  -9.8329     67.0043    128.1296   9.2958436006e+01   4.1867953381e+01    0.4867006    0.3040573  75.72  0.001902537    2.638    0.621
        35  -9.9565     72.1884    161.0426   9.7582785457e+01   3.2702025971e+01     0.321206    0.2895467 -33.52 0.0004566224    1.214    0.176
        36  -9.0296     59.8045    122.0086   9.4017571952e+01   4.4405223149e+01    0.2191573    0.1906437 -88.17 0.0005007726    1.265    0.209
        37  -7.9756    105.1823    119.1589   7.8986212402e+01   3.7660485201e+01    0.1980517    0.1798448  79.93 0.0003304957    1.236    0.191
        38  -7.9341    205.2357    110.5881   5.3770176781e+01   1.8378381746e+01    0.1850286    0.1349993  41.42 0.0006864473    1.587    0.370
        39  -9.9426     82.8542    215.7252   1.0271517121e+02   1.7855048210e+01    0.3325105    0.2382793 -88.07   0.00101512    1.555    0.357
        40  -8.1725     44.3801     90.2308   9.2145692835e+01   5.4005731864e+01    0.1884456     0.127071 -65.42 0.0004317268    1.619    0.382
        41 -10.7767      2.2338     65.8852   1.0366952842e+02   6.2970340777e+01    0.8176905     0.145941 -65.52  0.002405919    5.668    0.824
        42 -10.1373      1.5974     83.7025   1.0756143566e+02   5.9034285594e+01    0.3813724    0.1311599 -62.64   0.00168648    2.208    0.547
        43  -7.4748     73.6611     88.3357   8.0830917104e+01   5.0314134622e+01     0.145072    0.1173056  78.51 0.0007051388    1.753    0.430
        44  -8.9023     58.8641     77.1745   8.2949286377e+01   5.4986085827e+01    0.2896955    0.1538019  50.92  0.001162974    2.797    0.642
        45  -9.5881     13.4504     60.3975   9.7219936331e+01   6.3439916671e+01    0.2604554    0.1745888 -33.11 0.0006941193    1.263    0.208
        46  -8.5506     32.0297    232.7873   1.1575591938e+02   2.0541077275e+01     0.293951    0.1493345  86.05  0.001050108    2.050    0.512
        47 -12.4050     82.6269    233.3523   1.0483012894e+02   1.4053599604e+01     1.823214     0.793717  27.43  0.007631472    2.569    0.611
        48  -8.5490     48.0240    227.0151   1.1187180591e+02   1.9942418397e+01    0.2572406    0.1579574  83.88 0.0008778194    1.678    0.404
        49 -10.4355      1.8992     49.4290   9.9689889681e+01   6.6402131828e+01     0.521463    0.1454575 -62.04   0.00203291    3.563    0.719
        50 -10.9088    197.0513     49.9253   4.0853919420e+01   3.0104053170e+01    0.3931495     0.308055 -85.80  0.002336876    1.198    0.165
        51  -8.0104     28.5331     52.8654   8.7956107825e+01   6.3624467562e+01    0.1779457    0.1125274 -46.79 0.0004372367    1.474    0.321
        52  -9.1237    127.3615     35.0191   4.8164917695e+01   4.8307071296e+01    0.2439616    0.2065018 -86.20 0.0006057261    1.291    0.226
        53  -8.1009    130.0192     29.7249   4.5970594354e+01   4.8317270608e+01    0.1846282    0.1504182  62.56 0.0003239578    1.094    0.086
        54  -9.0655     45.5237    222.5698   1.1203155037e+02   2.1223874666e+01    0.3129237    0.1723234  77.21   0.00153972    1.995    0.499
        55 -10.0004     22.9889    223.5869   1.1700298545e+02   2.3506706412e+01    0.4573984    0.1990235  75.26  0.002056091    2.592    0.614
        56  -8.5784      9.3351     26.6700   8.8130304639e+01   7.0070804537e+01   0.09975147   0.09168702  46.70 0.0007052096    1.728    0.421
        57 -12.9900      9.0453    208.0280   1.1894456411e+02   2.8350979097e+01     1.530972    0.8517833 -66.74  0.004137389    1.700    0.412
