#   1 NUMBER                 Running object number                                     
#   2 MAG_AUTO               Kron-like elliptical aperture magnitude                    [mag]
#   3 X_IMAGE                Object position along x                                    [pixel]
#   4 Y_IMAGE                Object position along y                                    [pixel]
#   5 X_WORLD                Barycenter position along world x axis                     [deg]
#   6 Y_WORLD                Barycenter position along world y axis                     [deg]
#   7 A_WORLD                Profile RMS along major axis (world units)                 [deg]
#   8 B_WORLD                Profile RMS along minor axis (world units)                 [deg]
#   9 THETA_WORLD            Position angle (CCW/world-x)                               [deg]
#  10 FWHM_WORLD             FWHM assuming a gaussian core                              [deg]
#  11 ELONGATION             A_IMAGE/B_IMAGE                                           
#  12 ELLIPTICITY            1 - B_IMAGE/A_IMAGE                                       
         1 -14.3267    197.6526     13.0418   6.8677820821e+01   3.3970650548e+01     2.959436     1.658406  22.43   0.01121214    2.399    0.583
         2 -13.2430    202.6007      6.7434   6.6329272382e+01   3.3329357796e+01     1.134505    0.5698365  52.57  0.001488945    2.066    0.516
         3 -10.6217     88.8716    249.1297   1.3979057729e+02   1.6630375208e+01    0.2362402    0.1085026  50.68 0.0008715948    1.882    0.469
         4 -10.9450    248.2838    249.2784   1.1343606924e+02  -2.6064208225e+00     0.260187    0.1393876  21.61  0.001928685    1.311    0.237
         5 -11.5752    140.3837    250.0594   1.3094379749e+02   1.0404044067e+01    0.4203809    0.1285949  35.68  0.002153675    2.404    0.584
         6 -11.6548    124.5782    249.9294   1.3365759604e+02   1.2350737948e+01    0.5017985    0.1060009  37.11  0.002209311    3.281    0.695
         7 -10.1079    111.2734    250.5917   1.3601874388e+02   1.3855890641e+01    0.1938273   0.06987248  38.57 0.0006956123    1.972    0.493
         8 -11.4626     98.7692    249.4889   1.3809931682e+02   1.5457545036e+01    0.2903229     0.189065  36.92  0.001467118    1.162    0.139
         9 -11.1197    102.7181    247.9479   1.3729139286e+02   1.5206019634e+01    0.2061258     0.174314  58.62 0.0004313963    1.246    0.197
        10 -10.0003     74.1191    250.2855   1.4241291754e+02   1.8088606563e+01    0.1508263    0.1045483  28.05 0.0006236319    1.434    0.303
        11 -11.7748     66.7871    243.1551   1.4324589410e+02   1.9879449478e+01    0.3404621    0.2119801  56.52  0.001235588    1.358    0.263
        12 -10.8429     67.4064    250.3222   1.4356405920e+02   1.8793892868e+01    0.2485281    0.1555169  39.79 0.0009514183    1.202    0.168
        13 -10.1708     63.6699    250.7073   1.4422269172e+02   1.9128223077e+01    0.2143503   0.09124839  40.26 0.0009901256    1.646    0.393
        14 -11.4270     46.2704    248.4695   1.4705556084e+02   2.1187583430e+01    0.3232328    0.1938276  62.12  0.001485095    1.419    0.295
        15 -14.8468      6.1797     15.6033   1.3093199808e+02   7.3327312957e+01     23.89023    0.1016435 -62.93   0.03496326   22.111    0.955
        16 -14.5255     32.5212    245.4415   1.4923791756e+02   2.2923114436e+01     10.43728     2.531458  25.19   0.02470868   17.040    0.941
        17 -15.3875      7.1550    239.2068   1.5325684371e+02   2.6038717302e+01      7.34615    0.8465791 -72.95   0.03133298    6.837    0.854
        18 -10.3855    198.9740    246.9446   1.2076480392e+02   3.4389391780e+00    0.1461279    0.1123938  43.41  0.001132946    1.700    0.412
        19 -11.6153     95.6174    240.0838   1.3792096014e+02   1.7111369959e+01    0.2801467    0.1815121 -36.44  0.001912579    2.405    0.584
        20 -10.0669    233.6808    237.3642   1.1399916158e+02   9.2453582479e-02    0.1332535    0.1104445  30.98 0.0009355346    1.687    0.407
        21 -10.8006    228.6362    228.1434   1.1347607195e+02   1.5607282746e+00    0.2656698    0.2072584 -39.94  0.001571913    2.194    0.544
        22 -10.9508     35.2508    230.1187   1.4812202731e+02   2.5004270397e+01    0.2383436     0.143887  55.55 0.0009943328    1.264    0.209
        23 -11.2178     83.7762    244.7156   1.4036816000e+02   1.7810912805e+01    0.3401035    0.1723548  64.89  0.001906135    2.454    0.593
        24 -11.0451    174.0588    222.3120   1.2183384369e+02   9.3893131540e+00    0.3553809    0.2641957  58.61  0.002166139    2.058    0.514
        25 -11.2405     81.7065    248.7189   1.4100392552e+02   1.7482439375e+01    0.2934011    0.1495104  46.87   0.00133395    1.492    0.330
        26 -10.6596     27.5557    221.3530   1.4911954698e+02   2.7118616917e+01    0.2313019    0.1068128  47.98 0.0008160252    1.588    0.370
        27  -8.9849    152.5397    212.9038   1.2453298213e+02   1.3590215613e+01    0.1378901    0.1133459 -36.61 0.0003597609    1.470    0.320
        28 -10.3284     32.7095    205.8992   1.4741837322e+02   2.9266374264e+01    0.2075983    0.1514511  63.17  0.001059533    1.102    0.092
        29 -11.7098     70.0900    197.5199   1.3929659264e+02   2.6870053626e+01    0.4232218    0.2792234  46.33  0.001424809    1.260    0.206
        30 -11.6841     75.6607    190.3093   1.3745889970e+02   2.7515444646e+01    0.2421992    0.2145081 -32.94 0.0006005687    1.455    0.313
        31 -10.2744    192.6741    194.0128   1.1431531252e+02   1.0277496112e+01    0.3771621    0.2353766 -61.24  0.001640584    4.649    0.785
        32  -9.7541    106.5692    182.0299   1.2982174992e+02   2.4999379674e+01    0.1981919    0.1420122  48.70 0.0001868841    1.288    0.223
        33 -10.9879     84.2267    177.8407   1.3426117449e+02   2.8775798499e+01    0.2097995    0.1995369  86.29 0.0003889244    1.128    0.113
        34 -13.2790     71.8664    175.5555   1.3680311518e+02   3.0753297614e+01     0.424061    0.2555254 -41.39  0.001608404    2.268    0.559
        35 -12.1616     90.4768    168.3676   1.3167308955e+02   2.9776186191e+01     1.062685    0.4430124  46.55  0.004829881    2.298    0.565
        36 -13.2639     66.2073    142.6579   1.3426832109e+02   3.8244098260e+01     2.118421    0.9887919  81.58  0.003101688    5.181    0.807
        37  -9.1122    104.7784    147.8745   1.2519815565e+02   3.1800018171e+01     0.332169    0.1776201 -31.78   0.00135715    3.008    0.668
        38 -12.0810     91.1165    151.5098   1.2916172020e+02   3.3069990329e+01    0.2560571    0.2349191  -9.42 0.0005965746    1.268    0.211
        39 -10.9844     46.5397    147.8144   1.3999328972e+02   3.9330871996e+01    0.3149375    0.1664039 -56.96  0.001671634    1.923    0.480
        40 -13.9924     11.4714    206.9189   1.5152545976e+02   3.0930293198e+01     1.710101     1.116398  19.16  0.009546139    1.929    0.482
        41  -9.7293    112.0166    137.0073   1.2144836900e+02   3.2866460861e+01     0.295054    0.2219077 -11.59  0.001090239    1.768    0.434
        42 -10.6132     99.8136    134.3453   1.2408562541e+02   3.5371082094e+01    0.2713061    0.2207523 -20.10 0.0008610801    1.488    0.328
        43 -12.8036     47.2793    232.3762   1.4608734996e+02   2.3494926584e+01    0.3280138    0.2558999  59.35 0.0007780013    1.085    0.078
        44  -8.7320    192.2202    143.9835   1.0508921786e+02   1.7344071468e+01    0.1679173    0.1037006 -31.50 0.0004527776    1.605    0.377
        45  -9.1984    108.8046    123.9146   1.1967213618e+02   3.6120794213e+01    0.1949107    0.1784464  -9.58 0.0003245675    1.174    0.148
        46 -10.8329    168.2923    113.3531   1.0288491560e+02   2.6866543169e+01    0.3737538    0.3091963 -79.95  0.001261034    1.786    0.440
        47 -10.0634    102.1009    151.8747   1.2651175587e+02   3.1396983806e+01    0.2474283    0.2256142  29.74 0.0007096818    1.099    0.090
        48 -14.9715     53.6758    222.4213   1.4435621854e+02   2.4426053748e+01     2.896105     1.336733  35.00   0.01281068    1.777    0.437
        49  -8.7198     73.8137     38.5643   1.0554492805e+02   6.0299426924e+01    0.1677846    0.1392597  51.60 0.0002937821    1.427    0.299
        50 -10.4990    153.4725    248.8320   1.2857672728e+02   8.9242011160e+00    0.2238651    0.1029061  44.43  0.001344904    1.969    0.492
