#   1 NUMBER                 Running object number                                     
#   2 MAG_AUTO               Kron-like elliptical aperture magnitude                    [mag]
#   3 X_IMAGE                Object position along x                                    [pixel]
#   4 Y_IMAGE                Object position along y                                    [pixel]
#   5 X_WORLD                Barycenter position along world x axis                     [deg]
#   6 Y_WORLD                Barycenter position along world y axis                     [deg]
#   7 A_WORLD                Profile RMS along major axis (world units)                 [deg]
#   8 B_WORLD                Profile RMS along minor axis (world units)                 [deg]
#   9 THETA_WORLD            Position angle (CCW/world-x)                               [deg]
#  10 FWHM_WORLD             FWHM assuming a gaussian core                              [deg]
#  11 ELONGATION             A_IMAGE/B_IMAGE                                           
#  12 ELLIPTICITY            1 - B_IMAGE/A_IMAGE                                       
         1 -14.4969     68.5856    144.5630   1.0003832708e+02   3.7246111191e+01     5.098423     2.660532  72.08   0.00398829    4.026    0.752
         2 -13.8416    225.8598     22.7864   3.4421150625e+01   2.6955044745e+01    0.8626382    0.7984746  69.63  0.002607177    1.329    0.248
         3 -14.1470    209.9326     37.8913   3.9406216748e+01   2.8573014456e+01     1.677734     1.426782   6.78  0.007498199    1.691    0.409
         4 -12.5407    247.4290      3.5965   2.8956047468e+01   2.4688214536e+01    0.5377709    0.3210796 -83.27   0.00344851    1.457    0.314
         5  -9.4008    103.0362      1.7822   4.5058180805e+01   5.7654370830e+01    0.1732649   0.08955486  62.13 0.0005828204    1.669    0.401
         6 -10.8432    207.7831    194.0071   7.5354389371e+01   1.7591437538e+00     0.237408    0.1883904  25.59 0.0005934354    1.234    0.189
         7 -13.9675      4.6432    184.8067   1.2161808994e+02   3.4065879912e+01     1.487758    0.7108278  79.06  0.007513905    1.989    0.497
         8 -16.6317     40.3252    192.7046   1.1407582087e+02   2.8760946640e+01     12.80492     5.231168  59.60   0.05144032    2.890    0.654
         9 -13.6936     57.2604    239.8942   1.1463728985e+02   1.6367911621e+01    0.7840871    0.5249804  53.04  0.001051857    1.236    0.191
        10 -10.6263     81.1557    182.1249   1.0271535494e+02   2.5996527491e+01    0.2959048    0.2889535 -40.36 0.0009997883    1.161    0.139
        11  -9.4738     99.3588    180.8571   9.7862086085e+01   2.3470151449e+01    0.2369584    0.1906257  51.66 0.0005214945    1.220    0.180
        12 -12.0114     60.5720    175.9959   1.0714950353e+02   3.0365815373e+01    0.4473945    0.3003538 -32.25  0.001746542    2.076    0.518
        13 -11.9760     65.7365    170.7939   1.0507478843e+02   3.0976818053e+01    0.3462559    0.2756912 -37.33 0.0008940898    1.485    0.327
        14 -15.0086     34.2058    249.4790   1.1980341191e+02   1.7233291917e+01     3.429029    0.8672854  28.09   0.01049667    7.189    0.861
        15 -13.5792     62.8212    157.2141   1.0382455388e+02   3.4794867505e+01    0.5667488    0.3929448 -42.77  0.001701464    1.586    0.370
        16 -12.1807     75.7588    161.3582   1.0090155184e+02   3.1944066160e+01    0.4577147    0.4490806 -40.14 0.0005862567    1.124    0.111
        17 -15.7986      7.0611    245.9948   1.2455253704e+02   2.0759570193e+01       2.1655      1.96224 -85.30   0.01763206    1.421    0.296
        18 -12.5564     83.0142    155.1681   9.7808310179e+01   3.2421076331e+01     1.094812    0.6489294 -49.62  0.001203644    1.665    0.399
        19 -14.9234     10.0250    206.7954   1.2189260710e+02   2.8607282229e+01    0.9609518    0.7825654  22.58  0.002941183    1.618    0.382
        20 -10.1991    107.8091    203.8850   9.9370168651e+01   1.6790669297e+01    0.1993609    0.1931101   1.69 0.0006239019    1.148    0.129
        21  -8.9498    151.4533    150.5904   7.8613955579e+01   2.0981379945e+01    0.1514234    0.1511581  53.64  0.000175935    1.050    0.048
        22  -9.8890    174.6637    148.7629   7.2792485044e+01   1.6665178718e+01    0.3183463    0.2328768 -69.03 0.0009120057    1.860    0.462
        23 -10.5504    133.6435    144.2092   8.1648663312e+01   2.6038371435e+01     1.110605    0.2649557 -54.63  0.002212401    7.456    0.866
        24 -10.9729     30.3866    143.7854   1.1108879732e+02   4.1888116475e+01    0.4034905    0.3009486   0.63  0.001680746    1.769    0.435
        25 -12.3798     85.6002    139.9147   9.4121354316e+01   3.5879293120e+01    0.3108488    0.2748941 -48.70 0.0004818822    1.103    0.093
        26 -10.6497     98.7056    140.3781   9.0396797499e+01   3.3566235132e+01    0.6195027    0.3832692 -17.70  0.002223962    2.916    0.657
        27 -11.3200    193.5472    195.4627   7.8508321767e+01   3.8557537834e+00    0.9765936    0.5582553 -67.14   0.00293733    5.946    0.832
        28  -8.7523    197.4330    138.4616   6.5642154964e+01   1.4161225828e+01    0.1484986    0.1370353 -40.00 4.984112e-05    1.060    0.056
        29 -10.6744     74.7747    135.6548   9.6492556613e+01   3.8632042284e+01    0.2625332    0.2362672  89.34 0.0003502407    1.152    0.132
        30 -10.8657    107.3791    130.6684   8.5702460915e+01   3.4395967610e+01    0.5315842    0.3371523  32.17  0.001954296    1.703    0.413
        31 -10.7921     17.4688    130.3462   1.1312096834e+02   4.6371883769e+01    0.2166785    0.1973166 -53.24  0.000614087    1.164    0.141
        32 -10.1062    135.3298    129.0221   7.7593735789e+01   2.9231208677e+01    0.2344833    0.2152295 -47.07 0.0006911239    1.072    0.067
        33 -11.4031     67.3156    127.2025   9.7076642024e+01   4.1854667988e+01    0.5448102     0.373318 -79.04  0.002520819    1.698    0.411
        34 -10.0464    230.4694    166.4810   6.5569076190e+01   2.8725617095e+00    0.1370046    0.1174244 -22.30 0.0001186295    1.024    0.023
        35 -10.1327     96.3430    126.3260   8.7926743406e+01   3.7468043542e+01    0.3262463    0.2412288 -16.83 0.0008280124    1.752    0.429
        36  -9.4288    115.7622    124.4421   8.1795182849e+01   3.4285913771e+01    0.2175214    0.1537184  25.55 0.0009396094    1.631    0.387
        37  -9.7791    135.0000    119.9940   7.5400692974e+01   3.1362749616e+01    0.2654728   0.08929498 -45.80 0.0007984582    2.915    0.657
        38  -8.7808    168.3011    113.6122   6.5686168720e+01   2.5413120492e+01    0.1639184    0.1213579 -73.93 0.0007015632    1.792    0.442
        39  -9.8029    106.1905    119.1649   8.3244504505e+01   3.7399177136e+01     0.220818    0.2021186 -16.69 0.0003377507    1.144    0.126
        40 -10.0991    205.3940    110.3422   5.7532864064e+01   1.7924976770e+01    0.3185728    0.2419454  35.49  0.001139832    1.534    0.348
        41 -10.3084    247.3305    109.3224   5.0773464539e+01   9.8383527055e+00    0.1293751    0.1002535  -5.46 0.0006818309    1.697    0.411
        42  -9.2670    134.5944    106.2083   7.1842372300e+01   3.4506672125e+01    0.2263243    0.1486626 -33.89 0.0006584832    1.619    0.382
        43 -10.8702    241.3849     98.8041   4.9313795999e+01   1.2694634080e+01    0.1925226    0.1148776 -31.27  0.000333692    1.663    0.399
        44 -11.0775     53.3693     91.7964   9.3663892742e+01   5.2389230905e+01    0.5257039    0.2785955 -67.17  0.001996596    2.353    0.575
        45  -9.6836     41.6750     91.9507   9.8031557163e+01   5.3705997928e+01    0.1959693    0.1599824 -50.61 0.0004831719    1.079    0.073
        46 -13.4131     32.3617    202.4993   1.1678553569e+02   2.7357623453e+01    0.7365077    0.5102629 -39.24  0.001311932    2.062    0.515
        47  -9.1324    160.5571     82.5386   5.9017483797e+01   3.3276224887e+01    0.1489173    0.1463345 -69.71 0.0001764491    1.011    0.011
        48  -9.8534    243.5130     77.5111   4.4428535846e+01   1.5711148194e+01    0.1321367    0.1099111 -54.06 0.0002084163    1.006    0.006
        49  -8.8110     26.4938     68.4943   9.8089776710e+01   6.0494971511e+01    0.1288988     0.110928 -40.25 0.0008096084    1.072    0.067
        50 -11.1714     13.4375     60.0203   1.0149963417e+02   6.3309427290e+01    0.2731101     0.196444 -58.62 0.0004531616    1.307    0.235
        51 -10.4350     43.0274     59.8815   8.8444671660e+01   6.0610051449e+01    0.2702046    0.1935022  38.92 0.0008314938    1.669    0.401
        52  -9.4892     23.9549     57.5235   9.6062426404e+01   6.3037409590e+01    0.1718975    0.1191835  19.03 0.0007209979    1.563    0.360
        53 -14.7192     14.8709    214.6230   1.2138815821e+02   2.6435619680e+01     1.608585    0.6843516  45.79  0.003701849    1.999    0.500
        54 -12.5051    217.8516     30.4752   3.6860520413e+01   2.7756554902e+01    0.5000363    0.3937713  54.12  0.001086886    1.508    0.337
        55 -13.4501    200.6727     44.1556   4.2020774886e+01   2.9848411816e+01     1.142347    0.7703146  35.12  0.003417425    2.143    0.533
        56 -10.0656    172.7465    240.3783   9.0559063057e+01  -6.2215708260e-01    0.3694918    0.1736193 -52.74  0.001670645    2.914    0.657
        57 -10.1832     11.7842     52.5959   1.0020835734e+02   6.4968013674e+01    0.1524244    0.1089903  25.12 0.0007163306    1.649    0.394
        58 -10.3596    133.8193     40.5578   5.2068091940e+01   4.6405495035e+01    0.3007225    0.2258703 -75.96 0.0009063675    1.681    0.405
        59  -9.7366    133.7461     32.5437   4.9476085712e+01   4.7444674287e+01     0.212093    0.1873545 -37.76  0.000473455    1.231    0.187
        60  -9.3929    141.2076     23.0996   4.5041072577e+01   4.6730038621e+01    0.2643374    0.1642532 -84.66  0.001226454    2.118    0.528
        61  -9.7659    189.7090     15.0575   3.6119410735e+01   3.5939230520e+01    0.1740287    0.1544844 -71.88 0.0006004648    1.094    0.086
        62 -12.3446    184.5421    214.6189   8.3897075833e+01   1.8971053178e+00     0.544359    0.3712907 -18.12  0.002855529    1.616    0.381
