#   1 NUMBER                 Running object number                                     
#   2 MAG_AUTO               Kron-like elliptical aperture magnitude                    [mag]
#   3 X_IMAGE                Object position along x                                    [pixel]
#   4 Y_IMAGE                Object position along y                                    [pixel]
#   5 X_WORLD                Barycenter position along world x axis                     [deg]
#   6 Y_WORLD                Barycenter position along world y axis                     [deg]
#   7 A_WORLD                Profile RMS along major axis (world units)                 [deg]
#   8 B_WORLD                Profile RMS along minor axis (world units)                 [deg]
#   9 THETA_WORLD            Position angle (CCW/world-x)                               [deg]
#  10 FWHM_WORLD             FWHM assuming a gaussian core                              [deg]
#  11 ELONGATION             A_IMAGE/B_IMAGE                                           
#  12 ELLIPTICITY            1 - B_IMAGE/A_IMAGE                                       
         1 -10.3756     10.1408     18.8497   9.0511503492e+01   7.1401983784e+01     1.177047    0.4282736 -20.51  0.003777495    6.207    0.839
         2 -11.0883     23.6920     32.2434   8.8885629892e+01   6.7950678213e+01     1.306745    0.4588598 -36.32  0.003695159    2.621    0.618
         3 -10.7848     37.3014      9.7352   7.1785907845e+01   6.9642854447e+01    0.8345258      0.30887 -37.50  0.002573782    2.885    0.653
         4 -10.3222     27.3723     11.3037   7.7502606574e+01   7.0759874122e+01      0.85809    0.3347715  34.29  0.004035407    2.506    0.601
         5 -10.2317     18.2501      5.2915   7.9305928592e+01   7.2616077471e+01    0.5447716    0.3386617 -45.38  0.002928647    2.206    0.547
         6  -9.4555     77.9266      4.4873   5.3885246940e+01   6.3047081393e+01    0.5099902    0.2830961  -5.92  0.001931252    2.099    0.524
         7 -10.1197     69.6429     40.6188   7.2162820946e+01   6.0257406001e+01     0.842656    0.3494856 -35.38  0.002278986    2.407    0.584
         8  -9.8993     73.5897     18.0622   6.1252949608e+01   6.2562778576e+01    0.8008636    0.2289951 -27.86  0.002973939    3.737    0.732
         9  -8.1375     72.0235      8.6702   5.7575514291e+01   6.3844060416e+01    0.2013461    0.1643355  -1.94 0.0005409939    1.211    0.174
        10  -9.7012     63.0405     20.9028   6.6274770558e+01   6.4174595126e+01    0.5013446    0.2680394 -44.32  0.001799922    2.550    0.608
        11  -9.8220     64.6459     13.3504   6.2236698900e+01   6.4762205752e+01      0.42644     0.245348 -26.26  0.001738244    1.790    0.441
        12  -9.3522    101.0079     32.1056   5.8652750572e+01   5.5230590971e+01    0.5736955    0.2233652 -29.94  0.001956249    2.733    0.634
        13 -10.2715     51.3371     15.1551   6.8243861476e+01   6.6853617661e+01    0.9477581    0.4632332  12.61  0.003816426    3.498    0.714
        14 -10.1908     46.2382     29.5045   7.7020081974e+01   6.5678190974e+01    0.5253714    0.2715217 -42.28  0.001164904    2.053    0.513
        15  -8.0585    141.4574     12.7602   4.3186717395e+01   4.7853823262e+01    0.2506367    0.1374098 -16.39  0.001192479    2.294    0.564
        16  -8.3908    119.6094     16.3108   4.8358102170e+01   5.2756682063e+01    0.3882134    0.2315499  26.54  0.001870662    2.050    0.512
        17  -9.3991    101.9627      8.0755   4.9143597844e+01   5.7582821827e+01    0.3893575    0.2503757 -82.50   0.00154414    2.518    0.603
        18  -8.1159    104.5187     14.9843   5.1207518143e+01   5.6370753998e+01    0.3561413    0.1983651   7.90  0.001593247    2.600    0.615
        19  -8.4316     97.6200      6.1562   4.9403199685e+01   5.8715007332e+01    0.2484161    0.1379905  24.01 0.0008778085    2.103    0.524
        20  -8.1549     96.0127      3.0005   4.8522084114e+01   5.9327807066e+01    0.2853886    0.2636814  -1.71 0.0008100729    1.207    0.171
        21  -8.3739    136.2722      1.5618   4.0434287874e+01   5.0085293932e+01    0.4064867    0.1324894  47.03  0.001577367    2.997    0.666
        22  -8.1855    130.7963      5.9970   4.2743137725e+01   5.1036134868e+01    0.2479476    0.1611445   0.06 0.0007448806    2.005    0.501
        23  -9.7964    133.3200     11.5472   4.4148343337e+01   4.9938706050e+01    0.7905856    0.1981131 -30.47  0.002862213    3.833    0.739
        24  -9.1273     96.1553     15.0927   5.3326411644e+01   5.8218585337e+01    0.5164884    0.2494934 -11.03  0.002048127    2.768    0.639
        25  -8.8251    112.2834     15.2933   4.9549250966e+01   5.4566413150e+01    0.3604789    0.2216637 -53.40  0.001728986    2.186    0.542
        26  -8.9082    114.0028     10.0173   4.7253853618e+01   5.4659462515e+01    0.2782229    0.1697044  38.93 0.0003151993    1.590    0.371
        27  -9.5598     85.3171     13.1753   5.5499759313e+01   6.0723529737e+01    0.4155037    0.2550367 -51.28  0.001736992    2.486    0.598
        28  -9.4004      2.3638     14.2600   9.3026373437e+01   7.2729306101e+01    0.4019956    0.2019595 -57.59  0.001770217    2.685    0.628
        29 -10.5124      5.2282      4.5270   8.6625203137e+01   7.3992440133e+01    0.4941422    0.3528023   0.08  0.001819203    1.179    0.152
        30  -8.4586    120.9615      5.9877   4.4461434843e+01   5.3376413247e+01    0.3088639    0.1524836  58.56  0.001226535    1.665    0.400
        31  -8.8535    124.9915     12.9848   4.6134449397e+01   5.1801422282e+01    0.2775582    0.2015216 -89.16 0.0007545611    1.597    0.374
        32  -8.6804    126.8227      9.1544   4.4488206703e+01   5.1713642561e+01     0.309991     0.192407  47.51 0.0009725721    1.465    0.318
        33  -9.1117    125.7687      5.1037   4.3297773048e+01   5.2311047161e+01    0.2874691    0.2033349  33.96 0.0009687567    1.488    0.328
        34  -7.9893     80.4245     12.7195   5.6746335018e+01   6.1775769375e+01    0.2209259    0.1136548 -31.04  0.001105158    2.107    0.525
        35  -8.3740    137.5927      9.6938   4.2833355297e+01   4.9075928028e+01    0.2339437    0.1336102 -13.62  0.001146681    2.224    0.550
        36  -8.0020    192.5081      9.2400   3.5744400014e+01   3.5855565836e+01    0.1946891    0.1540057  62.15  0.001208468    1.303    0.233
        37  -7.5806    156.1744      8.6510   3.9773948881e+01   4.4651848938e+01    0.2309749   0.09301688 -28.21  0.001002568    2.685    0.628
        38  -9.3266    110.1455      5.1923   4.6274252919e+01   5.5964084386e+01    0.4642437    0.2541472 -23.59  0.002401704    2.054    0.513
        39  -8.3076    104.4750      2.3640   4.6390044364e+01   5.7484872409e+01    0.3542947    0.1266655  43.82  0.001482367    2.521    0.603
        40  -9.9604     63.0378      3.1443   5.7990479611e+01   6.6070117708e+01    0.4060988    0.3120836  44.25  0.001799453    1.241    0.194
        41  -8.0978     85.4603      6.2587   5.2531666546e+01   6.1334772436e+01     0.330348      0.12376  34.19    0.0012849    3.135    0.681
        42  -8.3533     89.2704      2.6054   4.9997197218e+01   6.0827418932e+01    0.2337312    0.1747756   5.18 0.0007826901    1.418    0.295
        43  -8.5031    143.0304      4.9189   4.0490861381e+01   4.8178290422e+01    0.2045693    0.1374621 -65.54 0.0005808306    1.704    0.413
        44  -8.7468    115.3972      4.2177   4.4878744732e+01   5.4826434878e+01    0.2653956    0.2087357 -57.17 0.0006450601    1.533    0.348
        45  -8.0276    150.9458      1.5080   3.8367577464e+01   4.6548091150e+01    0.1946811    0.1096865  70.50 0.0004069663    1.509    0.338
        46 -11.3821    121.0920    110.3507   7.8343536958e+01   3.6548989137e+01      1.34739    0.7465383 -49.43     0.002675    1.803    0.445
        47  -7.9943    217.3236    250.3062   8.5124722981e+01  -8.3626816920e+00     0.123222    0.0761293   4.10 0.0007034044    1.644    0.392
        48 -10.4681    201.9725    250.3151   8.7993060812e+01  -6.2582049662e+00    0.5736996    0.2008714  36.26  0.002598867    2.455    0.593
        49 -10.1552    179.4279    249.0537   9.2155157955e+01  -2.8186768821e+00    0.3992588     0.260635  -8.71  0.002214918    1.927    0.481
        50 -11.1606    166.3204    247.9679   9.4594829448e+01  -6.8633955786e-01    0.6616462    0.3492868  28.05  0.003387547    1.754    0.430
        51 -10.1957    127.6740    102.5570   7.4395071439e+01   3.6871298773e+01    0.6136701    0.4622943 -34.80 0.0008148778    1.366    0.268
        52  -9.9377     98.4995    128.5351   8.9424721406e+01   3.6638686162e+01     0.656933    0.4136499  76.12  0.002237786    2.815    0.645
        53  -9.7336    110.8286     90.0559   7.5546358858e+01   4.3151985518e+01    0.8947548    0.4219383  29.92  0.002942512    3.133    0.681
        54 -10.3623    108.2786     99.4264   7.9023871053e+01   4.1639265712e+01    0.9568931    0.5303822  64.20  0.002928178    3.305    0.697
        55  -9.9668     41.9530    122.8378   1.0571314513e+02   4.6202207099e+01    0.6994683     0.353853 -89.15  0.002580084    3.187    0.686
        56  -8.7134    112.2920    133.7637   8.6683219152e+01   3.2803123447e+01    0.4926258    0.2899814 -65.17  0.001536968    2.082    0.520
        57  -9.9927     27.3787    122.9639   1.1031903450e+02   4.7575908309e+01    0.6422653    0.3328181  68.20  0.002039299    2.846    0.649
        58  -7.8216    157.9625    121.9666   7.1918095547e+01   2.5938156535e+01    0.2503177    0.1943518 -78.76 0.0006874113    1.672    0.402
        59 -10.0019    140.6746    118.6483   7.5305898180e+01   3.0480970445e+01    0.5298766    0.3665069 -65.90  0.001477623    1.816    0.449
        60  -8.2365     97.6146    121.2301   8.7957662092e+01   3.8582392633e+01    0.2270587    0.1360931 -42.43 0.0007240811    1.688    0.408
        61  -8.5133      1.6133    116.7978   1.1745188162e+02   5.0917289355e+01    0.3556513    0.1404325 -84.75  0.001478138    2.652    0.623
        62 -10.3548     92.2136    113.0577   8.7580041090e+01   4.1521294870e+01    0.6552336    0.5488349  82.61  0.001726252    1.442    0.306
        63  -9.0348     92.8022    103.6302   8.4935344838e+01   4.3643891777e+01     0.636062    0.4023732  12.31    0.0025048    2.434    0.589
        64  -9.2497     56.5042    115.9813   9.9703047407e+01   4.6232364168e+01    0.3259725    0.1773237 -65.01  0.001424886    1.787    0.440
        65 -10.3858     78.2776    113.0399   9.1970283181e+01   4.3860983171e+01    0.5941877    0.3793605 -75.08  0.001880792    2.078    0.519
        66  -8.4331     73.7262    102.9762   9.0963625836e+01   4.6997764485e+01    0.2974604     0.194455 -60.26 0.0006858413    1.556    0.358
        67  -8.4701     78.1947    105.0734   9.0019946473e+01   4.5796159707e+01    0.4037468    0.2720265   5.75  0.001752438    2.101    0.524
        68  -9.5607     81.5758    100.4857   8.7706518814e+01   4.6327074458e+01    0.9900688    0.3261016 -49.77  0.002276488    2.803    0.643
        69 -10.4260     63.0756     95.9503   9.2799802079e+01   5.0224302301e+01    0.7458342    0.4280567 -72.20  0.001724599    2.507    0.601
        70  -8.7910     64.6014     86.0852   8.9586011473e+01   5.2276359266e+01    0.6270266    0.3474334  -7.43  0.002101052    3.972    0.748
        71  -9.6017     67.2862    103.8042   9.3336242511e+01   4.7760460566e+01    0.8070076    0.4588839 -23.34  0.003097892    2.753    0.637
        72 -10.3256     65.8502    110.7933   9.5486809519e+01   4.6267945924e+01    0.8567177    0.5655986  72.31  0.001087886    2.317    0.568
        73  -9.2707     59.1857    109.1907   9.7338782845e+01   4.7566695177e+01    0.5393481    0.2709005 -68.19  0.001406069    2.304    0.566
        74  -8.1685    152.9171    115.3229   7.1407973234e+01   2.8493514471e+01    0.2191999    0.2087611  35.33 0.0005371679    1.078    0.072
        75  -7.6192    167.3846    114.1533   6.7761726015e+01   2.5472973669e+01    0.2218146    0.1409134 -52.84 0.0005209479    1.668    0.400
        76  -9.8704     14.1604    111.1866   1.1275336511e+02   5.1513054396e+01    0.4867657    0.2595299  83.23  0.002038985    2.423    0.587
        77  -8.1128    158.8171    112.0268   6.9152905414e+01   2.7859976542e+01    0.2364181    0.2071131 -66.83  0.000514211    1.222    0.182
        78  -8.4075    140.8024    111.8055   7.3474051218e+01   3.1962413482e+01    0.3329083    0.2193693 -53.12  0.001412969    1.592    0.372
        79  -9.3479     35.4737    110.6609   1.0561703554e+02   4.9896160034e+01    0.2700811    0.1909464  83.81 0.0008257754    1.697    0.411
        80  -8.9247     30.5308    108.1654   1.0681986339e+02   5.0969941870e+01     0.332883    0.2315819  59.29   0.00177525    1.766    0.434
        81 -10.9880     21.5574    101.9286   1.0876759434e+02   5.3234490066e+01     1.260168    0.6480975 -83.85  0.003648622    2.417    0.586
        82  -9.2512     14.8480     93.1322   1.0956342392e+02   5.5820815739e+01    0.4603527    0.2111126 -42.78  0.002204475    1.999    0.500
        83  -8.2021    149.6035    109.7568   7.0738103281e+01   3.0430174407e+01    0.2967699    0.1509379 -39.32  0.000829065    1.991    0.498
        84  -9.4178    243.2282    106.9446   5.2477573701e+01   1.0661936705e+01    0.3255564    0.1974778  50.89   0.00166439    1.916    0.478
        85 -10.8571     44.7561    102.0291   1.0068707238e+02   5.1055028919e+01    0.9151995    0.5326622  79.83  0.003024338    3.329    0.700
        86  -9.0819     40.1067    105.8478   1.0310602451e+02   5.0619165206e+01    0.4985681    0.1866353 -70.55  0.001526092    3.343    0.701
        87  -9.3491      6.5162    103.7404   1.1417859843e+02   5.3796707966e+01    0.3926238    0.2512709  86.71  0.001481677    1.683    0.406
        88  -9.1471    150.4106     89.2153   6.4865030703e+01   3.4438051666e+01    0.2843585    0.2528506 -48.45 0.0006472921    1.120    0.108
        89  -9.5435    149.3776    103.1195   6.8997840036e+01   3.1877747918e+01    0.5268169    0.3206183 -61.91 0.0009881431    2.195    0.544
        90  -9.3586    150.0117     96.8129   6.7102945239e+01   3.3024198470e+01    0.5440617    0.3261208  32.76  0.002139749    2.102    0.524
        91  -8.2273    165.9453    103.7486   6.5354200275e+01   2.7923345705e+01    0.2872428    0.2150244 -49.69  0.000652477    1.331    0.249
        92  -8.6838    158.9367    101.1892   6.6232352083e+01   3.0064792024e+01    0.3200111    0.2154303 -39.99 0.0005221923    1.466    0.318
        93  -9.4585     94.2919     97.2397   8.2701211166e+01   4.4836419289e+01    0.3579501    0.2824115 -61.22 0.0006929515    1.379    0.275
        94  -9.1719     96.5088     90.2789   7.9987874039e+01   4.5963977753e+01    0.5252533    0.3460378  -1.07  0.002068661    2.491    0.599
        95  -9.5850    241.1366     96.1763   5.0394561614e+01   1.2860277327e+01    0.3614172    0.2177609  38.70  0.001739587    2.277    0.561
        96  -7.0935    171.2945     95.6812   6.2053276603e+01   2.8261213593e+01    0.1568253    0.1188993 -73.40 0.0002461802    1.609    0.378
        97  -8.7048    164.4951     94.1343   6.3076601791e+01   3.0159338818e+01    0.3860145     0.249971 -43.91  0.001354161    1.512    0.339
        98  -9.4291    138.7131     92.9228   6.8767900583e+01   3.6423563025e+01    0.4392286    0.3536115 -67.39 0.0009501753    1.438    0.305
        99  -7.9113    139.3196     87.4553   6.7028988043e+01   3.7377311454e+01    0.2936869    0.1470781  44.49 0.0009399331    2.033    0.508
       100  -8.9318     44.1365     53.9657   8.7530113256e+01   6.1734920437e+01    0.3234521     0.177123 -30.44 0.0006680283    1.823    0.452
       101  -8.9327     39.8875     52.5262   8.8863711212e+01   6.2519897167e+01    0.4831486     0.196511 -41.76  0.002141397    2.158    0.537
       102  -7.5509     23.2338     69.2026   1.0108823221e+02   6.0694878875e+01    0.1886978    0.1454694  45.06  0.000284332    1.678    0.404
       103 -10.0028     20.6455     83.4964   1.0550060089e+02   5.7673143584e+01    0.6462082    0.1737294 -51.49  0.002530802    2.644    0.622
       104  -8.9017     38.7338     58.2827   9.1301171699e+01   6.1517495783e+01    0.3001632    0.2702302  36.51  0.001641106    1.380    0.275
       105 -10.5918     25.8086     78.0724   1.0225097950e+02   5.8509502070e+01    0.7890096    0.4724593 -83.79  0.002859501    2.490    0.598
       106 -10.3775     32.0702     64.4582   9.6057428828e+01   6.0935062099e+01      1.01296    0.4096983 -35.41  0.003024553    2.619    0.618
       107 -10.0734     34.3123     90.3470   1.0184781757e+02   5.4918238210e+01    0.6710362    0.3116046 -74.50  0.002287765    3.052    0.672
       108  -8.8954     35.4119     81.8251   9.9402892103e+01   5.6788427724e+01     0.350688    0.2090337 -33.30 0.0009917733    1.681    0.405
       109  -8.7635     38.9775     79.7207   9.7478111544e+01   5.6905660258e+01    0.2379777    0.2077466 -34.70 0.0006559461    1.037    0.035
       110  -8.9397    157.6071     91.8031   6.3949433240e+01   3.2236973543e+01    0.3627717    0.1831737 -38.98  0.001324891    1.973    0.493
       111 -10.1646      4.4211     89.3869   1.1268595637e+02   5.7317155814e+01    0.6159778    0.3027703 -89.65  0.002226987    2.699    0.630
       112  -9.5812      6.0238     78.8182   1.1020573391e+02   5.9676224597e+01    0.7345638    0.2729618 -28.76  0.002996799    3.430    0.708
       113 -10.8479    189.3283    246.9196   8.9901516338e+01  -3.9612923444e+00    0.5289637    0.3799215  44.97  0.003229272    1.564    0.361
       114  -9.6431     16.0824     70.3007   1.0433710511e+02   6.0984564935e+01    0.4772788    0.2151032 -55.34  0.001244432    1.729    0.422
       115  -8.8972     40.8681     20.5588   7.5408437768e+01   6.7732812138e+01    0.2785577    0.1544116 -37.11 0.0009818064    1.819    0.450
       116  -9.1666     83.2721    131.5926   9.4626978793e+01   3.8467421012e+01    0.6611941     0.402191  75.59  0.002445772    2.853    0.649
       117 -10.9021     21.8262     53.2538   9.7192844609e+01   6.4170323142e+01    0.7562242    0.5012709 -87.84  0.002861657    3.021    0.669
       118  -8.3672     92.0017    247.9350   1.0964846425e+02   1.0518651491e+01    0.1892526    0.1520938  54.17 0.0004099519    1.024    0.024
       119  -9.4206    204.1376    244.1673   8.6625359904e+01  -5.7022900826e+00    0.2487315    0.1913182  33.21 0.0002673641    1.303    0.232
       120  -8.0978    243.0629    238.6421   7.8606436732e+01  -1.0189356362e+01    0.1674829    0.1299185  27.43 0.0006182957    1.418    0.295
       121 -10.1394     12.6660     45.6414   9.9126805244e+01   6.6385932539e+01     0.781081    0.3719545  -6.33  0.003158697    2.677    0.626
       122 -10.0678      4.7007     41.8787   1.0187016653e+02   6.7627501405e+01    0.6622581    0.2880343 -57.67  0.002910448    1.978    0.494
       123  -9.6306      6.9034     32.5045   9.7669424833e+01   6.9273772266e+01    0.2902086    0.1873696 -14.54  0.001070436    1.423    0.297
       124 -10.0854      7.3017     28.1971   9.5885427256e+01   7.0025357624e+01    0.3164137    0.2409264  29.31 0.0009702597    1.685    0.406
       125  -8.6141    192.5996     90.4306   5.6562617383e+01   2.4268602179e+01    0.2739281    0.2392254 -32.04 0.0008604836    1.175    0.149
       126 -10.5979     54.9220     70.8369   8.8687157500e+01   5.6948096908e+01    0.6554456    0.4347267  53.52  0.001154112    2.166    0.538
       127 -10.3919     47.8366     84.2989   9.5286464906e+01   5.4884231168e+01    0.7180334    0.4379748 -64.06  0.002312112    1.759    0.432
       128  -9.1992     48.3321     77.6466   9.3273529701e+01   5.6317973561e+01    0.5781317    0.3313034  -5.12  0.002451105    2.671    0.626
       129  -9.0795     55.0022     63.3947   8.6261971115e+01   5.8466477750e+01    0.4409319    0.3524847 -22.15   0.00255143    1.151    0.131
       130  -9.9426     61.9319     60.7298   8.2634476013e+01   5.7990989503e+01    0.4731751    0.3187814  17.00 0.0006371824    1.621    0.383
       131  -8.4177     68.0645     60.7660   8.0306164716e+01   5.7026708230e+01    0.2893018    0.2093449  35.75 0.0009797447    1.428    0.300
       132  -7.5922     78.3500     89.8287   8.5831096615e+01   4.9302184933e+01    0.2148141     0.125482 -40.88  0.000436933    1.654    0.395
       133  -7.8518    174.4886     88.9846   5.9600395637e+01   2.8772380583e+01    0.2286175    0.1197022 -58.20 0.0008105043    2.576    0.612
       134 -10.3185     85.5250     86.6751   8.2485268107e+01   4.8770819856e+01    0.5863219    0.4114762  65.28  0.000855748    2.088    0.521
       135  -9.7362     87.8515     78.6483   7.9245374265e+01   5.0056155611e+01    0.6980622    0.3998912  19.70  0.001895821    2.549    0.608
       136  -8.3976    163.5634     86.4188   6.1146524706e+01   3.1848829312e+01    0.4096319    0.2210133 -26.90  0.001157359    2.371    0.578
       137 -10.3776    103.8907     82.4922   7.5329396357e+01   4.6155515672e+01    0.5818895    0.3478155 -55.54 0.0009929483    1.993    0.498
       138  -9.3898    105.2675     71.5891   7.1436613155e+01   4.8025219513e+01    0.8813494    0.4010592 -35.44  0.003336675    2.339    0.572
       139 -10.2335    117.2108    125.5627   8.3346282755e+01   3.3808601205e+01    0.8300978    0.6542736 -85.32  0.002073932    1.604    0.376
       140  -9.1414    157.5463     82.9194   6.1456988354e+01   3.3938445379e+01    0.4313312    0.2587352 -30.69  0.001535409    1.844    0.458
       141  -8.7245    156.5613     75.8348   5.9634171919e+01   3.5461962494e+01    0.4832268    0.2545104 -60.52   0.00145631    2.929    0.659
       142  -9.2118    140.4384     82.2697   6.5223888732e+01   3.8121325820e+01    0.5401549    0.2911791 -38.76  0.001561137    1.870    0.465
       143  -8.9973    139.9093     75.4705   6.3312642670e+01   3.9514331889e+01    0.5079474    0.2802142 -47.35  0.001231038    1.921    0.479
       144  -9.3070     74.3698     79.1217   8.4028683736e+01   5.2297401905e+01    0.7144077    0.2884629 -48.18  0.001693506    2.363    0.577
       145  -7.7429     63.5619     81.8205   8.8736793126e+01   5.3376301853e+01    0.1856976    0.1322584 -61.97 0.0003943706    1.578    0.366
       146  -8.8256    149.7646     80.2007   6.2410497007e+01   3.6302446072e+01    0.4548707    0.2301922 -38.75  0.001242295    1.982    0.495
       147  -8.7607    118.9647     80.4683   7.0292332898e+01   4.3365744079e+01    0.3363438    0.2286816 -51.60 0.0005830021    1.599    0.374
       148  -8.4885    119.9096     75.9010   6.8603494042e+01   4.4039092109e+01    0.2829301    0.2304077   5.38 0.0005398757    1.445    0.308
       149  -8.2883     68.9894     78.7862   8.5853152896e+01   5.3224323455e+01    0.3199235    0.1613381 -48.33   0.00137059    1.866    0.464
       150  -8.5951    166.7753     79.0357   5.8417274847e+01   3.2426692428e+01    0.2426919    0.1956018 -66.76 0.0009429104    1.345    0.257
       151  -8.1272    184.1736     78.1819   5.4871742509e+01   2.8404704293e+01    0.2126585    0.2033768  19.74 0.0006552244    1.189    0.159
       152  -7.6997    174.4000     78.2734   5.6705099640e+01   3.0726120066e+01    0.2158556    0.1332569 -48.25   0.00063111    1.624    0.384
       153  -9.6443     16.8806     61.8830   1.0187752347e+02   6.2757373780e+01    0.6622424    0.2733068 -52.50  0.003207876    1.868    0.465
       154  -9.7951    127.8484     73.6643   6.5774558968e+01   4.2660347145e+01    0.8409229    0.4128249 -28.78  0.001599836    2.544    0.607
       155  -8.2601    130.5546     63.7662   6.1953221953e+01   4.3781919036e+01    0.4355486    0.1721143 -39.44  0.001569064    2.557    0.609
       156  -9.9501     81.6038     72.3724   7.9349738372e+01   5.2463682088e+01    0.4530275    0.3305689 -66.40 0.0009534265    1.896    0.472
       157  -9.0399     83.5584     64.5828   7.6064571226e+01   5.3628584414e+01    0.4931991    0.3400055  -5.56  0.001930335    1.865    0.464
       158  -9.1871    115.2308     72.3186   6.8768067859e+01   4.5749055805e+01    0.5718879    0.2891254 -34.76  0.001909408    2.091    0.522
       159  -7.7590    175.5040     72.4681   5.4904105977e+01   3.1459951665e+01     0.258549    0.1260075 -47.51  0.000708857    2.102    0.524
       160  -8.1709    162.6142     72.8371   5.7506821617e+01   3.4521467711e+01    0.2817605    0.2027259 -64.01 0.0007878794    1.607    0.378
       161  -7.9715    169.3974     71.2290   5.5711032198e+01   3.3148992244e+01    0.2101706    0.1325719 -48.27 0.0002660205    1.605    0.377
       162  -9.4500    147.0057     69.4485   5.9842186217e+01   3.8888325189e+01    0.3985598    0.2798599 -59.80 0.0008715462    1.671    0.402
       163  -8.3729    156.5972     69.5606   5.7798540821e+01   3.6545679077e+01    0.3477564    0.1506355 -31.62  0.001239991    2.611    0.617
       164  -9.7592     94.8288     68.3447   7.3604366563e+01   5.0766553766e+01    0.4336068    0.2696515 -49.09 0.0007602328    1.758    0.431
       165  -9.4326     96.9590     58.7242   6.9627921855e+01   5.2083239559e+01    0.8336787    0.4725726  -6.61  0.002814892    3.763    0.734
       166  -9.1073    121.3032     66.0412   6.5067165353e+01   4.5528800826e+01    0.3702764    0.2689795 -58.96 0.0007030891    1.682    0.406
       167  -8.2825    121.8694     61.4112   6.3401501336e+01   4.6196514314e+01    0.4132643    0.2037474  36.29  0.001551392    2.443    0.591
       168  -9.5738    109.8112     63.6599   6.7466575224e+01   4.8505717417e+01    0.4359515    0.2831223 -54.83 0.0007975823    1.922    0.480
       169  -8.7713    110.9150     57.8232   6.5171943594e+01   4.9264385004e+01     0.338379    0.2686622  26.78 0.0008890057    1.303    0.233
       170  -7.5200    170.5568     65.4602   5.3871940304e+01   3.3823922810e+01    0.1457933    0.1390999 -83.98 0.0001332159    1.006    0.006
       171  -8.1362    157.6643     63.2486   5.5725976954e+01   3.7335745156e+01    0.2583831    0.2113695 -64.15  0.000649726    1.307    0.235
       172  -9.2121    146.8835     56.4178   5.5895682473e+01   4.1057220043e+01    0.6960812    0.2327771 -27.42  0.002020349    4.403    0.773
       173  -8.0381     53.5024     39.1116   7.7933271006e+01   6.3111059200e+01     0.193626    0.1718668  20.44 0.0008243155    1.216    0.178
       174  -8.6640     49.1866     60.7717   8.7737312889e+01   5.9765563816e+01     0.318188    0.1344816 -58.05  0.001175533    3.300    0.697
       175 -10.0088     50.0055     54.5331   8.5255201746e+01   6.0874214878e+01    0.4058021    0.3180102 -58.43  0.001487853    1.590    0.371
       176  -9.8996     55.6179     43.8457   7.8942077698e+01   6.2007329171e+01     1.016583    0.5223045   2.50  0.003277192    4.972    0.799
       177  -8.4763     10.8636     60.9191   1.0425993680e+02   6.3362850393e+01    0.3166933    0.2177995 -86.27  0.001793354    2.017    0.504
       178  -9.9002     73.0773     59.0276   7.7835563156e+01   5.6521939597e+01    0.5468704    0.2660171 -50.46 0.0009869455    2.421    0.587
       179  -9.0192     75.5722     50.8203   7.3936186753e+01   5.7545987972e+01    0.5041341    0.3007869  15.30  0.002208782    2.280    0.561
       180  -7.8719    164.6289     60.2208   5.3487394080e+01   3.6113087008e+01    0.1966757    0.1418865 -24.62 0.0006697754    1.584    0.369
       181  -7.4165    152.4279     60.2794   5.5911296649e+01   3.9094661064e+01    0.2090469    0.1335939 -47.82 0.0009422554    1.644    0.392
       182  -8.6926     87.6347     58.5045   7.2560692366e+01   5.3973762111e+01    0.4107285     0.225566 -51.86  0.001723266    2.329    0.571
       183  -8.7756     88.3014     54.3152   7.0836125623e+01   5.4571820779e+01    0.2356962    0.1842119  10.73 0.0006493555    1.356    0.262
       184  -9.4825    138.9267     55.9117   5.7472749722e+01   4.3066583597e+01    0.6447123    0.2327867 -32.67  0.001764999    2.996    0.666
       185  -8.0998    142.1204     48.5817   5.4456806432e+01   4.3397204956e+01    0.2376662    0.2036021 -33.11 0.0003621951    1.235    0.190
       186  -8.2832    129.8585     57.8506   6.0216726401e+01   4.4923733547e+01    0.2660758    0.2058008 -44.28 0.0003876078    1.360    0.265
       187  -7.6316    130.6762     53.6685   5.8656839720e+01   4.5390520825e+01    0.2282227    0.1681176  19.65  0.001086583    1.679    0.405
       188  -8.2602    122.8884     40.8903   5.6225437602e+01   4.9094282975e+01    0.4179662    0.2302134  17.28  0.001377127    3.578    0.721
       189  -9.3460    118.1407     55.0117   6.2243864983e+01   4.8101104171e+01    0.4484202    0.3196024 -39.12 0.0008969767    1.462    0.316
       190  -9.1092    121.0300     46.7770   5.8696527296e+01   4.8696200897e+01    0.3661295    0.2105288 -30.35 0.0004933306    1.859    0.462
       191  -7.4284    169.3429     55.7109   5.1337057073e+01   3.5652335172e+01    0.1508225    0.1075031 -75.33 0.0002807843    1.650    0.394
       192  -8.7304    162.6588     54.1479   5.2095233308e+01   3.7532028529e+01    0.2294577    0.1679143 -54.54 0.0006334396    1.433    0.302
       193  -8.7337    105.3638     53.0311   6.5091367401e+01   5.1263350799e+01    0.3485931    0.2297351 -52.63   0.00145057    1.893    0.472
       194  -6.8866    106.3137     48.3730   6.3165230285e+01   5.1787567680e+01    0.2280417    0.1722841   1.61  0.001151266    1.549    0.354
       195  -7.6112    152.4609     53.2511   5.3783620919e+01   4.0176005425e+01    0.2150206    0.1282274 -48.01 0.0009495922    1.795    0.443
       196  -9.5986    138.0536     66.2489   6.0922416926e+01   4.1584772959e+01    0.3384252    0.2404025 -56.06  0.000776002    1.611    0.379
       197  -8.6378    157.4257     49.1286   5.1588069901e+01   3.9561406743e+01    0.3419865     0.209273 -65.57  0.001140062    2.169    0.539
       198  -9.6547    130.7169     46.0929   5.6154975254e+01   4.6509784105e+01     1.008771    0.4373404 -19.74  0.001650213    3.841    0.740
       199  -8.4958    132.8427     35.8656   5.2297606422e+01   4.7384518487e+01    0.3286346    0.2292963  50.82   0.00167195    1.318    0.242
       200 -10.8041    134.1329     30.8307   5.0365354431e+01   4.7696242813e+01    0.3625365    0.2734621   5.10  0.001911385    1.653    0.395
       201 -10.1527     85.1316     48.0265   6.9568198649e+01   5.6228911319e+01    0.3876528    0.2955439 -60.78 0.0009317042    1.856    0.461
       202  -9.2393    139.5370     39.6761   5.2152851216e+01   4.5264931941e+01    0.7488416    0.3725158 -54.64  0.002891819    2.827    0.646
       203  -7.3989    206.0148     48.2118   4.3825490177e+01   2.7937133647e+01    0.1716873    0.1044615  68.10  0.000846358    1.625    0.385
       204  -8.3630    149.8542     47.7157   5.2611719096e+01   4.1629048728e+01    0.3048993    0.1978347 -35.85 0.0003517342    1.604    0.377
       205 -10.0545    152.6190     41.5500   5.0198852881e+01   4.1804669970e+01    0.5592956    0.3220397  43.21  0.001890506    1.875    0.467
       206  -9.5481     60.2709     33.6238   7.2899265317e+01   6.2909978760e+01    0.3955148     0.280668 -45.70  0.001317966    1.731    0.422
       207  -8.4376     63.0801     26.8069   6.8876592184e+01   6.3404911196e+01    0.4358834    0.1461734  41.37  0.001759065    2.785    0.641
       208  -9.5419    187.7181    234.0273   8.8206125775e+01  -1.7625735985e+00    0.2695626    0.2276168 -40.22  0.001059317    1.410    0.291
       209  -9.3318     70.7230     26.3025   6.5827307044e+01   6.2107089454e+01    0.5841668    0.2617659  49.12   0.00263217    2.268    0.559
       210  -8.9274    203.1657    226.6153   8.3938744948e+01  -2.9565214247e+00    0.2637052       0.2286  70.72  0.001189037    1.885    0.470
       211 -10.1373     75.8665     32.2251   6.6507306432e+01   6.0358311205e+01    0.6466823    0.4552166  68.53  0.001759025    2.289    0.563
       212 -10.3720    223.1111    220.2980   7.9046445552e+01  -4.9469299960e+00    0.2193706    0.1862668  -1.41 0.0002140163    1.092    0.084
       213  -8.9126    191.1666    220.9148   8.5342771350e+01  -1.8765006669e-01    0.2457219    0.1935622  36.83 0.0003232947    1.274    0.215
       214  -8.7856    192.5704    216.3646   8.4273282058e+01   3.4488050233e-01    0.2282651    0.1911694   5.23 0.0002920837    1.075    0.069
       215  -7.3953    113.9944    216.0465   1.0117459952e+02   1.3434135007e+01    0.1567835    0.1472311 -89.23 0.0004089299    1.128    0.114
       216  -9.5125     79.4093     23.8985   6.1839828789e+01   6.0748548276e+01    0.4734224     0.234079  34.14  0.001192339    2.043    0.511
       217  -8.9666     84.8489     21.6437   5.9183102213e+01   5.9918750191e+01    0.2521404    0.2131593  14.10  0.000716055    1.101    0.092
       218  -9.9740     37.9553     42.2466   8.5977637849e+01   6.4654084618e+01    0.3596816    0.3344019  76.70  0.001473909    1.670    0.401
       219 -10.4212     35.9010     37.9839   8.5264765390e+01   6.5645154498e+01    0.6801714    0.3528473 -13.92 0.0003562378    2.725    0.633
       220  -8.5054    114.2464     40.6594   5.8276108625e+01   5.1131216108e+01    0.5205067    0.2807226   3.44  0.001671563    4.461    0.776
       221  -9.2448    110.4734     33.3161   5.6595847469e+01   5.2964257227e+01    0.4296782    0.2329699 -41.17  0.001643006    2.072    0.517
       222  -8.9487    104.9949     40.9877   6.0862305423e+01   5.3163481745e+01    0.3500775    0.2334616 -51.60 0.0007831533    1.903    0.475
       223  -8.6810    106.1869     36.2302   5.8786642373e+01   5.3550804458e+01    0.3261369    0.1983412  30.72   0.00114266    1.820    0.451
       224 -10.1360     90.3205     38.1612   6.4120121237e+01   5.6685581031e+01    0.8710568    0.2792889  38.34  0.002833949    3.719    0.731
       225  -7.8328     96.9028     33.1460   6.0207715155e+01   5.5986084520e+01    0.1897859    0.1465853  20.70 0.0003596897    1.306    0.234
       226  -7.2245    160.2805     39.6272   4.8260744923e+01   4.0169220531e+01    0.1481429    0.1006037 -65.12 0.0007011798    1.700    0.412
       227  -9.0641    144.2589     36.4895   5.0203614944e+01   4.4525794743e+01    0.2757918     0.209969 -61.75 0.0006220856    1.483    0.326
       228  -8.4458    111.9740     46.8835   6.1075368894e+01   5.0754368175e+01    0.2264892    0.2016263 -22.96 0.0003963084    1.167    0.143
       229  -8.6502    118.8787     34.7977   5.5060261591e+01   5.0838939904e+01    0.2612584    0.1901152 -32.26 0.0006505137    1.473    0.321
       230  -8.3275    193.1623    211.8091   8.3349615565e+01   1.0187613366e+00    0.1834579    0.1688459  10.29 0.0004099401    1.121    0.108
       231  -8.3268    153.5449     34.5334   4.7901026148e+01   4.2487866236e+01    0.1391751    0.1272395  80.00 1.356242e-05    1.030    0.029
       232  -8.0288     45.4753     15.4863   7.0913289230e+01   6.7732044333e+01    0.2143224    0.1447967  -0.75 0.0007874664    1.411    0.292
       233  -9.9279     10.3705    207.2030   1.2293273479e+02   2.8882481385e+01    0.4548331    0.3147282  22.69  0.002740719    1.919    0.479
       234  -7.3872    220.1336    208.5976   7.7495388569e+01  -2.7081827898e+00    0.1662749    0.1093513  19.64 0.0009047928    1.482    0.325
       235  -8.3209     42.1765     27.8539   7.8120845655e+01   6.6493869627e+01    0.1930162    0.1521934  -5.41  0.001242558    1.056    0.053
       236  -9.3653     91.4115     26.1817   5.9071645307e+01   5.8024047628e+01    0.3484948    0.2261062 -46.17  0.001066015    1.955    0.488
       237  -8.8294     92.2899     20.7148   5.6625273235e+01   5.8465940901e+01    0.3265773    0.1590385  36.09  0.001217222    2.088    0.521
       238  -9.8174    154.1469     27.3333   4.5623311484e+01   4.3206799561e+01    0.4964927     0.279305  45.79   0.00232967    1.850    0.460
       239  -8.6841    128.4963     25.1931   4.9618376200e+01   4.9708680764e+01    0.3597521     0.245334 -21.02  0.001887006    1.667    0.400
       240  -8.2167    144.1796     25.6555   4.6799492679e+01   4.5849116730e+01    0.2274651    0.1740709 -46.68 0.0006128755    1.411    0.291
       241  -8.4622    231.4399     23.9457   3.5544201117e+01   2.5413634814e+01    0.2140471    0.1584167  86.34 2.513098e-05    1.248    0.199
       242  -8.8378    139.8212     22.7749   4.6657629208e+01   4.7233548743e+01    0.3002351    0.1796124 -75.30  0.001317376    2.415    0.586
       243  -8.5000    139.4521     17.9827   4.5183768345e+01   4.7827720088e+01    0.2674317    0.2197458  28.38  0.001077481    1.355    0.262
       244 -10.2456    160.2352    205.9998   8.9272536586e+01   7.6375391837e+00    0.2437962    0.2382983 -20.19 0.0003554264    1.120    0.107
       245  -9.0561    118.9935     21.4382   5.0306493894e+01   5.2375745532e+01    0.2668345     0.219149  63.18 0.0006397468    1.150    0.130
       246  -8.5187    112.2156    203.0466   9.9709474660e+01   1.6480711844e+01    0.2199429    0.1834631  43.36 0.0003056644    1.113    0.101
       247  -8.4190    111.4827     21.3643   5.1964102052e+01   5.4130696342e+01    0.3244776     0.136513 -23.54  0.001349976    2.723    0.633
       248  -9.0412    192.3743    194.7152   8.0353853356e+01   4.1634667190e+00    0.7032456     0.382565 -64.14  0.002231341    5.124    0.805
       249  -9.2271    102.8568     20.9070   5.3884065486e+01   5.6136093629e+01    0.3523933    0.2611252 -58.59 0.0007986089    1.817    0.450
       250  -9.3826     44.6810    193.0572   1.1432893222e+02   2.8484607093e+01    0.2186599    0.1934559  78.89   0.00033782    1.082    0.076
       251  -8.7213    182.4163    191.1533   8.1752073424e+01   6.5733359358e+00    0.2311942    0.1904691  38.25 0.0003801659    1.220    0.181
       252  -7.2735    168.1656    188.3500   8.4303464309e+01   9.6947698260e+00    0.1970581    0.1279078  46.86   0.00040632    1.603    0.376
       253  -8.4303    243.1096     18.9610   3.3563139296e+01   2.3556861822e+01    0.1777335    0.1429485 -68.18 0.0004285454    1.039    0.038
       254  -7.3455    211.1922    181.6246   7.4015796926e+01   3.2745335924e+00    0.1888148    0.1225486  25.66 0.0003103621    1.628    0.386
       255  -7.3367     91.2623    180.9852   1.0142968935e+02   2.4933369094e+01    0.1717114    0.1217659 -64.67  0.000302203    1.407    0.289
       256  -9.0697    132.5316     16.9941   4.6087969993e+01   4.9605167903e+01    0.2373113    0.2279348  -2.58 0.0008586496    1.170    0.145
       257  -7.7801    110.3408    179.7449   9.6428901213e+01   2.2068727205e+01     0.196296    0.1322973 -48.80 0.0004094592    1.550    0.355
       258  -8.8909     46.4394    177.1875   1.1220019521e+02   3.2066064967e+01    0.2146848    0.2039396  69.84 0.0005581749    1.170    0.145
       259  -7.5345    115.2370    176.0026   9.4542892514e+01   2.2090107739e+01    0.1849301    0.1242822 -56.19  0.000469091    1.516    0.340
       260  -8.4118    230.4521    167.7769   6.7612501921e+01   2.4255922296e+00    0.3922181    0.1982301 -51.84  0.001621041    2.660    0.624
       261  -8.7579    133.7638    147.2327   8.3995114694e+01   2.5367269752e+01    0.7163135    0.2095572 -54.12  0.001899575    4.226    0.763
       262  -9.8096     67.0918    144.0921   1.0184961572e+02   3.7722513305e+01    0.5654377    0.4265739  74.85  0.002454009    1.481    0.325
       263 -10.0503    239.2262    145.4573   6.1434071032e+01   4.7841789768e+00    0.3080944    0.2600847   9.45  0.001831732    1.289    0.224
       264  -6.9044    189.2964     15.3436   3.7598273690e+01   3.5976833333e+01    0.1252676   0.09445517  40.44 0.0007033111    1.667    0.400
       265  -9.7476    188.0882    137.9212   6.9160588388e+01   1.6067880858e+01    0.2682899    0.2451627 -43.87 0.0002887583    1.074    0.069
       266  -8.3410    131.6485    136.9175   8.2174731206e+01   2.8209488067e+01    0.2828391    0.2257171  47.74  0.000476231    1.280    0.219
       267  -7.3729     96.0000    136.0159   9.1832332476e+01   3.5232303669e+01    0.2506426   0.08476797 -54.62 0.0003816737    2.845    0.649
       268 -10.6349     58.8063    125.1782   1.0082808558e+02   4.3631514963e+01     1.317341    0.6877561  79.75  0.002814509    5.008    0.800
       269 -10.2365     71.3438    125.8291   9.7043650031e+01   4.1743226614e+01    0.6595268    0.4272602 -80.49  0.001403169    1.939    0.484
       270  -9.0863     67.2246    128.2109   9.8809599328e+01   4.1732666292e+01    0.4654667    0.3081838 -89.50  0.002058856    1.988    0.497
       271  -8.9571    242.4166    134.7472   5.8636811325e+01   6.0697553022e+00    0.1993016     0.115349 -29.74 0.0009531406    1.650    0.394
       272  -8.0373    192.9115    134.8491   6.7456757309e+01   1.5676629314e+01    0.2263325    0.1991656  -5.79 0.0004523559    1.217    0.178
       273 -10.8681    123.4867     90.6558   7.2119806297e+01   4.0314801888e+01     1.515623    0.6974604 -31.82  0.003508693    2.815    0.645
       274 -10.0028    134.0636    131.5301   8.0252629442e+01   2.8964608870e+01    0.6538683    0.5098923  46.48  0.003081738    1.307    0.235
       275 -10.1824    139.3314    103.6506   7.1635252375e+01   3.4050450781e+01    0.7380524    0.4116155 -47.10  0.001671281    1.797    0.444
       276 -10.6311    131.8451    119.6813   7.7871381815e+01   3.2154887084e+01    0.9171928    0.5919356  76.88  0.002566556    2.785    0.641
       277 -11.2786    133.7122    109.6038   7.4718289848e+01   3.4009255444e+01     1.691759    0.6026117 -49.90  0.005192925    3.058    0.673
       278 -10.1012    108.6480    114.4597   8.2989577505e+01   3.8123095504e+01    0.8019013    0.5352237  85.22   0.00141339    2.720    0.632
       279  -9.6752    109.2750    105.8055   8.0502106799e+01   4.0002238753e+01    0.7166978    0.5329118  42.43  0.003369848    1.380    0.275
