#   1 NUMBER                 Running object number                                     
#   2 MAG_AUTO               Kron-like elliptical aperture magnitude                    [mag]
#   3 X_IMAGE                Object position along x                                    [pixel]
#   4 Y_IMAGE                Object position along y                                    [pixel]
#   5 X_WORLD                Barycenter position along world x axis                     [deg]
#   6 Y_WORLD                Barycenter position along world y axis                     [deg]
#   7 A_WORLD                Profile RMS along major axis (world units)                 [deg]
#   8 B_WORLD                Profile RMS along minor axis (world units)                 [deg]
#   9 THETA_WORLD            Position angle (CCW/world-x)                               [deg]
#  10 FWHM_WORLD             FWHM assuming a gaussian core                              [deg]
#  11 ELONGATION             A_IMAGE/B_IMAGE                                           
#  12 ELLIPTICITY            1 - B_IMAGE/A_IMAGE                                       
         1 -15.1612      7.6912    138.0864   1.4278636358e+02   4.5997565149e+01     7.344086     1.585022 -79.00   0.02319194    5.221    0.808
         2 -13.3623    197.1566     29.8164   6.7158968249e+01   3.1614693770e+01     1.328603     1.183935  49.88  0.005759433    1.229    0.186
         3 -13.5114    214.4176      9.1211   5.9944672629e+01   2.9613929442e+01    0.9761448    0.8367319  71.54  0.004661231    1.181    0.154
         4 -11.6458      5.6016      2.7892   1.1342372290e+02   7.3876883897e+01    0.3280617    0.2462365  10.66  0.002511381    1.371    0.270
         5 -11.6923      5.5910    249.7356   1.4994597071e+02   2.3804511857e+01    0.5924011    0.2044526  32.46  0.002776891    3.603    0.722
         6 -11.8604    243.4657    247.1436   1.0744249420e+02  -9.9616133645e+00    0.3740513    0.2372277  40.84  0.002450061    1.632    0.387
         7 -11.8804    139.9299    249.8308   1.2637538159e+02   5.7704668934e+00    0.4771082     0.188967  40.97  0.002321651    1.956    0.489
         8 -11.8168    121.3966    249.2924   1.2975602585e+02   8.7877203656e+00    0.4891358    0.1425466  40.57  0.002051645    2.706    0.630
         9 -12.2780     98.9422    247.5294   1.3372974564e+02   1.2504966418e+01    0.5099151    0.3409384  59.15  0.003327267    1.238    0.192
        10 -11.1818     46.4511    248.6955   1.4318370030e+02   1.9458266491e+01    0.3527299    0.1641121  65.39  0.001612134    1.867    0.465
        11 -10.6014     29.0996    248.5564   1.4610032202e+02   2.1517806314e+01    0.2730563    0.1537086 -71.43  0.001219471    1.912    0.477
        12 -12.7724     33.9466    244.5698   1.4507050038e+02   2.1657408487e+01    0.6766611     0.446737  71.62  0.005009898    1.150    0.130
        13  -9.6346    181.6721    244.6792   1.1796601412e+02  -2.6397738060e-01    0.1228142   0.08182291  16.63 0.0007047916    1.687    0.407
        14 -11.0702    198.0804    246.4865   1.1523407190e+02  -3.1201513787e+00    0.2596488    0.1766634 -41.02  0.001659946    1.897    0.473
        15 -12.0328     18.6286    240.7493   1.4744652573e+02   2.4021052576e+01     0.331899    0.2396342 -56.55  0.002449713    2.101    0.524
        16 -11.8285    119.8043    238.4639   1.2886343745e+02   1.0781044247e+01    0.3819106    0.2191324 -86.90  0.001850338    2.984    0.665
        17 -12.5558    119.4265    231.7988   1.2816685472e+02   1.1961181667e+01     0.886861    0.1656152  43.74   0.00292294    4.005    0.750
        18 -11.3554     49.9557    236.2107   1.4174238828e+02   2.1224813914e+01    0.2649044    0.2325179  70.45  0.001375486    1.296    0.228
        19 -13.0236     45.7716    215.2305   1.4097761103e+02   2.5685109955e+01      1.14335    0.9255416  57.20  0.006847339    1.191    0.160
        20 -13.9069     35.8912    226.2474   1.4361668307e+02   2.4749289837e+01    0.7772625    0.4872568  60.27  0.002390677    1.219    0.180
        21 -11.2689     11.5457    232.6400   1.4824693106e+02   2.6201174111e+01    0.1841184    0.1437058  88.55 0.0008512095    1.292    0.226
        22 -12.4676     91.6832    227.3888   1.3311606217e+02   1.7086747763e+01     1.354479    0.1319031  46.62  0.003509491    6.962    0.856
        23  -9.2281    172.6568    222.6940   1.1646362777e+02   4.4066088793e+00    0.1309387   0.09131572  15.94 0.0007042157    1.689    0.408
        24 -12.9057     30.8287    232.8583   1.4493301448e+02   2.4104587932e+01    0.2831388    0.2422568  85.19 0.0007756724    1.330    0.248
        25  -8.6708    152.5065    213.3991   1.1906594458e+02   9.4680788920e+00    0.1343387    0.1103967  44.41 7.061149e-05    1.032    0.031
        26 -12.3241      9.9031    206.9995   1.4723738644e+02   3.1192880521e+01    0.6074274    0.3693206  32.77  0.002884213    1.928    0.481
        27  -9.9115     57.5012    206.4661   1.3790725445e+02   2.5947414170e+01    0.2070379    0.1269263  51.76 0.0008433327    1.373    0.272
        28  -9.6782     54.3202    204.6757   1.3839306378e+02   2.6719717660e+01    0.2308217    0.1338279  58.75 0.0006765731    1.479    0.324
        29 -11.1944    156.2816    249.5721   1.2331049622e+02   3.1766432984e+00    0.3278587    0.1185542  47.28  0.001469089    2.371    0.578
        30 -10.7599     75.6191    177.5272   1.3076415852e+02   2.9550774666e+01    0.2386891    0.2099355  76.70 0.0002883251    1.039    0.037
        31 -12.1726     24.1598    127.8604   1.3733908453e+02   4.7001530143e+01    0.8018377    0.2484083  49.10  0.001564452    3.934    0.746
        32  -9.5675     95.9891    173.0472   1.2533451827e+02   2.7358742659e+01    0.2091477    0.1780559  71.19  0.000368704    1.079    0.073
        33 -11.6703     82.8058    168.8598   1.2786234988e+02   3.0390546926e+01    0.5484403    0.4760679 -51.63  0.001607918    1.329    0.248
        34 -10.5898     10.1297    194.4769   1.4647459311e+02   3.3668710649e+01    0.2248151    0.1533433  60.70 0.0005515033    1.219    0.180
        35 -10.1820     96.3925    152.5717   1.2185108255e+02   3.1867278493e+01    0.2998321    0.2888423 -33.21 0.0007269779    1.218    0.179
        36  -9.3078     99.3980    148.2306   1.2028936586e+02   3.2337954565e+01    0.2289951    0.1902525  32.88 0.0005772436    1.313    0.238
        37 -11.9916     84.8742    151.5931   1.2463197785e+02   3.3983313783e+01    0.2957071    0.2520961 -49.97 0.0004884606    1.286    0.222
        38 -12.1890     67.3402    143.5522   1.2789279980e+02   3.8457957597e+01    0.6920584    0.4197048  63.48  0.002543227    1.889    0.471
        39  -9.8143    108.5178    137.7733   1.1584828843e+02   3.3072614500e+01    0.4185703     0.292401 -11.70  0.001302075    2.531    0.605
        40 -10.4293     95.6958    134.6949   1.1863668164e+02   3.6086947031e+01    0.2497981    0.2361367 -36.53 0.0004837624    1.178    0.151
        41  -8.9211     76.1690    129.4114   1.2298522807e+02   4.0486017433e+01    0.1964487    0.1210707  51.60 0.0005281266    1.722    0.419
        42 -10.2594     81.9600    124.8909   1.2045006602e+02   4.0645002076e+01    0.3359587    0.2197101  61.78 0.0008969381    1.811    0.448
        43  -8.8514    106.2096    124.0101   1.1347023610e+02   3.6630037211e+01    0.1923645    0.1826318 -84.97 0.0002387308    1.033    0.032
        44 -11.6105     58.3147    198.9697   1.3702941290e+02   2.7371076677e+01     0.242844    0.2116943  88.36 0.0005622346    1.175    0.149
        45  -9.7715    167.9745    113.0544   9.5274099241e+01   2.5529027664e+01    0.2373883    0.2246853  89.50 0.0005479826    1.110    0.099
        46 -10.0225     41.4529     96.5318   1.2703320582e+02   5.2580404149e+01    0.4403934    0.1900633  50.00  0.001791313    3.249    0.692
        47  -8.4650     65.4402     81.5113   1.1532971030e+02   5.2964687693e+01    0.1349936    0.1251616 -49.68 0.0001359247    1.057    0.054
        48  -9.8181    158.4994     77.1044   8.7470707523e+01   3.4582663584e+01    0.2311169    0.1542458 -36.31 0.0007087013    1.546    0.353
        49  -8.8879     56.7941     75.5485   1.1670574476e+02   5.5424618716e+01    0.1719341    0.1238608  46.26 0.0007319569    1.622    0.384
        50  -9.1674    192.2767    193.5455   1.0769879618e+02   5.4745041992e+00     0.293899     0.180309 -74.08 0.0009029089    6.120    0.837
        51 -12.6865      4.4684     50.2535   1.3060078033e+02   6.5465675369e+01    0.5695318    0.4249892  80.13  0.003038493    1.853    0.460
        52 -11.9387     64.9557    190.5198   1.3473029387e+02   2.8253007906e+01    0.2609033    0.2268474 -79.95 0.0004220984    1.205    0.170
        53 -10.6263     81.0010    248.8327   1.3711472922e+02   1.4887646572e+01    0.1902694    0.1499788  81.76 0.0008615447    1.252    0.201
        54 -13.0846     62.0895    175.6225   1.3366830230e+02   3.1866375542e+01    0.4890869    0.2764462 -47.19  0.001798845    2.286    0.563
        55  -9.8301     66.4669    250.2686   1.3981526434e+02   1.6634289661e+01    0.2051465    0.1187267  46.79 0.0006811098    1.358    0.264
