#   1 NUMBER                 Running object number                                     
#   2 MAG_AUTO               Kron-like elliptical aperture magnitude                    [mag]
#   3 X_IMAGE                Object position along x                                    [pixel]
#   4 Y_IMAGE                Object position along y                                    [pixel]
#   5 X_WORLD                Barycenter position along world x axis                     [deg]
#   6 Y_WORLD                Barycenter position along world y axis                     [deg]
#   7 A_WORLD                Profile RMS along major axis (world units)                 [deg]
#   8 B_WORLD                Profile RMS along minor axis (world units)                 [deg]
#   9 THETA_WORLD            Position angle (CCW/world-x)                               [deg]
#  10 FWHM_WORLD             FWHM assuming a gaussian core                              [deg]
#  11 ELONGATION             A_IMAGE/B_IMAGE                                           
#  12 ELLIPTICITY            1 - B_IMAGE/A_IMAGE                                       
         1 -12.0745    210.5987      8.4077   2.7749414563e+01   3.2385863223e+01    0.3251685    0.1460239 -51.22  0.001814075    1.926    0.481
         2 -10.4688    223.3151      6.3174   2.6440749216e+01   3.0054758236e+01   0.09741548   0.08089253  56.91 0.0004278287    1.650    0.394
         3 -11.2118    144.5900      5.9275   3.3689716925e+01   4.7093987630e+01    0.2662798    0.1618589 -69.84  0.001472725    1.826    0.452
         4 -10.1660     67.6620      1.6965   4.7290885718e+01   6.4362728975e+01    0.1284612   0.07081827  33.88 0.0007038845    1.670    0.401
         5 -10.8162    170.0015    246.4804   8.3789654269e+01  -1.3109209462e+00    0.1938402    0.1117312  30.57 0.0006590398    1.545    0.353
         6 -10.9364    238.1066    248.9195   7.1026698520e+01  -1.0140595349e+01    0.2225168     0.130104 -36.51  0.001208728    1.638    0.389
         7 -11.8773    177.2871    249.5314   8.2741316570e+01  -2.8167919280e+00    0.2320497    0.1846812  -0.11 0.0002488592    1.112    0.101
         8 -10.8912     97.5619    249.5936   1.0005844475e+02   8.4265390618e+00    0.2434389    0.1570906 -77.27  0.000576894    1.993    0.498
         9 -10.9472     96.5035    244.9018   9.9753327473e+01   9.5124477386e+00    0.2381569    0.1761433 -66.55  0.001366789    1.538    0.350
        10 -12.1053     92.8131    247.9934   1.0093446849e+02   9.4054583163e+00    0.3113824    0.1821164 -69.09  0.001351177    2.043    0.510
        11 -12.1526     88.0013    250.5145   1.0227929979e+02   9.5633531784e+00    0.3517294    0.1357904  31.30  0.001185077    2.353    0.575
        12 -10.9723     84.7539    246.4349   1.0256195393e+02   1.0829492668e+01    0.3824846    0.2326603  25.73  0.001981466    1.667    0.400
        13 -16.6919    131.9357    189.6707   8.2995640557e+01   1.6036473160e+01     2.752875      2.20998  78.08  0.008797861    1.628    0.386
        14 -11.4385    160.7328    231.9973   8.3517189218e+01   2.5942374506e+00    0.3623005    0.1608578 -33.92  0.001461304    2.794    0.642
        15 -10.5427    118.5137    232.4181   9.3113659524e+01   8.8582565245e+00    0.2218616    0.1191436 -42.26  0.001002938    2.151    0.535
        16 -12.6132    112.7585    228.1648   9.3862846792e+01   1.0608462848e+01    0.4101719     0.335533  69.89  0.002300879    1.419    0.295
        17 -11.1925    154.9810    230.6767   8.4570735240e+01   3.6992565172e+00    0.3274798    0.2140307 -15.72  0.001605687    1.902    0.474
        18 -11.3300    194.2510    231.4261   7.6390423598e+01  -2.0970101663e+00    0.1770778    0.1121331  38.35 0.0009521812    1.710    0.415
        19 -13.5119    187.0782    226.7609   7.7064613919e+01  -2.9179947347e-01    0.5155914    0.2704296 -33.14  0.002489332    1.934    0.483
        20 -11.2562    102.0358    229.2603   9.6536389110e+01   1.1973070665e+01    0.3157754    0.2184591   1.23  0.001525474    2.006    0.502
        21 -11.7019    178.0953    229.1183   7.9327374937e+01   5.7730296886e-01    0.2033712    0.1589019   1.46  0.000331713    1.198    0.165
        22 -12.0371    150.5992    228.1991   8.5153335773e+01   4.8355911843e+00    0.3912369    0.2984075   1.75  0.001517578    1.386    0.278
        23 -11.3456    145.0173    226.0257   8.6067980505e+01   6.1144522304e+00    0.3596746     0.232609 -64.92  0.001723695    2.121    0.529
        24 -10.9184    231.9476    227.1724   6.8526797320e+01  -6.2569959590e+00    0.1723068    0.1489128 -14.21 0.0005519571    1.224    0.183
        25 -10.7544    138.3617    226.4878   8.7658906459e+01   7.0454542871e+00    0.2600998    0.1758844 -54.51  0.001333308    1.663    0.399
        26 -11.7298    186.8206    244.6240   8.0033406019e+01  -3.2904387459e+00    0.1972606    0.1604016 -15.96 0.0007395779    1.143    0.125
        27 -12.1737    171.7039    225.5984   8.0099404603e+01   2.1530757565e+00    0.3150131    0.2114655  61.55  0.001080732    2.670    0.626
        28 -10.2775    118.6652    224.8417   9.1997428760e+01   1.0413894970e+01    0.1720202    0.1318991 -70.85 -0.000275831    1.563    0.360
        29 -12.0928    117.5146    213.0829   9.0507012585e+01   1.3136581139e+01    0.2541513    0.1853342 -74.65  0.000875774    1.708    0.414
        30 -12.9192    124.3338    221.7266   9.0196112054e+01   1.0198599200e+01    0.8110828    0.4549962  53.75  0.003251716    2.238    0.553
        31 -12.6958    115.0589    218.4051   9.1908883765e+01   1.2351967295e+01      0.44735    0.3565182  70.13  0.001658948    1.499    0.333
        32 -11.6142    159.6582    222.2737   8.2173277219e+01   4.6000831492e+00    0.2239729    0.2140905  54.84  0.000966049    1.277    0.217
        33 -13.2341    173.2114    219.7280   7.8784009130e+01   3.0214398831e+00    0.3992787    0.3047719   5.33  0.001309912    1.295    0.228
        34 -10.2108    223.4839    220.4548   6.8898278631e+01  -4.1520832365e+00    0.1246029     0.102478 -12.27 3.666172e-05    1.050    0.047
        35 -12.4812    193.6935    218.7357   7.4336110305e+01   1.8197647435e-01    0.2994124    0.1893774 -52.34  0.001525718    1.953    0.488
        36 -10.7254    138.8384    217.7838   8.6172350219e+01   8.7500755301e+00    0.1890872    0.1610421  55.45 0.0005285757    1.335    0.251
        37 -13.6429    157.1152    211.4798   8.0912777402e+01   7.1341540444e+00    0.5722336    0.4905459  54.58 0.0009243733    1.397    0.284
        38 -11.4096    144.5193    216.5278   8.4648868745e+01   8.1100586075e+00    0.2689613    0.2157707  47.09 0.0008592684    1.340    0.254
        39 -11.9919    142.9158    212.6863   8.4382377414e+01   9.1623366493e+00    0.5048255    0.2489425 -47.93  0.000871202    2.093    0.522
        40 -11.1838    130.0965    216.0667   8.7952792668e+01   1.0495958281e+01    0.3458298    0.1853908 -41.77  0.001513543    2.044    0.511
        41 -11.5766    149.7829    214.8497   8.3158050034e+01   7.6180677002e+00    0.2876804    0.1792625 -35.93   0.00084188    1.713    0.416
        42 -11.1074    124.1650    206.0351   8.7758828244e+01   1.3636671157e+01    0.2523465     0.196973  30.72 0.0006362765    1.223    0.183
        43 -12.1764    124.0712    213.2186   8.8941416932e+01   1.2067326927e+01    0.3836923     0.232797 -53.87  0.001799394    1.754    0.430
        44 -11.5315    126.5255    209.4760   8.7747839979e+01   1.2493046691e+01    0.2695255    0.2122535 -49.42  0.000994881    1.332    0.249
        45 -13.6719    183.2260    212.9552   7.5476117668e+01   2.7772563652e+00     0.468729    0.3327627 -15.81  0.002504919    1.465    0.317
        46 -11.4422    106.5953    220.3466   9.4229940149e+01   1.3225839128e+01    0.2881394    0.2410527 -32.34  0.001111452    1.346    0.257
        47 -18.1129     67.1650    188.7616   9.9820127073e+01   2.6501756083e+01     5.386763     4.442545  86.96   0.02917692    1.230    0.187
        48 -10.7038      1.6077    212.1955   1.1832990524e+02   2.7969126028e+01     0.153379   0.09794161 -71.27 0.0004932448    1.464    0.317
        49 -10.8958    209.6674    211.3438   6.9878341298e+01  -7.8310447829e-01    0.1175721    0.1068108 -87.15 0.0007050501    1.758    0.431
        50 -17.5166    106.9763    144.6317   8.0607937869e+01   3.1336968181e+01     6.031046     4.333626  71.99   0.02583208    1.915    0.478
        51 -11.6708    194.1462    208.8247   7.2484761006e+01   1.9035551784e+00    0.1883553    0.1425963  -9.01 0.0004327101    1.293    0.227
        52 -11.1986    117.0652    208.9080   8.9963591682e+01   1.4137616927e+01    0.2128419    0.1862294  60.84 0.0003830378    1.228    0.186
        53 -12.0728    180.0948    244.4633   8.1381567706e+01  -2.3572100494e+00    0.2352467    0.1946115 -23.57 0.0004999537    1.205    0.170
        54 -11.9670    229.2446    206.7961   6.5451118546e+01  -2.6617283822e+00     0.295986    0.2341078  13.71   0.00190498    1.264    0.209
        55 -11.7743    220.2939    206.3722   6.6989909712e+01  -1.3947394783e+00    0.2159761    0.1902572 -18.29 0.0002854815    1.143    0.125
        56 -13.1012    168.6610    205.6082   7.7294443472e+01   6.4651956757e+00      0.37358    0.3291948  31.73  0.001485621    1.177    0.150
        57 -10.5355      6.4318    207.4978   1.1695368720e+02   2.8643376175e+01     0.122016    0.1044544 -74.75 0.0007990916    1.209    0.173
        58 -10.9207     18.8480    205.8425   1.1395429523e+02   2.7892863458e+01    0.1850341    0.1604429 -86.45 0.0006323886    1.101    0.092
        59 -12.8418    146.8744    203.1326   8.1811148469e+01   1.0534453870e+01    0.4986562    0.4009343  37.97  0.001228578    1.234    0.189
        60 -10.6908    215.3641    201.7520   6.7062498020e+01   8.7685053253e-02    0.1884902    0.1728716   1.70 0.0004475737    1.188    0.158
        61 -10.8936    212.3660    200.1608   6.7332865340e+01   7.9614011101e-01    0.1955805    0.1743934 -44.77 0.0004660152    1.334    0.251
        62 -10.9308     14.3923    202.3954   1.1474187231e+02   2.9136855034e+01    0.2289503    0.1399741 -82.61 0.0006261856    1.463    0.316
        63 -11.7637    121.3294    200.5171   8.7540500882e+01   1.5344505119e+01    0.2550192    0.2487572  -5.05 0.0004945333    1.038    0.037
        64 -14.0825    123.8656    196.0886   8.6151871038e+01   1.5936343591e+01    0.8356417    0.6340253  81.13  0.003968649    1.806    0.446
        65 -10.0989     26.2693    201.0201   1.1176787440e+02   2.8316987464e+01    0.3498673    0.1509344  50.56  0.001352674    2.258    0.557
        66 -11.9781    225.1040    198.4487   6.4676115303e+01  -6.9979940085e-01    0.3167289    0.2177174 -49.86  0.001663203    1.673    0.402
        67 -11.9411    185.0427    194.4892   7.1710181817e+01   6.0279812078e+00    0.2849933    0.2003669  25.30 0.0008908281    1.451    0.311
        68 -12.9317    192.5817    198.6881   7.0941891375e+01   4.0285312157e+00    0.5054392    0.1878859 -37.53  0.001910765    2.724    0.633
        69 -13.0150    189.7084    195.3304   7.0900242103e+01   5.1196620086e+00    0.4316955    0.2989479  15.79  0.002218146    1.572    0.364
        70 -11.4338     16.3564    198.0232   1.1392848186e+02   3.0008127014e+01    0.3207491    0.2020072  68.44   0.00126103    1.509    0.337
        71 -10.0894    238.4937    196.5233   6.1999135832e+01  -2.1710971736e+00    0.1261429    0.1015584 -22.33 5.947598e-05    1.017    0.016
        72 -12.4632    169.9599    193.9119   7.4848475977e+01   8.6173880707e+00    0.3514826    0.3034962  75.25   0.00127748    1.585    0.369
        73 -14.1416    162.4018    192.2586   7.6228962106e+01   1.0232005495e+01    0.9650825    0.5129814  55.20  0.003601439    3.008    0.668
        74 -11.1359    212.9078    194.3874   6.6158339978e+01   1.7478831070e+00    0.2899494    0.1767887 -52.90 0.0008864651    1.988    0.497
        75 -10.2761     14.7906    237.0663   1.1700176129e+02   2.1199214416e+01    0.2681896    0.2016367  34.44  0.001755236    1.395    0.283
        76 -11.6237    113.2937    194.0835   8.8480763936e+01   1.8158739103e+01    0.2028584     0.188961 -63.84 0.0003634006    1.119    0.107
        77 -11.2780    234.1962    191.8591   6.1875985295e+01  -8.1965202121e-01    0.1804926    0.1307477 -13.57  0.001035203    1.328    0.247
        78 -11.3074     17.6103    242.4444   1.1674358849e+02   1.9767389672e+01    0.4031339    0.2183414  57.77  0.002291667    1.575    0.365
        79 -10.6201     20.7723    239.2349   1.1589007078e+02   2.0126407476e+01    0.3357575    0.1432512 -66.19  0.001673433    2.311    0.567
        80 -12.4344    173.3089    188.9266   7.3160245260e+01   9.0770354683e+00    0.3255415    0.2654205  80.26  0.001649157    1.837    0.456
        81 -10.8027      5.4628    190.5921   1.1599962332e+02   3.2763544584e+01    0.1256974     0.106941  86.96 7.932273e-05    1.033    0.032
        82 -12.0270    180.9879    189.0245   7.1522106118e+01   7.7722522668e+00    0.2665477    0.1891851  32.12  0.001365398    1.434    0.303
        83  99.0000      9.1508    188.7488   1.1495375319e+02   3.2907925687e+01    0.4682116   0.09568683  39.45  0.001682281    3.762    0.734
        84 -14.4214     89.5577    234.6788   1.0013592611e+02   1.2615501633e+01     1.889396    0.7555752  40.02  0.007972278    2.155    0.536
        85 -11.0920    248.4432    186.0015   5.8459716749e+01  -1.7322811225e+00    0.2222189    0.1573784   4.13 0.0008391624    1.594    0.373
        86 -12.2267    186.4645    185.8312   6.9750944671e+01   7.5010123223e+00    0.2929468    0.1803133  40.41  0.001357515    1.730    0.422
        87 -10.8416    174.7263    243.7598   8.2383703609e+01  -1.5021414135e+00    0.1633349    0.1447502  35.61 0.0008146132    1.323    0.244
        88 -10.7823    213.7520    184.5936   6.4146249354e+01   3.3963879022e+00    0.1631175    0.1276873  44.48 0.0002789165    1.549    0.354
        89 -11.4051    148.8925    184.1293   7.7817489271e+01   1.4325572482e+01    0.2156437    0.2036409  69.03 0.0003542781    1.210    0.174
        90 -12.4365    177.1788    182.8141   7.1127752253e+01   9.6723800795e+00     0.360705    0.2315475  17.84  0.001639211    1.897    0.473
        91 -11.4386    116.2632    240.7779   9.4765438073e+01   7.5019208048e+00    0.3704579    0.2054053 -51.18  0.001386557    1.991    0.498
        92 -10.3346     23.0900    181.5652   1.1075450146e+02   3.3448302682e+01    0.1713876    0.1300491  30.70  0.000345753    1.434    0.303
        93 -12.1965    191.4456    178.0840   6.7202036386e+01   8.2046744948e+00    0.3448562    0.2321654 -43.89  0.001025937    1.408    0.290
        94 -11.4561    152.9943    178.9510   7.5829186448e+01   1.4742022782e+01    0.2345183    0.1887404  77.44    0.0011287    1.711    0.416
        95 -12.0596    112.5078    175.8668   8.5435605855e+01   2.2658846134e+01    0.3952083    0.2683666  89.94  0.001063118    2.255    0.557
        96 -12.6033    174.8105    173.4545   6.9767209827e+01   1.2022973244e+01    0.2871306    0.2027228 -43.28   0.00141256    1.354    0.261
        97 -10.8467    108.4697    236.2686   9.5956209964e+01   9.5558440508e+00    0.3763325     0.149355 -54.01  0.001553982    2.702    0.630
        98 -10.8868    197.4664    170.5084   6.4481562151e+01   8.6802892655e+00    0.1423545    0.1253666 -23.01 0.0001929672    1.034    0.033
        99 -11.9221    160.0760    169.5412   7.2267404181e+01   1.5526041235e+01    0.2787137    0.2146294 -63.20  0.001118452    1.521    0.343
       100 -14.0464    153.4107    167.4123   7.3385881971e+01   1.7228954694e+01    0.7104473    0.5016505 -18.10  0.002953701    1.783    0.439
       101 -13.3287    158.6385    157.4555   7.0046878241e+01   1.8452429233e+01    0.5043567    0.2970191  39.09  0.002170758    1.756    0.430
       102 -11.9590    201.7506    167.6033   6.3063598796e+01   8.5219922349e+00    0.3453049    0.2241523 -75.42  0.001338059    3.415    0.707
       103 -11.5085     33.1142    168.1215   1.0652929001e+02   3.5894928308e+01    0.2522244    0.1649488 -51.04 0.0005816024    1.528    0.345
       104 -10.2880    109.0000    243.9287   9.6815933740e+01   7.9288458228e+00    0.1826566    0.1439295  85.55  0.001037437    1.591    0.371
       105 -10.4121     11.7791    167.2334   1.1238843362e+02   3.8068707967e+01     0.174037    0.1333613 -54.01 0.0003907825    1.312    0.238
       106 -14.1002     37.4621    139.1782   1.0113077488e+02   4.2977059307e+01    0.8134688    0.5571008 -49.53  0.002869172    1.368    0.269
       107 -14.8410     35.2088    132.6948   1.0080129744e+02   4.4887138690e+01     1.423968    0.8130537   1.74  0.006157638    2.425    0.588
       108 -12.4241     21.7152    159.6995   1.0879044149e+02   3.9160602068e+01    0.3019914    0.2567084 -43.54  0.001098775    1.262    0.208
       109 -14.8620     22.4536    152.9109   1.0775882602e+02   4.0849584665e+01     1.223315     1.042402  -7.07  0.004838195    1.400    0.286
       110 -10.8499      3.0396    161.3332   1.1423510520e+02   4.0216279485e+01    0.2079061    0.1451491 -66.98 0.0003146563    1.243    0.196
       111 -12.8606    170.6004    160.2292   6.7937136104e+01   1.5585649604e+01    0.3560126     0.186165 -46.85   0.00147073    1.843    0.457
       112  99.0000     22.8209    226.4853   1.1459125676e+02   2.2713750504e+01     1.359737     1.219139  -5.20  0.009113692    1.517    0.341
       113 -13.0553     48.3447    157.0787   1.0055222974e+02   3.7087496450e+01    0.7837204    0.4488004   0.51  0.003108498    2.800    0.643
       114 -13.3646     46.2623    152.3732   1.0045781814e+02   3.8562726563e+01    0.5288887    0.4415401  89.07  0.001707342    1.218    0.179
       115 -10.0826    225.9940    168.2389   5.8804331264e+01   4.4948179664e+00    0.1528657    0.1118145  36.36  0.000640776    1.563    0.360
       116 -10.2946    182.3058    163.6761   6.6151219943e+01   1.2708954806e+01    0.1414115    0.1167606 -82.29 0.0005872304    1.643    0.392
       117 -12.0906     37.6819    155.0208   1.0346392477e+02   3.8824401617e+01    0.3552139    0.2359985  69.03 0.0009978537    1.740    0.425
       118 -10.9795      3.3323    154.4159   1.1350791950e+02   4.1945150814e+01    0.2868536     0.161943  59.62   0.00142864    1.932    0.482
       119 -11.8172    212.1999    154.0711   5.8378152001e+01   9.3406784488e+00     0.231457    0.2058811  54.96 0.0006534917    1.341    0.254
       120 -12.8860    149.9553    143.2631   6.8948073119e+01   2.3308726366e+01    0.5101518    0.4177162 -22.11 0.0008502332    1.348    0.258
       121 -11.7759    149.4474    152.5135   7.1144335028e+01   2.1330946140e+01     0.298039    0.2033015 -18.29 0.0005322357    2.000    0.500
       122 -13.3739    145.5168    149.2937   7.1387422526e+01   2.2829657470e+01      0.53583    0.3408327  45.27  0.000428812    1.630    0.386
       123 -13.0509    170.9990    150.4819   6.5744494400e+01   1.7586691647e+01    0.3781549    0.2821062  44.94  0.001250911    1.422    0.297
       124 -11.1898    184.4837    156.8304   6.4258834639e+01   1.3718395122e+01     0.226718    0.2050619 -84.86  0.001247464    1.336    0.252
       125 -14.7125    128.3479    147.4517   7.5351250181e+01   2.6615072481e+01    0.7906452    0.6509774  57.94  0.003028916    1.338    0.253
       126 -10.3957    224.7809    148.6255   5.5126269786e+01   8.2417347796e+00    0.1643646    0.1284493  59.78 0.0004996972    1.634    0.388
       127 -12.3588    156.2561    144.9243   6.7833346179e+01   2.1682144650e+01     0.290031     0.263749  73.59 0.0007515933    1.238    0.192
       128 -12.5806    141.0527    144.7955   7.1481609328e+01   2.4738195475e+01    0.2937551    0.2629265  19.61 0.0005336953    1.181    0.153
       129 -11.7118     17.0503    143.4682   1.0821837222e+02   4.3740106087e+01    0.4000881    0.1721991  19.41  0.001704294    2.684    0.627
       130 -11.5057    179.9709    150.3269   6.3797464963e+01   1.5902442253e+01    0.2001977     0.193331  11.24 0.0004749765    1.082    0.076
       131 -10.2593     10.2976    140.6643   1.0996261747e+02   4.4967136033e+01    0.1371116   0.09184835  68.95 0.0007031641    1.652    0.395
       132 -10.9014    186.6800    138.9795   5.9950358794e+01   1.6937383220e+01    0.2026005    0.1790286 -43.78 0.0004266038    1.050    0.047
       133 -11.8611     43.2937    138.8252   9.9184372436e+01   4.2436109904e+01    0.2455612    0.1935298  42.98  0.001299507    1.364    0.267
       134 -11.7420    159.7226    136.2089   6.5041242025e+01   2.2884770152e+01    0.3763098    0.2226865 -25.91  0.001449123    2.343    0.573
       135 -12.1902      3.6868    136.3487   1.1151112541e+02   4.6504495241e+01    0.2727582    0.2329927 -72.53 0.0008082119    1.016    0.016
       136 -11.1707     16.5185    136.5001   1.0747879642e+02   4.5572750690e+01    0.1961417    0.1752444  45.65 -1.340707e-05    1.246    0.198
       137 -12.1788     12.2899    133.9747   1.0850026391e+02   4.6533768105e+01    0.4181539    0.2203033  52.34  0.001919894    2.286    0.563
       138 -12.1647    144.4415    131.7200   6.7595408122e+01   2.7003203851e+01    0.3990218    0.2619054  19.09  0.001600944    2.204    0.546
       139 -12.3631    132.0497    132.2461   7.0856663034e+01   2.9423273432e+01    0.3205846    0.2703902  11.04 0.0008209042    1.367    0.268
       140 -14.3809     36.2553    126.7451   9.9420216490e+01   4.6308518249e+01     1.301658    0.4152403  29.38  0.004723448    3.120    0.679
       141 -14.0424    155.4037    127.5797   6.4001026708e+01   2.5630160009e+01    0.8458092    0.7178404  48.28  0.004346026    1.219    0.180
       142 -17.5487     54.7258    227.7269   1.0747721983e+02   1.8798549325e+01      4.13233     2.539192  46.02   0.02206707    1.449    0.310
       143 -11.7828     29.6760    129.0063   1.0203883877e+02   4.6374833330e+01    0.2035022     0.160936 -62.32 0.0003795112    1.125    0.111
       144 -12.6272     10.7341    123.3937   1.0757892528e+02   4.9326169832e+01    0.4885969    0.2299045  34.59  0.002259385    2.343    0.573
       145 -17.2480     69.1619    207.9146   1.0181205693e+02   2.1526997418e+01      4.67931     1.233841  34.02   0.01572456    3.282    0.695
       146 -12.9834    120.3359    123.6699   7.1907909501e+01   3.3764004838e+01    0.4299661    0.2442173  55.81  0.001647363    2.181    0.541
       147 -12.2731    119.5842    120.4770   7.1316876844e+01   3.4645350143e+01    0.3078368    0.2621592 -40.01 0.0005488928    1.173    0.147
       148 -11.0690    137.8994    130.9580   6.9043790642e+01   2.8520470061e+01    0.2650132    0.2208138  39.76  0.000669507    1.226    0.184
       149 -10.5946    134.0373    127.4774   6.9189196800e+01   3.0098898777e+01    0.2188978    0.1540432  42.35 4.830095e-05    1.444    0.308
       150 -13.2094    100.8132    120.4690   7.6751812151e+01   3.8328902848e+01     0.556502    0.3847389 -81.98  0.002257267    2.234    0.552
       151 -11.5582    165.9550    239.7690   8.3613121465e+01   4.2406940147e-01    0.2159872    0.1805607 -28.33 0.0006279984    1.228    0.186
       152 -13.3605    106.9189    122.2521   7.5377063690e+01   3.6745480053e+01    0.5415364    0.3031433  55.04  0.001771683    2.268    0.559
       153 -13.0142     27.1272    160.4796   1.0731385552e+02   3.8463152840e+01    0.4369332    0.3667617  13.63  0.001198381    1.393    0.282
       154 -13.4045     21.2906    122.4371   1.0382775370e+02   4.8782890145e+01    0.4736479    0.3040514  30.36  0.001965041    1.720    0.418
       155 -10.6320    106.3470    241.9489   9.7168623430e+01   8.7071648989e+00    0.2224136    0.1975596 -73.90  0.001377447    1.281    0.220
       156 -10.8509    189.2690    121.9674   5.5648612256e+01   1.9795750759e+01    0.2009925    0.1821271 -50.92 0.0008028067    1.021    0.020
       157 -12.6494     23.2676    115.6285   1.0199133049e+02   5.0333856107e+01    0.3048785    0.2836717 -74.69 0.0005345699    1.115    0.103
       158 -11.4480    201.8330    120.3455   5.3037345366e+01   1.7619711044e+01    0.1806474    0.1296471  39.13 0.0009235326    1.638    0.389
       159 -10.4759    206.3060    236.6129   7.4876019557e+01  -4.5504075920e+00    0.1095314    0.1025238  83.66  0.000701696    1.804    0.446
       160 -12.0594    156.0357    117.8278   6.1498080931e+01   2.7555037936e+01     0.329853    0.2036589 -49.78  0.001437353    1.611    0.379
       161 -11.4746     11.8887    116.3381   1.0614349952e+02   5.1017958243e+01    0.3314278    0.1653524 -78.56  0.001476328    2.093    0.522
       162 -12.2257    105.8867    114.0691   7.3604656527e+01   3.8840426108e+01    0.5105401    0.3535641   2.27  0.002081598    2.195    0.544
       163 -12.0955     82.3613    113.5742   8.0835200470e+01   4.3279732787e+01    0.3419819    0.2326795 -48.07 0.0009625753    1.424    0.298
       164 -12.2406    140.4523    134.5411   6.9254256840e+01   2.7190430867e+01    0.4303515    0.2404836  36.78  0.001723542    1.918    0.479
       165 -12.3121    114.9812    111.5601   7.0313775455e+01   3.7586540638e+01    0.5018956     0.226929 -50.33  0.001723672    2.290    0.563
       166 -11.1043     99.4019    114.4851   7.5664366788e+01   3.9993792770e+01    0.3120406    0.1508844  40.04 0.0008352206    2.079    0.519
       167 -11.6005    156.5648    242.4550   8.6041193323e+01   1.2913467957e+00    0.4640626    0.2735566  49.29   0.00225161    2.138    0.532
       168 -12.9341     88.4218    110.7134   7.8133706229e+01   4.2893185081e+01    0.5617052    0.3542603 -15.61  0.002150042    2.532    0.605
       169 -12.5465     73.3204    111.5610   8.3351764498e+01   4.5249745456e+01     0.523624     0.280509  18.97  0.001990292    2.503    0.600
       170 -12.3664     53.7502    110.6418   8.9979528991e+01   4.8311911427e+01    0.3715908     0.351438   9.37  0.001560543    1.102    0.092
       171 -12.8948     59.8456    108.4664   8.7285023482e+01   4.8012349901e+01    0.5935559    0.2661963  41.25  0.002046784    2.442    0.590
       172 -11.4726     51.2170    106.9834   9.0044649984e+01   4.9526332604e+01    0.2337076    0.2034968  11.26 0.0003750358    1.195    0.163
       173 -12.0561     19.2136    113.9848   1.0315980750e+02   5.1071862269e+01    0.2618002    0.1971732  56.57 0.0006591429    1.590    0.371
       174 -12.2453    142.3562    107.6141   6.2115415978e+01   3.2624714289e+01    0.4364372    0.3128619  11.84  0.001863715    2.105    0.525
       175 -11.6345    174.8926    106.2146   5.4712767314e+01   2.5826051973e+01    0.2329098    0.2123992 -62.05 0.0003091871    1.047    0.045
       176 -11.8217    105.2109    104.8149   7.1353434183e+01   4.1046784218e+01    0.4602038    0.3287344 -56.93  0.001221009    1.527    0.345
       177 -11.8571     14.6285    105.3703   1.0334543669e+02   5.3537166609e+01    0.2533633    0.1917579 -47.16 0.0003906076    1.144    0.126
       178 -10.3260     19.4476    105.4589   1.0155680847e+02   5.3157454523e+01    0.1362479    0.1157846 -48.39 7.371807e-05    1.019    0.018
       179 -10.2111    157.6007    234.2711   8.4560236454e+01   2.6351280559e+00    0.2888596    0.1552108 -24.14  0.001116555    2.635    0.621
       180 -13.6324     75.9437     98.5933   7.9064997090e+01   4.7831403063e+01    0.9399666    0.3916415  48.48  0.003183605    3.183    0.686
       181 -12.4862     57.9653     99.8388   8.5814772714e+01   5.0317668789e+01    0.3479787    0.3295718 -78.85  0.001217497    1.207    0.172
       182 -12.5483     60.3148     94.0683   8.3425524251e+01   5.1304388901e+01    0.5291798    0.3046087 -52.59  0.001744473    1.703    0.413
       183 -11.4663    178.5928     99.7618   5.2460746166e+01   2.6243552172e+01    0.2472408    0.1781533  85.46  0.001182004    1.752    0.429
       184 -11.5243    237.7839     98.7418   4.3187721175e+01   1.4689054944e+01     0.221211    0.1720654 -59.97 0.0003005901    1.143    0.125
       185 -11.9403     38.7458     95.8606   9.2105948793e+01   5.3654496674e+01    0.2837821    0.1838323  15.29  0.001415589    1.679    0.404
       186 -12.4543     34.3518     94.1408   9.3418039476e+01   5.4524875584e+01    0.3434184    0.2184531 -26.89  0.001699265    1.659    0.397
       187 -11.5921    196.4164     93.7633   4.7981926968e+01   2.3536740395e+01    0.3740253    0.1457843 -43.69  0.001478673    2.329    0.571
       188 -12.0330     21.4817     91.4662   9.7946139041e+01   5.6341158052e+01    0.2289685    0.2045701 -26.82 0.0006559108    1.078    0.072
       189 -12.0031      2.4039     91.2157   1.0555877485e+02   5.7675059063e+01    0.2554134    0.1843568 -28.77 0.0008900415    1.331    0.248
       190 -11.3746     12.2083     88.7440   1.0113379892e+02   5.7667952860e+01    0.3640371    0.1998813 -69.19  0.001800425    1.817    0.450
       191 -11.0698    171.1446     88.1774   5.1017711517e+01   2.9974465833e+01    0.1988212    0.1615747 -78.31 0.0003552797    1.310    0.237
       192 -10.3517     78.2917     88.6625   7.5443995803e+01   4.9598425516e+01    0.1420697     0.118659  84.83 0.0007024829    1.643    0.391
       193 -13.9211     53.6159     84.1992   8.3224362333e+01   5.4440673580e+01    0.7530858    0.5815879  82.69  0.003744621    2.049    0.512
       194 -12.4017     45.8507     86.6652   8.6963418097e+01   5.4922843097e+01    0.2478644     0.172597 -40.64 0.0006316259    1.319    0.242
       195 -10.3012     85.1541     85.1192   7.2064806739e+01   4.9097901969e+01    0.1831087    0.1723971 -84.52            0    1.256    0.204
       196 -11.0674    214.2094     92.7590   4.5081919888e+01   2.0098326193e+01    0.1718618    0.1541858 -22.54 0.0005586692    1.345    0.257
       197 -10.9875     20.4896     83.4944   9.6550363537e+01   5.8256134148e+01    0.1330122    0.1132633 -37.19  3.56711e-05    1.006    0.006
       198 -10.2061    222.5355     82.4236   4.1777700925e+01   2.0159390209e+01    0.1289384    0.1084672 -62.68 0.0001002718    1.014    0.014
       199 -11.9124    151.8365     80.8290   5.2926872094e+01   3.5624150447e+01    0.3655862    0.2471403  32.64  0.001317816    1.897    0.473
       200 -11.1044    107.0191     80.4034   6.3843380968e+01   4.5674574413e+01    0.3873266    0.2692848 -88.78  0.001592614    2.558    0.609
       201 -11.5540    183.0502     77.7657   4.6397443299e+01   2.9120614103e+01    0.3793841     0.233453 -36.68  0.001852283    1.678    0.404
       202 -11.4149     87.3895     79.2990   6.9556192894e+01   4.9839205346e+01    0.2787155    0.2641733   1.28  0.001168782    1.018    0.018
       203 -10.7957    214.2901     78.9316   4.2099438699e+01   2.2341949538e+01    0.1848592    0.1483414 -54.27 0.0004704469    1.092    0.084
       204 -10.8350    189.8418     77.3380   4.5219945436e+01   2.7708070366e+01    0.2409548    0.1667122 -53.74 0.0006306992    1.362    0.266
       205 -10.3281    120.4778     78.5178   5.9592325909e+01   4.3116565909e+01    0.1455425    0.1401198  42.10 2.988649e-05    1.014    0.013
       206 -12.8491     31.1988     87.4724   9.3074377706e+01   5.6382483424e+01    0.3607451    0.2187202  11.48  0.001795973    1.819    0.450
       207 -11.8711     75.3302     75.6923   7.2543918547e+01   5.2760676511e+01    0.3042366    0.2410336  28.07 0.0005018387    1.225    0.183
       208 -12.1712     23.3227     76.1505   9.3526690267e+01   5.9647811366e+01    0.2261058    0.1669898  -7.06  0.000815241    1.354    0.262
       209 -11.2374     15.6795     75.9858   9.6818388486e+01   6.0310367465e+01    0.1858878    0.1489657 -43.03 0.0005592711    1.068    0.064
       210 -10.4673    177.6274     75.1508   4.6656922800e+01   3.0750583234e+01    0.1832048    0.1305253 -29.60 0.0003370176    1.627    0.385
       211 -10.9618    206.4935     81.6555   4.3749882199e+01   2.3488137570e+01    0.2118455    0.1221863  61.42 0.0007542054    1.836    0.455
       212 -11.3725    115.9678     74.4078   5.9561934683e+01   4.4846407719e+01     0.274287    0.2043971 -18.46  0.001336711    1.634    0.388
       213 -10.9219    177.9762     87.0164   4.9493373817e+01   2.8668494668e+01    0.1700875    0.1576966 -86.15 0.0004044242    1.038    0.037
       214 -10.7215    232.5502     73.2633   3.8713043793e+01   1.9663592639e+01    0.1704336    0.1398837  71.33 0.0005603582    1.340    0.253
       215 -10.4815    125.0639     73.4906   5.6952899254e+01   4.2987364834e+01    0.2194913    0.1371359  49.49 0.0005631621    1.528    0.345
       216 -10.6611    219.5380     72.4832   4.0068562800e+01   2.2300107346e+01     0.129294    0.1071816 -64.63 0.0002005075    1.017    0.017
       217 -12.3699    100.0321     66.4354   6.1556817210e+01   4.9658928034e+01    0.5536562    0.3217046 -34.65  0.002526882    1.852    0.460
       218 -11.4263    188.5162     65.6459   4.2674729911e+01   2.9842356919e+01    0.3842621     0.173308 -54.82  0.001594489    2.450    0.592
       219 -13.2649     31.8160     74.7378   8.9473358089e+01   5.9132627880e+01    0.4041481    0.2484178  -1.71  0.001249456    1.869    0.465
       220 -11.2245    114.6858     64.2945   5.6822024164e+01   4.6852642837e+01    0.3446985     0.206531 -59.84 0.0008231972    2.394    0.582
       221 -13.7453     25.8589     63.7000   8.8914807182e+01   6.2031845049e+01    0.6715305    0.2584054  24.51  0.002916421    2.629    0.620
       222 -10.8207    215.4576     62.5622   3.8464219351e+01   2.4606503686e+01    0.1256101    0.1074574 -68.91 7.066732e-05    1.037    0.036
       223 -11.0267     95.9883     61.9341   6.1304002332e+01   5.1260140326e+01    0.2041871    0.1913688  32.07  0.001198283    1.027    0.026
       224 -11.1845    109.4594     60.1489   5.6904656029e+01   4.8672282747e+01    0.2357795    0.2179635   0.71  0.001224557    1.150    0.130
       225 -11.6514     45.3866     61.0685   7.9417907308e+01   6.0261903163e+01    0.2345674    0.1730332   8.57  0.001132498    1.330    0.248
       226 -11.4310      2.5912     59.4805   9.8708175853e+01   6.4695059334e+01    0.2772858      0.17367 -24.09  0.001144961    1.438    0.305
       227 -11.8247    193.6073     57.7144   4.0122686842e+01   2.9909815882e+01    0.2264381     0.146122 -86.59  0.000760413    1.710    0.415
       228 -11.2632    153.4494     57.6230   4.6374210348e+01   3.9003811938e+01    0.2302748    0.2121016  83.19 0.0001983901    1.008    0.008
       229 -10.7776     13.4685     62.4786   9.4318083948e+01   6.3357505854e+01    0.1278594    0.1034284 -29.70 0.0004144578    1.010    0.010
       230 -11.5244     30.1283     56.8659   8.4798599703e+01   6.2933125881e+01    0.2341345    0.1633277   7.12  0.001344023    1.398    0.285
       231 -11.3134    126.2577     54.9772   5.1158585674e+01   4.5688940027e+01    0.2570983    0.1913757  84.57 0.0008455088    1.618    0.382
       232 -10.7631     94.2722     51.5771   5.8358781908e+01   5.3253342966e+01     0.234653    0.1678215  -3.13  0.001178119    1.791    0.442
       233 -10.2563    198.0165    242.7739   7.7499916279e+01  -4.4647175528e+00    0.1583246   0.09147657  27.61  0.000375109    1.593    0.372
       234 -11.7131     17.2245     51.0986   8.9086809370e+01   6.5309189159e+01    0.2903461    0.1722111 -41.57 0.0007714609    1.452    0.311
       235 -11.8667    174.7300     50.6895   4.1088083857e+01   3.5104548667e+01    0.3696221    0.1745035  64.60  0.001680475    2.015    0.504
       236 -10.7662     29.2047     50.1672   8.2956879593e+01   6.4284417804e+01      0.15508    0.1479688   0.86 0.0004616859    1.301    0.231
       237 -10.9968     37.7815     49.6390   7.8783172554e+01   6.3347585942e+01    0.1751263    0.1099747  35.17  0.000576025    1.666    0.400
       238 -10.5352      1.4493     47.4969   9.5987088323e+01   6.7162218587e+01    0.1189309    0.0965768 -29.63 -0.0003484475    1.057    0.054
       239 -10.7033    153.3383     44.7894   4.2927088690e+01   4.0827307552e+01    0.1705986     0.128222 -22.06 0.0003263236    1.656    0.396
       240 -10.8346     90.0147     44.9262   5.7325715538e+01   5.5107489808e+01    0.1982431    0.1782849  35.25 0.0003175687    1.021    0.021
       241 -11.5707    195.5650     44.0683   3.6773257748e+01   3.1374887518e+01    0.2120711    0.1543016 -88.91 0.0004724769    1.276    0.217
       242 -10.8747    189.1628     43.1325   3.7334936569e+01   3.2896582679e+01    0.1848895     0.132027 -75.89 0.0007245246    1.335    0.251
       243 -11.4556    145.9979     39.5046   4.2729618944e+01   4.3218687341e+01    0.1864626    0.1741657 -67.12  0.001179692    1.126    0.112
       244 -11.0743    104.5534     39.9457   5.1593711290e+01   5.2662414795e+01     0.243871    0.1613581  42.50 0.0003141979    1.403    0.287
       245 -11.4468     35.9888     39.3774   7.5739134058e+01   6.5305600666e+01    0.3303374    0.1848416   6.58  0.001591029    2.243    0.554
       246 -11.5991     60.1658     38.1335   6.4938525953e+01   6.1782070049e+01    0.2558608    0.1802744 -36.83 0.0007841573    1.559    0.359
       247 -10.1859    110.4362     37.4918   4.9333578173e+01   5.1664359366e+01    0.1333196    0.1190472  50.23 0.0001766839    1.011    0.010
       248 -11.7583     10.8731     36.0670   8.7179956623e+01   6.8590526788e+01    0.3166813    0.2239869 -33.33  0.002068416    1.208    0.173
       249 -11.3263    223.1040     33.1471   3.1644668633e+01   2.7040860860e+01    0.2273753    0.1346122 -46.97 0.0006867507    1.487    0.327
       250 -11.7222     43.8126     33.9412   6.9993030285e+01   6.5033954242e+01    0.2174701    0.1593971  25.87  0.000607502    1.217    0.178
       251 -11.2270    106.7544     32.4863   4.8550282820e+01   5.3094422452e+01    0.2224393    0.1798088 -29.01 0.0006567313    1.397    0.284
       252 -12.4084     30.7306     32.9514   7.5667598870e+01   6.6994463217e+01    0.4136521    0.2356813  -0.98     0.002089    2.159    0.537
       253 -10.7005    214.9809     31.4848   3.2040604018e+01   2.8883535189e+01    0.1728497   0.08311577 -79.66 0.0008096806    2.479    0.597
       254 -11.5080    169.5320     31.0318   3.6940111928e+01   3.8810738444e+01    0.1898594    0.1498621  78.18 0.0001445111    1.111    0.100
       255 -11.2026    139.8696     29.7686   4.1033436119e+01   4.5811154956e+01    0.2770073    0.1848205  27.31  0.001420029    2.099    0.524
       256 -11.7984     74.9243     30.1787   5.6592759120e+01   6.0093482556e+01    0.1875114    0.1651682  50.46 0.0003124449    1.214    0.176
       257 -12.0960     38.8519     29.2999   7.0284583861e+01   6.6429598583e+01    0.2999766    0.2039112  19.75 0.0007764766    1.307    0.235
       258 -11.0888    156.0092     29.2640   3.8358476823e+01   4.2121516739e+01    0.1802064    0.1506548  78.19 0.0003876224    1.037    0.036
       259 -10.2117    178.9943     28.0080   3.5026725609e+01   3.7026515124e+01    0.1471255    0.1254463 -79.71            0    1.047    0.045
       260 -11.7288    101.6763     25.6311   4.7433186701e+01   5.4994826594e+01     0.244392    0.2132594  71.68 0.0008670797    1.190    0.159
       261 -12.2465     84.0205     23.9893   5.1454912267e+01   5.8964274214e+01     0.366044    0.2474003  78.85  0.001876338    2.196    0.545
       262 -11.2734    172.3871     21.9400   3.4353997445e+01   3.9193158889e+01    0.2494551     0.117941 -31.93  0.001231452    2.359    0.576
       263 -10.2150     20.6064     23.1603   7.6664455744e+01   6.9680582142e+01    0.1636011   0.09293429 -26.69 0.0009412681    1.649    0.394
       264 -10.3954    185.5211     22.2322   3.2952436419e+01   3.6232900271e+01    0.1381314    0.1210838 -20.71 0.0004136745    1.529    0.346
       265 -10.6390     30.3880     17.1767   6.8903332046e+01   6.9249182420e+01    0.1508046     0.105273 -38.10   0.00094712    1.731    0.422
       266 -10.4709     10.7897     15.6475   7.8739942363e+01   7.1820718066e+01    0.1518528   0.09049274  29.13  0.000604654    1.690    0.408
       267 -10.7302    234.3575     13.2990   2.6996428336e+01   2.7170736989e+01   0.09761432   0.08038806  56.60 0.0007035884    1.707    0.414
       268 -10.9090     85.3404     11.6624   4.6436009500e+01   5.9904437385e+01    0.1194589   0.09352555 -79.15 0.0007050539    1.762    0.433
       269  -9.5881      4.0000    248.9515   1.1980967974e+02   1.9750966527e+01    0.1780737   0.05715984 -79.26 0.0008015989    2.937    0.659
       270 -11.0398    127.4461    247.1123   9.3097918207e+01   4.6463772548e+00    0.3304927    0.1811368 -43.39  0.001629032    2.075    0.518
       271 -10.4773    139.6227    247.2032   9.0423514907e+01   2.8708239318e+00    0.1650513     0.117542 -34.09 0.0002295561    1.560    0.359
