#   1 NUMBER                 Running object number                                     
#   2 MAG_AUTO               Kron-like elliptical aperture magnitude                    [mag]
#   3 X_IMAGE                Object position along x                                    [pixel]
#   4 Y_IMAGE                Object position along y                                    [pixel]
#   5 X_WORLD                Barycenter position along world x axis                     [deg]
#   6 Y_WORLD                Barycenter position along world y axis                     [deg]
#   7 A_WORLD                Profile RMS along major axis (world units)                 [deg]
#   8 B_WORLD                Profile RMS along minor axis (world units)                 [deg]
#   9 THETA_WORLD            Position angle (CCW/world-x)                               [deg]
#  10 FWHM_WORLD             FWHM assuming a gaussian core                              [deg]
#  11 ELONGATION             A_IMAGE/B_IMAGE                                           
#  12 ELLIPTICITY            1 - B_IMAGE/A_IMAGE                                       
         1 -14.5449    160.8424     54.6111   7.6239246538e+01   3.7940395659e+01     1.687411     1.295521  43.91  0.005029141    1.329    0.247
         2 -14.4124    173.4930     39.9763   7.0005536575e+01   3.6863931178e+01    0.9921389    0.8667642  60.54   0.00355087    1.113    0.101
         3 -14.0801    190.1202     10.8804   6.0440126928e+01   3.6215647216e+01    0.8440259    0.5078085 -89.71   0.00269178    1.596    0.373
         4 -14.4764    191.6981      5.0452   5.8911156662e+01   3.6428572568e+01     2.843326    0.5804933  67.43  0.009968851    3.612    0.723
         5  -9.6409    219.3382    224.1553   1.0366827288e+02  -6.7053107110e+00    0.1680933    0.1184585 -45.32 0.0004630392    1.661    0.398
         6 -11.5797    249.6526    249.8504   1.0251524114e+02  -1.4914918576e+01    0.2850371    0.1736834 -22.47   0.00174007    1.559    0.359
         7 -17.8249     85.7072    193.1772   1.2782748709e+02   2.3599975501e+01     10.07508     4.017861 -66.06   0.03811991    2.692    0.628
         8 -11.4332    160.4621    197.9639   1.1118557062e+02   8.8656600383e+00    0.4109372    0.2607588 -73.83  0.001532741    2.559    0.609
         9 -12.2666    152.9942    193.3416   1.1201664728e+02   1.1313027639e+01    0.3734962    0.3172587  89.64  0.001103998    1.372    0.271
        10 -19.1848     48.0537    100.2076   1.2130109404e+02   5.1067707406e+01     16.73208    0.8936469 -57.10   0.02602423   16.296    0.939
        11 -10.8592    172.8572    189.0761   1.0669311018e+02   8.2661781252e+00    0.2319219    0.2277354  20.31  0.001301865    1.033    0.032
        12 -10.6699    175.9357    186.1459   1.0542346090e+02   8.2576855189e+00     0.379387    0.2595164  75.99  0.001297333    2.414    0.586
        13 -10.7057    165.4951    186.5402   1.0784525506e+02   1.0276719036e+01    0.3238268    0.1499844 -46.83  0.001233593    2.247    0.555
        14 -12.2040    152.7982    185.6089   1.1058046627e+02   1.3034092205e+01    0.4282772    0.3217081 -89.39  0.001954932    1.803    0.445
        15 -11.8046     36.4608    183.9639   1.3807007034e+02   3.2475414208e+01    0.2307756     0.175391  64.75  0.001094203    1.243    0.195
        16 -11.1045    169.1168    182.0487   1.0612264002e+02   1.0499451703e+01    0.2747195    0.2131344  42.99 0.0009035761    1.247    0.198
        17  99.0000     11.1070    206.7216   1.4545136236e+02   2.9965452527e+01    0.4270492    0.2642283  62.74   0.00271115    1.413    0.292
        18 -10.2670     27.8108    179.7688   1.3957445895e+02   3.4388053246e+01    0.1924971    0.1112275  21.19 0.0009912853    2.443    0.591
        19 -11.2695    201.5089    169.0134   9.6346989424e+01   6.5802738209e+00    0.5634174    0.3093448 -59.84  0.002098195    2.726    0.633
        20 -12.0880    204.4405    165.4535   9.4978206361e+01   6.6972190192e+00     1.531068    0.3770046 -44.47  0.004347546    4.026    0.752
        21  -9.7812    199.1365    178.2343   9.8793431155e+01   5.2184177542e+00    0.1937794    0.1768093  84.06 0.0005288594    1.323    0.244
        22 -10.4808    168.0181    176.4487   1.0522232412e+02   1.1926475118e+01    0.2624143    0.2113672 -67.68 0.0003569876    1.442    0.307
        23 -12.3673    194.1824    167.2006   9.7488099812e+01   8.4463344075e+00    0.5031329    0.3630316 -51.74 0.0007748347    1.465    0.318
        24 -11.2934    190.8177    161.1059   9.6872959357e+01   1.0407132947e+01    0.3928875    0.3539743 -41.50  0.001152045    1.101    0.092
        25 -11.6281    189.7859    155.5856   9.5866733370e+01   1.1778593406e+01    0.5045952    0.4590884  42.23  0.001762718    1.111    0.100
        26 -11.7087    230.1886    166.6676   9.0235155851e+01   1.4358173593e+00    0.3538494    0.1800162 -52.85  0.001423373    2.428    0.588
        27 -10.0437     25.2050    165.4065   1.3860646107e+02   3.8026458829e+01    0.1980982     0.128838  20.90  0.001109964    2.049    0.512
        28 -10.7244    133.0418    160.4837   1.1025213227e+02   2.2787999684e+01    0.2408873    0.1522491  43.35 0.0006451228    1.562    0.360
        29 -10.6628    162.6916    202.0646   1.1144734606e+02   7.5829539264e+00    0.3856376    0.2402161  64.58  0.001208225    2.298    0.565
        30 -11.4686    166.4738    154.6783   1.0086398469e+02   1.7028160817e+01    0.5103598    0.3152606  72.04  0.001816535    2.752    0.637
        31 -12.9534    134.0799    146.3216   1.0687870059e+02   2.5906770013e+01     1.493376    0.3732483 -54.57  0.003327719    5.942    0.832
        32 -12.5390    143.7587    145.0916   1.0414638627e+02   2.4137403301e+01    0.7690501    0.4277827 -66.93  0.002634627    2.777    0.640
        33 -11.0609    149.1831    148.2180   1.0352249062e+02   2.2247090447e+01    0.2262842    0.1913659  86.93 0.0007713671    1.360    0.265
        34 -10.9723    174.3884    148.6808   9.7684086774e+01   1.6608141928e+01    0.3670287    0.3011492 -78.83  0.001201379    1.460    0.315
        35 -12.6545    103.3392    137.0907   1.1300078290e+02   3.4178183023e+01    0.3195517    0.3100717 -60.72 0.0003857744    1.024    0.023
        36 -12.9256    106.5315    130.9726   1.1071139072e+02   3.5045745464e+01    0.5413634    0.4371074  62.33   0.00200435    1.369    0.270
        37 -12.5583    136.0000    129.0192   1.0228527224e+02   2.9506705802e+01     1.035549     0.220115 -49.91  0.002386642    5.367    0.814
        38 -12.1729    135.0000    120.9701   1.0053013329e+02   3.1541080880e+01    0.8255775     0.210663 -47.92  0.002193295    4.048    0.753
        39 -10.1448    165.9627    132.5130   9.5789513754e+01   2.2026101800e+01     0.245538    0.1561946  51.09  0.001021336    1.595    0.373
        40 -12.0483    118.6434    128.8054   1.0684893788e+02   3.3191975465e+01     0.384786    0.3022473 -29.66 0.0007424582    1.436    0.304
        41 -12.2744    122.1286    123.1790   1.0451543332e+02   3.3779726790e+01    0.5312386    0.3532794  -4.52  0.001931948    2.830    0.647
        42 -11.6018    160.6693    127.6066   9.5825074416e+01   2.4304954604e+01    0.4589699    0.3367303 -69.44  0.001461275    1.670    0.401
        43 -11.5975    107.3497    124.4424   1.0892507921e+02   3.6427004841e+01     0.307849    0.2654763 -18.09 0.0006058701    1.314    0.239
        44 -11.1008    113.5599    118.5746   1.0572166056e+02   3.6570176677e+01    0.3522505     0.288212 -85.01  0.001692046    1.492    0.330
        45 -11.0597    168.3107    113.2092   9.0441989853e+01   2.5589249333e+01    0.4282504    0.3054283 -78.97  0.001197834    1.930    0.482
        46 -11.4823    134.8033    106.3711   9.6759821752e+01   3.4765299000e+01    0.5258419    0.2067666 -44.86  0.001778047    2.566    0.610
        47 -12.2793    118.6243    110.0407   1.0209715262e+02   3.7452794509e+01    0.5742037    0.3486876  68.64  0.002081994    2.775    0.640
        48 -11.5585     94.4361    111.0486   1.0934023039e+02   4.1886357528e+01    0.2896546    0.2284769  35.71 0.0005871109    1.317    0.240
        49 -10.8029    205.2592    110.1131   8.2144836017e+01   1.7548477876e+01    0.3457353    0.2224074  49.70 0.0009269831    1.617    0.381
        50 -12.1654    153.4739    201.6978   1.1344935338e+02   9.4422336178e+00    0.3329468    0.3129156 -10.88  0.001873462    1.170    0.146
        51 -17.8659     68.4395    236.0688   1.3676084796e+02   1.6701728339e+01     8.442344     5.531817  64.11   0.02836328    1.320    0.242
        52 -10.1160    148.4937     80.5271   8.6197101918e+01   3.6685333149e+01    0.1511844     0.144655  57.08 0.0001606515    1.005    0.005
        53 -11.4804     88.1439     77.9389   1.0205229934e+02   4.9947092549e+01    0.3060672    0.1988175  42.04 0.0009759971    1.582    0.368
        54 -11.1523    113.0448     76.2004   9.4037495082e+01   4.5456546711e+01    0.5483044    0.2884381  58.90  0.002108648    2.545    0.607
        55 -11.3947    157.4338    199.2429   1.1210613579e+02   9.1890478335e+00    0.2807549    0.2457554  81.79 0.0008480492    1.302    0.232
        56 -10.7158    166.2906    233.6899   1.1611421336e+02   8.2303027982e-01    0.2423141    0.2058291 -25.77 0.0006178012    1.346    0.257
        57 -13.2728    177.9624     32.5550   6.7374281559e+01   3.6708824500e+01    0.4522321    0.3951094  36.74   0.00131167    1.361    0.266
        58 -10.7188     13.4578     59.5842   1.2370806764e+02   6.2528400063e+01    0.2022846    0.1542392 -38.10  0.000504225    1.028    0.027
        59 -12.0978    188.4052     30.9047   6.5464547512e+01   3.4372934020e+01    0.2724613    0.2511925  88.27  0.001073343    1.116    0.104
        60 -10.3736    123.6281     25.8782   7.5328165963e+01   5.0439378331e+01    0.2372481    0.1705512  63.12 0.0003314396    1.322    0.244
        61 -11.0028    167.9623    230.4972   1.1524606303e+02   1.1004454185e+00    0.2176969    0.2145178  54.03 -0.0001924881    1.146    0.127
