#   1 NUMBER                 Running object number                                     
#   2 MAG_AUTO               Kron-like elliptical aperture magnitude                    [mag]
#   3 X_IMAGE                Object position along x                                    [pixel]
#   4 Y_IMAGE                Object position along y                                    [pixel]
#   5 X_WORLD                Barycenter position along world x axis                     [deg]
#   6 Y_WORLD                Barycenter position along world y axis                     [deg]
#   7 A_WORLD                Profile RMS along major axis (world units)                 [deg]
#   8 B_WORLD                Profile RMS along minor axis (world units)                 [deg]
#   9 THETA_WORLD            Position angle (CCW/world-x)                               [deg]
#  10 FWHM_WORLD             FWHM assuming a gaussian core                              [deg]
#  11 ELONGATION             A_IMAGE/B_IMAGE                                           
#  12 ELLIPTICITY            1 - B_IMAGE/A_IMAGE                                       
         1 -14.6926    126.0529     23.0962   4.6520499659e+01   5.0395353834e+01     1.268337    0.8543071 -62.90  0.006296413    1.887    0.470
         2 -13.4867    185.2869     13.7614   3.5214891810e+01   3.7347092800e+01    0.4394782    0.2511017 -55.22  0.002219179    1.711    0.416
         3 -13.9160    175.1016      3.7555   3.3784525098e+01   4.0691629906e+01    0.5557837    0.3097947  84.61  0.002976263    1.645    0.392
         4 -12.2338     45.4156     11.0865   6.5333671426e+01   6.8128971329e+01    0.2717063    0.2368294 -27.84  0.001431993    1.449    0.310
         5 -12.1072     35.0931     13.1830   7.1041883879e+01   6.9424731094e+01    0.2092589     0.151907 -14.81 0.0008936439    1.233    0.189
         6 -12.5775    161.9823     11.0708   3.7200435575e+01   4.3076110845e+01    0.2376141    0.1813555 -33.69  0.001079134    1.469    0.319
         7 -12.7327    102.9788     11.4997   4.7322149428e+01   5.6837647281e+01    0.4000806    0.1962347  51.52  0.001575474    1.689    0.408
         8 -12.4773     98.9494      8.9199   4.7272325933e+01   5.7960680186e+01    0.2766094    0.2348337 -73.34  0.001003396    1.474    0.322
         9 -13.0602     39.1853      8.3297   6.6711044214e+01   6.9404421319e+01    0.3223296    0.2105868  22.15  0.001277941    1.317    0.241
        10 -12.8845      3.8729      7.7691   8.5526925733e+01   7.3665817913e+01    0.3364624    0.2117756   9.07  0.001723042    1.421    0.296
        11 -12.4842    123.9409      7.0011   4.1587242910e+01   5.2436194035e+01    0.3141076    0.1717421  75.75  0.001210414    1.845    0.458
        12 -12.8076     45.8233      4.4750   6.1881749807e+01   6.8764218630e+01    0.4936446    0.2264019  54.73  0.002296927    3.010    0.668
        13 -12.8613    152.0729      2.8970   3.6174099635e+01   4.6162876130e+01    0.2931513    0.2262035 -23.45   0.00183845    1.555    0.357
        14 -12.2196     85.5183      7.4747   5.0021493492e+01   6.0980655258e+01     0.225452    0.2187091 -14.64 0.0005534371    1.233    0.189
        15 -12.2803    123.4636      2.7471   4.0264971570e+01   5.2895936475e+01    0.3183414     0.164731  79.59  0.001521275    2.085    0.520
        16 -12.0752    113.5683      1.9421   4.1719502340e+01   5.5240722093e+01    0.2457569    0.1605017  64.61 0.0004849401    1.308    0.235
        17 -11.6732     90.2733      2.0165   4.6619314419e+01   6.0416601498e+01    0.2857404   0.08526836  51.21  0.001198894    2.477    0.596
        18 -11.9605    243.5192    180.0632   6.4419306235e+01  -1.1611202260e+00    0.2018111    0.1087971 -36.50  0.001028178    1.579    0.367
        19 -17.4374    106.6263    217.5106   9.9824461194e+01   1.3955580315e+01     6.115456     2.976013  54.35   0.02530018    2.407    0.584
        20 -15.6807    102.1061    243.1098   1.0402023851e+02   9.4221692853e+00     1.323159     1.093575   3.94  0.007560908    1.544    0.352
        21 -17.0122     93.2408    224.6852   1.0378918780e+02   1.4452668988e+01     3.093726     2.233765 -88.08   0.01706696    1.572    0.364
        22 -16.7514     27.6681    175.0509   1.1385374555e+02   3.4468451657e+01     5.217413     2.770282  82.26   0.02439689    2.019    0.505
        23 -18.2815     86.0458    188.2982   1.0063829590e+02   2.3811342066e+01     14.80754     7.223575  70.20   0.04492517    4.515    0.779
        24 -13.8246    248.4676    146.9549   5.7043120989e+01   3.6700249092e+00    0.7525671    0.2462696 -46.65  0.002793273    3.054    0.673
        25 -10.5885    123.9639    149.9341   8.3627555212e+01   2.6687912672e+01    0.2521077    0.1938296  88.98 0.0009641896    1.702    0.412
        26 -16.9475     73.5612    232.9977   1.0903844538e+02   1.5490838195e+01     2.612539    0.9577497 -63.32   0.01129627    2.814    0.645
        27 -15.7723     68.2297    177.9566   1.0372798880e+02   2.8940951346e+01     2.480619     1.336947 -84.35   0.01011888    2.355    0.575
        28 -11.5965    107.6482    134.6190   8.4681002995e+01   3.3512714483e+01    0.5085663    0.2639982 -63.04  0.001558914    2.356    0.575
        29 -11.0071    109.4978    130.4581   8.3179380845e+01   3.4182381638e+01    0.3059836    0.2086722  33.10   0.00123183    1.567    0.362
        30 -13.0966     81.5922    132.7861   9.1980150617e+01   3.8483105487e+01    0.5365527    0.4069567 -83.41  0.002546873    1.544    0.352
        31 -13.2122     76.0505    127.7991   9.2616458003e+01   4.0609631281e+01     0.559139    0.3619115  56.16  0.001753786    1.884    0.469
        32 -10.7370    125.4607    133.6825   7.9515373355e+01   3.0288913611e+01    0.2120525    0.1485732 -38.74 0.0006763434    1.472    0.321
        33 -11.4605     93.4975    130.6706   8.7913703479e+01   3.7037530778e+01     0.313931    0.2024344  31.13   0.00136791    1.684    0.406
        34 -13.4581    248.5556    127.6558   5.3077089956e+01   6.9533868904e+00    0.4291639    0.3111077 -24.35  0.002448277    1.417    0.294
        35 -11.0861     97.9685    124.0735   8.5030046050e+01   3.7876766467e+01    0.2264314    0.2155675 -47.04 0.0002995745    1.013    0.012
        36 -12.8269    249.3148    116.1663   5.0592821915e+01   8.7721598919e+00    0.3966945    0.1505217 -43.26  0.001685297    2.162    0.537
        37 -13.5690     61.6723    110.7876   9.3489633095e+01   4.6947301380e+01    0.7183905    0.5231922  38.28  0.003640232    1.489    0.329
        38 -10.4164     83.5087    109.4727   8.5914924258e+01   4.3941658265e+01    0.1524988    0.1417934 -32.90 1.472818e-05    1.044    0.042
        39 -10.4065     98.8556    105.3504   7.9974496062e+01   4.2173272136e+01    0.2188505     0.144129  26.98 0.0006544993    1.744    0.427
        40 -17.7230     61.0705    227.8833   1.1123087702e+02   1.8231315234e+01     3.416552     2.285798 -89.13   0.01956037    1.511    0.338
        41 -13.3939     10.1733     96.0163   1.0877681254e+02   5.5623250054e+01    0.8795754     0.256473 -45.24  0.003421926    2.937    0.660
        42 -12.1120    249.6742     99.4940   4.7083242467e+01   1.1481616655e+01    0.2433335    0.1014394 -39.90  0.001083505    1.985    0.496
        43 -12.2030     90.0154     94.4443   7.9731974695e+01   4.6285864957e+01    0.2654551    0.2500352   1.27 0.0004233138    1.063    0.060
        44 -10.6789    132.5080     92.5359   6.6798016864e+01   3.7963522988e+01    0.1519709    0.1501654  -3.93   5.4171e-05    1.024    0.024
        45 -10.7373    219.5136    165.4809   6.5690919405e+01   5.1664554521e+00    0.1394361     0.121526 -23.89 7.580842e-06    1.002    0.002
        46 -12.2588    248.4977     88.0282   4.4843108237e+01   1.3551421461e+01    0.2082681    0.1078208 -40.73  0.001040346    1.612    0.380
        47 -11.1795    116.9829    161.9390   8.7988084784e+01   2.5083389480e+01    0.1838866    0.1755028 -59.51 0.0004096793    1.038    0.036
        48 -10.6268     56.8608     85.3500   8.8729706525e+01   5.3613883248e+01    0.1959289    0.1304245  13.75 0.0009438929    1.742    0.426
        49  99.0000     39.8055    186.2211   1.1198115181e+02   3.0439336550e+01     3.929357     2.694489 -49.70   0.02136758    1.648    0.393
        50 -11.3152     22.8487     86.4638   1.0212107838e+02   5.7001709951e+01    0.2390164    0.1979564  86.29 0.0008567098    1.470    0.320
        51 -10.1662    130.7088     82.9591   6.4473028319e+01   4.0264023724e+01    0.1767816    0.1357136 -38.07 0.0003624223    1.316    0.240
        52 -10.4270     84.4789     83.0413   7.8189298328e+01   4.9760671440e+01    0.2048181    0.1410345 -47.10 0.0003544189    1.434    0.303
        53 -11.3757     35.4776     83.0496   9.6352265658e+01   5.6657038549e+01    0.2057663    0.1197843 -57.10 0.0007461541    1.548    0.354
        54 -12.5068     45.2188     76.6102   9.0746602060e+01   5.7030693912e+01      0.58002    0.3466609   5.06  0.002366867    2.143    0.533
        55 -11.9089     43.5027     73.5407   9.0546963171e+01   5.7899044250e+01    0.2794102    0.2315586   6.31  0.001137814    1.237    0.191
        56 -12.0927     20.9917     76.3113   1.0053009199e+02   5.9473407664e+01    0.3489297    0.2332619   8.96  0.001980523    1.673    0.402
        57 -11.2521      7.7762     68.4023   1.0423396359e+02   6.2124237334e+01     0.234714    0.1418801 -60.01   0.00077226    1.404    0.288
        58 -11.1302    114.4951     65.0510   6.3211755412e+01   4.7175481169e+01     0.283473    0.2042432 -37.27 0.0008010941    1.423    0.297
        59 -10.5373    114.4315     61.4626   6.2058133969e+01   4.7802087915e+01    0.2187103    0.1821149  56.16 0.0001215899    1.218    0.179
        60 -11.0467     99.7582     62.1940   6.6510323160e+01   5.0828674730e+01    0.2919867    0.2094258 -55.69 0.0007670192    1.712    0.416
        61 -10.3277     43.5141     62.5194   8.7145827856e+01   6.0196058192e+01    0.1343376    0.1148865 -22.57  0.000810205    1.002    0.002
        62 -13.1013    249.1603     56.2877   3.8241272711e+01   1.8234561288e+01    0.6022356    0.1718817 -41.15  0.002486965    2.721    0.632
        63 -11.6817    141.7662     59.5429   5.4808170276e+01   4.1808482760e+01    0.3866886     0.257343  47.36  0.001855229    1.482    0.325
        64 -11.8804      3.7092     58.7557   1.0373840780e+02   6.4428130827e+01    0.3550704    0.1634044 -60.38  0.001833007    1.818    0.450
        65 -10.6064     22.1805     58.1886   9.5141875566e+01   6.3280317596e+01    0.1577376    0.1512801  62.91  0.001072259    1.409    0.290
        66 -10.1690    149.2915     54.3276   5.1683921899e+01   4.0818731566e+01    0.1419295    0.1102387  23.52  0.000701815    1.621    0.383
        67 -10.8392    102.9790     41.1972   5.8232971518e+01   5.3434557010e+01    0.1899952    0.1762514  66.76 0.0003016727    1.187    0.158
        68 -10.5257    158.6698     39.3024   4.5595699546e+01   4.0670541943e+01    0.1428531   0.09918572 -73.61 0.0007034237    1.650    0.394
        69 -10.7757     95.9871     38.2920   5.9147491061e+01   5.5335488391e+01    0.1856707    0.1601974  38.83 0.0004174021    1.064    0.060
        70 -11.3575    148.1875     36.7019   4.6643516994e+01   4.3527231883e+01    0.3405974    0.1478447  58.40  0.001434958    2.053    0.513
        71 -11.8431    118.9404     35.9118   5.2346190517e+01   5.0551037136e+01    0.4042068    0.2782018  36.11  0.002093919    1.505    0.335
        72 -11.4961     64.5425     35.2282   6.8407184013e+01   6.1850944166e+01    0.3540263    0.2037056 -35.22  0.001300388    1.772    0.436
        73 -10.6474     51.2407     33.0370   7.2822793117e+01   6.4342268814e+01    0.1728257    0.1443786  -4.50 0.0002750979    1.042    0.040
        74 -11.1471      5.7113     31.9400   9.4698740128e+01   6.9584689607e+01    0.2065257     0.154258  14.24 0.0007434674    1.443    0.307
        75 -13.1360    246.3997    225.7661   7.2324067895e+01  -8.5910418697e+00    0.2963851     0.170834 -14.99  0.001687653    1.684    0.406
        76 -11.5049     45.3634     27.9231   7.3164108712e+01   6.5972213951e+01    0.3241878    0.1967343  11.56  0.001729145    1.810    0.448
        77 -10.3575    160.5062     27.0412   4.1830461773e+01   4.1735232524e+01     0.182088    0.1315579 -32.68 0.0004880212    1.519    0.342
        78 -11.2149    250.6166     24.0144   3.1743693928e+01   2.2217198628e+01     0.162707   0.09303644 -42.91 -0.000275831    1.519    0.342
        79 -11.2848    215.4443     23.1593   3.4430643693e+01   2.9527652693e+01    0.2062661    0.1535113  85.46 0.0003418156    1.212    0.175
        80 -10.9557    142.0588     22.7080   4.3478245929e+01   4.6639761590e+01    0.1865608    0.1537528  64.04  0.000336992    1.080    0.074
        81 -10.4718      8.6817     23.3129   8.9713697201e+01   7.0859457411e+01   0.09560543   0.09154093  39.67 0.0004028156    1.647    0.393
        82 -10.6172     17.5136     31.4999   8.8229046006e+01   6.8727720054e+01    0.1201491   0.09523872 -18.92 4.988432e-05    1.029    0.028
        83 -10.9200     13.4926     30.5015   8.9963695494e+01   6.9250831253e+01    0.1217889    0.0909818 -21.30 0.0008101477    1.050    0.047
        84 -11.8493     19.9863     16.1239   8.0210092857e+01   7.0911315151e+01    0.1796136    0.1370206  -7.56  0.000537773    1.005    0.005
        85 -11.8022    102.4778    156.0789   9.0730036121e+01   2.9111099285e+01    0.2601582    0.1912304 -39.31  0.001207957    1.466    0.318
        86 -10.6000    166.3868    212.8011   8.5624897182e+01   5.1983276373e+00    0.1867034    0.1238215 -33.06  0.000319242    1.610    0.379
        87 -12.7654    145.0890    205.8094   8.9168126132e+01   1.0145753820e+01    0.4478534    0.2854177  45.61  0.002063188    1.572    0.364
        88 -11.7299    146.0255    202.5264   8.8392233948e+01   1.0667834726e+01    0.2242103    0.2031465  80.59 0.0006197281    1.301    0.231
        89 -13.8293    248.6815    186.1726   6.4735065335e+01  -2.8925966012e+00    0.6274344    0.1872733 -43.98  0.002349842    3.364    0.703
        90 -13.8251    249.3075    167.6892   6.1056521624e+01   4.0614520226e-02    0.5943348    0.3008035 -38.94  0.002986379    1.656    0.396
        91 -10.3831    149.2348    195.5622   8.6423891786e+01   1.1575289120e+01    0.1969554    0.1352807  24.61 0.0008776977    1.539    0.350
        92 -11.3021     49.6871     13.9477   6.4914970722e+01   6.7114453351e+01    0.2463598    0.1524365  30.68  0.001341592    1.415    0.293
        93 -10.8928     72.3707     35.3287   6.5577514844e+01   6.0437734088e+01    0.2521548     0.153913  45.22  0.001305982    1.596    0.373
        94 -12.2418    137.6645    193.4205   8.8747864863e+01   1.4062287428e+01    0.2650633    0.2450138  30.14 0.0005873744    1.042    0.040
        95 -10.1362      5.5348    181.3469   1.1977202133e+02   3.4915951029e+01    0.1758039    0.1088867 -58.07 0.0009981645    1.645    0.392
        96 -10.7376      1.7139    190.9534   1.2129507743e+02   3.2962423156e+01    0.1744711    0.1334521 -79.00  0.001149031    1.177    0.150
        97  -8.5575      6.4994    186.8741   1.1994653883e+02   3.3525027137e+01    0.3235478    0.2482432 -87.63  0.002108756    1.071    0.066
        98 -10.1781     11.6518    188.4941   1.1888642961e+02   3.2700196964e+01    0.1257627   0.09711532  87.83 0.0007896213    1.050    0.048
        99 -11.6378    136.6307    186.0070   8.7655159338e+01   1.5887324084e+01    0.3245826    0.1406991 -51.19  0.001220159    2.359    0.576
       100 -12.9551    120.2925    185.2544   9.1521164354e+01   1.8939293801e+01    0.3517355    0.2733055 -57.61  0.001115876    1.323    0.244
       101 -11.0171    105.7826    153.7900   8.9360749453e+01   2.9101698942e+01     0.224725    0.2056796 -32.97 0.0006109812    1.154    0.133
