#   1 NUMBER                 Running object number                                     
#   2 MAG_AUTO               Kron-like elliptical aperture magnitude                    [mag]
#   3 X_IMAGE                Object position along x                                    [pixel]
#   4 Y_IMAGE                Object position along y                                    [pixel]
#   5 X_WORLD                Barycenter position along world x axis                     [deg]
#   6 Y_WORLD                Barycenter position along world y axis                     [deg]
#   7 A_WORLD                Profile RMS along major axis (world units)                 [deg]
#   8 B_WORLD                Profile RMS along minor axis (world units)                 [deg]
#   9 THETA_WORLD            Position angle (CCW/world-x)                               [deg]
#  10 FWHM_WORLD             FWHM assuming a gaussian core                              [deg]
#  11 ELONGATION             A_IMAGE/B_IMAGE                                           
#  12 ELLIPTICITY            1 - B_IMAGE/A_IMAGE                                       
         1 -12.3246    195.9213      1.9508   5.9063595601e+01   3.5902198178e+01    0.3398227    0.1871502  80.98 0.0006463858    1.590    0.371
         2 -13.5559    247.5230     46.1276   6.3263261907e+01   1.8831909164e+01     2.512282    0.4741161 -36.62  0.007665378    5.129    0.805
         3 -13.4623    247.5093     34.3482   6.0872772978e+01   2.0466421328e+01     1.020757    0.6274574 -68.58   0.00452137    1.485    0.327
         4 -16.2819    241.6048     94.5970   7.4345868713e+01   1.2396418589e+01     10.37733     2.381869 -38.78   0.03122187    4.053    0.753
         5 -14.5336    205.6121     43.0578   6.7537582973e+01   2.8769259656e+01     1.248844     1.054866 -32.28  0.007372951    1.388    0.280
         6 -14.0480    234.8495     11.9276   5.7524109825e+01   2.6011832760e+01     1.085148    0.5125888 -86.74   0.00117881    2.249    0.555
         7 -14.3796    248.2024      3.0417   5.4743656971e+01   2.4166795109e+01     1.134085    0.5961549 -35.84  0.003540959    2.076    0.518
         8 -14.9214    201.5734    104.5732   8.3176476717e+01   1.9486659877e+01     3.376586     2.678599  22.89   0.01637955    1.661    0.398
         9 -14.6217    166.9251     55.3072   7.6855494340e+01   3.6392664932e+01     2.282721     1.241585 -88.21  0.002524636    3.926    0.745
        10 -14.5898    235.3463      2.9522   5.5704854488e+01   2.6911062307e+01     1.457856    0.4204767  66.53  0.003091969    2.899    0.655
        11 -14.0480    180.0590     73.7010   7.9356139616e+01   3.0238399482e+01     3.257727    0.8141205 -48.25  0.008119241    5.554    0.820
        12 -13.9738    135.3002     38.5940   7.8327992101e+01   4.6263101583e+01     3.193052    0.6084654  58.89  0.004950554    5.745    0.826
        13 -15.4812    180.2445      5.1902   6.1578382546e+01   3.9268217154e+01     10.76422          nan  61.49   0.02494657    8.092    0.876
        14 -11.8615    147.6795     28.3503   7.2756697272e+01   4.4611076953e+01    0.7281337    0.2366319 -47.64    0.0023372    4.658    0.785
        15 -14.7892    217.2649     33.5981   6.3897369635e+01   2.7307535925e+01     2.230439    0.8342374 -50.02  0.005657047    2.650    0.623
        16 -13.3659    205.3552     17.9483   6.1707463128e+01   3.2006340717e+01     1.038716    0.6641855  87.68  0.003662167    1.441    0.306
        17 -11.5608    120.4521      6.2177   7.1116453509e+01   5.3047358005e+01    0.2876846    0.1482837  61.85  0.001001659    1.690    0.408
        18 -10.1474    105.1053      2.1663   7.2951791423e+01   5.6671747072e+01    0.2047622    0.1360959  37.33  0.001235128    1.324    0.245
        19 -11.9173     69.5026    145.5005   1.2509192597e+02   3.7337842126e+01     0.446711    0.3358348 -86.79  0.001440643    1.409    0.290
        20 -11.7736     66.6633    144.3316   1.2564183392e+02   3.8016503395e+01    0.5251544    0.3122777 -77.83  0.001998419    1.917    0.478
        21 -10.2599     11.5084    141.9983   1.3967243596e+02   4.4410506377e+01    0.1649525    0.1502246 -86.17  0.001186783    1.180    0.152
        22 -12.8016     15.3287    194.0056   1.4401055313e+02   3.2197577177e+01    0.3048115    0.1915375  82.31  0.001013166    1.333    0.250
        23  -9.0733    132.2997    138.6265   1.0702084980e+02   2.7930202702e+01    0.1645404    0.1231554 -88.57  0.000702885    1.749    0.428
        24 -11.9378    180.7086    133.2294   9.4323459606e+01   1.8497784219e+01    0.3842083    0.3144563  50.40   0.00187952    1.243    0.196
        25 -11.1075    160.8173    127.8821   9.7482618591e+01   2.4147501459e+01    0.4411167     0.297648 -45.63  0.001932958    1.468    0.319
        26 -14.9674     46.8616    188.5302   1.3685717903e+02   2.9988281144e+01     1.269675     1.141051 -54.22  0.001481381    1.378    0.275
        27 -13.4831    189.0028     57.5338   7.3581879458e+01   3.0666683182e+01     1.043624    0.5724716  28.57  0.003499196    4.171    0.760
        28 -11.2137    156.2809    101.2650   9.1716936341e+01   3.0807961890e+01    0.2753603    0.2464508  12.00  0.001390214    1.290    0.225
        29 -10.7260    133.5033     93.5373   9.5145903280e+01   3.7561546478e+01     0.295214    0.2540899  87.61 0.0007620397    1.357    0.263
        30  -9.5947    124.3902    100.2859   9.9397131919e+01   3.8150069737e+01    0.1584249    0.1204856   8.25 9.072321e-05    1.756    0.431
        31 -13.2744    155.9529     87.8437   8.8156464275e+01   3.3511872868e+01     1.079104     0.729364  30.28  0.002462517    1.868    0.465
        32 -12.5582    161.8727     81.4057   8.5083147808e+01   3.3291759413e+01    0.9364972     0.627022 -86.93  0.003839993    2.250    0.556
        33 -12.8696    154.1721     75.7388   8.5182661771e+01   3.6144331398e+01       0.3716    0.3069695 -35.02 0.0009812694    1.271    0.213
        34 -13.1691    171.0707     74.0788   8.1187448816e+01   3.2360345827e+01    0.7157696    0.6382821  11.81  0.002168043    1.352    0.260
        35 -11.6826    140.2531     84.7077   9.0965442886e+01   3.7761987145e+01     0.332479    0.3134636 -70.75 0.0006829568    1.110    0.099
        36 -11.0618    141.2609    101.4140   9.5358663455e+01   3.4226284183e+01    0.2994849      0.27372  30.74 0.0008452617    1.146    0.127
        37  -9.7413    202.3295    248.1452   1.1266377086e+02  -7.4294472280e+00    0.1627158    0.1456463   8.32 0.0003546732    1.111    0.100
        38 -10.2468    204.8342     80.8422   7.6805328768e+01   2.3048167921e+01    0.3600079    0.2393046  83.60  0.001635904    1.810    0.447
        39 -10.1550     92.4925    236.5157   1.3282624127e+02   1.3014098354e+01    0.1299395    0.1069467  66.06 3.572041e-05    1.007    0.007
        40 -11.1916    218.2662     72.4505   7.2700584535e+01   2.1321569951e+01    0.3935604    0.3165565  10.47   0.00195164    1.908    0.476
        41 -10.4644    215.4366     68.0144   7.2073778780e+01   2.2700351520e+01    0.4444288    0.2417563 -60.45  0.001909035    2.086    0.521
        42 -10.0532    130.8054     66.1241   8.7832314688e+01   4.3220134212e+01     0.218092    0.2019174 -71.65 0.0008589018    1.202    0.168
        43 -10.0117    218.1308     63.8424   7.0712234952e+01   2.2738471549e+01    0.2173073    0.1710534 -77.00 0.0004724576    1.216    0.177
        44  -9.0308    205.2728    223.6876   1.0796611618e+02  -4.0920087489e+00    0.1186395    0.1060106  78.07 0.0002634059    1.554    0.357
        45 -11.8434      2.7588    178.7872   1.4529727956e+02   3.6712236483e+01    0.4217829    0.1003816 -68.42  0.001769491    2.945    0.660
        46 -14.6467     16.4719    214.8244   1.4541605834e+02   2.7569242383e+01     1.684432     1.173342 -50.87  0.004196125    1.990    0.498
        47 -11.5823    147.0128     96.0783   9.2500882914e+01   3.3999549782e+01    0.4142616     0.341928  23.25 0.0008797866    1.405    0.288
        48  -9.7543    189.9954     36.2469   6.8031839514e+01   3.3432931867e+01    0.1850678    0.1598321  81.86 0.0006082335    1.022    0.021
        49  -9.6600    163.5490     35.1994   7.1890031904e+01   3.9984396252e+01    0.1840804    0.1352159 -36.26 0.0009914837    1.490    0.329
        50 -10.4076    135.1252    120.8884   1.0200631157e+02   3.1383012301e+01    0.3785116    0.1013623 -46.53  0.001041555    3.692    0.729
        51 -14.8068     56.5571    179.3132   1.3354432589e+02   3.0923728803e+01     1.412554     1.254795 -22.27  0.002552137    1.568    0.362
        52 -11.4756    167.5891    113.2178   9.2264005209e+01   2.5717031049e+01    0.3981241    0.3255245 -81.68 0.0009611478    1.420    0.296
        53  -9.2335    108.8532    111.6206   1.0666949964e+02   3.8827447241e+01     0.194928    0.1405398  54.97 0.0002922403    1.546    0.353
        54 -11.5743    134.9230    107.2870   9.8534361655e+01   3.4400856149e+01     1.056873    0.3122974 -42.79   0.00311102    3.422    0.708
        55 -11.5482    132.2578     26.0077   7.5051900082e+01   4.8468655177e+01    0.3056106    0.1786848  68.54  0.001425121    1.798    0.444
        56 -10.6599    193.0897    195.3327   1.0515477083e+02   3.1517230375e+00    0.8277028    0.3958366 -64.13  0.001856089    9.041    0.889
        57  -9.6288    218.5917     19.7392   6.0690071705e+01   2.8733577559e+01    0.1761657    0.1020268 -50.68 0.0009446812    1.633    0.387
        58  -9.5948    162.1967     17.0450   6.7104451892e+01   4.2387037315e+01    0.1667857    0.1506604  75.44 0.0002774812    1.057    0.054
        59 -11.6719      9.0555    170.6149   1.4325716650e+02   3.8027714639e+01    0.2199959    0.1350136 -88.07  0.001001357    1.347    0.257
        60 -10.6685     92.0539     16.5132   8.1311696758e+01   5.8039790092e+01    0.1852979    0.1091093  50.71 0.0005539934    1.535    0.349
        61 -11.9836    246.5345    163.9700   8.8521004645e+01  -9.9385938447e-01    0.4563465    0.2831592   1.14  0.001919114    2.786    0.641
