#   1 NUMBER                 Running object number                                     
#   2 MAG_AUTO               Kron-like elliptical aperture magnitude                    [mag]
#   3 X_IMAGE                Object position along x                                    [pixel]
#   4 Y_IMAGE                Object position along y                                    [pixel]
#   5 X_WORLD                Barycenter position along world x axis                     [deg]
#   6 Y_WORLD                Barycenter position along world y axis                     [deg]
#   7 A_WORLD                Profile RMS along major axis (world units)                 [deg]
#   8 B_WORLD                Profile RMS along minor axis (world units)                 [deg]
#   9 THETA_WORLD            Position angle (CCW/world-x)                               [deg]
#  10 FWHM_WORLD             FWHM assuming a gaussian core                              [deg]
#  11 ELONGATION             A_IMAGE/B_IMAGE                                           
#  12 ELLIPTICITY            1 - B_IMAGE/A_IMAGE                                       
         1 -14.0595    118.8116     80.5859   2.3287451717e+01   4.3006324173e+01     2.329519     1.372848 -13.51   0.00689527    4.516    0.779
         2 -13.0660    161.2854     60.8002   8.2957769252e+00   3.6436880873e+01     1.412179    0.9364882  -7.00  0.006059362    2.555    0.609
         3 -13.8972    171.8497     44.1627   2.0484914569e+00   3.6395627832e+01     1.488668    0.8863121  88.89   0.00710895    1.880    0.468
         4 -13.1267    204.1958     59.7129   2.2229176973e+00   2.7089611345e+01      1.46752    0.6575084 -28.13  0.006360323    2.450    0.592
         5 -12.0366    232.1674     33.2219   3.5371383832e+02   2.5010628841e+01    0.5924238    0.4475748  25.31  0.003682627    2.260    0.558
         6 -12.9133    247.2389     37.5889   3.5365092315e+02   2.1781338035e+01     1.674888    0.4679031 -33.04  0.007419908    2.832    0.647
         7 -11.1510     27.1226     30.1701   4.2407772811e+01   7.1659241534e+01    0.5032826    0.2067142 -42.19  0.002072637    2.457    0.593
         8 -11.2547     21.0542     17.4554   3.9948584959e+01   7.4913286096e+01    0.3363223    0.2100371   0.40  0.001655699    2.031    0.508
         9 -10.3408    110.8107     14.5758   1.4001512195e+00   5.5421749162e+01    0.5634934    0.1509266  54.70  0.001899497    3.222    0.690
        10 -10.7676     12.9966      5.7130   3.9109868157e+01   7.8027387517e+01    0.1805616    0.1482039  10.97  0.000818404    1.083    0.077
        11  -8.9303     42.3219    235.6692   7.1283303185e+01   1.9094391782e+01    0.1346865   0.06811751  51.85  0.000704943    1.697    0.411
        12 -10.0772    115.0611    223.7768   5.3215703223e+01   1.2685914490e+01    0.3500708    0.1532251 -41.31  0.001558826    2.844    0.648
        13 -11.4558    167.8614    220.8424   4.1469063184e+01   6.3327142395e+00    0.3066232    0.2632875  79.30  0.001945419    2.086    0.521
        14 -11.0704    127.3263    218.3285   4.9740744334e+01   1.2050555880e+01    0.3582768    0.1534245  33.96  0.001645814    1.965    0.491
        15  -9.2601     13.4683    216.0311   7.7160919380e+01   2.5932511150e+01    0.1650849   0.08396102 -53.40  0.000809829    2.601    0.616
        16 -11.3308    172.5044    214.5207   3.9607656775e+01   6.7282497851e+00    0.2699834    0.1899372  -0.44   0.00165207    1.354    0.262
        17  -9.8973    133.0122    214.3940   4.7930940961e+01   1.1991418581e+01    0.2265387    0.1599143 -17.42  0.001266355    1.620    0.383
        18 -10.9374     92.2363    212.6355   5.7316068196e+01   1.7829391327e+01     0.361859    0.2119955  29.72  0.001851713    1.463    0.316
        19 -11.3554     85.4981    207.8543   5.8450931445e+01   1.9701440409e+01    0.5509117    0.3428266  80.31   0.00263042    2.310    0.567
        20  -9.6945     77.3048    212.8718   6.1041882816e+01   1.9705831558e+01    0.2520666    0.1547335  39.07   0.00132892    1.366    0.268
        21  -9.6199     42.4780    213.4957   6.9855233599e+01   2.3649981389e+01    0.1305044    0.1081287  46.26  0.000810234    1.013    0.013
        22 -11.9875    182.8233    196.4716   3.4720476228e+01   8.2357968697e+00    0.5359313    0.3730388   1.56  0.003168742    1.432    0.302
        23 -12.9354    189.0546    204.8067   3.4903405018e+01   6.1116838763e+00    0.7335968    0.3827569  39.16  0.003904331    2.101    0.524
        24 -12.8091     97.1794    203.7132   5.5024857228e+01   1.8996990132e+01    0.7889475    0.7039391 -63.29  0.004858912    1.285    0.222
        25 -12.5193     79.3712    172.5054   5.5660078102e+01   2.8543379592e+01    0.6094406    0.4584159  30.20  0.003132314    1.261    0.207
        26 -13.3250     88.5280    196.1381   5.6287018353e+01   2.1804958223e+01     1.035199    0.7674023  10.84  0.005505697    1.487    0.328
        27 -13.0253     95.5515    181.5289   5.2454755657e+01   2.4057526653e+01    0.9011403    0.5220667  24.55  0.004067859    1.744    0.427
        28 -12.7240     78.0846    189.6267   5.8258061850e+01   2.4691256805e+01     1.005642    0.5598143 -70.56  0.004623381    2.070    0.517
        29 -13.1979     85.5393    184.2728   5.5549008766e+01   2.4885652906e+01    0.9729411    0.5698013  77.67   0.00397616    2.681    0.627
        30 -11.9298    125.3481    197.1862   4.7229658129e+01   1.6313283010e+01    0.5652723     0.414125 -50.14  0.003140707    1.511    0.338
        31 -12.6415    130.7743    189.0429   4.4679920188e+01   1.7120955946e+01    0.7240537    0.4400673 -45.66  0.003604948    1.745    0.427
        32 -10.2761    140.5919    197.9394   4.3807018814e+01   1.3944701551e+01    0.2868773    0.2315088 -22.61  0.001697603    1.275    0.215
        33 -13.0879    103.7355    191.8589   5.1788734609e+01   2.0574003881e+01    0.8305097    0.4521895 -52.15  0.003870758    1.991    0.498
        34 -12.2845    115.4367    194.3902   4.9215405999e+01   1.8329294145e+01    0.5291126    0.4568839   6.61  0.003117883    1.159    0.137
        35 -11.1869    248.3054    192.4628   2.3139805452e+01   8.6252405019e-01    0.3661683    0.1834675 -34.53   0.00228364    1.655    0.396
        36  -9.5453     14.6617    191.6601   7.5806781604e+01   3.1328085881e+01    0.1270129   0.09451249 -39.17 0.0006418985    1.763    0.433
        37 -10.9007    226.8983    192.2346   2.6307014444e+01   3.2854636611e+00    0.4937851    0.2110496 -32.80  0.002631578    2.014    0.504
        38 -11.8727    168.0681    184.0878   3.5546756233e+01   1.2417496853e+01    0.5051256    0.4392444 -12.84  0.003179751    1.059    0.056
        39 -10.5213    151.5401    185.6682   3.9353431310e+01   1.4615767508e+01    0.2428148    0.1162733  34.04  0.001083309    1.966    0.491
        40  -9.7694     12.1328    183.7347   7.6112933354e+01   3.3438466881e+01    0.2704585    0.1263328  74.72  0.001222271    2.105    0.525
        41 -11.1122    236.6712    179.5191   2.2650214600e+01   3.8798835238e+00    0.3257583     0.240272  40.07  0.002251725    1.800    0.444
        42 -10.9116    148.6384    180.5025   3.9109270725e+01   1.6042965267e+01    0.2736328    0.1868434  60.52  0.001299319    2.215    0.548
        43 -11.2918    118.2621    177.5777   4.5889625014e+01   2.1439522765e+01    0.3629321    0.2385639 -63.76   0.00173587    1.827    0.453
        44 -12.1445     61.8117    173.2153   6.0866078806e+01   3.0772977636e+01    0.7713588    0.5932937 -50.90  0.004062821    1.443    0.307
        45 -10.3184     69.8537    177.8770   5.9102691178e+01   2.8569069488e+01    0.2165237    0.1987243 -19.86  0.001233913    1.258    0.205
        46 -12.2552    133.6806    167.1730   4.0223347529e+01   2.1145379808e+01    0.4782366     0.381302  63.86  0.002486238    1.572    0.364
        47 -12.4977    171.9254    162.0014   3.0675213598e+01   1.5802142554e+01    0.7709691    0.4981308 -31.74  0.003974872    1.522    0.343
        48 -11.1085     88.2898    165.6761   5.2076294388e+01   2.8869881816e+01     0.401907    0.2334234 -43.91  0.001611492    1.964    0.491
        49 -11.6284     56.7687    168.3752   6.1790617325e+01   3.2630077354e+01    0.6603674    0.4679235  22.84  0.003302141    1.447    0.309
        50 -12.5508    213.4020    160.7781   2.2876511201e+01   9.6514121282e+00     0.546078    0.5127276  12.71  0.003872338    1.265    0.210
        51 -11.4888    150.8283    169.1420   3.6565395593e+01   1.7901452411e+01    0.3367182    0.2617208 -26.08  0.001836209    1.310    0.237
        52 -11.1006    224.2967    160.5812   2.1122709431e+01   8.1649374461e+00    0.2433442    0.1803988 -15.52  0.001582465    1.202    0.168
        53 -12.3661     86.5333    158.2903   5.1397598283e+01   3.0945369960e+01    0.5527563    0.3740739 -37.97  0.002525631    1.747    0.428
        54 -11.5376     91.5282    157.3349   4.9765933385e+01   3.0389581006e+01     0.489326    0.2501099 -45.70  0.001953023    2.170    0.539
        55 -10.9533    247.2655    150.4500   1.5994410539e+01   6.5952941618e+00    0.3691749    0.2750444  12.48  0.002581918    1.505    0.336
        56 -10.8581    122.2721    150.7804   3.9970308949e+01   2.6691778915e+01    0.3549643    0.2167595  36.87  0.001579364    1.593    0.372
        57 -13.6696    151.5757    130.6822   2.8450464416e+01   2.5532672959e+01     1.309792    0.8840396  52.54  0.006209294    1.640    0.390
        58 -14.4493    189.6731    132.0934   2.1131212177e+01   1.8179237507e+01     2.729436     1.167558 -47.76   0.01119975    2.420    0.587
        59 -10.4697    139.8403    142.5918   3.3830513099e+01   2.5278507107e+01    0.2484519    0.1784471 -52.40 0.0007630891    1.445    0.308
        60 -10.2803    239.6728    141.3241   1.5302146864e+01   8.8886962075e+00    0.2949341     0.174673 -23.30  0.001724537    1.582    0.368
        61 -14.0474    173.2386    125.4821   2.2722558722e+01   2.2381844901e+01     1.531091      1.39035 -55.90  0.008962953    1.153    0.133
        62 -10.6058     92.5905    147.0923   4.7619009806e+01   3.2737103111e+01     0.293333    0.1977826 -14.63  0.001181434    2.288    0.563
        63 -10.9092     48.7615    137.6494   6.0348537302e+01   4.1708230622e+01    0.3262108    0.2714992 -78.95  0.001292938    1.180    0.153
        64  -9.1867    225.3496    134.3105   1.5916482844e+01   1.1987368529e+01    0.1242472   0.08694007  -5.27 0.0003837315    1.715    0.417
        65 -11.5050     96.7099    132.3515   4.3421719608e+01   3.5678514511e+01    0.5449921    0.2637164 -41.03  0.001954678    2.485    0.598
        66 -10.0089     80.4898    132.4895   4.8608410599e+01   3.8456278192e+01    0.1541202    0.1493162  63.66 0.0008104978    1.009    0.009
        67 -10.5263    133.2842    145.3731   3.6034647233e+01   2.5893066667e+01    0.3955294    0.2301314  -9.49  0.001181462    4.583    0.782
        68  -9.0157     50.6689    129.6890   5.8445552088e+01   4.3626461265e+01    0.1559166    0.1135896 -30.97  0.000704287    1.672    0.402
        69 -10.1243     91.2774    127.1086   4.3989254822e+01   3.7965116835e+01    0.3704123    0.1427602 -58.77  0.001205277    2.802    0.643
        70 -10.6939     39.6620    132.1741   6.2820742589e+01   4.4276060338e+01    0.3492323     0.282389 -32.24  0.001786515    1.433    0.302
        71 -11.2943    109.1222    143.2297   4.2033364372e+01   3.0798955702e+01    0.4427674    0.2854145  86.24  0.001661188    2.746    0.636
        72 -10.6888     57.5433    118.7114   5.3958210555e+01   4.5668706302e+01     0.476076    0.1400301 -61.80  0.001454439    3.195    0.687
        73 -12.3687    130.9885    114.0367   2.9403991006e+01   3.3213479282e+01    0.6257263    0.5294343  15.92  0.002593994    1.386    0.278
        74 -13.5245    126.2636    107.3101   2.8899749701e+01   3.5680359278e+01     1.197661    0.8503149  41.62  0.005532736    1.447    0.309
        75 -11.4145    128.7861     99.3725   2.6120744294e+01   3.6838697031e+01    0.6192303    0.4732217 -59.92  0.002949971    1.378    0.274
        76 -11.8949     74.2298    101.4020   4.3781003786e+01   4.7554294627e+01    0.5588702    0.3932086   5.26  0.002328546    2.040    0.510
        77 -11.9082     80.0917    110.3021   4.3874893067e+01   4.4240029274e+01    0.5953462    0.3981226  11.94  0.002402756    2.120    0.528
        78 -12.2718     78.4724    105.4310   4.3250532226e+01   4.5770937443e+01    0.5468692    0.4621782  -8.89  0.001981427    1.437    0.304
        79 -10.8060    211.1659    101.2439   1.0967845618e+01   1.9486008521e+01    0.5526896    0.2735842  50.67  0.002697918    2.353    0.575
        80 -11.6006    201.0805     99.6219   1.2036641439e+01   2.1606677533e+01    0.6455216    0.4680028 -76.57  0.003466899    1.817    0.450
        81 -11.5223    201.1713     92.6509   1.0415895305e+01   2.2713930027e+01    0.5441641    0.3942589 -54.89  0.003068377    1.338    0.253
        82 -13.6978     95.6422     95.9290   3.4779597200e+01   4.4765082888e+01     1.125371    0.8665223 -32.39  0.005212206    1.485    0.326
        83 -12.2703    131.5361     69.7515   1.6763733731e+01   4.2068567512e+01      0.86464    0.5668799  61.62   0.00394003    1.548    0.354
        84 -12.5735    116.0694     70.7148   2.0896742094e+01   4.5605874644e+01    0.8645579     0.633552  73.63  0.003995225    1.540    0.351
        85 -13.1959    126.8425     85.4295   2.2657237721e+01   4.0164649736e+01     1.263343       1.0372   5.67  0.006060078    1.634    0.388
        86 -11.4031    148.6984    239.0915   4.7834206190e+01   5.8831805996e+00     0.453794    0.1607389  30.91  0.002106569    2.292    0.564
        87 -13.8166     90.1657     80.3398   3.1935804042e+01   4.9497024386e+01     2.193448     1.301058  18.23  0.007287557    3.336    0.700
        88 -13.9442    104.9639     78.4454   2.6553906706e+01   4.6639324942e+01     1.248294     1.156915  60.18  0.006559302    1.058    0.055
        89 -10.9608     36.0041     82.3260   5.5281964420e+01   5.8254687081e+01     0.497372    0.2861738 -24.53  0.001946038    2.393    0.582
        90  -9.4695     20.1104     85.0980   6.3676784938e+01   5.9100887085e+01    0.2354361    0.1816025 -38.93  0.001231022    1.314    0.239
        91 -13.0180     75.0641     77.1957   3.6464765467e+01   5.3312198066e+01     1.182706    0.6917779  23.84  0.004509825    2.359    0.576
        92  -9.5549      4.8944     87.8752   7.1544124491e+01   5.9348287789e+01    0.2300517    0.1702127 -48.79  0.001237974    1.301    0.231
        93 -11.8793    167.5057     73.8706   1.0901853721e+01   3.2874056901e+01     1.039699     0.896617  81.55   0.00587233    1.190    0.160
        94 -12.2478    155.4550    236.3226   4.6103984886e+01   5.4890024072e+00     0.507795    0.2787504 -30.88  0.002848399    2.033    0.508
        95 -12.7230    155.0963     53.5003   7.1803856008e+00   3.9049559021e+01    0.9094918    0.4575607 -34.74  0.003906266    1.967    0.492
        96 -12.6615    163.1275    242.8768   4.5429821054e+01   3.6180808384e+00    0.6776121    0.3357799  30.66  0.003856506    1.690    0.408
        97 -12.7049    220.8758     70.0777   2.8207648806e+00   2.2358704363e+01    0.8016251    0.6999031 -36.03  0.005418401    1.169    0.145
        98 -11.0887     62.1950     70.8025   3.9681757914e+01   5.7222690048e+01    0.4998265    0.2040156 -47.89  0.001789974    2.444    0.591
        99 -12.2128     94.5842     68.0790   2.6361644080e+01   5.1150801360e+01    0.6793026    0.4378892 -57.97  0.002918159    1.770    0.435
       100 -12.1398     87.2450     64.8275   2.7693832790e+01   5.3464334465e+01     1.006695    0.3065515  43.42   0.00301568    3.376    0.704
       101 -10.5360     30.3438     69.7363   5.4971671412e+01   6.2155846737e+01    0.5677815    0.2893162 -12.36  0.001962578    3.451    0.710
       102 -10.1746     43.9841     69.0718   4.7684567620e+01   6.0588666547e+01     0.481481    0.3046145  -9.86  0.001970479    2.361    0.576
       103 -11.8688    123.0750     62.4296   1.6396534370e+01   4.5445627131e+01    0.5328134    0.5036768 -60.64  0.002851119    1.064    0.060
       104 -12.3396     68.0379     61.1940   3.3750348078e+01   5.8275665620e+01    0.7033304    0.4514508  50.62  0.002926792    1.617    0.382
       105 -12.4130     73.7309     53.6752   2.8497172087e+01   5.8654351053e+01    0.8845966     0.414239 -36.19  0.003314767    2.485    0.598
       106 -10.2929     38.3878     58.7946   4.7257814064e+01   6.3849436621e+01    0.2129356    0.1234287 -46.00 0.0009492892    1.686    0.407
       107 -10.1134    132.3069     55.0239   1.1882503097e+01   4.4423885306e+01    0.3029212    0.2184451  73.12  0.001467417    1.409    0.290
       108 -10.6450    110.7334     59.6085   1.8578767668e+01   4.8969775096e+01    0.4412458    0.3177431   5.30  0.001864871    2.268    0.559
       109 -11.8640     63.8751     49.4432   3.0890001699e+01   6.1534306558e+01    0.5268763    0.3255941 -46.54  0.002402479    1.682    0.406
       110 -11.0779     25.7105     47.9266   5.0905697533e+01   6.7984314985e+01    0.6772414    0.3402727  13.44  0.002833643    2.379    0.580
       111 -11.6383    146.0818     45.4612   6.2164100696e+00   4.2461932036e+01     0.403198    0.2795992  47.13  0.001987456    1.636    0.389
       112 -11.4335    212.9775     43.9735   3.5761388050e+02   2.7420156668e+01    0.4999834    0.1822973 -44.32  0.002272983    2.133    0.531
       113 -10.4422     44.7428     49.8858   4.0460022256e+01   6.4923259795e+01    0.3255482    0.2066137  16.56   0.00129561    1.927    0.481
       114 -10.4892    123.8308     40.3565   8.6385489626e+00   4.8825807094e+01    0.3218126    0.2401747  23.19  0.001541861    1.855    0.461
       115 -10.8026    139.9972    245.1315   5.0361850260e+01   6.0033658810e+00    0.4365982    0.2534438   2.31   0.00235938    2.060    0.515
       116  -9.3797      8.6752    247.6712   7.9265250926e+01   1.9997882592e+01   0.09932276   0.08481355 -23.04 0.0007050015    1.699    0.411
       117 -13.4397    187.7424    230.2588   3.9018462637e+01   2.5589368096e+00    0.8168303    0.6712675 -56.31  0.005599133    2.014    0.503
       118 -10.7655     39.2546     35.8898   3.7391609983e+01   6.8710145495e+01    0.3916172      0.20296  26.83  0.001671873    2.155    0.536
       119 -13.4414    237.4762     66.9713   5.1568491365e-01   1.9791287933e+01     1.305732     1.043251  60.37  0.009047695    1.566    0.362
       120 -11.8544    136.5360    233.9385   4.9725844106e+01   8.1887000968e+00    0.6791463    0.4500225  -7.60  0.003922645    1.741    0.426
       121 -11.3133    134.5636     34.3419   4.5322789606e+00   4.6919371608e+01    0.2911047    0.1693412  63.69  0.001347082    1.615    0.381
       122 -11.3401     13.4571     26.0717   5.0806243694e+01   7.4100570800e+01     0.425748    0.2371641 -62.38   0.00209936    1.982    0.495
       123  -9.2993    106.3060     20.3323   4.6152367503e+00   5.5956893105e+01    0.1449152    0.1019559  36.49 0.0007039005    1.663    0.399
       124  -9.6362     38.2677    228.7624   7.1834537065e+01   2.0890278165e+01    0.1926433   0.09639221  14.13 0.0008971279    2.407    0.585
       125  -9.7135     63.4696     16.0294   1.4690762148e+01   6.7080535293e+01    0.1914181    0.1167072   6.85 0.0008098497    2.578    0.612
       126 -10.0241      2.7431     13.4171   5.4371146716e+01   7.7629382783e+01    0.1739361     0.106832  -1.99 0.0009507223    1.628    0.386
       127 -11.3300    127.1473    226.7924   5.0869443544e+01   1.0580883829e+01    0.3599014     0.206713  48.59  0.001848077    2.061    0.515
