#   1 NUMBER                 Running object number                                     
#   2 MAG_AUTO               Kron-like elliptical aperture magnitude                    [mag]
#   3 X_IMAGE                Object position along x                                    [pixel]
#   4 Y_IMAGE                Object position along y                                    [pixel]
#   5 X_WORLD                Barycenter position along world x axis                     [deg]
#   6 Y_WORLD                Barycenter position along world y axis                     [deg]
#   7 A_WORLD                Profile RMS along major axis (world units)                 [deg]
#   8 B_WORLD                Profile RMS along minor axis (world units)                 [deg]
#   9 THETA_WORLD            Position angle (CCW/world-x)                               [deg]
#  10 FWHM_WORLD             FWHM assuming a gaussian core                              [deg]
#  11 ELONGATION             A_IMAGE/B_IMAGE                                           
#  12 ELLIPTICITY            1 - B_IMAGE/A_IMAGE                                       
         1 -12.9893      3.2942     62.7596   8.7332773797e+01   6.0905169330e+01     1.375139    0.3155766 -65.21  0.003469529    3.351    0.702
         2 -12.2336     26.5961     50.5405   7.6231420300e+01   6.1789718237e+01     1.395195    0.7429459 -75.72   0.00600399    3.748    0.733
         3 -12.8854     38.2306     49.4936   7.1658544755e+01   6.0930254394e+01     1.055339    0.5875946 -53.30  0.005868186    1.614    0.380
         4 -11.1163     80.2615     27.7337   4.9017140525e+01   5.8893262345e+01    0.5620557    0.2633893 -27.52  0.002555589    2.138    0.532
         5 -12.0928    113.0663     26.0823   3.8897775562e+01   5.2709391535e+01     0.551128    0.4373382  10.20  0.003090795    1.257    0.204
         6 -11.1059     23.2152     23.4124   6.8860211768e+01   6.7015854917e+01    0.4897343    0.2102525 -31.74  0.001327975    2.210    0.548
         7 -11.2123     61.9393     13.4546   4.9298794895e+01   6.3838297285e+01    0.5357481     0.378222  26.16  0.003335582    1.350    0.259
         8 -11.7082     31.2809     14.6150   6.1918051267e+01   6.7649108630e+01     0.625038    0.3857805 -29.67  0.002017058    1.306    0.234
         9 -10.2939     24.1823      7.8077   6.2090236381e+01   6.9382121343e+01    0.2211628    0.1568917  41.77 0.0009924443    2.147    0.534
        10 -11.6184     28.5155      2.6683   5.7781283006e+01   6.9655429041e+01    0.4680898    0.2449662  22.72   0.00280596    1.999    0.500
        11 -10.2777     50.8494     16.4240   5.4721627282e+01   6.5035813671e+01    0.5559788    0.3208942 -38.21  0.003188491    1.667    0.400
        12 -11.7586     55.3725     12.6035   5.1332489448e+01   6.4928703421e+01    0.3056197    0.1989296 -21.31 0.0009213565    1.346    0.257
        13 -12.2094     10.8937      3.1599   6.6250972565e+01   7.1248887147e+01    0.2180069    0.1568937 -18.53 0.0003841707    1.082    0.076
        14 -10.3482     41.8015     18.6809   5.9251213963e+01   6.5855041224e+01    0.4918227    0.3404404  35.41  0.003159375    1.709    0.415
        15  -9.8734     38.8051      9.0268   5.6284541991e+01   6.7608477137e+01     0.577712    0.4862137 -49.31  0.003280208    1.783    0.439
        16 -12.4972      4.0987     17.7934   7.5242151275e+01   6.9381959263e+01     0.412953    0.3278731 -73.10  0.001424599    1.847    0.459
        17 -11.8923      7.0333     10.2649   7.1084056582e+01   7.0437933495e+01    0.4627861    0.2513681 -11.28  0.001274902    1.996    0.499
        18 -11.4198     13.1140     23.2922   7.3159900140e+01   6.7839956567e+01    0.4388461    0.2171007 -20.40  0.001290365    2.312    0.567
        19 -11.2843     18.8297     16.2514   6.8033193662e+01   6.8570607489e+01    0.5279614    0.2619483 -18.68  0.002841655    2.359    0.576
        20 -10.6357     15.1160     13.3936   6.8572895277e+01   6.9334201678e+01     0.190803    0.1188988 -33.49  0.000663801    1.212    0.175
        21 -12.3968    165.2753     14.3708   2.4131320789e+01   4.1592839559e+01    0.6380043    0.4382049  51.84  0.003289289    1.337    0.252
        22 -12.2642    161.5148     20.5077   2.6702506736e+01   4.1879599952e+01    0.5781826    0.3912605  69.20  0.002869231    1.467    0.319
        23 -10.2122     94.1368     20.0808   4.1711764235e+01   5.7361540883e+01    0.4395648    0.1928406 -24.00  0.001553227    2.382    0.580
        24 -11.8429    128.4621     10.8771   2.9669046561e+01   5.0968163651e+01    0.3962303    0.3291985 -68.36 -8.031007e-05    1.531    0.347
        25 -10.7159    128.9959     19.8071   3.2796581871e+01   4.9886255507e+01    0.4846179    0.2342684 -24.02  0.002103137    2.178    0.541
        26 -12.9449    238.0433     17.4345   1.5876805728e+01   2.3099792672e+01    0.3602563    0.2891155 -79.46 0.0005206435    1.172    0.147
        27 -12.0737    234.6813     10.5991   1.4562863548e+01   2.4652386051e+01    0.3129847    0.2600934 -10.76 0.0005873609    1.471    0.320
        28 -10.1387     74.0108      6.9508   4.2302354542e+01   6.2638903613e+01    0.3475802    0.1846581   0.14  0.001381095    2.464    0.594
        29 -10.4333     74.4475      2.3482   4.0100053339e+01   6.3056694888e+01    0.2648525    0.1957764 -65.71  0.001403472    2.742    0.635
        30 -11.5926     78.1602     10.5077   4.2538919013e+01   6.1500878169e+01    0.4876643    0.1987465  44.10 0.0007684843    2.304    0.566
        31 -10.7185     70.6360     13.2533   4.6185954759e+01   6.2470436650e+01    0.3541426    0.2246996  -2.46  0.001947289    1.661    0.398
        32  -9.5266    123.5664     13.7756   3.1788166005e+01   5.1803064149e+01    0.2537953    0.1337667 -14.52   0.00113225    2.160    0.537
        33 -11.1735    118.5241     12.7969   3.2558097947e+01   5.3051189151e+01    0.3558792    0.2343535  25.53  0.001131761    1.567    0.362
        34 -10.0415    118.2605      8.0008   3.0797233327e+01   5.3596812208e+01    0.2587378    0.2056423 -27.84 0.0009616718    1.362    0.266
        35 -10.0674     83.8821     13.6620   4.2111667856e+01   6.0091527936e+01    0.2029239    0.1554313  -4.80 0.0003221983    1.199    0.166
        36 -10.7583      9.6973     15.6518   7.1919983133e+01   6.9374378570e+01    0.3688443    0.1614332 -21.04  0.001857498    2.864    0.651
        37 -11.0483    155.5470     11.1256   2.4681331056e+01   4.4370490507e+01     0.464074    0.2226985 -32.81  0.001906005    2.167    0.539
        38 -10.6618    138.5458     11.0969   2.7726907018e+01   4.8551334015e+01    0.3474847     0.223591 -37.79  0.001753394    1.716    0.417
        39 -12.0172    145.5416      7.8935   2.5328291500e+01   4.7162436940e+01    0.4044408    0.2882436  -7.90 0.0007107324    1.568    0.362
        40 -10.9136    148.6698      1.8937   2.2769376831e+01   4.6939867573e+01    0.2659404    0.1785625  54.68 0.0005514423    1.303    0.233
        41  -9.8778    109.4672      5.5078   3.1848365694e+01   5.5786906103e+01    0.1910664    0.1057161  44.64 0.0009456061    1.589    0.371
        42 -11.3482    241.3551      8.9172   1.3559404234e+01   2.3271112626e+01    0.2228995    0.1593267 -84.52 0.0006016122    1.338    0.252
        43 -12.3101    214.1031      6.1071   1.5473367770e+01   3.0101749010e+01    0.5483455    0.4433617 -56.61  0.002102571    1.204    0.169
        44 -10.9398    164.6270      6.3477   2.1709753568e+01   4.2552597426e+01    0.4402564    0.2113183 -26.41  0.001793826    2.205    0.547
        45  -9.6295    113.2280      8.6666   3.2201721681e+01   5.4654160816e+01    0.3173065     0.104005  54.53  0.001226192    2.634    0.620
        46 -10.9147    190.5692      5.6817   1.8001011134e+01   3.6038198330e+01    0.3642932    0.3378649  37.04  0.002242345    1.175    0.149
        47 -10.7465     92.2984      6.6569   3.6709579513e+01   5.9251549345e+01    0.3380625    0.1763455  45.07 0.0006595977    1.723    0.420
        48 -10.2549    131.1315      5.4471   2.7156313552e+01   5.0863449387e+01    0.2102219    0.1700676  18.80 0.0003458314    1.236    0.191
        49  -9.8787     68.8773      5.7027   4.3429597549e+01   6.3659770099e+01    0.1656696    0.1394272   5.72 0.0004398999    1.066    0.062
        50 -10.5593    209.5303      1.5134   1.4758826210e+01   3.1687253121e+01    0.2597855    0.1596358  79.40 0.0007304771    1.531    0.347
        51  -9.8592    107.9355     10.2748   3.4102443733e+01   5.5643659359e+01     0.375021    0.1810223 -13.08  0.001094842    2.430    0.588
        52 -11.7143     18.7780      3.7519   6.2751611248e+01   7.0483873475e+01    0.5199798    0.3186879  12.82  0.003505152    1.671    0.401
        53 -11.1738    243.3353      2.7212   1.1962872611e+01   2.3469665744e+01    0.3277758    0.1601654 -49.36  0.001383055    1.891    0.471
        54 -10.1140    100.4459      6.8912   3.4632517864e+01   5.7571966315e+01    0.1848574    0.1213588 -12.89 0.0004305095    1.542    0.351
        55 -10.2838    178.4363      3.2186   1.8823458707e+01   3.9348171082e+01    0.2674211    0.1768534  69.75  0.001003139    1.373    0.272
        56  -9.8616    126.1714      2.7387   2.7149609825e+01   5.2271689027e+01    0.1901289    0.1352831  32.07 0.0006100843    1.335    0.251
        57  -9.5137     98.2856      3.0229   3.3596116470e+01   5.8396397203e+01    0.1533567    0.1083887 -12.66 0.0006034991    1.410    0.291
        58 -11.4905    237.0264      1.8227   1.2280718270e+01   2.5024752551e+01    0.3174273     0.171174  74.73  0.001614654    1.742    0.426
        59  -9.5531     90.9636      1.8174   3.5022581569e+01   5.9995115911e+01    0.1710288    0.1412128  19.51            0    1.024    0.024
        60  -9.2436     53.6729      1.2723   4.6753597634e+01   6.6575602467e+01   0.09861479   0.09382133 -33.85  0.000372372    1.582    0.368
        61 -11.0918     35.4761    161.3605   9.2643236461e+01   3.7250584992e+01      0.31102    0.2406989  17.76 0.0001386979    1.908    0.476
        62 -11.0619    247.6612    250.0759   6.4451926295e+01  -1.0409122287e+01    0.2269741    0.1457675  23.40  0.001570528    1.195    0.163
        63 -12.4714    226.6234    245.1680   6.7153054140e+01  -6.7867080601e+00    0.5653266    0.3517946   8.59  0.003486196    1.811    0.448
        64 -12.5743    233.3085    246.1583   6.6195151797e+01  -7.9065511367e+00    0.4947708    0.3399549 -18.74   0.00343576    1.619    0.382
        65 -11.9335     89.1277    249.3171   9.0935333692e+01   1.4035244403e+01    0.3048072     0.193009  46.83 0.0008621941    1.329    0.248
        66 -10.2398     72.4313    250.1236   9.3682804093e+01   1.6161071233e+01    0.1769341    0.1306362  40.35  0.001314934    1.565    0.361
        67 -11.9670     28.7171    246.1978   1.0015491727e+02   2.2030167424e+01    0.4523484    0.2013159  83.68  0.002873676    2.116    0.527
        68 -12.2861     19.0182    237.2149   1.0113443767e+02   2.4535305401e+01     0.424666    0.2491669  55.04  0.003277467    1.343    0.255
        69 -12.8219      6.1523    245.5003   1.0339681232e+02   2.4457518304e+01    0.5915708    0.3523336  76.63  0.003092286    1.179    0.152
        70 -10.9930     17.4880    247.4215   1.0186104924e+02   2.3017521035e+01    0.2147182    0.1328622 -83.08 0.0007122264    1.473    0.321
        71 -11.7705     14.4744    245.0133   1.0218386416e+02   2.3713636504e+01    0.3422772    0.1536604 -80.06  0.001407843    1.969    0.492
        72 -11.4858     36.8713    165.8426   9.2808820476e+01   3.6163029310e+01    0.4302598    0.2299712  79.70  0.002350236    1.966    0.491
        73 -10.5665     33.2194    166.2189   9.3597777535e+01   3.6463505025e+01    0.2053176    0.1466506  83.89 0.0002981903    1.168    0.144
        74  -9.1552     25.6413    169.6787   9.5447419678e+01   3.6502215659e+01    0.1060907   0.07790804 -49.44 0.0007044174    1.768    0.434
        75 -10.4456      5.0652    168.4855   9.9358506864e+01   3.8577219044e+01    0.1377512   0.09960055  42.29  0.001031466    1.591    0.371
        76 -11.9370     51.9674    162.2154   8.9225723217e+01   3.5246373590e+01    0.6227501    0.4483295  86.25  0.003956347    1.246    0.198
        77 -10.5522     44.5876    162.7166   9.0861620846e+01   3.5985703861e+01    0.2491032    0.1010452 -69.32  0.001212583    2.156    0.536
        78  -9.3549    210.9820    166.0149   5.5980915839e+01   6.5898619682e+00    0.1656715    0.1510597   6.47 0.0004989884    1.041    0.039
        79  -9.7893     67.1956    165.3726   8.6324213738e+01   3.2673558352e+01    0.1804918    0.1000978  50.98 0.0009542513    1.751    0.429
        80  -9.4490    112.0000    164.0095   7.6254501370e+01   2.6162902755e+01    0.2111694   0.07545765 -55.02 0.0005063413    2.858    0.650
        81  -9.3944    221.2430    161.0128   5.3031053978e+01   5.3581708699e+00    0.1690078     0.113814 -31.37 0.0003446364    1.501    0.334
        82 -12.0976     21.0481    157.1333   9.5249272034e+01   3.9537508453e+01    0.3827284    0.3521462  13.29  0.002981245    1.585    0.369
        83 -11.1709     10.2942    152.7384   9.7090679286e+01   4.1376703870e+01    0.2512693    0.1737245  56.34 0.0005970418    1.442    0.307
        84  -9.1664    200.6647    162.3125   5.7189163139e+01   9.2631463747e+00      0.13688    0.1142158  87.15 0.0004212706    1.685    0.407
        85  -9.4028    222.7635    152.0295   5.0832924891e+01   6.4769213929e+00    0.1799754    0.1138955 -33.57  0.000550104    1.578    0.366
        86  -9.7252    176.7716    149.8116   5.9355852056e+01   1.6424829936e+01    0.1953768    0.1734257  78.66 0.0005569027    1.309    0.236
        87  -9.8419     14.8725    147.9067   9.5692804694e+01   4.2014861238e+01    0.1592868    0.1075613  77.36 0.0008143667    1.321    0.243
        88 -10.1230    207.0729    146.5011   5.2552693570e+01   1.0616097832e+01    0.2203679     0.137324  45.29  0.001023143    1.561    0.359
        89 -10.4177    218.7196    144.5615   4.9931714478e+01   8.5103938327e+00    0.4097057    0.1183959  42.86  0.001305048    3.499    0.714
        90  -9.3399    204.5321    141.5302   5.1928967809e+01   1.2005886645e+01    0.1440575    0.1376237  13.75 8.232355e-05    1.033    0.032
        91  -9.3263    240.3140    140.3178   4.5164272334e+01   4.8009015246e+00    0.1439339    0.1012411   8.99 0.0004308491    1.648    0.393
        92  -9.8859     13.6043    140.1440   9.5221559162e+01   4.3764194696e+01    0.1565043   0.07934114 -64.07 0.0001160055    1.621    0.383
        93  -9.4361    143.7791    137.0815   6.3816093165e+01   2.5805565547e+01    0.1892724    0.1203677 -48.85 0.0005386929    1.611    0.379
        94 -11.0175      9.2576    136.2350   9.5805727355e+01   4.4932867466e+01    0.1927664    0.1404286 -87.00 0.0002356595    1.085    0.079
        95 -10.5394    241.1485    134.3254   4.3681860411e+01   5.5573540453e+00    0.2452086    0.1898753 -33.10 0.0005635792    1.249    0.199
        96  -9.7609     20.8292    134.7838   9.3020661221e+01   4.4319920631e+01    0.1636484     0.110862  83.98 0.0006794318    1.356    0.263
        97 -10.1781      2.9514    134.6531   9.7060869706e+01   4.5724447076e+01     0.150327    0.1205113 -88.12 0.0006972653    1.085    0.078
        98 -10.6748     79.6930    132.3524   7.8365709889e+01   3.8170851370e+01    0.2247176    0.2049821 -60.15 0.0003219848    1.112    0.101
        99 -11.2472     54.9519    132.3645   8.4518591273e+01   4.1415052510e+01     0.495713    0.2236009  32.53   0.00234582    2.579    0.612
       100 -11.3510     36.7372    130.5182   8.8717903789e+01   4.3794743971e+01    0.4078338    0.1964247 -56.04  0.002147732    1.837    0.456
       101 -11.2122     73.6896    129.0356   7.9279997778e+01   3.9760596463e+01    0.2967727    0.2718926  87.90  0.001080165    1.065    0.061
       102  -9.3543     56.5157    126.6016   8.3215489234e+01   4.2514214732e+01    0.1252269     0.109477 -76.09 -6.858095e-05    1.022    0.021
       103 -10.9936     14.8681    125.6646   9.3392323173e+01   4.6772572537e+01    0.3422532    0.1890544  33.08   0.00209664    2.144    0.534
       104 -11.3554     10.5666    123.0696   9.4129719953e+01   4.7653454101e+01    0.3123411     0.190687 -72.53  0.001735458    1.262    0.207
       105  -9.4807    219.5571    123.9781   4.5043583094e+01   1.1747163434e+01    0.2195258     0.138983 -32.57 0.0007112536    1.548    0.354
       106 -10.0364    243.5282    122.0966   4.0498544087e+01   6.9678911633e+00    0.2147356    0.1288554 -33.43 0.0007225174    1.558    0.358
       107 -10.4126     19.7007    121.6148   9.1735906277e+01   4.7271002412e+01    0.1554302    0.1184908 -71.47 0.0007688837    1.059    0.056
       108 -12.4406     15.6040    114.9273   9.1918199563e+01   4.9043181325e+01    0.5309958    0.3283372 -80.69  0.001027067    1.384    0.277
       109 -11.1967      1.3767    118.5640   9.5848549988e+01   4.9241517879e+01    0.2016153   0.08155967 -72.95 0.0002112933    1.861    0.463
       110 -11.9698     15.5058    108.2327   9.1065129504e+01   5.0504204753e+01    0.5142028    0.3071226  -3.27  0.002914556    2.793    0.642
       111 -10.3765     72.5494    116.6331   7.7255677610e+01   4.2689944622e+01    0.2951478    0.1992937 -81.92 0.0007753498    1.740    0.425
       112  -9.4822     32.6131    117.3015   8.7892310345e+01   4.7104831041e+01    0.1247849    0.0804987  71.79 0.0007016797    1.790    0.441
       113  -9.8686    179.2859    116.0057   5.0953582546e+01   2.2236865151e+01    0.2188989    0.1983414 -34.85  0.001145819    1.111    0.100
       114  -9.9838     86.1218    116.1442   7.3552105610e+01   4.0821764960e+01    0.2004668    0.1781515 -41.61 0.0003673466    1.168    0.144
       115 -10.8171     52.3866    115.4279   8.2402787369e+01   4.5489760410e+01     0.352208    0.1973721 -73.47  0.001138289    1.807    0.447
       116 -11.5027     54.8553    109.2314   8.0614222876e+01   4.6587278562e+01    0.3113084     0.212862 -61.53 0.0003524636    1.259    0.206
       117 -10.5286     52.0763    103.6797   8.0327459667e+01   4.8138473617e+01    0.2280929    0.1951426  63.04 0.0007436114    1.312    0.238
       118 -10.2122    214.0434    115.2510   4.3944604453e+01   1.4438038956e+01     0.223349    0.1932817  18.80  0.000507815    1.198    0.165
       119  -9.9138    183.7614    114.4077   4.9620201227e+01   2.1508023200e+01    0.2216014    0.1395488  39.57 0.0009517166    1.644    0.392
       120 -11.0258    249.5503    111.9206   3.7188114929e+01   7.2959647672e+00     0.268496    0.2313928 -32.82 0.0005398158    1.100    0.091
       121 -10.4944     94.4525    112.3337   7.0510973254e+01   4.0337934363e+01    0.2839495    0.2555202 -40.97  0.001086762    1.129    0.114
       122  -9.0644    207.6962    110.7129   4.3994846579e+01   1.6655438063e+01    0.1502338    0.1146875  14.44 0.0002699145    1.564    0.360
       123 -11.1845      2.5506    107.3799   9.4315414431e+01   5.1555135562e+01     0.436457    0.2085511 -61.37  0.002600296    1.594    0.373
       124 -10.6062     82.6730    107.8323   7.2684280995e+01   4.3187934212e+01    0.2444965     0.216492  14.02  0.001272014    1.327    0.247
       125 -10.0420     35.6152    108.1520   8.5679056457e+01   4.8846557811e+01    0.1782914   0.08936927 -56.15 0.0006133331    1.643    0.391
       126 -11.8643     22.4463     99.8236   8.7958028053e+01   5.1808590580e+01    0.5155005    0.2130969  52.49  0.002291646    3.585    0.721
       127 -11.6290     27.6766    104.7309   8.7290545714e+01   5.0309117494e+01     0.499614    0.3082528  -4.58  0.002454669    2.679    0.627
       128 -10.5409    111.8096    105.9239   6.4399943901e+01   3.8681524944e+01    0.2682135    0.2000702  42.34  0.001353037    1.393    0.282
       129  -9.9138    118.9074    104.1787   6.2111085106e+01   3.7697701535e+01    0.2034163    0.1764521  -8.78  0.001066848    1.328    0.247
       130 -10.3360     37.9462    102.7733   8.4123745301e+01   4.9812247830e+01     0.223216     0.175269 -77.18 0.0009434212    1.180    0.153
       131 -10.7537     14.1907    102.8272   9.0668148712e+01   5.1770722653e+01    0.2477241    0.1493535 -16.47  0.001409215    2.616    0.618
       132 -10.8374    144.1558     98.8300   5.4389604379e+01   3.3530726330e+01    0.3688468    0.3157374 -73.48  0.001230698    1.355    0.262
       133 -11.5279     62.2648     98.5175   7.6371150313e+01   4.8065018135e+01    0.3020914    0.2750739 -15.93  0.001139173    1.251    0.201
       134 -10.5969     66.8595     97.9027   7.4914313788e+01   4.7609109818e+01    0.1946114    0.1730754 -53.36            0    1.021    0.020
       135 -10.4745     52.8206     93.6457   7.8073488464e+01   5.0263329813e+01    0.2193237    0.1938841 -61.52  0.001429873    1.047    0.045
       136  -9.5888     47.9808    100.2568   8.0823054934e+01   4.9346514709e+01    0.2186487    0.1655011 -14.92 0.0008497228    1.746    0.427
       137 -10.3167     51.9396     97.8074   7.9198958097e+01   4.9450371114e+01    0.3380158    0.1171599 -45.17   0.00131679    2.953    0.661
       138  -9.5446    107.7746     99.5458   6.3863889608e+01   4.0786265033e+01    0.1831099    0.1386832  56.57 0.0003078549    1.479    0.324
       139 -10.7486      9.9197     98.7955   9.1260589249e+01   5.2931447985e+01    0.2172647    0.1314358 -75.38 0.0007561371    1.362    0.266
       140 -10.2026     95.8459     97.1619   6.6516111476e+01   4.3402762440e+01    0.2009261    0.1616604 -27.60  0.001069616    1.350    0.259
       141 -10.9997     14.7257     96.7169   8.9630886597e+01   5.3054386689e+01    0.2386476    0.1862329 -38.08  0.001681766    1.416    0.294
       142  -9.8356    101.4147     95.6768   6.4596528828e+01   4.2753779672e+01    0.2463413    0.1332346  40.50  0.001059599    1.961    0.490
       143 -10.9037      2.2905     93.2078   9.2588382059e+01   5.4593475767e+01    0.3310918    0.1431753 -44.65  0.001798542    2.306    0.566
       144 -12.1071    166.6164     83.4861   4.4986647170e+01   3.1240757516e+01    0.8310412    0.4787169  52.69  0.002777307    1.735    0.424
       145 -11.7372    161.1312     91.1753   4.8350537578e+01   3.1134965819e+01    0.6727348    0.5194785 -84.82  0.003071741    1.760    0.432
       146 -11.6829    156.6548     83.6069   4.7222847172e+01   3.3588850586e+01    0.6400939    0.5714347 -50.94  0.003335297    1.167    0.143
       147  -9.5880    227.4405     92.4950   3.5997053792e+01   1.5150504659e+01     0.145058    0.1366032 -39.28 9.533457e-05    1.044    0.042
       148  -9.0244     46.6958     92.3040   7.9600120820e+01   5.1228780736e+01    0.1806137   0.09248599 -58.76 0.0008680664    1.640    0.390
       149 -11.4226     47.7541     88.0666   7.8383167808e+01   5.2036831604e+01    0.2459687     0.200767 -77.43 0.0003189707    1.284    0.221
       150 -10.1180     36.1774     91.7939   8.2610509692e+01   5.2385387860e+01    0.2033107    0.1882124 -68.72 0.0007727875    1.128    0.113
       151  -9.4339     38.6370     89.2966   8.1386389444e+01   5.2695884830e+01    0.1729073    0.1133458 -73.89 0.0006981941    1.542    0.351
       152  -9.6138     31.1647     92.2266   8.4167823586e+01   5.2742439892e+01    0.1618813    0.1246546 -81.33 0.0005797906    1.300    0.231
       153 -10.2667     85.7160     90.3413   6.7645580795e+01   4.6518228660e+01     0.225693    0.2175128 -49.43 0.0003636552    1.055    0.053
       154 -10.4116     83.3033     88.3455   6.7830643756e+01   4.7319680468e+01    0.2292627    0.1928826 -28.02 0.0005457572    1.220    0.180
       155  -9.5808     25.4866     90.9465   8.5602370974e+01   5.3495603695e+01    0.1810453   0.09703436 -64.82 0.0004449721    1.511    0.338
       156  -9.8481     10.4183     90.7992   8.9949893349e+01   5.4615374202e+01    0.1609827   0.07932634 -58.73 0.0005609104    1.529    0.346
       157 -10.8373      7.0373     41.4241   8.1161520699e+01   6.4924459704e+01    0.7419084   0.06004059 -50.83  0.002757251    3.956    0.747
       158 -11.1444     22.2667     87.0589   8.5861518484e+01   5.4586615838e+01    0.4471288    0.2116997 -65.78  0.002219447    1.730    0.422
       159 -11.7680     21.9995     75.8450   8.3810813903e+01   5.6995854930e+01     0.717913    0.2722177 -63.20  0.003163678    2.159    0.537
       160 -13.8906     16.6618     67.4193   8.3810208912e+01   5.9138482469e+01    0.4214472    0.3113405 -44.79 0.0008625025    1.163    0.140
       161 -11.6658     13.1382     76.2673   8.6692069720e+01   5.7526978984e+01    0.4003741    0.3236303 -83.28  0.001570611    1.291    0.225
       162 -12.1018      7.2972     73.3061   8.7992975281e+01   5.8506987512e+01    0.4649003    0.2899425   5.21   0.00270414    2.155    0.536
       163 -10.1786    109.8500    248.6708   8.7459829785e+01   1.1162869078e+01    0.1622091    0.1496922 -88.67 0.0007512335    1.337    0.252
       164 -10.4743     10.9409     44.2684   8.0405728220e+01   6.4142967083e+01    0.2749426    0.1628126 -62.62 0.0006836133    1.547    0.354
       165 -12.1945     10.7153     61.5354   8.4569721377e+01   6.0731467446e+01    0.2873771    0.2517982 -89.17 -1.39438e-05    1.359    0.264
       166 -10.7167     12.0344     57.0738   8.3131406225e+01   6.1552381600e+01    0.1693307     0.147741 -63.43 0.0003809634    1.197    0.165
       167 -10.3495     96.9401     89.0850   6.4106281167e+01   4.4924948528e+01    0.2535861    0.1990182  31.04  0.001083605    1.388    0.279
       168 -10.5015     77.7804     88.0253   6.9369202908e+01   4.8223740900e+01    0.3830189    0.2775326  15.42  0.002019315    1.748    0.428
       169 -11.4599     66.5721     85.6912   7.2130887047e+01   5.0292713137e+01      0.53444     0.248331 -36.37  0.002202832    2.617    0.618
       170 -10.2123    112.9947     86.6729   5.8993301361e+01   4.2471105062e+01    0.4580829    0.2312648  63.66  0.001424252    4.274    0.766
       171  -9.0626    250.3310     86.6915   3.1124458666e+01   1.0953669683e+01    0.1424782    0.1027461 -62.96 0.0006256402    1.666    0.400
       172 -10.2919      9.2523     85.9602   8.9532952165e+01   5.5721760528e+01    0.1911698    0.1395131  61.31 0.0008844477    1.675    0.403
       173 -11.1840      7.6711     81.3388   8.9255901552e+01   5.6798002916e+01    0.3108203    0.1669859 -61.54  0.001899671    1.381    0.276
       174 -11.4893     27.0380     84.2537   8.3899392605e+01   5.4812427491e+01    0.2213566    0.1767334 -56.99 0.0002683939    1.022    0.021
       175 -11.5319     30.4441     81.5333   8.2311002265e+01   5.5110272317e+01    0.2991541     0.215081 -52.21  0.001060828    1.138    0.121
       176  -9.5014    116.6896     83.6742   5.7143996703e+01   4.2345246583e+01    0.1500578    0.1150024  -2.99 0.0002967783    1.658    0.397
       177 -10.4056     74.0793     81.8852   6.8884259467e+01   5.0061101659e+01    0.3052322    0.1746041 -45.52  0.001041663    1.567    0.362
       178  -9.7435     15.9763     83.5269   8.7123374026e+01   5.5799569204e+01    0.1415724    0.1169723  12.66 0.0007584859    1.546    0.353
       179  -9.7926     86.7881     82.5804   6.5271550868e+01   4.7977418704e+01    0.1859158    0.1319243  50.38 0.0009507262    1.631    0.387
       180  -9.0797     62.4646     82.4924   7.2588251965e+01   5.1508095881e+01    0.1317786    0.1143948 -46.64 3.259964e-05    1.005    0.005
       181 -10.0350     42.1340     81.8589   7.8742357830e+01   5.3955597531e+01     0.182859    0.1526229 -75.39 0.0004254827    1.253    0.202
       182 -10.0100    101.2515     80.9930   6.0638534718e+01   4.5824216465e+01    0.2006693    0.1765679 -39.06  0.001120817    1.072    0.067
       183  -9.2802    112.3098     79.6729   5.7170033848e+01   4.4002382397e+01    0.1446186     0.116732 -80.99 0.0002692323    1.660    0.397
       184 -10.1454     59.0850     79.2004   7.2809779303e+01   5.2628089949e+01    0.2228507    0.1717739  -5.13   0.00115165    1.584    0.369
       185 -11.8328     12.5550     50.1733   8.1306770558e+01   6.2891666897e+01    0.5940118    0.3727256 -33.59   0.00292011    1.469    0.319
       186 -12.5939     44.7002     74.6477   7.6251644819e+01   5.5220611826e+01    0.4065958    0.2590595  54.40 0.0004330591    2.210    0.548
       187 -10.7901    183.9890     74.2778   3.8826160456e+01   2.8585598839e+01    0.4902174    0.2017691 -40.19    0.0011747    2.399    0.583
       188 -10.1837     35.4238     75.7250   7.9490907536e+01   5.5902339634e+01     0.330057    0.1664976  58.68  0.001108032    4.124    0.758
       189 -10.4242     74.5804     74.7091   6.6777457428e+01   5.1474319522e+01     0.364326    0.2304031   4.77   0.00164417    2.532    0.605
       190  -9.9455     61.3603     74.0780   7.0759669819e+01   5.3412153361e+01    0.2718295    0.1334422 -40.21  0.001256924    1.951    0.487
       191 -10.2614     66.6833     93.0377   7.3858804965e+01   4.8694706998e+01    0.1809123    0.1785515  22.27 0.0004099111    1.145    0.126
       192  -9.8053    102.5483     72.5172   5.7769414225e+01   4.7262519246e+01    0.1420793    0.1327991 -25.51 9.290522e-05    1.012    0.011
       193 -10.2138     56.3217     66.6942   7.0373640686e+01   5.5548542904e+01    0.2445069     0.174878 -58.39  0.000576773    1.403    0.287
       194  -9.6681     47.2385     54.9921   7.0083081676e+01   5.8922203904e+01    0.2172472    0.1404319   5.66  0.001193374    1.973    0.493
       195 -12.0259     50.3815     68.2795   7.2770571619e+01   5.5923336527e+01    0.4459088    0.3332082 -46.94  0.002719328    1.129    0.114
       196 -10.7046     52.0121     62.2711   7.0564477261e+01   5.6948755075e+01    0.3602586    0.1892217 -30.71  0.001712726    2.183    0.542
       197 -11.0762     46.8272     60.1566   7.1731855781e+01   5.7955051776e+01    0.4014538    0.2713476 -38.85 0.0009851711    1.274    0.215
       198 -10.7405    167.7443     69.6600   4.0746401992e+01   3.3368619976e+01    0.2468693    0.2442371 -79.96 0.0003294343    1.046    0.044
       199  -9.9483    122.7834     69.4529   5.1260954173e+01   4.3811800548e+01      0.28629    0.2123693  14.22  0.001140759    1.654    0.395
       200 -10.5793     77.4079     69.5672   6.4417712031e+01   5.2089923824e+01    0.3164898    0.2243302  59.92  0.001262629    1.982    0.495
       201  -9.6312     69.0319     69.7745   6.7121706823e+01   5.3267468868e+01    0.1732643    0.1619842 -20.60 0.0002927736    1.083    0.077
       202  -9.2094    194.7127     69.6565   3.5541454284e+01   2.6674794161e+01    0.1541564    0.1169286  16.46 0.0002382956    1.647    0.393
       203  -9.8562    128.5349     67.5350   4.9170938099e+01   4.2921767575e+01    0.2487717    0.1963926 -45.50  0.001005274    1.311    0.237
       204 -10.8129     42.8954     67.8726   7.5150528233e+01   5.6812845687e+01    0.2123251    0.1723068 -41.76   0.00133387    1.050    0.048
       205 -10.2681    207.1394     73.1094   3.4330142187e+01   2.3058535037e+01    0.2151412    0.2117528  23.56 0.0005414559    1.039    0.038
       206 -11.0518     46.5614     49.6345   6.8680030468e+01   6.0021424165e+01    0.4278425    0.2383584 -20.84  0.002050589    2.321    0.569
       207 -11.9536     44.6398     39.0513   6.5894990470e+01   6.2173813901e+01    0.5147007    0.2814913 -41.27  0.002853003    1.527    0.345
       208 -13.3387     74.4383    238.5431   9.2452143433e+01   1.7768946221e+01    0.7299775    0.5626009 -89.96  0.005593496    1.259    0.206
       209 -11.2926     28.3617     66.0357   7.9578309637e+01   5.8538203237e+01    0.2588209     0.169836 -45.60 0.0007493895    1.249    0.199
       210 -11.8358     30.9294     62.5512   7.7854311776e+01   5.9032244334e+01    0.5021432     0.296802  55.04  0.002622879    2.763    0.638
       211 -12.0757     36.9693    242.8972   9.8726993542e+01   2.1657035155e+01    0.4930893    0.2201646  88.07  0.002041755    2.234    0.552
       212 -11.5057     35.6017     41.8585   7.0255509926e+01   6.2621569057e+01     0.577127    0.3111967 -10.02  0.002777691    2.833    0.647
       213 -10.9981     24.0809     41.3326   7.4515300492e+01   6.3754490953e+01     0.226445    0.1723904  17.67  0.001030768    1.534    0.348
       214 -12.9144     27.5257     37.8248   7.2076307047e+01   6.4111460012e+01    0.3506446    0.2509748 -39.79  0.000377034    1.098    0.090
       215 -11.9006     24.5316     34.5198   7.2190890389e+01   6.4968333858e+01    0.2197779     0.162676 -16.10 0.0001067555    1.299    0.230
       216 -10.2109    119.0991     65.3019   5.0932850719e+01   4.5340253758e+01    0.2295408    0.1920069 -17.82 0.0003043331    1.213    0.176
       217  -9.4161     80.5174     65.5091   6.2224308905e+01   5.2406640212e+01    0.1356734     0.122486 -30.68 0.0008102292    1.026    0.025
       218  -9.1840    185.3211     64.3177   3.5739968459e+01   2.9866664386e+01    0.1570018    0.1157548  22.64  0.000704256    1.664    0.399
       219  -9.7804    155.7958     63.8364   4.1549249299e+01   3.7254541861e+01    0.2039418    0.1771994 -67.88 0.0003376963    1.320    0.243
       220  -9.9308    105.4722     68.4880   5.5696463379e+01   4.7481256171e+01    0.1432572     0.133162 -16.21 0.0008098719    1.014    0.014
       221 -10.6587    122.9616     63.9799   4.9489409878e+01   4.4759483870e+01    0.2540841    0.2028073 -40.06 0.0003198697    1.254    0.203
       222  -9.7530    120.0133     61.0000   4.9308083760e+01   4.5910452375e+01    0.2981562    0.1708082  46.56  0.001317003    1.758    0.431
       223 -10.6845    201.9731     62.4202   3.2289257044e+01   2.5991899949e+01    0.2577824    0.2111693 -15.92 0.0005752065    1.333    0.250
       224  -9.5271    109.0000     61.9955   5.2636555476e+01   4.7990697034e+01    0.2384376   0.07861234 -39.42 0.0008011127    2.933    0.659
       225 -10.0047     76.9723     62.3270   6.2358611181e+01   5.3571101476e+01    0.1792983    0.1614306   9.34 0.0002699042    1.150    0.130
       226 -11.2723     81.1675     55.8568   5.8945724640e+01   5.4123067225e+01    0.5852341    0.2656058 -28.13  0.002187197    2.996    0.666
       227 -10.0674    113.4112     60.9437   5.1071521482e+01   4.7292021942e+01    0.2133192    0.2006304  61.38 0.0004647933    1.208    0.172
       228 -11.4111     97.6536     59.6019   5.5123013893e+01   5.0589807227e+01    0.3941021     0.287674  71.23 0.0009770964    2.138    0.532
       229  -9.7806    169.0146     59.9933   3.7609128135e+01   3.4628252199e+01    0.2196632    0.2134964  23.85 0.0003224182    1.024    0.024
       230 -11.1535     58.5971     58.5640   6.7240269526e+01   5.6874840550e+01    0.3305528    0.2869788 -22.34  0.001240393    1.077    0.072
       231 -10.4025    127.0511     58.9473   4.6809504036e+01   4.4744311054e+01    0.2139011       0.2036  11.91  0.001202674    1.014    0.014
       232 -11.0245     85.5757     57.7157   5.8170221142e+01   5.3056619753e+01    0.3211415    0.2447755 -41.72  0.001655108    1.254    0.203
       233 -11.0058     88.8216     54.0179   5.5934100650e+01   5.3170846363e+01     0.310147    0.2282679  53.83 0.0009481192    1.676    0.403
       234 -10.2414     68.9811     56.6187   6.3151173896e+01   5.5841614191e+01    0.3539365    0.1826134 -51.64 0.0008702822    2.007    0.502
       235 -12.1975     75.0771     54.7105   6.0527893446e+01   5.5292705088e+01    0.5774156     0.334039 -40.34  0.002913231    1.563    0.360
       236  -9.6855     78.4479     47.4325   5.6959520499e+01   5.6063886544e+01    0.2639789    0.1416082 -22.83 0.0007829517    2.328    0.570
       237  -9.2747    147.3685     56.5176   4.1142490977e+01   4.0472960536e+01    0.1463283    0.1403082  -3.77 5.812916e-05    1.036    0.035
       238 -10.3051    115.0711     56.5323   4.9167565719e+01   4.7717707333e+01    0.3840014    0.1408079  48.74  0.001374512    2.789    0.641
       239 -12.7603    105.2503     52.5392   5.0553874077e+01   5.0382317171e+01    0.3576653    0.3258826  13.92 0.0003532585    1.061    0.058
       240  -9.6168    230.5907     54.7446   2.5977594369e+01   2.0115264284e+01     0.202794    0.1217539 -42.01 0.0009448864    1.576    0.366
       241 -10.1022     61.9852     53.1820   6.4400305186e+01   5.7457229511e+01    0.2526385    0.1601106 -38.25 0.0006782375    1.380    0.276
       242 -10.2601    119.9271     52.6299   4.6564370741e+01   4.7346420120e+01    0.2441753    0.1897386  -7.98 0.0002743178    1.398    0.285
       243 -10.5542     57.1974     50.5929   6.5215204015e+01   5.8566695578e+01    0.3034053    0.1507037 -51.80   0.00144898    2.028    0.507
       244 -11.1172     52.3491     51.7095   6.7273776167e+01   5.8958393577e+01    0.4078798    0.2507606 -56.30   0.00114516    1.753    0.430
       245 -11.3403     52.7429     42.6570   6.4146060088e+01   6.0572136161e+01    0.7147263    0.2941642 -34.19  0.003118698    2.482    0.597
       246 -12.4926     57.5719     34.0172   5.9277997092e+01   6.1428196918e+01    0.3470437    0.2520619 -18.48 0.0004758495    1.256    0.204
       247 -10.3893    132.9583     52.2341   4.3133258197e+01   4.4523731166e+01    0.4040983    0.1970408  38.34  0.001567981    2.276    0.561
       248 -11.6424    129.6490     49.1002   4.2899233743e+01   4.5769007757e+01    0.4918231    0.3600883 -12.16  0.001753447    1.518    0.341
       249 -10.0805     96.0143     52.0709   5.3088391668e+01   5.2223427043e+01    0.2008974    0.1794563  -7.86            0    1.037    0.035
       250 -10.3992     85.8468     45.3967   5.3874195466e+01   5.5174955325e+01    0.3462895    0.1466114 -40.22  0.001456384    2.240    0.554
       251 -10.2116     82.6372     46.9276   5.5432812931e+01   5.5462229215e+01    0.3787426    0.1586101 -34.89  0.001323625    2.333    0.571
       252 -10.7801     81.4425     41.9833   5.4048344255e+01   5.6492461260e+01     0.241892    0.2131348  24.83 0.0006264799    1.178    0.151
       253  -9.2453     69.0094     48.0037   6.0287390828e+01   5.7416763640e+01    0.1532641    0.1327318 -19.94 0.0003208552    1.010    0.010
       254  -9.2529    199.5994     47.4277   2.8511525028e+01   2.8774482945e+01    0.1415005    0.1385845  48.08  0.000112576    1.054    0.051
       255 -10.2240    104.4472     46.7565   4.8781396155e+01   5.1498340432e+01    0.2635998    0.2169718  27.73 0.0007948406    1.196    0.164
       256  -9.1360     62.3123     47.3160   6.2345330396e+01   5.8489492123e+01    0.1325544   0.08959935 -14.94 0.0003442513    1.640    0.390
       257 -10.2679     58.0590     46.3360   6.3500506047e+01   5.9235102101e+01    0.3265458     0.211355 -74.30  0.001365915    3.789    0.736
       258 -10.2326    143.0267     45.2458   3.8468158543e+01   4.3242181270e+01    0.2398285    0.2064178 -24.73  0.000539035    1.182    0.154
       259 -10.6334     91.5254     43.1387   5.1304770582e+01   5.4539284717e+01    0.5806727    0.1971124 -44.07  0.002069206    3.259    0.693
       260 -11.0412     95.8234     42.5362   4.9790767914e+01   5.3840681855e+01    0.3741039    0.2415435 -18.23 0.0008923171    1.679    0.404
       261  -9.5006    187.4106     43.2032   2.9262961837e+01   3.2452582069e+01    0.1967349    0.1327697 -42.62 0.0002721606    1.515    0.340
       262  -9.8446     72.8790     42.8091   5.7161200068e+01   5.7736790421e+01    0.2372461     0.170537 -61.90 0.0009874937    2.083    0.520
       263 -10.2817    161.9085     38.1797   3.2265548754e+01   3.9602981038e+01    0.2547318    0.2305142  56.62  0.001237169    1.065    0.061
       264 -10.9790    131.0086     41.6588   4.0041397080e+01   4.6581721928e+01    0.2656699    0.2408522 -28.33 0.0005513264    1.137    0.120
       265 -10.9190    148.9490     39.8925   3.5417910192e+01   4.2578069953e+01    0.3415296    0.2315235 -35.15  0.001199939    1.518    0.341
       266 -10.2146    120.8659     41.1179   4.2359455509e+01   4.8938941887e+01    0.2051866    0.1974193 -74.78 0.0005460294    1.231    0.188
       267 -10.6814     62.0081    242.3647   9.4771564041e+01   1.8751678552e+01    0.3576027    0.1062479  58.10  0.001583252    3.460    0.711
       268 -10.9289     70.0661     37.1246   5.6033739637e+01   5.9115371602e+01    0.4500706    0.2618951  -8.54  0.002043037    2.480    0.597
       269 -11.1105     74.8256     35.5150   5.3820478972e+01   5.8625850632e+01    0.3551357    0.2606591   4.76  0.001202643    1.427    0.299
       270  -9.9273     73.0547     32.2147   5.3153126329e+01   5.9426081795e+01    0.2270497    0.1654262  19.26 0.0006690543    1.385    0.278
       271 -11.3188    224.6575     37.6330   2.2376138987e+01   2.3855369296e+01    0.4564475    0.2989672 -85.43  0.001086023    1.791    0.442
       272 -10.8683    226.0632     33.0525   2.1033265745e+01   2.4096706848e+01    0.2210793    0.2131171 -27.33 0.0002911358    1.135    0.119
       273 -11.0288    221.7918     31.8869   2.1250310598e+01   2.5284254090e+01    0.2542917    0.2134985 -44.32 0.0003197335    1.162    0.140
       274 -10.0848    113.3904     44.6074   4.5546708801e+01   5.0015167445e+01    0.3210776    0.1975714  14.41  0.001324437    2.334    0.572
       275 -10.1893    248.8085     37.1161   1.9461172018e+01   1.8227467193e+01    0.2175957    0.1655802 -62.62  0.001224335    1.270    0.213
       276  -9.6427    114.2713     37.2943   4.2708776596e+01   5.0925162702e+01    0.1803044    0.1270493 -37.21 0.0002288834    1.469    0.319
       277 -10.3328    111.1442     35.1592   4.2763813629e+01   5.1894133241e+01    0.3173458    0.2797541 -40.92  0.001049757    1.271    0.213
       278  -9.9644    102.1652     36.6726   4.5799000455e+01   5.3513685328e+01    0.2405449    0.1847501 -41.66   0.00131191    1.424    0.298
       279 -10.9937     83.6406     35.3307   5.0876742260e+01   5.7176316795e+01    0.3958984    0.2644321  18.33  0.001122486    1.661    0.398
       280  -9.7678      1.2265     35.7767   8.1962283320e+01   6.6312430987e+01    0.4287001   0.09195969 -63.25  0.001436146    5.441    0.816
       281  -9.2435    183.6706     36.6867   2.7966522877e+01   3.4277763466e+01    0.1528956    0.1068209  31.30 0.0007043859    1.673    0.402
       282  -9.7040    134.6059     34.8326   3.6850742597e+01   4.6704169345e+01    0.2043696    0.1267618 -40.63 0.0009421586    1.737    0.424
       283 -12.1611      8.3471     31.7131   7.7909391362e+01   6.6661441576e+01    0.3600714    0.1930011 -57.66 0.0007004903    1.637    0.389
       284 -10.0989    192.7923     33.9831   2.5752372682e+01   3.2297310487e+01    0.2571939    0.2000455  63.97 0.0006203178    1.230    0.187
       285  -9.8169    177.6691     34.6562   2.8352913876e+01   3.6072708512e+01    0.1560606    0.1060256  29.54 0.0002269374    1.753    0.430
       286  -9.4003    140.2698     33.9262   3.5279783402e+01   4.5483943363e+01    0.1874991    0.1778688   0.04 0.0002833985    1.064    0.060
       287 -10.2700    205.8043     32.7826   2.3551597599e+01   2.9148928887e+01    0.1979734    0.1571446 -65.37 0.0005606561    1.308    0.236
       288  -9.3014    166.6665     32.6606   2.9646576805e+01   3.9125101474e+01    0.1566973    0.1047801  29.37 0.0007051593    1.749    0.428
       289 -11.8936     49.8113     30.8611   6.0966400623e+01   6.2957860714e+01    0.2642039    0.1818972 -37.23  0.000368299    1.281    0.220
       290 -11.1848     49.0624     26.0392   5.9382042536e+01   6.3828045119e+01    0.2209847    0.1863961  23.00            0    1.330    0.248
       291 -10.8867     17.7581     31.0781   7.3820245635e+01   6.6128610316e+01    0.3214878    0.1747917  24.57  0.001975693    2.158    0.537
       292 -11.0325    102.3660     29.2810   4.2971028600e+01   5.4524545543e+01    0.3346286    0.2832582  70.48  0.001761723    1.547    0.354
       293 -11.1820     88.7579    240.9283   9.0271170490e+01   1.5418937461e+01    0.1965668    0.1410804 -58.07  0.001384009    1.781    0.438
       294 -10.3943    107.2759     27.5137   4.0955279554e+01   5.3752921049e+01    0.2349258    0.2005673  -0.50 0.0001993366    1.106    0.096
       295 -11.4604    197.5850     28.1484   2.3403844163e+01   3.1800869057e+01    0.4055293    0.2323258  57.31  0.001315985    1.640    0.390
       296 -10.9798    193.7654     25.7478   2.3262220631e+01   3.3060487379e+01    0.2774086    0.1735289 -34.78   0.00104129    1.622    0.384
       297 -10.2435    144.7231     28.1308   3.2371150089e+01   4.5150923930e+01    0.2989474    0.1695415 -37.80   0.00134757    1.864    0.463
       298  -9.5813     62.0308     40.4757   6.0053809724e+01   5.9730381700e+01      0.17838    0.1221452  31.09  0.000436605    1.566    0.362
       299 -10.5983    214.6059     25.2973   2.0408280069e+01   2.7860478622e+01    0.3320867    0.2495071  12.35  0.001185107    1.770    0.435
       300 -10.1595    195.2529    238.5787   7.1519274581e+01  -1.0352915845e+00    0.2237036     0.172611  13.80  0.001311341    1.356    0.262
       301  -9.7386    134.5557    237.9361   8.2088345989e+01   8.9948550566e+00     0.142046     0.100551 -22.78 0.0008079418    2.582    0.613
       302 -11.9643     22.4793    248.6532   1.0119735592e+02   2.2300374982e+01    0.3445402    0.1899964  56.10  0.001924268    1.339    0.253
       303 -10.0083    243.6371    236.3137   6.2965688438e+01  -8.4273017930e+00    0.1018802   0.08699757  53.88 0.0005350527    1.758    0.431
       304 -10.2626    159.9816    235.6958   7.7320512034e+01   5.1856046254e+00    0.1738795    0.1270878  43.19 0.0004402052    1.094    0.086
       305 -11.2571     30.4077    234.1706   9.9227415245e+01   2.3843727751e+01    0.3688735    0.1419403  84.37  0.001926188    2.971    0.663
       306  -9.9905     24.2484    232.1010   1.0006456398e+02   2.4855406449e+01    0.1880987    0.1197932  43.16 0.0008171168    1.650    0.394
       307  -9.5670    177.3736    234.8064   7.4118507533e+01   2.4163691082e+00    0.1477588    0.1119479 -23.15 0.0009496494    1.703    0.413
       308 -10.9372     86.5881    232.8592   8.9911031579e+01   1.7053896870e+01    0.2436822    0.1082452  56.12  0.001080922    1.962    0.490
       309  -9.3657     58.5315    229.4915   9.4378133779e+01   2.1360183924e+01     0.109211   0.08181315  69.64 0.0008097386    1.015    0.015
       310 -10.5638    172.6716     25.7133   2.6461316372e+01   3.8451304050e+01    0.3327663    0.2176114  39.21 0.0005324984    1.620    0.383
       311  -9.9635    128.6007     26.1747   3.5174283499e+01   4.9221833420e+01    0.2260948    0.1887537  61.08 0.0009473669    1.257    0.204
       312 -10.4121      1.7223     25.4498   7.8801933503e+01   6.8180499656e+01    0.2560117    0.1218399 -56.52  0.001135063    1.728    0.421
       313  -9.5190    221.3121    234.3335   6.6395938627e+01  -4.7439154423e+00    0.1219861   0.07656971  15.65 0.0004139923    1.680    0.405
       314 -10.8937      4.1781    226.4322   1.0284104985e+02   2.7819763410e+01    0.2618244      0.11988 -87.40  0.001783634    1.774    0.436
       315  -9.5261    190.5211    226.4800   7.0571342510e+01   1.3321955171e+00    0.1242137   0.09984067  33.38 3.285483e-06    1.025    0.024
       316 -10.3251      6.5837     24.7107   7.6468323194e+01   6.8028756577e+01    0.2224047    0.1402938  15.95  0.001236789    1.859    0.462
       317  -9.6431     38.5017    232.4811   9.7851433673e+01   2.3232599577e+01    0.1051767    0.0751356  71.23 -2.436158e-05    1.005    0.004
       318 -10.7056     15.7205    221.7740   1.0082647266e+02   2.7518131927e+01    0.2495841   0.09094386  48.94  0.001515695    2.141    0.533
       319 -10.5531    125.0742    220.9839   8.1770395664e+01   1.3220825723e+01    0.3123515    0.1564083  32.95  0.001491069    2.412    0.585
       320 -10.7033    159.3591     23.2950   2.7975077105e+01   4.2104923061e+01    0.3765313    0.2445224  76.37  0.001764346    1.727    0.421
       321  -9.4605    211.9865    219.0550   6.5579032810e+01  -1.3309657971e+00     0.151191    0.1250975  24.57  0.001001123    1.030    0.029
       322 -10.6211     66.8117     20.7936   5.0711714135e+01   6.2092965616e+01    0.2364088    0.2074241  35.54 0.0008793087    1.358    0.264
       323 -10.1068     62.6910     23.6332   5.3344495904e+01   6.2317045016e+01    0.2490471    0.1583001  -7.24  0.001126523    1.725    0.420
       324 -11.1537     58.1356     21.6393   5.4178454786e+01   6.3273410483e+01     0.474534    0.2333127  23.86  0.002253875    2.497    0.599
       325 -10.7311    186.1810     22.6260   2.3449568104e+01   3.5360627226e+01    0.2461667    0.2174083 -44.26 0.0003233896    1.177    0.150
       326 -10.2901     99.9093     21.1415   4.0502569123e+01   5.6081990148e+01    0.4266703    0.2437876 -54.00  0.001246345    3.079    0.675
       327  -9.9321     97.3152     23.2957   4.2079076662e+01   5.6328742713e+01     0.224053    0.1846689  66.23 0.0006756181    1.576    0.366
       328 -10.9336     21.4358    220.1661   9.9826422798e+01   2.7225977327e+01    0.1815455    0.1000506  89.32  0.001259633    1.492    0.330
       329 -11.7335     10.3578    216.8251   1.0140755827e+02   2.8916041415e+01    0.3253104    0.2190615  39.13  0.002518795    1.772    0.436
       330  -9.9021     12.5144    212.5018   1.0082595644e+02   2.9485069769e+01    0.1902802   0.07966372 -83.55 0.0007326579    2.028    0.507
       331  -9.9470    132.6270     19.2017   3.1793534303e+01   4.9103746404e+01    0.2541872    0.2018246  20.87 0.0008386916    1.272    0.214
       332 -10.8052     84.4638     21.3771   4.5130600109e+01   5.9021370282e+01    0.3952281    0.2252371  34.71  0.002018008    1.722    0.419
       333 -10.7362     11.1338    207.9003   1.0079110765e+02   3.0453628009e+01    0.2652719    0.1382251  87.63  0.001164477    1.542    0.352
       334  -9.8537     38.2315    217.3787   9.6887186744e+01   2.5921403408e+01    0.1485939    0.0748977  52.85 0.0007334126    1.620    0.383
       335  -9.1169    120.6530     20.7185   3.5030597990e+01   5.1691984911e+01    0.1470926    0.0940472  28.42 0.0007013574    1.642    0.391
       336 -10.6791    194.9758     16.8016   2.0571083651e+01   3.3771650267e+01    0.2058839    0.1935629 -57.89 0.0003169188    1.092    0.085
       337 -11.0810     29.2162    215.5814   9.8272131744e+01   2.7234846223e+01    0.2066894    0.1521763  77.63   0.00116023    1.037    0.036
       338 -10.5467     24.0382    215.9562   9.9150811786e+01   2.7711363185e+01    0.1374301    0.1153528 -65.62 0.0004709574    1.629    0.386
       339 -11.4900    236.0126    214.1808   6.0569703994e+01  -4.7225492853e+00    0.2050759    0.1646895  -9.66 0.0006704156    1.243    0.195
       340 -10.4064     70.3037     16.7081   4.7784560945e+01   6.2084384249e+01    0.2818878    0.1575923  44.99 0.0009700733    1.912    0.477
       341 -11.4918      1.8293    211.6183   1.0249063796e+02   3.0635416910e+01    0.3025392     0.118465  86.40  0.001772694    2.242    0.554
       342 -10.3750    143.7877     16.1943   2.8487621164e+01   4.6753517297e+01    0.2036002    0.1481201  33.20 0.0007322996    1.376    0.273
       343 -10.0748     75.7190     15.7816   4.5586257377e+01   6.1291416692e+01    0.2587234    0.1396075  30.13  0.001156074    1.902    0.474
       344  -9.6209    175.1921     15.1698   2.2850370382e+01   3.8989689285e+01    0.1906336    0.1572019 -66.55  0.000414819    1.314    0.239
       345 -12.0544      5.6686    208.6271   1.0172199734e+02   3.0828345849e+01    0.3913708    0.1939307 -78.39  0.002137357    1.669    0.401
       346 -10.3289    109.3235    212.0026   8.3615451814e+01   1.7288605561e+01    0.3027586    0.1099446  42.50  0.001347109    2.399    0.583
       347 -10.0710     20.3551    211.4581   9.9480732646e+01   2.8903646644e+01    0.2342746   0.09598222  71.81  0.001283095    2.380    0.580
       348  -9.6768    136.6216    215.7018   7.8943356519e+01   1.2196871389e+01     0.121425    0.0934936  17.92 0.0007024241    1.758    0.431
       349  -9.5083    185.3242    208.3142   6.8670356093e+01   4.8328652675e+00    0.1301534   0.09230012  15.72 0.0007041871    1.663    0.399
       350 -10.3256    247.1673    204.2732   5.6918203337e+01  -5.3347435004e+00    0.3421855    0.1452878 -42.81   0.00151192    3.309    0.698
       351  -9.0727    188.2908    204.7015   6.7518178383e+01   4.8421454549e+00    0.1201528   0.09852975  69.59 0.0003697302    1.560    0.359
       352 -10.6200    175.2868    202.2990   6.9581432093e+01   7.5785362727e+00    0.2305714    0.1923016  47.79 0.0004553384    1.111    0.100
       353 -10.9270     19.9500    200.1315   9.8827644374e+01   3.1047560771e+01    0.4342366    0.1306445 -71.46  0.002212516    2.767    0.639
       354  -9.5578    117.4958    201.5182   8.0716208828e+01   1.7872493800e+01     0.127395     0.107892  62.03 0.0003644769    1.009    0.009
       355  -9.2572    238.5048    200.5279   5.7713126532e+01  -3.4334470095e+00    0.1275804    0.1028308  15.76 0.0001180606    1.027    0.026
       356  -9.7698     57.9899    196.2102   9.1619408727e+01   2.7558848040e+01     0.156924    0.1181914 -56.03 0.0007395765    1.635    0.388
       357  -9.3634    215.3267    194.3320   6.0686011126e+01   1.4611260777e+00      0.13721   0.09177611  12.53   0.00070513    1.712    0.416
       358 -11.4567     16.2740    192.9307   9.8990372425e+01   3.2775296449e+01    0.3074733    0.2104116  39.93  0.002009899    1.679    0.404
       359 -10.2379    244.6953    188.0389   5.4310133423e+01  -2.8636021644e+00    0.1793787    0.1459763  -2.85 0.0004675668    1.111    0.100
       360  -9.2135    211.6612    187.6608   6.0118508624e+01   3.1071206164e+00    0.1413151   0.09487414  12.18 0.0007050566    1.762    0.433
       361 -10.3938    168.2717    183.7703   6.7783886392e+01   1.1979971230e+01     0.351625    0.2374817 -89.66  0.001533693    2.787    0.641
       362  -9.7016     61.8111    184.8275   8.9726123821e+01   2.9336130582e+01    0.1722596    0.1172603  79.11  0.001064305    1.347    0.258
       363 -10.4909    108.6974     17.3378   3.6677710653e+01   5.4708294329e+01    0.2373917    0.1934559  12.08 0.0003729874    1.162    0.139
       364  -9.8793     58.8898    181.8404   8.9989542748e+01   3.0311275384e+01    0.1870039    0.1513321  79.18 0.0006488725    1.014    0.014
       365 -11.6705     15.7836    181.6781   9.8295288466e+01   3.5014685873e+01    0.3596224    0.1830341  70.55  0.001957201    1.780    0.438
       366  -9.8632    142.5380    183.5154   7.2977467617e+01   1.6857026298e+01     0.134958    0.1213577  55.21 9.345623e-05    1.005    0.005
       367  -9.6971     22.9640    179.9670   9.6824090685e+01   3.4675517925e+01    0.2958879   0.06904536  53.10  0.001158545    4.413    0.773
       368  -9.4638      2.1246    179.6283   1.0064811662e+02   3.6610019238e+01    0.1129751    0.1001658  24.72 0.0009326017    1.716    0.417
       369 -10.2313    163.4018    188.2334   6.9540441673e+01   1.2124566170e+01    0.1820554    0.1296571 -60.27 0.0009598404    1.723    0.420
       370  -8.9778    222.6743    178.3461   5.6302418568e+01   2.4387444191e+00    0.1253555     0.109209 -85.88 7.051405e-05    1.746    0.427
       371 -10.1542     46.9618    177.2171   9.1900230410e+01   3.2690787030e+01     0.209419    0.1479449 -80.12  0.001127603    1.218    0.179
       372 -10.4101     18.3776    172.9377   9.7142348098e+01   3.6524179014e+01     0.188691    0.1232957  60.99  0.001204147    1.381    0.276
       373  -9.8125    176.8580    168.7973   6.3243366706e+01   1.2943796452e+01    0.1848233    0.1659107  77.55 0.0004636604    1.292    0.226
