#   1 NUMBER                 Running object number                                     
#   2 MAG_AUTO               Kron-like elliptical aperture magnitude                    [mag]
#   3 X_IMAGE                Object position along x                                    [pixel]
#   4 Y_IMAGE                Object position along y                                    [pixel]
#   5 X_WORLD                Barycenter position along world x axis                     [deg]
#   6 Y_WORLD                Barycenter position along world y axis                     [deg]
#   7 A_WORLD                Profile RMS along major axis (world units)                 [deg]
#   8 B_WORLD                Profile RMS along minor axis (world units)                 [deg]
#   9 THETA_WORLD            Position angle (CCW/world-x)                               [deg]
#  10 FWHM_WORLD             FWHM assuming a gaussian core                              [deg]
#  11 ELONGATION             A_IMAGE/B_IMAGE                                           
#  12 ELLIPTICITY            1 - B_IMAGE/A_IMAGE                                       
         1 -12.5952    165.9487     51.4310   6.3677788000e+01   3.7078186297e+01     1.317735     1.092149 -15.72  0.004262972    1.291    0.226
         2 -12.7926    181.8010     21.9287   5.1621293710e+01   3.6888100433e+01     1.071487    0.9911395  65.25  0.004159565    1.044    0.042
         3  -9.7730    120.2484      9.2321   5.8080809853e+01   5.3868420275e+01    0.3726062    0.3186166   3.26  0.001393099    1.167    0.143
         4 -10.0947    179.5113      4.6112   4.6610785263e+01   3.9299756415e+01    0.2368742     0.189566  46.30 0.0007576574    1.275    0.216
         5 -10.4668    171.5497      4.0708   4.7462085496e+01   4.1423097474e+01    0.3091807    0.2739066  79.81 0.0009930287    1.058    0.055
         6  -8.3894    138.0526      3.7514   5.2468536338e+01   5.0039501931e+01    0.1853479    0.1630061  47.52 0.0002687728    1.025    0.025
         7  -8.9769    130.5900    236.9001   1.1181978945e+02   9.3060422167e+00    0.1404815    0.1256326  75.54 0.0004787532    1.203    0.169
         8 -11.7434    187.5643    248.6948   1.0327483715e+02  -1.4654549911e+00    0.6982135     0.241462  43.83  0.003323234    2.275    0.560
         9 -12.5102    187.9032    241.9421   1.0229914701e+02  -6.8143652824e-01    0.5989149    0.5264774  64.14  0.004356903    1.444    0.307
        10  -9.3127    115.2250    250.6226   1.1593273978e+02   9.5768590460e+00    0.1331722   0.08617797  42.70 0.0001803321    1.321    0.243
        11 -18.8539     61.5049    224.1690   1.2287001918e+02   2.1528728575e+01     4.875828     3.826346 -83.22   0.01669947    1.303    0.233
        12 -10.3381    129.5765    186.4221   1.0528255936e+02   1.8307213141e+01    0.3150315    0.2282019  87.34  0.000753195    1.687    0.407
        13  -9.7857    161.8187    216.5860   1.0342541448e+02   7.2861445221e+00    0.2496503    0.2170795  86.78  0.000431696    1.399    0.285
        14  -9.6859    226.9167    186.6909   8.6103996574e+01   1.1403975154e-01    0.2663499    0.1993131  37.33 0.0007044034    1.261    0.207
        15 -10.6879    165.6971    184.4260   9.7458436327e+01   1.1983191633e+01    0.4186608    0.3817626  88.98  0.001283042    1.260    0.206
        16 -14.0796     32.4179    247.5462   1.2912932104e+02   2.0971904467e+01    0.2848836    0.2429978 -86.59  0.001309415    1.525    0.344
        17  -9.6968    195.4443    183.8172   9.1424924632e+01   6.3847521708e+00      0.27755     0.224456 -62.27  0.001111728    1.664    0.399
        18 -10.3646    202.4313    223.4943   9.6998173224e+01  -6.8894741363e-01    0.2606455    0.2000098 -62.85  0.001571327    2.115    0.527
        19  -9.3959      2.2393    178.0623   1.3039686771e+02   3.6845997205e+01    0.2129731    0.1467945 -55.79  0.001511731    1.863    0.463
        20  -9.5890    227.7312    182.0216   8.5046069266e+01   6.3572552049e-01    0.2336678    0.1702497  28.75 0.0002859997    1.244    0.196
        21  -8.6463    125.2191    229.4926   1.1193949839e+02   1.1337725012e+01    0.3752189    0.1977339  34.53  0.001955505    2.027    0.507
        22 -10.0146    228.1396    176.9091   8.3954310338e+01   1.3050874262e+00    0.2323081     0.174033  23.20 0.0002576134    1.236    0.191
        23 -10.1879    196.0283    174.0639   8.9414810512e+01   7.8765470960e+00     0.264742    0.2429937  62.59 0.0003578958    1.271    0.213
        24  -9.0557    193.1967    170.6096   8.9280123271e+01   9.0204865594e+00     0.207968    0.1954885  -9.89 0.0004932047    1.094    0.086
        25 -10.0232    159.6693    173.1893   9.6654971179e+01   1.5214546392e+01    0.3782501     0.258957  88.24  0.001632162    2.462    0.594
        26  -9.0697    188.0923    163.9239   8.8934139679e+01   1.1213513473e+01     0.323406    0.1997231 -51.72 0.0009684945    1.947    0.486
        27  -9.1287     22.9742    157.0248   1.2467794017e+02   3.9472542350e+01    0.2152833    0.1474192  52.70 0.0004216163    1.454    0.312
        28  -9.1284     17.9330    155.2468   1.2560874444e+02   4.0316257544e+01    0.2264291    0.1823085 -88.39 0.0009054647    1.099    0.090
        29  -8.1908      6.1351    233.7552   1.3248099515e+02   2.6029935895e+01      0.14427     0.080814  69.68 0.0007601009    1.234    0.189
        30  -9.5997     16.9553    159.9113   1.2621078230e+02   3.9390889670e+01    0.1979427    0.1660605 -79.35 0.0006096038    1.236    0.191
        31 -10.7820    149.4767    157.7010   9.5861009174e+01   2.0274597382e+01      0.48721    0.3159153  69.62  0.002097127    2.138    0.532
        32  -9.2728      5.4916    226.8014   1.3228654963e+02   2.7300061739e+01    0.2045001    0.1189666  89.45  0.001474261    1.346    0.257
        33  -8.3892    216.0691    157.0781   8.2023361175e+01   6.7034475934e+00    0.1982595    0.1847822  12.60            0    1.060    0.057
        34  -9.2672     11.3139    152.4117   1.2679530992e+02   4.1495090669e+01     0.252651    0.1701804 -30.61  0.001224947    2.536    0.606
        35 -10.2337    125.3024    163.1070   1.0231528348e+02   2.3815211107e+01    0.3487319    0.2514203  65.07 0.0003591428    1.477    0.323
        36  -8.4793      7.2521    150.5988   1.2752274009e+02   4.2212653981e+01    0.1704874    0.1064729 -60.66 0.0008577222    1.595    0.373
        37  -9.3781     26.9518    146.2027   1.2274139536e+02   4.1497354713e+01    0.2852372    0.1423745 -61.55    0.0010236    1.763    0.433
        38  -8.8083     12.4111    144.8655   1.2591130784e+02   4.3057108184e+01    0.1743474    0.1570547 -45.52 0.0006357966    1.505    0.336
        39  -8.8437     16.2181    142.8703   1.2486793516e+02   4.3187585843e+01    0.1728354    0.1569307 -45.58 0.0007691758    1.477    0.323
        40 -10.7166     32.3290    140.9266   1.2090528464e+02   4.2173951650e+01    0.4689904    0.2638266  23.91  0.001695896    2.436    0.589
        41  -8.9226    152.3319    219.0097   1.0556251056e+02   8.5391666677e+00     0.209592    0.1635204  43.57 0.0005570113    1.075    0.070
        42  -8.6562    121.0873    195.2120   1.0834631981e+02   1.8087373494e+01      0.19277    0.1625837  43.98  0.001184584    1.178    0.151
        43  -9.8036    160.7520    128.5941   8.6892226355e+01   2.3862285500e+01    0.3178614    0.2568649 -61.50  0.001547339    1.370    0.270
        44 -10.0700    153.0034    186.0463   1.0034455704e+02   1.4092401996e+01    0.3518778    0.2712675 -11.55  0.001234156    1.830    0.454
        45 -10.3938    114.1389    117.3750   9.5590338981e+01   3.6023402574e+01    0.2863764    0.2091966 -60.06 0.0003172919    1.377    0.274
        46  -9.6348    168.2298    114.0991   8.1576570716e+01   2.5104391482e+01    0.4124179    0.3101158 -81.77  0.001309705    1.866    0.464
        47 -11.4043    150.0770    178.5094   9.9647694376e+01   1.6056952734e+01    0.7169783    0.3565028 -54.98  0.001312126    2.350    0.574
        48 -11.1663    143.1917    174.1161   1.0033601045e+02   1.8216208398e+01    0.6652349    0.4170339 -50.01  0.002811864    1.716    0.417
        49 -10.2371    139.2516    168.2773   1.0014229154e+02   2.0130184792e+01    0.4313153    0.2946115 -33.68  0.001506429    1.861    0.463
        50 -10.7056    117.4897    110.4723   9.3020063821e+01   3.6923767191e+01    0.2875383    0.2280256  46.42 0.0009475423    1.306    0.234
        51  -8.6665    160.0012    107.9202   8.1807261613e+01   2.8256884133e+01    0.2242657    0.2205905 -55.31 0.0002918013    1.024    0.024
        52 -11.5094    121.8583    105.4754   9.0581387777e+01   3.7155561742e+01    0.4913759    0.4583611 -22.17   0.00102352    1.136    0.120
        53 -10.4314    148.3795    191.2493   1.0215937210e+02   1.3995540695e+01    0.4302757    0.2952381 -69.11 0.0009470962    1.870    0.465
        54  -9.8031     42.1899    106.1535   1.1331870553e+02   4.9234407252e+01    0.2308571     0.196495  28.37 0.0007360487    1.442    0.307
        55  -9.4841    216.2979    102.6716   6.9011330193e+01   1.5915198694e+01    0.2478477    0.2296661  -0.31 0.0002780991    1.092    0.084
        56 -10.6128    142.1536    182.9565   1.0208141952e+02   1.6694106847e+01    0.7821931     0.433765 -79.33  0.002668168    4.396    0.773
        57  -7.6133    154.3107    215.3001   1.0466293061e+02   8.7946563664e+00    0.1214675   0.09381253  16.83 0.0001761683    1.603    0.376
        58  -9.4923     97.6785     98.8493   9.5494766465e+01   4.3236968381e+01    0.2372109    0.1757476 -39.22 0.0007581683    1.350    0.259
        59  -9.1067     91.5617     95.2452   9.6324949047e+01   4.5104915808e+01    0.2546343    0.1978066  44.30 0.0007710566    1.396    0.284
        60  -9.7962     66.9730     94.8620   1.0359928265e+02   4.8932248998e+01    0.4812434     0.190996  36.86  0.001848481    2.791    0.642
        61  -9.1064    238.6418    191.5762   8.4975222627e+01  -2.6029380481e+00    0.2322503    0.2166738 -58.64  0.001340201    1.603    0.376
        62  -9.4442    165.9943    217.2501   1.0273592808e+02   6.4567737079e+00     0.202743    0.1889777 -44.71 0.0004602015    1.288    0.224
        63  -9.2418    103.8506     85.8341   9.0134563714e+01   4.4972824662e+01    0.3042278    0.2276597 -62.43 0.0004046145    1.486    0.327
        64  -9.2996     30.1686     86.0749   1.1323468731e+02   5.4976023393e+01    0.2634718    0.1691281  38.78  0.001301349    1.874    0.466
        65  -7.8029    146.3125     84.2846   7.8344919635e+01   3.6191053911e+01    0.1569135    0.1234193  12.03 0.0002249489    1.576    0.366
        66  -8.6569    161.1514     81.6411   7.4096993183e+01   3.3123797755e+01     0.241203    0.1997316  79.31 0.0006446698    1.409    0.290
        67 -11.9618    153.9337     66.0054   7.0891946103e+01   3.7733480092e+01    0.8156719    0.7071593 -26.17  0.002280504    1.163    0.140
        68 -10.2195    118.7680     64.8788   7.9306162808e+01   4.6166821262e+01    0.2421961    0.2328479  17.81 0.0002458952    1.050    0.048
        69 -11.1430    171.2582     42.8423   5.9921393609e+01   3.6968562605e+01    0.4833475    0.4460152  70.26 0.0008640521    1.075    0.070
        70  -8.3601     99.3918    248.9743   1.1845198589e+02   1.2149366603e+01    0.1304633    0.1138172  81.30 0.0006224494    1.268    0.211
        71  -8.6146    214.6532     54.4625   5.6341227661e+01   2.4080352074e+01     0.297205    0.1754712 -28.28  0.001271716    1.708    0.415
        72  -7.5595    188.6744     45.7197   5.7815240703e+01   3.2010971479e+01    0.1530863     0.112643  31.63 0.0002705338    1.594    0.373
        73  -8.1158    141.5363     42.4963   6.5820083269e+01   4.4604794442e+01    0.1496227     0.142109  22.35 4.960035e-05    1.021    0.020
        74 -10.0898    198.5646    246.3400   1.0106725425e+02  -2.9171762754e+00    0.1790995    0.1137949 -42.53  0.001134563    2.076    0.518
        75  -8.8811    101.7061    243.8659   1.1759736185e+02   1.2616995480e+01    0.2400137     0.129599 -70.03  0.001444878    2.201    0.546
        76 -10.4960    212.5576    242.5078   9.8126906479e+01  -4.6622556037e+00    0.4451816   0.09210867  42.53  0.001626538    3.883    0.742
        77  -8.5661    135.6563    238.6306   1.1111492202e+02   8.2353473585e+00    0.1921289     0.137003  33.89 0.0006214568    1.426    0.299
