#   1 NUMBER                 Running object number                                     
#   2 MAG_AUTO               Kron-like elliptical aperture magnitude                    [mag]
#   3 X_IMAGE                Object position along x                                    [pixel]
#   4 Y_IMAGE                Object position along y                                    [pixel]
#   5 X_WORLD                Barycenter position along world x axis                     [deg]
#   6 Y_WORLD                Barycenter position along world y axis                     [deg]
#   7 A_WORLD                Profile RMS along major axis (world units)                 [deg]
#   8 B_WORLD                Profile RMS along minor axis (world units)                 [deg]
#   9 THETA_WORLD            Position angle (CCW/world-x)                               [deg]
#  10 FWHM_WORLD             FWHM assuming a gaussian core                              [deg]
#  11 ELONGATION             A_IMAGE/B_IMAGE                                           
#  12 ELLIPTICITY            1 - B_IMAGE/A_IMAGE                                       
         1 -13.3931    227.4657     45.5312   2.5639015642e+00   2.5402470175e+01    0.6659987    0.6153775 -34.49  0.003817806    1.354    0.262
         2 -11.9799     29.4477     37.9709   4.9382325367e+01   7.0115564996e+01     1.199701    0.6974913 -71.75  0.004816392    2.705    0.630
         3 -13.7225     47.5100     17.4359   2.7131918394e+01   7.0548542770e+01     1.807029     1.143934 -35.73  0.007415576    1.739    0.425
         4 -11.7848      2.5586     29.6393   6.7643986561e+01   7.4708689115e+01     0.700857    0.2498095 -56.29  0.002645013    2.351    0.575
         5 -12.8166      4.9894     11.6282   5.7064136759e+01   7.8411330790e+01    0.8111528    0.5186892 -58.30  0.003483975    1.700    0.412
         6 -11.1356      3.3454      1.6001   5.2202570745e+01   8.0467747252e+01    0.4634324    0.1727811  21.60  0.001806608    2.653    0.623
         7 -13.5898     21.6617     10.6916   3.9837681464e+01   7.6463286289e+01     1.556038    0.7210375 -32.53  0.006824525    2.623    0.619
         8 -12.0338     13.4182      3.5481   4.2074966774e+01   7.8876560652e+01    0.5591082    0.4048392  38.63  0.002409837    1.374    0.272
         9 -11.0907     32.5753     19.0820   3.7099235418e+01   7.3231934644e+01    0.5036733     0.325679 -32.51   0.00206318    1.696    0.410
        10 -10.0062     62.8027      2.1057   1.1531138563e+01   6.8782818563e+01    0.2728792    0.2230816 -81.72  0.001605644    1.329    0.247
        11 -11.7839     89.2997    222.3017   6.3471167329e+01   1.6015649722e+01    0.3436873     0.266015  79.89  0.002012791    1.680    0.405
        12 -10.6242     74.9340    247.9779   6.9265405067e+01   1.2750195480e+01    0.5301417    0.1460491 -52.24  0.002140602    4.202    0.762
        13 -10.5224     51.6871    250.2809   7.4821813781e+01   1.4704014440e+01    0.2851414    0.1280419  30.38  0.001484822    1.635    0.388
        14 -14.4891      6.0088     99.2811   7.8040569578e+01   5.6382547508e+01     6.877875    0.8686564 -78.18   0.01522467    6.944    0.856
        15 -13.5769      6.6247     84.3102   7.6038414047e+01   6.0511625600e+01     1.010935     0.905313  32.90  0.003912264    1.169    0.145
        16 -15.0601     48.0394    182.9392   7.0703792182e+01   2.9736316955e+01     4.363415     2.053948 -71.55   0.01844588    2.254    0.556
        17 -16.0981     24.7724    180.5879   7.7539045904e+01   3.2684693417e+01     3.742177     2.515289  50.19   0.01532351    1.320    0.243
        18 -16.8955      5.3206    216.9194   8.4588664139e+01   2.5687324338e+01      4.95156     2.584788  46.93   0.02674573    1.501    0.334
        19 -12.6834     85.3224    200.3187   6.2025288518e+01   2.1108666478e+01    0.9524916    0.6351016  42.84  0.004681081    1.403    0.287
        20 -11.0775     78.7695    185.0612   6.1942724484e+01   2.5444603531e+01    0.4194525    0.2567312  48.81  0.001234055    1.647    0.393
        21 -11.5715     83.2263    190.6408   6.1403797820e+01   2.3556260689e+01    0.4624009    0.3113877 -78.78  0.001290934    1.832    0.454
        22 -10.1724     79.5196    189.4714   6.2287074474e+01   2.4313108852e+01    0.2652687    0.2313459 -77.83 0.0005292821    1.282    0.220
        23  -9.4022    210.9710    198.7128   3.4376948275e+01   5.3169424558e+00    0.1547001    0.1227869  -3.90 0.0004517517    1.093    0.085
        24 -10.0998     97.6031    197.8136   5.8469257037e+01   2.0049785091e+01    0.1828229    0.1362947 -81.54 0.0009519945    1.737    0.424
        25 -10.5888    101.8526    195.4306   5.7042880964e+01   1.9991614162e+01    0.3312673    0.1330047  19.30  0.001144147    3.142    0.682
        26 -11.4076    108.6907    193.7992   5.5052485106e+01   1.9404156935e+01    0.3470623    0.1833768  12.86  0.001419758    2.397    0.583
        27  -9.8208     67.9517    191.7262   6.5808062592e+01   2.5256019814e+01    0.2866124    0.1882437  79.18  0.001007439    1.895    0.472
        28  -8.8779    206.9698    190.2349   3.3662194745e+01   7.0174295899e+00    0.1361259   0.09016205  25.51 0.0004579637    1.558    0.358
        29 -11.3908     72.1278    185.6223   6.3910850553e+01   2.6178172282e+01    0.7003559    0.3972891 -84.38  0.002993757    2.350    0.575
        30 -10.3398    107.6074    189.6026   5.4724304577e+01   2.0453019547e+01     0.278153    0.1271559  14.72 0.0009564399    3.253    0.693
        31  -8.3698     94.2882    183.6233   5.7410594494e+01   2.3656710673e+01    0.1485992    0.1051514  62.83 0.0007018453    1.728    0.421
        32 -10.6883    115.8881    181.8771   5.1409714658e+01   2.0930238244e+01    0.2254241    0.1873509  -4.99  0.001239993    1.252    0.201
        33  -9.7711    171.4088    173.7684   3.7321374693e+01   1.4340468698e+01    0.2502141    0.1194287 -48.71  0.001136995    2.206    0.547
        34 -11.9730     70.7238    168.1989   6.2084227339e+01   3.0647294450e+01    0.7469667    0.4387771  57.63  0.002251145    1.953    0.488
        35 -12.8154     84.5822    167.7374   5.7833266851e+01   2.8813061140e+01     1.695909    0.9061146  50.78  0.001886312    2.080    0.519
        36 -12.6086     58.5202    145.3447   6.2765441963e+01   3.8280257947e+01    0.9451662    0.6141686  -2.18 0.0009400667    2.108    0.526
        37 -12.5603     80.3877    145.1725   5.5408240099e+01   3.5139300464e+01     1.223218    0.9708556  15.41  0.005946285    1.367    0.269
        38 -11.8991     78.4562    136.5932   5.4461087036e+01   3.7673943609e+01    0.6184015    0.3898938  66.30  0.002370438    2.089    0.521
        39 -11.6625     73.9772    130.4245   5.4796915791e+01   4.0012539870e+01    0.6514365    0.4112414  83.59  0.002158223    2.287    0.563
        40 -12.0803     70.0594    145.0385   5.8784078012e+01   3.6741224320e+01    0.6144954    0.4095841  60.45  0.002335083    1.693    0.409
        41  -9.5699    101.6562    167.2694   5.2838463458e+01   2.6363607905e+01    0.1511551    0.1079454  56.77 0.0002515098    1.611    0.379
        42 -10.8488     92.3273    154.0289   5.3267080106e+01   3.1014529665e+01    0.3958701    0.2986066  31.96 0.0004592412    1.272    0.214
        43  -9.9171     97.4130    149.8601   5.0992102690e+01   3.1217259079e+01    0.3380595    0.2729309 -30.40   0.00167356    1.380    0.275
        44 -10.3676    112.3107    151.2409   4.6990102233e+01   2.8393436505e+01     0.413887     0.292488  54.14  0.001932745    1.596    0.373
        45  -9.2211    124.0187    151.9594   4.3998187622e+01   2.6237016272e+01    0.2328773    0.1809614  73.82   0.00111986    1.729    0.422
        46 -10.3418    108.9888    145.3833   4.6769004150e+01   3.0339222472e+01    0.2830904     0.267623  26.00 0.0006543897    1.039    0.038
        47  -8.8402    112.6880    144.2796   4.5508999864e+01   2.9955182687e+01    0.1997454    0.1730317  -5.83 0.0002511124    1.281    0.219
        48  -9.7261     36.9478    142.4752   7.0052269809e+01   4.1670759837e+01    0.2858035    0.2134033 -81.80 0.0007415832    1.343    0.255
        49  -9.6358     29.6805    140.3074   7.2473993314e+01   4.3011756986e+01     0.525013    0.1769869  49.47  0.001687171    3.147    0.682
        50 -10.0568     28.9904    136.1255   7.2272515785e+01   4.4246701040e+01    0.3906713    0.2995995  77.26  0.001401301    1.299    0.230
        51 -14.2352     38.1502    173.7829   7.2885139575e+01   3.3129014970e+01     3.363701     1.781932  74.12   0.01409547    2.197    0.545
        52 -10.0083     96.0188    134.5531   4.8396942204e+01   3.5237164063e+01    0.4431486    0.2897598  -7.58  0.001671342    2.596    0.615
        53 -11.1558     59.2967    133.3207   6.0554738489e+01   4.1438110143e+01     0.432107     0.282023 -89.99 0.0007690089    1.845    0.458
        54 -11.3270     83.2173    132.2503   5.2023300907e+01   3.8021866152e+01    0.3128991    0.2835152 -45.62 0.0005118809    1.150    0.131
        55 -10.5470    105.9477    129.7511   4.4364729351e+01   3.4621404214e+01    0.6049191    0.3392627 -37.78  0.002372949    2.116    0.527
        56  -9.3324    112.9809    130.6801   4.2541889803e+01   3.3094476381e+01    0.2182458    0.1972957  49.05  0.000564395    1.111    0.100
        57 -10.0793     35.2041    125.4983   6.8523818074e+01   4.6606623157e+01    0.4353204    0.2810988   3.49 0.0009296441    1.862    0.463
        58  -9.7153    137.8378    125.8210   3.4949829447e+01   2.9454757727e+01    0.1985513    0.1744048 -83.47 0.0004046731    1.306    0.234
        59 -12.4445     72.1745    150.4083   5.8968295469e+01   3.5020141428e+01    0.5468044    0.4463663  79.49 0.0003015156    1.338    0.253
        60 -10.4405     94.1785    121.8023   4.6190492315e+01   3.8743477971e+01    0.3141086    0.2738304  -4.60 0.0006077328    1.339    0.253
        61 -11.5386     55.6227    119.5073   5.9442881601e+01   4.5738799715e+01     0.732576    0.4233809 -71.45  0.002980983    1.846    0.458
        62  -9.4607     17.6581    122.8241   7.5303841544e+01   4.8977995268e+01    0.2425874    0.2034961  -8.67 0.0007691584    1.335    0.251
        63  -9.2456     29.1203    118.3249   7.0013959815e+01   4.9252939603e+01    0.2100962    0.1810071  34.93 0.0004809026    1.155    0.134
        64  -9.9367     39.2999    116.7166   6.5525009113e+01   4.8621474446e+01    0.2524413    0.2082157  59.33 0.0009621316    1.220    0.180
        65  -9.3098    104.9393    116.1353   4.1506679120e+01   3.8076124405e+01    0.2278943    0.2036909  72.53 0.0003381513    1.181    0.153
        66  -9.0787     34.5173    112.9326   6.6927064127e+01   5.0220659133e+01    0.2140956    0.1476828 -73.95 -7.840983e-06    1.436    0.304
        67  -9.5187     46.3353    110.6601   6.1508932364e+01   4.9445331967e+01    0.2896997     0.165134  46.40  0.001065112    1.793    0.442
        68 -10.5099     42.6764    106.8867   6.2345072152e+01   5.0959237335e+01    0.5238066    0.3519703  83.43  0.001603377    1.763    0.433
        69 -11.3685     83.7760     96.6300   4.3398054598e+01   4.6958755586e+01    0.5782033    0.3944789 -63.50  0.002522014    1.593    0.372
        70 -12.0657     76.9588    100.9987   4.7054700213e+01   4.7167148480e+01     0.597276    0.4545994  48.69  0.001704571    1.308    0.236
        71  -9.6722     30.4425    108.6822   6.8022519589e+01   5.1844205314e+01    0.2954779    0.1785285  27.34 0.0006708982    1.633    0.387
        72 -11.8495     19.5113    105.6448   7.2492038027e+01   5.3694000411e+01    0.8661579    0.4439037 -74.74  0.003594334    1.874    0.466
        73 -10.6078     24.1750    105.1301   7.0292440158e+01   5.3443503700e+01    0.4007689    0.2596143  46.64  0.001481405    1.567    0.362
        74 -10.2720     55.8428     99.5574   5.5109846096e+01   5.1123459888e+01    0.4669071    0.2292429  51.75  0.001659016    2.441    0.590
        75 -10.7491     29.6626     85.4441   6.4125308039e+01   5.8371834779e+01    0.4949484    0.3196813  63.44  0.001957922    1.854    0.461
        76 -12.8247     41.7915     90.9014   5.9372763216e+01   5.5451024188e+01     1.461186    0.9610732   7.04  0.005585833    1.841    0.457
        77 -12.6003     40.4070     83.2763   5.8201419314e+01   5.7669756775e+01     1.178274    0.7355423  26.19  0.004396884    1.612    0.380
        78 -11.5686     72.1932    107.9616   5.0577682365e+01   4.6228640744e+01    0.4976284     0.459683  33.99  0.001988727    1.088    0.081
        79 -10.2074     23.9067     82.6956   6.6552151920e+01   5.9695260905e+01    0.4108123    0.2577313 -52.68  0.001807883    1.524    0.344
        80 -10.7471     25.3910     75.8901   6.4287171763e+01   6.1382018342e+01    0.9136733    0.3770114 -42.85  0.003302149    2.631    0.620
        81 -12.3602     12.3672     61.4232   6.8765720224e+01   6.6300316638e+01     1.072396    0.5377806 -72.23  0.004637246    1.999    0.500
        82 -10.8921      9.8665     51.8497   6.8185632513e+01   6.8912941853e+01    0.4562888    0.3482967  82.11  0.001673364    1.535    0.349
        83 -11.6288     24.3121     67.9901   6.2994833483e+01   6.3566721506e+01    0.6556256    0.5287966  52.91  0.002823756    1.352    0.260
        84 -11.1266     61.7190     69.1115   4.3792602368e+01   5.7789793792e+01    0.5614175    0.4349777 -43.80  0.002744972    1.345    0.257
        85 -11.2520     19.9415     59.7585   6.3503393097e+01   6.6103807275e+01    0.8957761    0.4647663  52.25  0.003628682    2.483    0.597
        86 -11.3642     51.5002     64.9973   4.7200952351e+01   6.0580194125e+01    0.6763893    0.3998961 -52.33  0.002929927    1.719    0.418
        87 -10.8375     48.3310     60.8618   4.7350890083e+01   6.2081468568e+01    0.5760429    0.4265175 -47.95  0.002353108    1.377    0.274
        88 -11.2496      1.4850     60.5997   7.5680204458e+01   6.7116112367e+01    0.9082962    0.1953026 -78.31  0.002564395    4.854    0.794
        89 -10.0301      1.5104     52.9398   7.4336407953e+01   6.9091168113e+01     0.264499    0.1678644 -64.84 0.0007190086    1.451    0.311
        90  -9.3264     90.3165     65.6917   3.1432570750e+01   5.2543070153e+01    0.1566928    0.1193912  89.71 0.0003244471    1.632    0.387
        91 -11.3435    203.5380     61.1341   8.1406377850e+00   2.7768661990e+01    0.2850285    0.2471014 -67.00 0.0008328058    1.108    0.098
        92 -12.9346    213.7940     54.6178   5.6594416087e+00   2.6716026627e+01    0.7478281    0.7073675  48.37  0.004178782    1.425    0.298
        93 -14.9908     10.1200    206.2484   8.2995950499e+01   2.7711449910e+01     1.424714    0.8415163   2.26  0.003849001    2.083    0.520
        94  -8.9174     27.5300     59.4894   5.8681563089e+01   6.5376300722e+01    0.1426379    0.1366222 -17.73 0.0001447721    1.003    0.003
        95 -10.9784     78.0331     55.0152   3.1843245312e+01   5.7440855814e+01    0.3200559    0.2409514  89.32  0.001478571    1.737    0.424
        96  -9.1565     23.8477     49.3081   5.7723395716e+01   6.8269344989e+01    0.2242118    0.1639951  41.05 0.0007711585    1.441    0.306
        97  -9.4165     62.5500    220.0169   7.0007169840e+01   1.9563717565e+01    0.1675999    0.1316094 -76.72 0.0003158897    1.492    0.330
        98 -11.8117     42.6008     40.2261   4.2087330230e+01   6.7549983401e+01    0.7997357    0.6509307 -20.02  0.003319898    1.358    0.264
        99 -10.5613     55.8000     44.4336   3.6958124412e+01   6.4234377904e+01    0.4410183     0.377861 -46.14  0.002045093    1.239    0.193
       100 -11.2226     16.4789     38.6609   5.9160640502e+01   7.1538361687e+01    0.9043523    0.2959684 -54.54  0.003457508    2.707    0.631
       101  -9.2484      9.0173     41.5401   6.5966628272e+01   7.1500303718e+01    0.1994989    0.1274169  14.55  0.001013039    1.544    0.353
       102 -10.8598      9.1733     35.1217   6.3733527057e+01   7.3000065751e+01    0.4081552    0.3458111 -74.56  0.001572429    1.324    0.245
       103 -11.3980     82.1500    222.3167   6.5248895349e+01   1.6854764057e+01    0.4234908    0.1579318  50.54   0.00153291    3.571    0.720
       104 -11.1695     74.2547    210.1002   6.6039898965e+01   2.0339982298e+01    0.3329314    0.2034284 -71.58   0.00151763    1.948    0.487
       105 -10.4346      2.8363     22.8856   6.4895777990e+01   7.6213419275e+01    0.3054096    0.2096761  13.97  0.001190344    1.399    0.285
       106 -10.4158     72.7354    232.2530   6.8496902923e+01   1.5947221297e+01    0.3175906    0.2329422 -84.22  0.001903531    1.721    0.419
       107 -12.6215    127.1782    229.1918   5.5344082039e+01   1.0216564104e+01    0.5769119    0.2108943  26.94  0.002531875    2.312    0.567
       108 -12.4855    106.7244    228.5489   5.9955011512e+01   1.2750159595e+01    0.6035114    0.1784996  28.88   0.00237294    2.682    0.627
       109 -12.3129     98.8168    226.6598   6.1621902335e+01   1.4039963654e+01    0.4570796    0.2863446  54.86  0.002398422    1.974    0.493
       110 -10.2774    250.4998     23.4911   3.5675209035e+02   2.4053295371e+01    0.2251998   0.07779773 -34.92  0.001210283    2.165    0.538
       111 -10.0759     72.7051    226.5853   6.8008658788e+01   1.7076485907e+01    0.2516859    0.1801131  50.87 0.0008367434    1.384    0.277
