#   1 NUMBER                 Running object number                                     
#   2 MAG_AUTO               Kron-like elliptical aperture magnitude                    [mag]
#   3 X_IMAGE                Object position along x                                    [pixel]
#   4 Y_IMAGE                Object position along y                                    [pixel]
#   5 X_WORLD                Barycenter position along world x axis                     [deg]
#   6 Y_WORLD                Barycenter position along world y axis                     [deg]
#   7 A_WORLD                Profile RMS along major axis (world units)                 [deg]
#   8 B_WORLD                Profile RMS along minor axis (world units)                 [deg]
#   9 THETA_WORLD            Position angle (CCW/world-x)                               [deg]
#  10 FWHM_WORLD             FWHM assuming a gaussian core                              [deg]
#  11 ELONGATION             A_IMAGE/B_IMAGE                                           
#  12 ELLIPTICITY            1 - B_IMAGE/A_IMAGE                                       
         1 -13.2532    177.8832     34.5088   6.8056100610e+01   3.5899708921e+01     1.326343     1.006892   6.65  0.004446116    1.726    0.421
         2 -12.0593    197.4842      3.6706   5.6909146785e+01   3.4254524385e+01    0.8247895    0.4598693  77.60  0.004097764    1.710    0.415
         3  -8.6511    169.2504    236.9801   1.1546321558e+02   4.4048936285e+00    0.1548721    0.1239524  14.73  0.000422278    1.124    0.110
         4 -11.0241    135.1400    246.1391   1.2331829474e+02   7.7584709995e+00    0.3737372    0.2416413   5.23  0.002240964    1.939    0.484
         5 -10.7615    140.4909    250.0245   1.2266351583e+02   6.5170884976e+00     0.390303    0.1978869  35.44  0.002007093    1.430    0.301
         6 -10.9800    140.5180    245.4850   1.2216907224e+02   7.1325766019e+00    0.2519898    0.2400279 -78.05  0.001235033    1.534    0.348
         7 -19.5164     41.2576    146.0823   1.3597437737e+02   4.0255889704e+01      20.4642     3.336727 -74.68   0.05071495    6.682    0.850
         8  -9.1650    163.8426    205.0595   1.1209012748e+02   9.7289754080e+00    0.1823301    0.1546688  33.37 0.0003758738    1.210    0.174
         9 -10.1789     92.9762    207.4346   1.2840294868e+02   1.9950250470e+01    0.3108021    0.1940555 -68.59    0.0011568    1.967    0.492
        10 -10.5040     94.3359    199.8331   1.2725902211e+02   2.1226611176e+01    0.5195753    0.2500983  62.84  0.002078979    3.158    0.683
        11 -10.5611    193.5350    192.8446   1.0405511035e+02   6.9881311808e+00    0.5252643     0.354682 -33.22  0.003089867    1.596    0.373
        12 -10.5537     18.9814    214.0349   1.4583860358e+02   2.7289083069e+01    0.1638748    0.1205395  51.66            0    1.030    0.029
        13  -9.5639      9.2499    221.0986   1.4810478011e+02   2.6814435406e+01   0.08694153   0.05578636  28.42            0    1.525    0.344
        14 -10.1136    103.6014    194.4193   1.2436825434e+02   2.0936423950e+01    0.3609831    0.1880775  19.30  0.001517791    2.498    0.600
        15 -10.0313     92.7856    185.7981   1.2600064253e+02   2.4298072674e+01    0.2931505    0.1526268  43.11  0.001378184    1.626    0.385
        16  -9.6124    173.4883    218.4901   1.1209868606e+02   6.3141646710e+00    0.1255984   0.09637889  20.92 1.008294e-05    1.011    0.011
        17 -10.0712    206.0166    180.7492   9.9515732743e+01   6.7977500794e+00    0.4478285    0.1859627  34.90  0.002041067    2.212    0.548
        18  -9.5836    208.6873    178.6815   9.8637372630e+01   6.6772313576e+00    0.2495985    0.1864083   1.75 0.0009758765    1.180    0.152
        19  -9.7755     99.2711    180.9622   1.2371813725e+02   2.4337617870e+01    0.2921148    0.1914093  23.90 0.0008322297    1.572    0.364
        20 -10.5511     90.2988    175.3207   1.2531785050e+02   2.6912982075e+01    0.3140999    0.2586661   7.57 0.0005052347    1.450    0.310
        21 -11.7475     93.0443    169.9825   1.2385842446e+02   2.7674320034e+01    0.5587683    0.4290381  -4.68  0.002340337    1.767    0.434
        22 -10.2138    196.0248    171.3630   9.9677194458e+01   9.7975070532e+00    0.5083323    0.2655129 -37.05  0.002476553    1.978    0.494
        23  -9.0012    183.6493    222.2972   1.1064640047e+02   4.3552332698e+00     0.112558   0.08511377  45.17 0.0006874967    1.686    0.407
        24  -9.2168    184.9785    217.0000   1.0960724529e+02   4.8755829036e+00    0.2054084   0.05658605  35.20 0.0008044212    2.956    0.662
        25  -8.5267    137.6568    171.3068   1.1253717993e+02   1.9953676130e+01    0.1442616    0.1065792  61.33 0.0003886375    1.691    0.408
        26 -10.0029    102.4889    169.4906   1.2124905960e+02   2.6293156340e+01    0.3146936     0.128256  34.23   0.00121618    2.184    0.542
        27  -8.2112    223.7662    163.9919   9.3142139744e+01   6.3922970169e+00    0.1621547   0.09457101 -29.05 0.0004415716    1.588    0.370
        28  -8.4821    120.5560    164.0495   1.1559692958e+02   2.4429390925e+01    0.1862289    0.1280143  86.95 0.0006632503    2.317    0.568
        29 -10.0333     98.5697    161.2446   1.2105310447e+02   2.8761486815e+01    0.2640414    0.2367484  26.27 0.0002483063    1.136    0.119
        30 -10.9427    102.7793    154.4632   1.1877444136e+02   2.9607428999e+01    0.5978277    0.3610031 -38.78  0.002266923    2.089    0.521
        31  -8.0407    120.5073    156.4687   1.1427025441e+02   2.6062850178e+01    0.1493712    0.1352545  33.78 7.149312e-06    1.020    0.020
        32  -9.7540    134.2886    147.3531   1.0888134566e+02   2.5458404828e+01    0.6082612    0.1449165 -52.35  0.001550299    5.494    0.818
        33  -9.2707    146.0618    146.4806   1.0571065699e+02   2.3360126692e+01    0.2223675    0.2006868 -32.03 0.0005115101    1.172    0.146
        34  -9.2132     88.9719    147.0805   1.2152927133e+02   3.3621763022e+01    0.2236703    0.1996371  52.06 0.0003145514    1.031    0.030
        35  -9.2215      3.8833    146.5326   1.4717558174e+02   4.3263706356e+01    0.1952729    0.1546789 -11.84  0.001070354    1.684    0.406
        36 -10.3791    112.7618    139.4334   1.1315456280e+02   3.1293530084e+01    0.5586131    0.3907327   0.89  0.002349294    2.156    0.536
        37 -10.7662    101.3730    139.4420   1.1647888633e+02   3.3358003588e+01    0.2831166     0.258828  21.60  0.001512916    1.142    0.125
        38  -9.5558    106.1204    130.9086   1.1335180838e+02   3.4527694085e+01    0.3556804     0.315599  87.68  0.001438034    1.230    0.187
        39  -9.3759    106.0280    126.0401   1.1233744138e+02   3.5706290047e+01    0.3116347    0.2136721 -38.02 0.0008609243    1.675    0.403
        40 -12.2227    107.9961    208.7003   1.2503339371e+02   1.7576158630e+01     0.505447    0.4352403   5.80  0.003242433    1.332    0.249
        41  -9.4940    117.9845    129.8478   1.0963208848e+02   3.2503389077e+01    0.2683356    0.2286804 -44.83 0.0007063983    1.242    0.195
        42 -12.2530    107.3329    203.5683   1.2458652809e+02   1.8622903788e+01    0.6729717    0.4709175  18.01  0.003468418    1.535    0.349
        43  -8.7889    168.6689    113.3729   9.2632348866e+01   2.5178388547e+01    0.2896425    0.2315095 -79.48   0.00135992    1.742    0.426
        44  -8.3692    205.6799    110.3034   8.4604675672e+01   1.7794080953e+01    0.1371503    0.1103995 -65.56 0.0005779081    1.630    0.386
        45  -9.5316     84.4994    107.4627   1.1517664051e+02   4.4230557981e+01    0.3566111    0.2391217  57.99  0.001537105    1.690    0.408
        46 -11.3483    116.1528    211.6366   1.2350520047e+02   1.5859735810e+01    0.3677852    0.2548783  62.95   0.00142895    1.764    0.433
        47  -9.7648     85.0562     76.9861   1.0661407447e+02   5.1652761462e+01    0.2375408    0.2295791  29.50 0.0003966371    1.033    0.032
        48 -10.6690     15.4835    206.4973   1.4635769447e+02   2.9088928757e+01     0.230183    0.1888438  24.43  0.001416787    1.423    0.297
        49 -11.3977     11.6144    205.6644   1.4719048410e+02   2.9594142618e+01    0.3471209    0.2255162  34.81  0.001483902    1.366    0.268
        50 -12.3167    164.0044     50.8517   7.5434091936e+01   3.7298275072e+01    0.7905344      0.53883 -19.70  0.001580497    1.683    0.406
        51 -10.7695      1.7178    248.0061   1.5009047177e+02   2.2717963597e+01    0.1284712   0.09363896  60.12 0.0003808535    1.150    0.130
        52 -11.6337    182.1826     27.9531   6.5485208148e+01   3.5583733621e+01      0.47963    0.4346229 -10.28  0.001182116    1.265    0.209
        53 -10.2621    189.3401     14.8611   6.0791924156e+01   3.5199699562e+01    0.2519308    0.1769749 -81.73  0.001115738    1.373    0.272
