#   1 NUMBER                 Running object number                                     
#   2 MAG_AUTO               Kron-like elliptical aperture magnitude                    [mag]
#   3 X_IMAGE                Object position along x                                    [pixel]
#   4 Y_IMAGE                Object position along y                                    [pixel]
#   5 X_WORLD                Barycenter position along world x axis                     [deg]
#   6 Y_WORLD                Barycenter position along world y axis                     [deg]
#   7 A_WORLD                Profile RMS along major axis (world units)                 [deg]
#   8 B_WORLD                Profile RMS along minor axis (world units)                 [deg]
#   9 THETA_WORLD            Position angle (CCW/world-x)                               [deg]
#  10 FWHM_WORLD             FWHM assuming a gaussian core                              [deg]
#  11 ELONGATION             A_IMAGE/B_IMAGE                                           
#  12 ELLIPTICITY            1 - B_IMAGE/A_IMAGE                                       
         1 -11.8651     43.1755     20.8371   1.0556192393e+02   6.7522443602e+01    0.5516555    0.2715515  17.21  0.002501454    3.033    0.670
         2 -11.9648    216.9908     16.4387   6.4245154437e+01   2.9016836528e+01    0.4153497    0.2916741  66.70  0.001365139    1.397    0.284
         3 -11.7643     43.6968      8.4847   9.9283719151e+01   6.9223905421e+01    0.2754131    0.2119508  29.73 0.0009463184    1.376    0.273
         4 -12.6513    183.8938      4.0255   6.4270666965e+01   3.8717317756e+01    0.4942946    0.3809453 -12.69  0.002744202    1.521    0.343
         5 -10.9429     12.8156    227.3078   1.4949436606e+02   2.7044964659e+01    0.1725235   0.09983595  77.92 0.0005653663    1.271    0.213
         6 -10.8830     14.7361    250.2600   1.5020192513e+02   2.2875325393e+01     0.172907   0.08815952  50.24  0.000861597    1.497    0.332
         7 -11.1011     96.0740    224.9409   1.3470906502e+02   1.7061786238e+01    0.3458012    0.1564886  57.17  0.001731576    2.064    0.516
         8  -9.9738    103.6464    225.2018   1.3333055467e+02   1.5872427995e+01    0.1479871    0.1075362 -57.38 0.0009409093    1.668    0.400
         9 -10.2712     76.5165    225.8343   1.3838332868e+02   1.9714027553e+01    0.2171305   0.07675634  38.28 0.0009855707    2.774    0.639
        10 -11.2078    149.6405    223.3153   1.2448595777e+02   8.7479015771e+00    0.2648599    0.1906637 -84.81  0.001534192    1.935    0.483
        11 -11.8508    226.6505    221.4744   1.1030767813e+02  -3.8740475712e+00    0.2017869    0.1882588 -79.07  0.001275661    1.707    0.414
        12 -10.5876    211.4862    218.4720   1.1244254523e+02  -1.0320101552e+00     0.194075    0.1147851 -48.71   0.00103523    2.359    0.576
        13 -10.6615    232.6740    211.3204   1.0756481414e+02  -3.5714624527e+00    0.1069243   0.09767138  70.68 0.0004949424    1.682    0.405
        14 -10.6013    115.9829    209.9986   1.2920654076e+02   1.6664289718e+01    0.2130648    0.1347957  70.26   0.00113961    1.747    0.428
        15 -10.7025    186.0132    204.2882   1.1473842074e+02   5.4080760195e+00    0.2439872    0.1677733 -74.29  0.001178701    2.680    0.627
        16 -10.5782     48.5239    201.5269   1.4152255766e+02   2.8024593489e+01     0.212602   0.09393116 -87.30  0.001039188    2.407    0.585
        17 -10.5123      5.5268    199.5252   1.4936882099e+02   3.2976748973e+01    0.1835067   0.06319074  47.99 0.0009521263    2.291    0.563
        18 -10.6715    112.4908    197.9778   1.2834393572e+02   1.9515890757e+01    0.1832766    0.1055196 -89.85 0.0008104747    2.604    0.616
        19  -9.9023    133.2938    195.6541   1.2375426199e+02   1.6401805033e+01    0.1358546   0.09581819  75.36 0.0004751643    1.667    0.400
        20 -11.8057    159.4548    192.6684   1.1796645282e+02   1.2204862984e+01    0.5945106    0.3629333 -71.91  0.002628579    2.731    0.634
        21 -10.3152    217.3445    187.6714   1.0596817481e+02   2.2834887394e+00    0.1232236    0.1062163  85.27 0.0007050644    1.749    0.428
        22 -10.6590     34.0000    186.0213   1.4309626179e+02   3.2879755376e+01    0.1901353   0.05571834 -73.48 0.0008091013    2.989    0.665
        23 -10.5824    183.4587    183.5150   1.1157187312e+02   9.2705705320e+00     0.277218    0.1354806 -42.19  0.001224918    2.228    0.551
        24 -10.0179    137.4966    178.9804   1.2021616981e+02   1.8869479516e+01    0.1932916    0.1193601 -81.07  0.000810368    2.569    0.611
        25 -10.4800    210.5654    182.6992   1.0625500596e+02   4.2774132116e+00    0.2498677    0.1275949 -31.96  0.001143193    2.129    0.530
        26 -10.2426    100.9805    175.9991   1.2770241787e+02   2.5903282220e+01    0.1867825    0.1635569  74.79  0.001135359    1.011    0.011
        27  -9.9341     28.6344    176.7154   1.4342599300e+02   3.5416234860e+01    0.1047454    0.0844086 -51.03 0.0004662696    1.692    0.409
        28 -12.0035     35.4451    173.6824   1.4174030128e+02   3.5349523496e+01     0.403318    0.1767956  62.08  0.001983559    2.302    0.566
        29 -11.2688    121.0145    168.2916   1.2200729289e+02   2.4088394997e+01    0.3478763    0.1734776 -66.11   0.00140947    2.510    0.602
        30  -9.9973     55.3244    167.6720   1.3679395100e+02   3.4354986797e+01    0.1356618    0.0801198  71.83   0.00070496    1.696    0.410
        31 -10.3298     98.6578    166.3055   1.2675466913e+02   2.8382322345e+01    0.1452892   0.09585865  72.86 0.0007041616    1.685    0.407
        32 -10.1894    138.3206    163.9808   1.1736605510e+02   2.1753801229e+01    0.2307625    0.1158362 -71.63 0.0007050132    4.333    0.769
        33 -11.6432    106.2882    157.6237   1.2355495055e+02   2.9013058715e+01    0.6222556    0.4076514 -89.85  0.002909484    1.923    0.480
        34 -10.7906    168.0103    157.9991   1.0972518523e+02   1.7002833347e+01    0.2374096    0.1822876  84.72  0.001142855    1.747    0.427
        35 -10.7535    218.4007    157.1737   9.9628825281e+01   6.8446027689e+00    0.1992366    0.1256347 -45.36 0.0009528393    1.740    0.425
        36 -10.1239      7.0000    155.9868   1.4636584812e+02   4.1881888032e+01    0.1872302   0.05084953 -76.64 0.0005564717    2.885    0.653
        37 -10.6424    189.9790    150.5010   1.0359611027e+02   1.3824473279e+01    0.2772393    0.2083618 -57.57  0.001071969    1.568    0.362
        38 -11.1989    107.0993    145.3307   1.2113025485e+02   3.1628558206e+01    0.3776045    0.2201017  77.44  0.001439561    2.852    0.649
        39 -10.3824    148.4928    145.0039   1.1125759350e+02   2.3672573600e+01    0.2153659    0.1295664 -71.17 0.0008105428    2.604    0.616
        40 -11.8543     82.9616    129.6032   1.2427245504e+02   3.9280795698e+01    0.6508459    0.1912842 -62.01  0.002033948    3.740    0.733
        41 -11.7458     98.7600    128.2843   1.1984386336e+02   3.6998316137e+01    0.5064032    0.2950979 -85.43  0.001900037    2.913    0.657
        42 -11.1860     42.9788    122.1015   1.3377738778e+02   4.6282353566e+01    0.5440651    0.2069011 -81.50  0.001746771    4.492    0.777
        43 -11.1797     28.1293    122.9862   1.3792578359e+02   4.7541334883e+01    0.4451353     0.178628  89.25  0.001579425    4.074    0.755
        44 -11.5680    193.3996    118.9346   9.5508678775e+01   1.8926131153e+01    0.5865642    0.4034562 -68.32  0.002502877    2.046    0.511
        45 -10.4984     37.8433    121.1710   1.3504127991e+02   4.7034380119e+01    0.1803542    0.1440541 -89.99 0.0003064779    1.133    0.117
        46 -11.2362     70.5728    119.4372   1.2567083010e+02   4.3501033231e+01    0.3837413    0.1757172 -75.87  0.001345048    3.343    0.701
        47 -11.7763    141.0000    117.4870   1.0661381659e+02   3.1123484299e+01    0.5949533    0.1877351 -49.54  0.001779565    3.380    0.704
        48 -10.8626    108.0079    111.7385   1.1363007150e+02   3.9124570906e+01    0.4943969    0.1770908 -57.46  0.001533479    3.405    0.706
        49 -10.8319     78.1389    111.8419   1.2197122878e+02   4.4181070502e+01    0.3749198    0.1825463 -73.35  0.001347356    3.081    0.675
        50 -10.6394    174.4877    110.9957   9.7333960021e+01   2.4837259268e+01    0.4221391    0.1504346 -40.22   0.00136877    2.759    0.638
        51 -11.6315    159.4338    111.0914   1.0065368665e+02   2.8325262116e+01    0.5122846    0.2651547 -46.69  0.001991156    1.945    0.486
        52 -11.1886    121.6748    111.1839   1.0986979955e+02   3.6570029728e+01    0.3250698    0.1338911 -54.29   0.00110505    2.664    0.625
        53 -11.4074     13.8974    109.1070   1.4001603197e+02   5.1898625715e+01    0.4983741    0.1981682 -74.99  0.002389481    2.080    0.519
        54 -10.0522     59.9669    109.5144   1.2673874256e+02   4.7256763116e+01    0.1823414    0.1356719  34.64  0.001018454    1.551    0.355
        55 -12.3914    140.4501    102.5779   1.0284758941e+02   3.4408112877e+01    0.6215602    0.3308617 -41.48  0.002470386    1.868    0.465
        56 -12.2906     43.4866     99.8361   1.2977036195e+02   5.1437934242e+01     0.615783    0.3346263  89.15  0.002642138    2.793    0.642
        57 -11.9179    150.5559    102.4025   1.0037480922e+02   3.2146312467e+01    0.3938099    0.2793516 -64.91  0.001720742    1.701    0.412
        58 -11.5457    127.7413    101.3834   1.0572005230e+02   3.7442371875e+01    0.4739039    0.1992424 -51.89  0.001631109    2.573    0.611
        59 -11.8241    107.1338     98.2175   1.1039734307e+02   4.2317864341e+01    0.5592446    0.3236828 -65.31  0.002174593    2.264    0.558
        60 -10.4810     81.4258    100.2423   1.1833780635e+02   4.6360771150e+01     0.207915    0.1280514 -65.64 0.0009507046    1.710    0.415
        61 -10.8276     19.4971     97.4969   1.3671524446e+02   5.4144400326e+01    0.2277676    0.1013087 -80.54  0.001038146    2.348    0.574
        62 -10.9142     62.8310     95.6731   1.2289534482e+02   5.0105252192e+01    0.3054177    0.1564312 -78.70  0.001094926    3.470    0.712
        63 -13.0807    169.8486     90.6210   9.2775290729e+01   2.9866994700e+01    0.5126824    0.3809944  86.73 0.0009752646    1.749    0.428
        64 -10.7583     34.3209     85.7510   1.2985753786e+02   5.5582248284e+01    0.6014075   0.07186966 -52.08  0.001800184    4.800    0.792
        65 -11.1033     86.1061     86.7512   1.1339898560e+02   4.8632833094e+01    0.3228148    0.2113869  80.00  0.001316644    2.752    0.637
        66 -11.2035     41.7480     88.0463   1.2790359923e+02   5.4332659980e+01    0.2661802    0.1732319  -5.67  0.001337663    2.362    0.577
        67 -11.2607    104.1356     83.0126   1.0693629419e+02   4.6178912891e+01    0.3354174    0.1911571 -59.12  0.001367095    2.107    0.525
        68 -10.8535    140.5679     82.3100   9.6989771715e+01   3.8489614621e+01    0.3142323    0.1441475 -43.91  0.001150522    2.150    0.535
        69 -10.7307     45.4875     81.5066   1.2517157632e+02   5.5415248374e+01    0.2040782   0.09995648 -50.35 0.0007436909    1.714    0.416
        70 -11.0131     81.8012     72.4115   1.1053257783e+02   5.2421027939e+01    0.2928316    0.1664599 -73.74 0.0009520667    4.306    0.768
        71 -11.3140    223.5463     71.1303   7.7914693179e+01   1.9998035699e+01    0.2929275    0.2514983 -86.78 0.0005910915    1.234    0.190
        72 -10.6756     51.4326     69.6791   1.2003279365e+02   5.7335974483e+01    0.2560407    0.1163654 -58.35  0.001131002    2.080    0.519
        73 -10.2669    220.0571     66.1833   7.7112743510e+01   2.1599216490e+01    0.3000692    0.2014272  -8.71  0.001322772    2.036    0.509
        74 -11.6396      7.6787     55.2250   1.3279209124e+02   6.4251513773e+01    0.4310373    0.1199496 -67.05  0.001721923    3.275    0.695
        75 -11.2547    149.6314     52.5071   8.5386171371e+01   4.1569921733e+01    0.2585474    0.2442562  64.81 0.0004900945    1.058    0.055
        76 -10.2207     39.4646     52.9990   1.1952184953e+02   6.2155496376e+01    0.1888327    0.1043676 -50.75 -8.659407e-05    1.508    0.337
        77 -13.4704     27.4490     59.1319   1.2601534710e+02   6.2030114865e+01    0.7046216    0.6109217 -64.67  0.004897397    1.184    0.156
        78 -10.2779    157.1254     44.8854   8.1325374808e+01   4.0828673084e+01    0.2209526    0.1976885 -80.08 0.0003894309    1.184    0.156
        79 -10.4507      5.1429     42.2633   1.3062100272e+02   6.7056153248e+01    0.2121498    0.1355675 -87.52  0.001242102    2.205    0.546
        80 -11.2612     69.9358     41.8499   1.0390864294e+02   6.0212872662e+01    0.2802289    0.2156499  84.25  0.001427711    2.374    0.579
        81 -11.4536     42.4995     38.2681   1.1316860010e+02   6.4656224586e+01    0.2953289    0.2674332 -25.14  0.001096552    1.139    0.122
        82 -10.4599    119.4457     33.6200   8.5612575309e+01   5.1657571417e+01    0.3126091    0.2116023 -57.45  0.001456614    1.941    0.485
        83 -10.9141    104.1444     30.6753   8.8460164251e+01   5.5479402623e+01    0.4406723    0.2122811  60.01  0.001456544    2.468    0.595
        84 -11.7360    219.8597    248.3686   1.1560495002e+02  -5.9615947446e+00    0.2307898    0.1871788  74.94  0.001524039    2.322    0.569
        85 -11.9363     24.8061    241.7345   1.4826460248e+02   2.3250693129e+01    0.3702283    0.1259958  70.57  0.001873272    2.932    0.659
        86 -11.2419     29.8640    232.9662   1.4699133883e+02   2.4231780297e+01    0.3911656     0.138252  64.89  0.001820098    2.556    0.609
        87 -10.3860    239.8121     20.7886   6.3205825893e+01   2.3001485798e+01    0.1827409    0.1778139 -83.64 0.0006588098    1.194    0.163
