#   1 NUMBER                 Running object number                                     
#   2 MAG_AUTO               Kron-like elliptical aperture magnitude                    [mag]
#   3 X_IMAGE                Object position along x                                    [pixel]
#   4 Y_IMAGE                Object position along y                                    [pixel]
#   5 X_WORLD                Barycenter position along world x axis                     [deg]
#   6 Y_WORLD                Barycenter position along world y axis                     [deg]
#   7 A_WORLD                Profile RMS along major axis (world units)                 [deg]
#   8 B_WORLD                Profile RMS along minor axis (world units)                 [deg]
#   9 THETA_WORLD            Position angle (CCW/world-x)                               [deg]
#  10 FWHM_WORLD             FWHM assuming a gaussian core                              [deg]
#  11 ELONGATION             A_IMAGE/B_IMAGE                                           
#  12 ELLIPTICITY            1 - B_IMAGE/A_IMAGE                                       
         1 -10.3107    205.0962     21.0418   3.3261419461e+01   3.2191793896e+01     1.009009    0.6104372 -35.69  0.005817972    1.721    0.419
         2 -11.7657    247.5627      7.6417   2.7307712790e+01   2.5050909764e+01    0.6959585    0.4715944   3.30  0.003592583    4.181    0.761
         3 -10.8210    243.7105     20.4058   2.9937617164e+01   2.4342982790e+01    0.5021363    0.3049007 -35.61  0.002773204    1.728    0.421
         4 -13.7761    241.5663    113.3950   4.9014295690e+01   1.1093871988e+01      5.49147     1.004854 -41.53   0.01648983    4.326    0.769
         5 -12.2668    218.9211     34.0991   3.4781617467e+01   2.7665861420e+01     1.799634    0.7834129 -33.66  0.008609416    2.379    0.580
         6 -14.3847    239.4110     58.7799   3.7911018816e+01   2.0172535019e+01     5.952706      1.69443  67.51    0.0221341    4.305    0.768
         7 -12.3893    233.3301     32.4994   3.3127121086e+01   2.4913161695e+01     1.675543    0.9549266 -54.90  0.004948677    1.479    0.324
         8 -12.7075    249.7433     32.9523   3.1872883548e+01   2.1672196037e+01     1.848897    0.3719915 -34.44  0.006152995    5.437    0.816
         9 -11.6445    132.5679     21.0238   4.2793044979e+01   4.8938233646e+01    0.6447456    0.4881207  45.62  0.003790171    1.282    0.220
        10 -11.5232    214.5489     24.8403   3.3205526359e+01   2.9720357165e+01    0.8395553    0.5529794 -21.15  0.003853313    2.118    0.528
        11 -10.5479    143.0203      9.9722   3.7751170995e+01   4.7548955310e+01    0.8421536    0.2912062 -18.05  0.001921396    4.451    0.775
        12 -11.3587    118.9336     10.0877   4.1754583527e+01   5.3151226261e+01    0.6562052    0.4416819  43.42  0.002857014    1.405    0.288
        13  -7.8833    164.0335     10.0080   3.4983306860e+01   4.2633034082e+01    0.1385508    0.1256057 -73.78 0.0009325984    1.130    0.115
        14  -9.6199    235.0950      3.3349   2.7279803126e+01   2.7907778445e+01    0.2196653    0.1901765  36.04 0.0009937783    1.856    0.461
        15  -7.6136    150.2204      5.6327   3.5519866965e+01   4.6248711195e+01    0.1705031   0.09596051  62.05 0.0003252075    1.504    0.335
        16  -9.5750    112.0215      2.6609   4.0526948493e+01   5.5339102774e+01    0.2543119    0.2089958  82.87  0.001301783    1.257    0.204
        17  -7.6052    165.5986      2.5365   3.2863169081e+01   4.2952856892e+01    0.1206066    0.1017333  83.15 0.0002184043    1.033    0.032
        18  -7.8177    230.4984      1.2472   2.7173037455e+01   2.9030674893e+01    0.1085645   0.07745386 -85.97 0.0007496082    1.159    0.137
        19  -8.4910    155.1801    178.8347   7.9783882023e+01   1.4182625040e+01    0.3656162    0.2445791  80.34   0.00134701    3.156    0.683
        20  -7.8589    227.6683    250.0013   7.7501467231e+01  -9.5072602659e+00    0.1619435   0.09642488 -56.54  0.000394001    4.377    0.772
        21 -10.0228    237.2191    175.0539   6.2284810345e+01   1.0334922064e+00     0.353306    0.2791753  82.23  0.001643535    2.416    0.586
        22  -7.6569    104.5954    177.8506   9.2355590784e+01   2.3340085629e+01    0.2077533    0.1433995 -74.83 0.0009231253    1.717    0.418
        23 -10.6721    227.9644    170.2330   6.2931342872e+01   3.2949853726e+00    0.7185476    0.2091444 -34.97  0.002328421    3.711    0.731
        24  -8.0174    193.5092    170.5092   6.9568154565e+01   9.0124537623e+00    0.3704573    0.2421536 -88.81  0.001117036    5.549    0.820
        25 -11.0843      2.7020    165.8852   1.1810968529e+02   3.8643415586e+01    0.8049378    0.2837625 -78.48  0.003391998    2.411    0.585
        26 -10.9210     65.6966    143.1847   9.7145654407e+01   3.8156660394e+01     2.557822    0.8584977  35.13  0.008857355    2.953    0.661
        27 -11.5249     33.1415    151.9745   1.0832633452e+02   3.9652024849e+01    0.6422482    0.4859207 -68.45  0.001343835    1.156    0.135
        28 -11.3033     40.0001    148.9954   1.0589649057e+02   3.9732906161e+01    0.8738869    0.5305417 -68.31  0.003065951    1.470    0.320
        29 -11.3966     46.6726    146.6167   1.0353711371e+02   3.9627557365e+01    0.7783764    0.5211749 -70.89  0.002029413    1.388    0.279
        30 -11.2137    198.7776     83.9051   4.8772378690e+01   2.4638611603e+01    0.8580845    0.4478332  43.52  0.003670251    2.389    0.581
        31  -8.3685     42.2834    246.9904   1.1539326844e+02   1.6175819176e+01    0.1397716   0.09679281 -84.06 0.0004377246    1.418    0.295
        32  -9.3816    188.0194    239.0919   8.3395471761e+01  -2.7221985634e+00    0.2766534    0.2419543  53.73  0.001440391    1.627    0.385
        33 -12.6254    182.8947     91.1575   5.3273189677e+01   2.6864900881e+01     1.968694     1.069494 -42.61  0.005711184    1.736    0.424
        34 -10.4319    208.2598    233.2782   7.8405823108e+01  -4.5835983672e+00    0.2169759    0.1832102  -0.55 0.0001781096    1.092    0.084
        35 -12.6996    178.8446     78.5442   5.0794461696e+01   3.0000401073e+01     1.293893     1.208924  31.56  0.001867482    1.228    0.186
        36  -9.1514    175.7584    233.1260   8.4964744730e+01   4.8431550672e-02    0.2748253    0.1822039  35.87 0.0005705651    1.441    0.306
        37 -12.8545    217.9915     76.5398   4.4253132631e+01   2.1776193818e+01      1.54379     1.254823 -73.33   0.00922586    1.188    0.159
        38 -12.6855    247.3727     83.2860   4.2058492777e+01   1.4986330973e+01     1.420269    0.7150365 -48.88  0.005913089    1.662    0.398
        39  -9.0491    177.1333    228.4879   8.3916278255e+01   6.5497880188e-01    0.2608494    0.1987121 -19.20 0.0002734673    1.305    0.234
        40 -12.0409    232.5964     70.7508   4.1160081678e+01   1.9731508279e+01    0.7145244    0.5110407  56.60   0.00169051    1.616    0.381
        41  -8.7461    178.0030    223.9930   8.2980493730e+01   1.3226988428e+00     0.200311    0.1737483  -0.81 0.0003596967    1.034    0.033
        42  -7.3793    198.3256    153.3324   6.4934505513e+01   1.1565278400e+01    0.1514071    0.1098834  -7.88 0.0007051096    1.710    0.415
        43  -9.5035     12.9851    151.9849   1.1407931160e+02   4.1383300548e+01    0.2214489    0.1375227  69.30  0.001143001    1.713    0.416
        44  -8.8791    180.6348    147.4013   6.7261351428e+01   1.6148497303e+01    0.2524379    0.2452053  52.55 0.0006918802    1.138    0.121
        45  -9.0378    133.5793    145.3983   7.8009666823e+01   2.5971105346e+01    0.5896109    0.1569584 -51.90   0.00154426    4.130    0.758
        46  -8.4114    118.9231    146.9857   8.2305606538e+01   2.8412802955e+01    0.2206535    0.2155215 -29.84  0.001159015    1.012    0.011
        47  -8.0202    191.9709    143.9309   6.4125582940e+01   1.4654987777e+01    0.2212072    0.1801003 -75.63 0.0005257184    1.592    0.372
        48  -8.6781    178.5698    140.7131   6.6178673692e+01   1.7961030551e+01    0.3900304    0.1320983  39.14  0.001216142    3.457    0.711
        49  -9.8210    175.1763    150.4821   6.9139603857e+01   1.6566991518e+01    0.2784384     0.261016  -1.47 0.0004083769    1.072    0.067
        50  -8.1327    191.9851    138.5057   6.2896669775e+01   1.5748970759e+01    0.1979291    0.1331895  74.21 0.0008095349    2.483    0.597
        51  -8.8293    210.2112    137.3181   5.9170315782e+01   1.2481755606e+01    0.2652691    0.1783214  25.92  0.001259066    1.921    0.479
        52  -7.9362    166.6404    130.3119   6.6347216313e+01   2.2614618439e+01    0.1579943     0.123626 -87.23 0.0007042352    1.745    0.427
        53  -8.4670    160.5161    128.5030   6.7306581098e+01   2.4290952467e+01    0.1554747    0.1486222 -31.95 0.0008104207    1.015    0.015
        54 -10.3454    185.4882    121.7390   6.0286264533e+01   2.0441854135e+01    0.6651338    0.3217774 -39.36  0.002638744    1.970    0.492
        55  -7.5559     67.2475    227.3374   1.0838427462e+02   1.7241015885e+01    0.1195035   0.09761857 -39.07 0.0001453591    1.560    0.359
        56  -7.7054    124.5846    121.4742   7.4646158119e+01   3.3398045431e+01    0.1578201    0.1505941 -29.07 -7.927509e-06    1.031    0.030
        57  -9.4567    232.2314    116.2524   5.0957798592e+01   1.2272868050e+01    0.3703966    0.1951755 -53.54  0.001399995    1.978    0.494
        58  -8.6734     67.5866    115.1844   9.0693930401e+01   4.5053297222e+01    0.3475137    0.2065093 -31.25 0.0004276705    2.004    0.501
        59 -11.6072    226.1935     87.5881   4.5602733146e+01   1.8322038135e+01     1.200415    0.4061126 -51.44  0.004245006    3.289    0.696
        60  -9.4019    186.3412    111.3936   5.7628527543e+01   2.2303565644e+01    0.4620338    0.2159268 -55.33  0.001638447    2.735    0.634
        61  -7.5810    174.2907    113.6468   6.0601224015e+01   2.4449360101e+01      0.15614    0.1170764 -72.61 0.0007027889    1.677    0.404
        62  -8.8148    134.7607    111.5907   6.9335689758e+01   3.3493004582e+01    0.4672695    0.1302982 -44.98  0.001319882    3.519    0.716
        63  -8.3930    196.3506    110.2687   5.5489933387e+01   2.0404959723e+01    0.3857108    0.1177975 -44.85  0.001248838    3.047    0.672
        64  -9.1062    126.8721    107.2540   7.0272422843e+01   3.6126611244e+01    0.3177881    0.2110029 -17.81  0.001257213    2.162    0.538
        65  -9.8669    206.2389    110.0104   5.3697654135e+01   1.8414485984e+01    0.4449165    0.2636312  35.86  0.001970779    2.241    0.554
        66  -7.6313    103.1182    104.5646   7.6400910687e+01   4.1565939803e+01    0.3674228    0.1490224  30.75  0.001031506    3.375    0.704
        67  -8.8466    149.9112    103.7543   6.3471990430e+01   3.1837562870e+01    0.3162485    0.2477509 -37.63 0.0007178013    1.272    0.214
        68  -9.5473    117.5842    101.9884   7.1406095306e+01   3.9230116597e+01     0.316147    0.1771637  59.14  0.001158938    2.469    0.595
        69  -9.4981    160.4486     99.7120   5.9996690790e+01   3.0290461517e+01    0.5149049    0.2608815  40.19  0.001582293    2.265    0.559
        70  -9.0515    135.9702     99.5746   6.5764291341e+01   3.5792751393e+01    0.3360163    0.2551391  66.86 0.0006849976    1.562    0.360
        71  -9.2376    169.2872     97.7819   5.7613413583e+01   2.8678203720e+01    0.3068551    0.2049497  42.56  0.001403043    1.621    0.383
        72  -7.9781     97.8922     97.0954   7.5931592331e+01   4.4242915898e+01    0.2222435    0.2082993 -78.70 0.0004942713    1.216    0.177
        73 -10.2697     86.4850     96.8683   7.9565972079e+01   4.6390089974e+01    0.2579886    0.2389058  26.96   0.00139624    1.108    0.098
        74  -9.4347    143.9711     94.5641   6.2390644716e+01   3.5025433558e+01    0.3410486    0.2996051 -76.28 0.0005071294    1.264    0.209
        75  -9.7787    127.5967     91.8758   6.5774359403e+01   3.9212499228e+01    0.3279893    0.2686536 -72.77 0.0008960346    1.479    0.324
        76 -10.3616    116.9941     92.6403   6.8909729579e+01   4.1343184803e+01    0.5972744    0.2078351  48.18  0.001905047    3.040    0.671
        77 -10.5088    159.5261     90.8064   5.7823414214e+01   3.2218868056e+01    0.3545946     0.308781 -15.16  0.001845394    1.307    0.235
        78 -10.5726    159.4797     81.2763   5.5247195916e+01   3.3982516576e+01    0.4991181    0.2060186  52.13    0.0017409    2.402    0.584
        79 -11.0363    156.1780     78.1797   5.5083021731e+01   3.5298205122e+01    0.7026512        0.312  47.55   0.00261682    2.292    0.564
        80  -7.4929    135.2822     76.3591   5.9278951368e+01   4.0456035233e+01    0.1510216    0.1175965   6.64 0.0002918759    1.671    0.402
        81  -8.3373    153.6084     64.0171   5.1630428553e+01   3.8281140366e+01    0.2144237    0.1379121 -37.19 0.0004502996    1.598    0.374
        82  -8.8794    195.4212     56.0380   4.2539937830e+01   2.9801522411e+01    0.3748057    0.2348616  67.81  0.001934859    1.590    0.371
        83  -8.1893    198.6744     62.3643   4.3611181543e+01   2.8133996294e+01    0.2868425     0.143991 -56.45  0.001242207    2.172    0.540
        84  -8.9845    201.0766     60.1545   4.2751878426e+01   2.7935446552e+01    0.3774469    0.2426496  72.56  0.001965427    1.604    0.377
        85  -7.4268    205.4434    221.4957   7.6929457054e+01  -2.2841973077e+00    0.1306924    0.1094822  -3.93 0.0001025345    1.024    0.023
        86  -9.7144    136.7605     50.9356   5.1258783437e+01   4.4246911154e+01    0.2953666    0.2221739   5.06  0.001479335    1.781    0.439
        87  -9.5218    188.5502     45.2280   4.0833482703e+01   3.2879582036e+01    0.8161805     0.153048 -41.74  0.002571434    4.313    0.768
        88  -8.8313    191.6561     44.8428   4.0327198300e+01   3.2225751533e+01    0.3590771    0.1892737 -48.42  0.001668425    1.812    0.448
        89  -8.9402    209.3212     43.7061   3.7909128836e+01   2.8463187740e+01    0.3092646    0.1535197 -42.26  0.001133685    1.830    0.454
        90  -8.2945    206.3526    154.9272   6.3719012120e+01   9.7903857794e+00    0.2752071    0.2141963  51.96  0.001287077    1.536    0.349
        91 -10.4109    120.3555     39.8504   5.1384714548e+01   4.9593398502e+01    0.6459672     0.385925   8.12  0.001773322    2.961    0.662
        92  -8.5696    163.2184     41.8070   4.3669923369e+01   3.9236303830e+01    0.2441332    0.1828433 -24.42 0.0008382293    1.569    0.363
        93  -8.2759    162.6105     36.7196   4.2370459763e+01   4.0033184822e+01    0.2337948    0.1335342 -26.67 0.0006903718    2.061    0.515
        94  -7.9860    204.2920     35.5433   3.6614304807e+01   3.0624364835e+01    0.1575755    0.1108322  62.96 0.0005483367    1.450    0.310
        95  -7.9495    190.1207     35.1658   3.8169058152e+01   3.3835462511e+01    0.1706189    0.1571817  87.00            0    1.125    0.111
        96 -10.1331    134.0011     31.5053   4.5802856317e+01   4.7445168249e+01    0.3311597    0.2143754  51.62  0.001733995    1.406    0.289
        97  -8.0249    159.7100     26.5563   4.0015540992e+01   4.1929177190e+01    0.1724584    0.1157027  80.14 0.0003742194    1.437    0.304
        98 -10.0860    144.9904    217.4335   8.9152288291e+01   7.7473214076e+00    0.2395022    0.2232947 -28.81 0.0001474844    1.129    0.114
        99  -8.9186    113.9562     25.7177   4.8074957845e+01   5.2758309725e+01    0.1883549    0.1549834  58.58 0.0003461802    1.106    0.096
       100  -8.6334     91.9628     24.5272   5.3139870949e+01   5.7747944895e+01    0.2898648    0.1804709 -21.92  0.001537066    1.786    0.440
       101  -9.4617    112.4882     20.2942   4.6526854099e+01   5.3666156474e+01    0.3638266    0.1364459 -23.12  0.001461771    3.251    0.692
       102  -8.0628     96.9787    212.0227   9.9628656707e+01   1.6465274280e+01    0.1943729    0.1845413  55.41  0.001163988    1.026    0.026
       103 -10.3923    246.5369    208.9614   6.7089547210e+01  -5.7944869273e+00    0.3520969    0.2848244 -19.77   0.00189093    1.123    0.110
       104  -8.7775    167.9744    203.2041   8.1505212995e+01   6.8470166222e+00    0.2204119    0.1879831 -29.36 0.0003168858    1.155    0.134
       105  -9.2244    126.3097     14.8026   4.1946414391e+01   5.1015626364e+01    0.2300138    0.1610108  73.81  0.001301966    1.357    0.263
       106 -10.5711    236.3421    196.9738   6.6650341391e+01  -2.5434000909e+00      0.86904    0.3611901  49.26  0.003146048    4.912    0.796
       107  -9.1730     29.0147    198.0993   1.1439715819e+02   2.8483634398e+01    0.1853485    0.1622366  81.99 0.0003442185    1.052    0.049
       108  -7.9797    190.2030    190.0243   7.4197573604e+01   5.7413384822e+00     0.217558    0.1660354 -69.76  0.001063538    2.013    0.503
       109  -9.7016    221.8033    186.5911   6.7288582210e+01   1.3336196063e+00    0.3646934    0.2753806  66.44   0.00172982    2.378    0.579
       110  -8.4376     31.7771    182.5819   1.1225483965e+02   3.1989923841e+01    0.2081798    0.1525071 -68.43 0.0004925611    1.252    0.201
