#   1 NUMBER                 Running object number                                     
#   2 MAG_AUTO               Kron-like elliptical aperture magnitude                    [mag]
#   3 X_IMAGE                Object position along x                                    [pixel]
#   4 Y_IMAGE                Object position along y                                    [pixel]
#   5 X_WORLD                Barycenter position along world x axis                     [deg]
#   6 Y_WORLD                Barycenter position along world y axis                     [deg]
#   7 A_WORLD                Profile RMS along major axis (world units)                 [deg]
#   8 B_WORLD                Profile RMS along minor axis (world units)                 [deg]
#   9 THETA_WORLD            Position angle (CCW/world-x)                               [deg]
#  10 FWHM_WORLD             FWHM assuming a gaussian core                              [deg]
#  11 ELONGATION             A_IMAGE/B_IMAGE                                           
#  12 ELLIPTICITY            1 - B_IMAGE/A_IMAGE                                       
         1 -14.9990    162.0252     43.7102   2.9017284382e+02   6.3514697000e+00   0.06679457   0.04909485 -49.07   0.00344582    1.422    0.297
         2 -14.7483    175.0957     11.2911   2.8983294069e+02   6.6528130634e+00   0.06345974   0.05520409   1.84  0.004636987    1.165    0.142
         3 -13.1840    197.2927      6.9260   2.8953205217e+02   6.5759979367e+00   0.02123281   0.01292938  46.04  0.002055866    1.680    0.405
         4 -13.0004    189.9767     14.1048   2.8966252742e+02   6.5347421413e+00   0.02393565   0.01551864 -60.09  0.001596482    1.609    0.378
         5 -10.3678     15.5763    246.8432   2.9310063643e+02   4.8241041819e+00   0.01104871  0.006831921 -81.70   0.00102981    2.025    0.506
         6 -20.1125     76.9796    176.1700   2.9195358487e+02   5.2974500879e+00    0.8673187    0.3918529 -68.14   0.07219341    2.482    0.597
         7 -12.1509    117.3234    180.6599   2.9147455432e+02   5.0151721048e+00   0.01744577   0.01504982  34.89  0.001657523    1.099    0.090
         8 -11.7375     27.8595    179.7519   2.9258598561e+02   5.5351834457e+00   0.01977463   0.01238621 -15.24  0.001811496    2.092    0.522
         9 -11.7702     21.7074    237.9861   2.9297654953e+02   4.8923858376e+00   0.01010288  0.008722431 -26.47 0.0009768328    1.226    0.184
        10 -12.3942    199.0470    178.5588   2.9044445801e+02   4.5723555846e+00   0.03390003   0.01784162  73.22  0.002510085    3.458    0.711
        11 -13.2116    195.3863    168.8263   2.9043721896e+02   4.7064599969e+00   0.02043083   0.01999243 -30.99 0.0005827383    1.073    0.068
        12 -12.4083    193.0116    164.2780   2.9044210764e+02   4.7729335853e+00   0.02248506   0.01575832  12.33  0.002044469    1.463    0.317
        13 -11.9019    131.0946    235.1084   2.9159748454e+02   4.3031810005e+00   0.01255286   0.00947016 -67.15 0.0007002554    1.426    0.299
        14 -10.7400    163.1545    250.1853   2.9127967923e+02   3.9447879908e+00   0.01021824  0.008987399 -14.02   0.00045983    1.189    0.159
        15 -14.0682    138.3456    171.4274   2.9116235169e+02   5.0025147763e+00   0.04605399   0.02713867  43.13  0.003916016    1.679    0.404
        16 -14.0034    144.9559    169.2646   2.9106819294e+02   4.9898938911e+00   0.04649291    0.0221683  57.16  0.003515239    3.065    0.674
        17 -12.1482     30.7771    182.2668   2.9256313968e+02   5.4893421754e+00   0.01354482   0.01208463  17.95 0.0004583809    1.066    0.062
        18 -10.3359     17.8721    173.6728   2.9267785911e+02   5.6626390283e+00  0.009600978   0.00766966  19.82 0.0006435887    1.193    0.162
        19 -12.2527    125.9578    172.0370   2.9132015451e+02   5.0661838431e+00   0.01651524   0.01517482 -78.01  0.001190817    1.179    0.152
        20 -12.2517    122.0130    165.5507   2.9133421630e+02   5.1641571256e+00   0.02861281  0.009142868  41.12   0.00170682    3.046    0.672
        21 -11.2142     26.0275    172.4380   2.9256938426e+02   5.6307009458e+00    0.0148184   0.01205438  28.61 0.0009914263    1.147    0.128
        22 -10.6588    165.5191    172.0778   2.9082707539e+02   4.8396009910e+00   0.01011553  0.006859206 -66.04  0.001029369    1.583    0.368
        23 -12.3900    177.0184    169.9411   2.9067215177e+02   4.7986526315e+00   0.01401065  0.009640874 -63.55  0.001161366    1.540    0.351
        24 -12.2000    230.1590    166.9629   2.8999402523e+02   4.5288630477e+00   0.01858366   0.01058315 -86.44  0.001599102    2.492    0.599
        25  99.0000    139.6159    249.9730   2.9157168556e+02   4.0816512740e+00   0.04324545   0.01794938 -70.60  0.003343503    2.913    0.657
        26 -10.0177     17.2914    223.7619   2.9295504958e+02   5.0829949394e+00  0.008254084  0.005862649 -52.47   0.00041365    1.462    0.316
        27 -10.6706    130.8155    213.5156   2.9148417064e+02   4.5559528177e+00   0.01079696  0.008692285  81.92 0.0006444347    1.444    0.307
        28 -10.3551     16.3989    208.8510   2.9288588229e+02   5.2616003336e+00   0.01278772  0.007565286 -38.92  0.001190131    1.917    0.478
        29 -13.0159     11.5120    206.0694   2.9293186632e+02   5.3217053089e+00   0.03008565   0.01582951  18.04  0.002238116    1.946    0.486
        30 -11.3725     17.6218    154.2160   2.9257597806e+02   5.8904701526e+00   0.01730808   0.01173932 -74.10  0.001263672    1.670    0.401
        31 -10.6912    191.4505    158.0180   2.9042756176e+02   4.8546466702e+00   0.01541102  0.008631617  -0.38  0.001279331    2.462    0.594
        32 -14.3880    134.2689    146.4572   2.9107780449e+02   5.3162187762e+00   0.06757685   0.02535922 -76.80  0.004226402    4.651    0.785
        33 -10.3887     22.8934    156.1665   2.9252067744e+02   5.8378437445e+00   0.01012356   0.00857625  44.06 0.0003876939    1.166    0.143
        34 -10.9902    202.3211    170.3147   2.9035890928e+02   4.6494397867e+00   0.01096251  0.008155105 -46.88 0.0006050178    1.410    0.291
        35 -10.1843     10.5827    157.7178   2.9268278595e+02   5.8896749802e+00  0.007362588  0.004948274 -18.51 0.0003143891    1.820    0.451
        36 -12.0311    134.5865    243.9671   2.9160187158e+02   4.1802099311e+00   0.02957546  0.008096343 -55.00  0.002059493    3.349    0.701
        37 -11.5677    174.3873    148.8292   2.9059033717e+02   5.0591715750e+00    0.0147598   0.01099814  52.23 0.0008483771    1.418    0.295
        38 -14.0154    143.4978    143.3564   2.9094584751e+02   5.2995248719e+00    0.0451799   0.02284786 -84.51  0.003518209    3.085    0.676
        39 -11.6297     27.4707    145.6544   2.9240673197e+02   5.9341588341e+00   0.01563798   0.01241506 -46.29  0.001104578    1.320    0.242
        40  -9.2164     22.4673    205.3815   2.9279148131e+02   5.2675317810e+00  0.006808978  0.006232525   9.22 0.0004352792    1.067    0.063
        41 -12.8507    134.6969    112.3692   2.9088744864e+02   5.7101394425e+00   0.03023871   0.00871717 -66.35  0.001989964    3.899    0.744
        42 -14.1591    135.8946    129.6039   2.9096607258e+02   5.5029084517e+00   0.06897402   0.02072625 -71.54   0.00404417    5.121    0.805
        43 -12.0303    137.9102    241.9102   2.9154934470e+02   4.1851655956e+00   0.01972304   0.01547953  65.06  0.001104581    1.441    0.306
        44 -10.6156    153.2325    201.9907   2.9114237680e+02   4.5619729882e+00   0.01066294  0.008872062  63.23  0.001199044    1.315    0.240
        45 -11.2746    139.8802    200.3016   2.9129965221e+02   4.6579006043e+00   0.01832416    0.0118259  19.34 0.0008256727    1.513    0.339
        46 -12.5431    162.9924    154.9654   2.9076571999e+02   5.0530387856e+00   0.01530355   0.01497252 -28.08 0.0009481873    1.071    0.066
        47 -12.3648    160.7542    127.9003   2.9064667231e+02   5.3805206157e+00    0.0184362   0.01478121  66.11  0.001837779    1.404    0.288
        48 -10.2814     17.5254    199.9679   2.9282396670e+02   5.3585904186e+00  0.008761766  0.005158773 -35.41 0.0007890442    2.006    0.502
        49 -12.0738    140.4712    120.5970   2.9086006337e+02   5.5814651365e+00   0.01772128  0.009006578  48.20  0.001104938    2.162    0.537
        50 -12.1279    160.3178    152.3172   2.9078469640e+02   5.0991323112e+00   0.01547856   0.01170633 -36.74  0.000948639    1.428    0.300
        51 -10.8632    167.6335    112.6495   2.9047798980e+02   5.5184146675e+00   0.01460431  0.008655606  57.45  0.001325085    2.064    0.515
        52 -11.3065    126.9714    250.5890   2.9173252555e+02   4.1466325126e+00  0.009177302  0.006322428  23.73 0.0002031446    1.366    0.268
        53 -11.2184    200.0650    162.0426   2.9034208602e+02   4.7585201901e+00   0.02465635   0.01522237  32.90  0.002447153    1.488    0.328
        54 -13.8339    204.6408    176.3822   2.9036296465e+02   4.5656219494e+00   0.07048234   0.03659023  89.56  0.005360105    3.302    0.697
        55 -10.7655    205.2286    110.1740   2.8999574174e+02   5.3317161314e+00   0.01380656  0.009258231   8.68  0.001057042    1.608    0.378
        56 -11.7641    205.2663    169.0061   2.9031511430e+02   4.6477792584e+00   0.02429832    0.0150793 -80.39  0.002108552    1.997    0.499
        57 -12.9607    152.9480    184.5372   2.9105134557e+02   4.7665891540e+00   0.02424182   0.01528718  79.55  0.002225074    2.216    0.549
        58 -10.2369    151.3762    241.2964   2.9137828105e+02   4.1154278533e+00  0.008382646  0.006667496 -80.06 0.0004291634    1.417    0.294
        59 -11.2068     28.6921    239.7185   2.9289879028e+02   4.8325665071e+00  0.009009403  0.008187867  36.64 0.0004436152    1.061    0.058
        60 -11.6663    120.6560    183.3355   2.9144747770e+02   4.9650249718e+00   0.01461544   0.01103199  58.50 0.0007095827    1.464    0.317
        61 -10.5784    143.7310     80.9544   2.9060395329e+02   6.0236042821e+00  0.009190708  0.009074452  80.38 0.0004345584    1.081    0.075
        62 -14.5310    150.5735     58.2842   2.9039518444e+02   6.2478180979e+00   0.05622895   0.04811413 -30.33 0.0009829842    1.238    0.193
        63 -10.9621    160.5409    247.4294   2.9129731629e+02   3.9917644968e+00   0.01824308    0.0109594  -6.95 0.0008290693    2.247    0.555
        64 -13.1446    165.6766     35.4480   2.9008224050e+02   6.4264671056e+00   0.02045661   0.01870406 -13.56 0.0008458404    1.127    0.113
        65 -11.0217     13.4959     59.9459   2.9211770280e+02   7.0102798363e+00   0.01272596   0.00852987  41.00 0.0004260346    1.443    0.307
        66 -10.4984    144.8749     34.0937   2.9033464453e+02   6.5613900051e+00   0.01050642  0.008480869  48.34 0.0003111033    1.257    0.204
        67 -13.4574    125.1634    241.2060   2.9170434882e+02   4.2660933671e+00   0.03280974   0.00973033 -62.85  0.002303705    3.368    0.703
        68 -11.4802     12.8908    242.4353   2.9311040656e+02   4.8906409182e+00   0.01173321  0.008552271 -31.70  0.001142419    1.527    0.345
