#   1 NUMBER                 Running object number                                     
#   2 MAG_AUTO               Kron-like elliptical aperture magnitude                    [mag]
#   3 X_IMAGE                Object position along x                                    [pixel]
#   4 Y_IMAGE                Object position along y                                    [pixel]
#   5 X_WORLD                Barycenter position along world x axis                     [deg]
#   6 Y_WORLD                Barycenter position along world y axis                     [deg]
#   7 A_WORLD                Profile RMS along major axis (world units)                 [deg]
#   8 B_WORLD                Profile RMS along minor axis (world units)                 [deg]
#   9 THETA_WORLD            Position angle (CCW/world-x)                               [deg]
#  10 FWHM_WORLD             FWHM assuming a gaussian core                              [deg]
#  11 ELONGATION             A_IMAGE/B_IMAGE                                           
#  12 ELLIPTICITY            1 - B_IMAGE/A_IMAGE                                       
         1 -15.0042    169.3302     45.6270   7.0327830072e+01   3.6473706074e+01     1.171891     1.024094  14.03  0.004052252    1.370    0.270
         2 -15.2620    189.0728     12.0972   5.9518277549e+01   3.5748112807e+01     2.140511     1.083941  68.07  0.006849592    1.679    0.404
         3 -10.4099    138.9558    243.2267   1.2078784065e+02   4.6345097495e+00    0.2407393     0.168586 -53.53  0.001346917    1.625    0.384
         4 -19.4987     63.2630    158.8121   1.2497521093e+02   3.4860556548e+01      18.7404     6.658126 -63.25   0.06779521    2.855    0.650
         5 -10.2989    126.9537    250.7871   1.2428799078e+02   5.1879158072e+00    0.1395289   0.09177272  37.96  0.000244968    1.343    0.255
         6 -10.3229    135.6615    236.9364   1.2054699890e+02   6.3358413962e+00    0.1642261    0.1235247 -70.70 0.0004872466    1.655    0.396
         7  -8.4428    107.4831    229.0637   1.2536149255e+02   1.2432723043e+01    0.4822473    0.2215543  26.20  0.001781544    3.189    0.686
         8 -10.8793    126.3281    227.8406   1.2116330640e+02   9.6307752754e+00    0.2423737    0.2096836  37.97 0.0009233718    1.080    0.074
         9 -10.4539    127.7462    223.4924   1.2019475906e+02   1.0262935132e+01    0.2605699    0.1763339 -55.95 0.0005465602    1.605    0.377
        10  -9.8298    134.3383    244.6657   1.2194337685e+02   5.1195701724e+00    0.1456838    0.1292781 -40.34 0.0009129355    1.277    0.217
        11 -10.8920    218.4232    220.9023   1.0089038249e+02  -4.4789961061e+00    0.3594653    0.1182097 -46.88  0.001257936    3.947    0.747
        12 -10.9784     22.4971    220.9591   1.4180091393e+02   2.5428116036e+01    0.1609279   0.07568199 -52.49 0.0008085674    2.516    0.602
        13  -9.5524    103.1947    213.3190   1.2404103444e+02   1.6402473455e+01     0.124144   0.09899579 -37.32 0.0002164253    1.474    0.321
        14 -11.1984    113.3972    207.3699   1.2083674743e+02   1.6024150915e+01    0.2677266    0.2156859  65.08 0.0008092306    1.318    0.241
        15 -11.7842     11.3343    206.0768   1.4271987227e+02   2.9699897585e+01    0.2202669    0.1709464  28.80  0.001516326    1.639    0.390
        16 -10.1533    134.5085    197.0663   1.1425519827e+02   1.4603819464e+01    0.2083806      0.14241 -50.12  0.000389293    1.505    0.336
        17 -11.9346    149.9950    195.4312   1.1042089980e+02   1.2145313204e+01    0.5333319    0.2434802  43.28  0.002109759    2.155    0.536
        18 -12.3549    156.6428    190.2589   1.0792587550e+02   1.1999104972e+01    0.5336389    0.3134535 -26.01 0.0001516505    2.346    0.574
        19  99.0000     12.2388    190.8978   1.4119903475e+02   3.2941852884e+01    0.3643761    0.1500615 -74.08  0.001789623    2.055    0.513
        20 -12.4245    147.6824    184.4507   1.0882807263e+02   1.4907745499e+01    0.4270338    0.3109498 -46.92  0.002091757    1.392    0.281
        21 -12.1766    151.3029    189.4127   1.0897054044e+02   1.3171883841e+01     0.556508    0.2278327 -56.53  0.001852815    3.301    0.697
        22 -12.6134    153.4636    184.4417   1.0749878133e+02   1.3822134319e+01    0.3718801    0.3107725 -45.66  0.000909312    1.216    0.178
        23  -9.2287    134.7876    241.6472   1.2141852783e+02   5.6007979976e+00    0.1905444    0.1605367 -26.87 0.0006146756    1.393    0.282
        24 -11.9514    164.7429    187.1646   1.0549967787e+02   1.1124134144e+01    0.2647187    0.2452067  60.06 0.0006001625    1.208    0.172
        25 -12.3006    174.3779    184.2322   1.0278414912e+02   9.9058577316e+00    0.3948708    0.1820744 -51.23   0.00149389    2.465    0.594
        26 -10.6117    238.5393    185.4953   9.0305468721e+01  -1.7398164966e+00    0.1351546    0.1148287 -16.79 6.668257e-05    1.011    0.011
        27 -11.9863    169.3462    183.4656   1.0373208151e+02   1.1016058683e+01    0.2703596    0.2128656  11.64 0.0009344438    1.418    0.295
        28 -11.7557     28.7536    183.7655   1.3688580020e+02   3.2979317359e+01    0.1864342    0.1841977  -9.37 0.0007267702    1.286    0.223
        29 -11.7315    163.0202    181.6250   1.0476548515e+02   1.2602425997e+01    0.3151478    0.2137255 -52.24    0.0014666    1.581    0.368
        30 -13.5304    125.9360    172.7648   1.1166450451e+02   2.1542152212e+01    0.9683422    0.5456358  44.20  0.003369312    1.797    0.443
        31 -14.6431    141.6073    175.3654   1.0842547097e+02   1.8033438251e+01     1.283565    0.7593102  54.85  0.005323549    2.050    0.512
        32 -14.4075    140.4641    169.2563   1.0743751130e+02   1.9602736010e+01      1.33235    0.4717722  42.06  0.004122982    2.817    0.645
        33 -12.7292    188.1903    174.0028   9.7694705087e+01   9.3322788778e+00      1.04689    0.4034589 -52.65  0.003314413    3.634    0.725
        34 -10.7630      4.1536    180.4922   1.4193864509e+02   3.5946936662e+01    0.1331925    0.1192584  26.26 0.0009695863    1.451    0.311
        35 -12.1581    168.4263    177.5908   1.0272602058e+02   1.2406976061e+01     0.453679    0.2577114  59.55  0.001716368    2.687    0.628
        36 -11.1676    225.5036    176.5008   9.0847123264e+01   2.0160297063e+00     0.240934     0.121825 -48.69 0.0008458411    2.186    0.543
        37 -10.4316     10.3580    174.9295   1.4004222691e+02   3.6690824879e+01     0.146771    0.1089769 -71.77 0.0009507254    1.108    0.097
        38 -11.4459    195.0159    172.7689   9.6014851105e+01   8.2738261634e+00    0.3590896    0.2142719 -44.95  0.001444734    1.663    0.399
        39 -10.7837    207.9217    172.0325   9.3266157916e+01   5.9943392423e+00    0.3233761    0.1876589 -51.19  0.001216803    1.952    0.488
        40 -12.6641    189.2566    178.3907   9.8393517806e+01   8.2597122396e+00    0.4683751    0.3701919  44.43  0.001281401    1.337    0.252
        41 -11.7018    230.2818    167.6644   8.8150923781e+01   2.7723842580e+00    0.3814232    0.1527589 -52.81  0.001219597    4.115    0.757
        42 -10.9552     34.2877    168.4460   1.3372567700e+02   3.5962591785e+01    0.2341916    0.1794654  62.49  0.000408145    1.388    0.280
        43 -10.5243     24.3903    165.6761   1.3575210284e+02   3.7578309018e+01    0.1666436    0.1200981  22.42 0.0007026794    1.727    0.421
        44 -10.3154     13.2088    164.9143   1.3830967715e+02   3.8737665365e+01    0.1780182    0.1206443 -45.97   0.00106926    1.564    0.361
        45 -14.1867    102.3110    241.8186   1.2811642507e+02   1.0703271279e+01    0.9601566    0.3538064 -47.99  0.003897423    3.296    0.697
        46 -11.0262     97.3839    242.0797   1.2914860086e+02   1.1398616341e+01    0.2713566    0.2045497 -66.54 0.0008901415    1.421    0.296
        47 -11.4376    125.3222    238.7496   1.2296677896e+02   7.6763552452e+00    0.3475588    0.1382247 -52.45  0.001347609    2.756    0.637
        48 -12.0650    130.8492    158.7037   1.0753511696e+02   2.3809397105e+01    0.3674266    0.2499293 -45.95 0.0009814866    1.449    0.310
        49 -11.7715    188.3860    154.1404   9.3333155186e+01   1.3274081723e+01    0.6757556    0.3897938  36.07  0.002896655    1.880    0.468
        50  -9.9308      1.5105    153.4617   1.3978828191e+02   4.2242165537e+01     0.121401   0.09344004 -64.67 0.0001995353    1.097    0.089
        51 -11.3487    167.9957    239.7402   1.1427755978e+02   4.9863719039e-01    0.1868516    0.1574229  27.43   0.00041836    1.048    0.046
        52 -11.5028    162.9399    151.1140   9.8193878738e+01   1.9085307766e+01    0.2335556    0.2139454 -89.18 0.0005320257    1.267    0.211
        53 -11.2793    174.5304    148.8733   9.5097279378e+01   1.7172021264e+01    0.3039857    0.2736081  76.43 0.0006456146    1.302    0.232
        54 -12.6495    161.2376    128.3432   9.3213569162e+01   2.4216012666e+01    0.5889952      0.43668 -81.03  0.002581754    1.988    0.497
        55 -11.9051    168.4440    113.3735   8.7926257706e+01   2.5643648702e+01     0.416953    0.3278313 -62.97 0.0008564382    1.459    0.315
        56 -10.9035    231.2934    113.6937   7.6461162821e+01   1.2248596861e+01    0.2390238    0.2236544 -28.35 0.0007210408    1.114    0.102
        57 -13.3304    117.6637    109.3387   9.9126417687e+01   3.7226745573e+01     0.459058    0.3761157 -71.37  0.002160374    1.542    0.351
        58 -11.0576    205.4262    110.2003   7.9951291286e+01   1.8174431872e+01    0.3032359    0.2361926  47.52  0.001046524    1.360    0.264
        59 -10.1673    150.7877    239.7968   1.1783121214e+02   3.3192473759e+00    0.1639091     0.147275  67.99 0.0003970651    1.287    0.223
        60 -10.5195    147.2638     82.0005   8.4364012994e+01   3.6112689365e+01    0.1996965    0.1896779 -23.12 0.0004276294    1.076    0.071
        61 -10.7751     92.9699     79.2212   9.7627473745e+01   4.7734055760e+01    0.2219577    0.1927396 -27.46 0.0004136369    1.124    0.110
        62 -10.3386    141.9296     71.6724   8.2689084237e+01   3.9003639301e+01     0.201503    0.1735256  55.41 0.0005138519    1.149    0.130
        63 -14.3939    156.9837     59.9409   7.6314776971e+01   3.7370235986e+01     1.321082    0.9358397  50.81  0.001029942    1.324    0.245
        64 -10.1687    159.3079    247.9928   1.1733881000e+02   4.9565630710e-01    0.1714644    0.1564831  14.75 0.0006067411    1.077    0.072
        65 -13.1719    173.9742     37.9716   6.7651472262e+01   3.6355451172e+01    0.3913013    0.3482955  46.00 0.0009154438    1.185    0.156
        66 -10.7835    160.5974    238.4731   1.1559583950e+02   1.9373808369e+00    0.2475332    0.2138281  50.00  0.001322277    1.233    0.189
        67 -10.8011     13.5643     59.8928   1.1918558042e+02   6.1429613986e+01    0.1855536    0.1552114   0.52 0.0004073675    1.271    0.213
