#   1 NUMBER                 Running object number                                     
#   2 MAG_AUTO               Kron-like elliptical aperture magnitude                    [mag]
#   3 X_IMAGE                Object position along x                                    [pixel]
#   4 Y_IMAGE                Object position along y                                    [pixel]
#   5 X_WORLD                Barycenter position along world x axis                     [deg]
#   6 Y_WORLD                Barycenter position along world y axis                     [deg]
#   7 A_WORLD                Profile RMS along major axis (world units)                 [deg]
#   8 B_WORLD                Profile RMS along minor axis (world units)                 [deg]
#   9 THETA_WORLD            Position angle (CCW/world-x)                               [deg]
#  10 FWHM_WORLD             FWHM assuming a gaussian core                              [deg]
#  11 ELONGATION             A_IMAGE/B_IMAGE                                           
#  12 ELLIPTICITY            1 - B_IMAGE/A_IMAGE                                       
         1 -14.6139     68.5494    144.6767   9.8732460567e+01   3.7576872333e+01     4.713932     2.448574  80.40  0.002658873    4.635    0.784
         2 -13.7777    228.0642     22.5244   3.4446370788e+01   2.6589640865e+01     0.931848    0.8244374  65.38  0.002584787    1.394    0.282
         3 -13.9999    211.2734     38.0386   3.9441412288e+01   2.8291466993e+01     1.450606     1.285106 -14.93  0.006929283    1.521    0.343
         4 -12.1613    248.3556      3.5432   2.9263981399e+01   2.4621777424e+01    0.4485945    0.2803154 -69.56  0.002771132    1.261    0.207
         5 -11.5615    185.5935    214.9903   8.2491820300e+01   2.0411468142e+00    0.3205311    0.2580737 -55.12  0.001859212    1.559    0.358
         6 -13.7488     45.0738    217.6088   1.1400343060e+02   2.3122948918e+01     1.402601     1.230673 -22.85  0.005309858    1.651    0.394
         7 -13.7516      5.8993    185.1702   1.2016884738e+02   3.4520152875e+01     1.735642    0.7778744  88.76   0.00257012    2.092    0.522
         8 -13.0166     84.6009    219.6050   1.0542783758e+02   1.7400183147e+01     1.018963    0.6230879  70.03 0.0007613346    1.901    0.474
         9 -16.4819     34.5826    186.0918   1.1349732552e+02   3.1547828087e+01     12.78461     5.162129  65.16   0.04767628    3.412    0.707
        10  -9.6079    107.6445    203.7119   9.8000659150e+01   1.7301076611e+01     0.137757    0.1106141  -5.32  0.000702467    1.676    0.403
        11 -11.2492    192.5172    194.0152   7.7308341878e+01   4.6513476552e+00    0.7327793    0.3950082 -65.82  0.002170567    6.002    0.833
        12  -9.7139     80.8894    182.9909   1.0153947622e+02   2.6290688727e+01    0.2580736      0.18313  39.85   0.00131681    1.375    0.273
        13  -9.4689     99.4282    180.9915   9.6504686705e+01   2.3843560515e+01    0.2184041    0.1885808  44.12 0.0005123452    1.124    0.111
        14 -12.0699     59.3174    175.8914   1.0610710736e+02   3.1054314217e+01    0.4429638     0.298018 -33.78  0.002138929    2.055    0.513
        15 -12.0529     64.5876    170.8412   1.0402755668e+02   3.1591206689e+01    0.3467625    0.2817034 -37.70 0.0009618464    1.466    0.318
        16 -13.2636     30.7515    202.3506   1.1586720437e+02   2.8175387425e+01    0.5139251    0.4547299 -41.29  0.001197327    1.499    0.333
        17  -8.7729     86.4937    176.4760   9.9109486017e+01   2.7002134351e+01     0.143794     0.135177  76.96 0.0002652471    1.014    0.013
        18 -11.6212    114.1793    173.7655   9.1501719423e+01   2.3024403715e+01    0.9336357    0.1583486  39.10  0.002304437    5.210    0.808
        19 -13.5529     61.7796    157.3547   1.0278547109e+02   3.5327208276e+01    0.5441077    0.3826081 -41.84  0.001583986    1.610    0.379
        20 -12.7127     82.0378    155.3085   9.6768326194e+01   3.2902304142e+01     1.058788    0.7096515 -42.22  0.001109184    1.655    0.396
        21 -15.5080      9.9002    208.6065   1.2085020475e+02   2.8872560873e+01     2.229236     1.376542  89.78   0.01368316    1.369    0.270
        22 -11.8909     32.5064    156.4821   1.1079127675e+02   3.8984359783e+01    0.5048445    0.3647958  83.59  0.001541874    1.342    0.255
        23 -11.9359     74.6494    161.6069   9.9893231383e+01   3.2454631728e+01    0.3984931    0.3626735 -45.59 0.0003967326    1.191    0.160
        24  -9.8041    174.8864    149.1312   7.1879139596e+01   1.6778691990e+01    0.2290566    0.2083782 -82.74 0.0006276335    1.254    0.202
        25 -10.5375    133.5545    144.5468   8.0619733721e+01   2.6199452109e+01     1.102643    0.2663705 -55.39  0.002159114    8.083    0.876
        26  -9.5824    230.3142    166.6653   6.4837090464e+01   3.1862035813e+00    0.1270456    0.1038107 -67.88 0.0007046386    1.688    0.408
        27 -10.6656     29.4310    143.2356   1.0997757751e+02   4.2582625769e+01     0.374464    0.3037665 -23.06  0.002201116    1.521    0.342
        28 -10.3200     96.9883    141.5033   8.9865737364e+01   3.3847044091e+01    0.3002434    0.2729703 -31.78 0.0007741983    1.182    0.154
        29  -9.8270    100.0123    138.5036   8.8368470889e+01   3.4045349810e+01     0.342768    0.2581915  -7.99  0.001540389    1.858    0.462
        30 -12.3243     84.9081    140.0013   9.3046011478e+01   3.6253469364e+01    0.3138308    0.2696113 -50.87 0.0004236841    1.147    0.128
        31 -10.9431     67.0023    126.3419   9.5697251909e+01   4.2377952369e+01    0.4113243    0.2658869 -51.46  0.001957992    1.452    0.311
        32 -10.2570     73.4650    134.4903   9.5348011136e+01   3.9409213443e+01      0.25833    0.1891068 -60.54  0.000638905    1.299    0.230
        33 -11.6877     70.0648    131.4632   9.5781325331e+01   4.0665148276e+01    0.5365825    0.3614213 -59.51 0.0006509494    1.401    0.286
        34 -11.1031     20.7016    132.2813   1.1110587215e+02   4.6077638843e+01    0.3855527    0.2165576 -41.10  0.000385351    1.963    0.491
        35 -10.9088     17.0558    129.8329   1.1188562750e+02   4.6973460411e+01    0.2730379    0.1997664  62.60 0.0009972379    1.483    0.326
        36 -10.8959    107.1885    130.8557   8.4624937687e+01   3.4573106534e+01    0.4993206     0.346905  32.48  0.001642044    1.536    0.349
        37 -10.4649    135.8886    128.6770   7.6349787536e+01   2.9340127920e+01    0.4472369    0.1745209 -52.06  0.001457116    2.782    0.641
        38  -9.8883     95.7681    126.4735   8.6929194838e+01   3.7718282693e+01    0.3133104    0.2490314  13.25  0.001205118    1.512    0.339
        39  -9.6142    115.4000    124.8183   8.0892522729e+01   3.4410356057e+01    0.2196502    0.1419461 -38.21 0.0003677903    1.671    0.402
        40 -10.4752    240.9923    122.7511   5.4142068422e+01   8.9306577408e+00    0.1581476    0.1151775  51.83    0.0006609    1.594    0.373
        41 -13.3378     56.9907    239.3885   1.1334643192e+02   1.7056665109e+01    0.6421896    0.4429684  79.09  0.001905088    1.383    0.277
        42  -9.7749    105.9706    119.1788   8.2200735550e+01   3.7562595454e+01    0.2146979    0.2123219   4.62 0.0003214302    1.034    0.033
        43 -15.1248     33.2268    249.4644   1.1876712300e+02   1.7933752271e+01     9.764847     2.761891  25.22   0.01281725   20.258    0.951
        44 -10.1197    205.2663    110.6010   5.7140170260e+01   1.8045196820e+01    0.3032692    0.2475002  36.56  0.001057505    1.414    0.293
        45 -11.6343    246.2020    109.4165   5.0646791159e+01   1.0227457695e+01    0.3502889    0.2275312  85.36  0.001741485    2.373    0.579
        46  -9.1663     32.2622    109.6583   1.0383118997e+02   5.0610202092e+01     0.131489   0.09811223  79.65 0.0002951321    1.593    0.372
        47  -9.4779    134.3208    104.1618   7.0534237830e+01   3.5037232901e+01    0.3212612     0.139432 -37.61  0.001099298    2.593    0.614
        48 -11.5703    243.2016    102.4406   4.9598445478e+01   1.1927149506e+01     0.283818     0.170215  62.68  0.001476097    1.985    0.496
        49 -11.1200     53.0781     91.4593   9.2471465915e+01   5.2597975548e+01    0.4091915    0.1945272 -55.32  0.001405008    1.960    0.490
        50  -9.6761     41.4905     91.9935   9.6853173186e+01   5.3853863042e+01    0.1920347    0.1783974 -18.47 0.0004151464    1.095    0.086
        51  -9.0658     36.1314     63.4036   9.1378183486e+01   6.0643015518e+01    0.1707263    0.1141749  37.08 0.0009366961    1.717    0.417
        52 -11.3412     13.2473     60.0247   1.0036218534e+02   6.3371645883e+01    0.2514925    0.2313585  63.42 0.0004774253    1.443    0.307
        53  -9.1412     39.9112     58.2766   8.8188308607e+01   6.1234345317e+01    0.1707239    0.1476226   0.72 0.0005499487    1.115    0.103
        54 -15.4450      6.8780    246.6453   1.2349028377e+02   2.1287303112e+01     1.990664     1.746618  21.38   0.01541831    1.668    0.400
        55 -13.6292    202.2429     44.1101   4.1899245078e+01   2.9513551044e+01     1.172668    0.9956467  16.70  0.003584896    1.709    0.415
        56  -9.8567    172.7873    241.1637   8.9309387345e+01  -3.7226272385e-01    0.3289599    0.1805185 -59.86  0.001520096    3.020    0.669
        57 -12.4851    219.1915     30.8734   3.7028745616e+01   2.7468242981e+01    0.4792311    0.3826731  57.38  0.001126774    1.477    0.323
        58  -9.3992     21.1646     56.4201   9.5824544960e+01   6.3493827839e+01     0.158986    0.1081222  33.33 0.0009338732    1.724    0.420
        59  -9.7406     17.4777     54.9725   9.7072428043e+01   6.4084330910e+01    0.1771888    0.1060017 -53.99 0.0003985784    1.506    0.336
        60 -11.1110     11.6058     52.6343   9.9107082650e+01   6.4985033654e+01    0.2136587    0.2013746 -25.03  0.001158092    1.217    0.178
        61 -10.4265      4.7543     49.7457   1.0152399708e+02   6.5996214134e+01    0.1890854    0.1332586  -0.75 0.0006282774    1.462    0.316
        62 -10.1308    132.2207     39.3453   5.1923933023e+01   4.6804920731e+01    0.2647212    0.2103487 -72.62 0.0003800259    1.463    0.316
        63  -9.6192    132.0359     31.4299   4.9463712831e+01   4.7846849911e+01     0.181268    0.1749352  74.57 0.0003092574    1.078    0.073
        64  -9.5917    189.3439     15.2100   3.6484755206e+01   3.6016113012e+01     0.168268    0.1629269  17.24 0.0006858057    1.373    0.271
