#   1 NUMBER                 Running object number                                     
#   2 MAG_AUTO               Kron-like elliptical aperture magnitude                    [mag]
#   3 X_IMAGE                Object position along x                                    [pixel]
#   4 Y_IMAGE                Object position along y                                    [pixel]
#   5 X_WORLD                Barycenter position along world x axis                     [deg]
#   6 Y_WORLD                Barycenter position along world y axis                     [deg]
#   7 A_WORLD                Profile RMS along major axis (world units)                 [deg]
#   8 B_WORLD                Profile RMS along minor axis (world units)                 [deg]
#   9 THETA_WORLD            Position angle (CCW/world-x)                               [deg]
#  10 FWHM_WORLD             FWHM assuming a gaussian core                              [deg]
#  11 ELONGATION             A_IMAGE/B_IMAGE                                           
#  12 ELLIPTICITY            1 - B_IMAGE/A_IMAGE                                       
         1 -11.9908     60.4163     22.7278   8.1451615396e+01   6.5847674066e+01    0.5700743     0.353633 -59.46  0.002529657    2.406    0.584
         2 -11.1138     19.0151     16.0000   1.0044524954e+02   7.2940505345e+01    0.5373667    0.2425626  40.34  0.002522359    2.837    0.648
         3 -10.1903     82.2610     16.3588   6.9722562931e+01   6.2414070841e+01    0.3564145    0.2061701  -9.87   0.00150059    2.200    0.546
         4 -11.9190     84.6205     19.9691   7.0784142436e+01   6.1372790943e+01    0.5290239    0.3885598  17.16  0.001576034    1.536    0.349
         5 -11.3784      4.7166     18.6010   1.1106798589e+02   7.3484384277e+01    0.4468168    0.2966213  24.82  0.002342891    1.792    0.442
         6  -9.6413     34.9216     15.8587   9.0599130684e+01   7.1130933595e+01    0.4287094    0.2141665 -31.46  0.001952581    2.159    0.537
         7 -10.5169     92.0529      6.5913   6.1636449109e+01   6.1355151259e+01    0.4555109    0.3145795  24.28  0.001914722    1.544    0.352
         8 -11.7032     74.1245      7.0803   6.7418819004e+01   6.5439690851e+01     0.337354     0.238737 -20.66 0.0003082279    1.363    0.266
         9 -12.0070     81.4818      6.2323   6.4516404330e+01   6.3890445932e+01    0.5429047    0.2852535  42.29 0.0002481865    1.881    0.469
        10 -11.7846     75.4921     15.6796   7.1709963031e+01   6.3987192874e+01    0.7743095    0.4631404  -0.43  0.003242521    2.421    0.587
        11 -11.0771     70.2412     15.2518   7.3432096851e+01   6.5149989890e+01    0.4786853    0.2376078 -24.56  0.001593936    2.136    0.532
        12 -10.4485     64.6129     14.3423   7.5162388191e+01   6.6419172910e+01    0.4168304    0.2172139  27.87  0.001695104    2.625    0.619
        13  -9.9442     59.2831     10.1240   7.4976521928e+01   6.8084765628e+01    0.3090539      0.17546  41.55 0.0009914652    1.802    0.445
        14 -10.4220     55.0074     13.5989   7.8918641720e+01   6.8347850780e+01     0.355549    0.2025031 -38.39  0.001328952    1.653    0.395
        15 -10.3220    157.4265     12.4065   5.1593351670e+01   4.3580353256e+01    0.3975669    0.1817491 -46.83  0.001446145    2.356    0.576
        16 -10.4811    100.0501     12.9532   6.2737387641e+01   5.8670247430e+01    0.3324389    0.2079627 -10.92  0.001021427    1.757    0.431
        17 -10.5421     26.5876     13.8807   9.4525606544e+01   7.2557777948e+01    0.2126274    0.1576137 -20.95 0.0004363435    1.332    0.249
        18 -10.4248     30.6908     13.0115   9.1524055606e+01   7.2220694332e+01    0.2090221    0.1806009 -22.69 0.0003524438    1.042    0.041
        19  -9.9201    138.1839     12.1314   5.4391981863e+01   4.8823535262e+01    0.2090042    0.1702733 -66.99 0.0005779055    1.341    0.254
        20 -10.5338    133.0018     11.5371   5.5032397480e+01   5.0280407154e+01    0.2827385    0.2026402   8.25 0.0007122749    1.588    0.370
        21 -11.5540    116.6462      8.7596   5.6911459152e+01   5.4910028716e+01     0.687885    0.3070776 -37.49  0.002036021    2.267    0.559
        22  -9.9636     50.5061     11.4459   7.9789827247e+01   6.9488861878e+01    0.2753332    0.1751528   2.23 0.0009716086    2.176    0.540
        23 -11.2876     16.8796      2.6963   9.4613433479e+01   7.5757610532e+01    0.4360922     0.255174 -45.41  0.001672063    1.449    0.310
        24 -11.7400     11.7385      2.6162   9.8455918024e+01   7.6281681921e+01    0.5650316    0.2522854 -41.12  0.002858725    1.874    0.466
        25 -13.0209     32.1044      2.0633   8.3862531287e+01   7.3940841249e+01    0.3232754    0.2307989  25.92 0.0006034778    1.475    0.322
        26 -11.4195     23.9978      6.8424   9.2184004888e+01   7.4191898739e+01    0.4720668    0.4061257 -10.19  0.002376114    1.123    0.109
        27 -10.4555     27.4955      3.4325   8.7708736252e+01   7.4356183364e+01    0.1993045    0.1858543 -36.93 0.0006358876    1.266    0.210
        28 -10.0943      5.4410     11.6474   1.0784224616e+02   7.4941523340e+01    0.2152051    0.1144187 -40.61  0.001189408    1.613    0.380
        29  -9.3583      6.5662      7.8629   1.0527714411e+02   7.5656569717e+01    0.2204019    0.1054375 -63.02  0.000557946    1.979    0.495
        30 -11.1123    235.7349     10.0831   4.3336204121e+01   2.3988880366e+01    0.3359603    0.1893134   1.50  0.001221725    2.350    0.575
        31 -10.7615    127.2211      8.2620   5.4668682030e+01   5.2160775836e+01    0.2537989    0.2348945 -59.36 0.0002427398    1.142    0.125
        32  -9.5421    108.0053      8.9705   5.8870025382e+01   5.7123747764e+01    0.2338574     0.160212  24.83 0.0008496749    1.596    0.373
        33  -8.9858    183.0000      9.0628   4.7404936023e+01   3.7046238658e+01     0.241747   0.07940023 -20.08 0.0002762897    3.028    0.670
        34 -10.6409    146.4420      6.4087   5.0848133551e+01   4.7140576168e+01    0.3960551    0.2024884 -44.16  0.001630933    2.042    0.510
        35 -10.0618    228.9143      5.3261   4.2531360038e+01   2.5972732818e+01    0.1784778    0.1616329 -61.93 0.0006229077    1.075    0.070
        36  -9.7573     59.8639      5.5776   7.1971537503e+01   6.8611866828e+01    0.2617413    0.1220803  46.68  0.001157941    2.145    0.534
        37 -10.7115    167.9434      2.3702   4.6714541107e+01   4.1658761387e+01    0.2494557    0.2028587 -25.88 0.0002910028    1.236    0.191
        38 -10.2089    125.8378      2.2109   5.2276704594e+01   5.3096621851e+01    0.3403504    0.2013026 -58.41  0.001457058    2.067    0.516
        39  -9.7856     39.6809     10.6308   8.4923160058e+01   7.1388666430e+01    0.2227107     0.179848 -80.12  0.001231497    2.049    0.512
        40  -9.3333    139.4844      1.5758   4.9907494019e+01   4.9461724999e+01    0.1434804    0.1371309  65.84 0.0001245256    1.011    0.011
        41  -9.4950    250.4985    219.4492   8.7109846630e+01  -1.4888350607e+00    0.1067459   0.07243083  14.50 6.667741e-05    1.031    0.030
        42 -10.2348    247.1650    250.0627   9.1887973166e+01  -3.5246024356e+00    0.1932542    0.1064304  14.86  0.001302468    1.418    0.295
        43 -10.5679    250.3917    245.5477   9.0828990922e+01  -3.5610935610e+00    0.2698486    0.1197689 -18.00  0.001800132    2.406    0.584
        44 -12.2013    226.4026    246.2003   9.4429838176e+01  -7.3628376117e-01    0.5749306     0.282793  16.01  0.003671829    2.014    0.503
        45 -12.3232    232.6138    246.7579   9.3574994766e+01  -1.5418048747e+00    0.4630612    0.2867226  -8.97   0.00361843    1.629    0.386
        46 -12.9734     20.3311    248.6357   1.2904765612e+02   2.4084180304e+01      0.93413    0.2892722  34.50  0.005555011    2.473    0.596
        47 -13.1495      6.1621    244.6785   1.3125880113e+02   2.5947869796e+01      1.03941    0.6235585  18.85  0.006844372    2.531    0.605
        48 -11.5480    235.9545    214.8552   8.8587466167e+01   7.9979528697e-01    0.4525502     0.243626   7.45  0.002775342    1.949    0.487
        49 -10.1418    174.4325    219.3118   9.9336112012e+01   8.9669937511e+00    0.2567572    0.1100284  30.41  0.001319246    2.141    0.533
        50  -9.7318    248.8596    227.3680   8.8516248799e+01  -1.9463960441e+00    0.1499577   0.06683971  27.73 0.0007438799    1.739    0.425
        51  -9.8779    194.5298    215.4873   9.5350759175e+01   6.5008673819e+00    0.1140373   0.08523168  23.81 -6.17914e-05    1.017    0.016
        52 -10.7726      9.5395    216.9811   1.2994926931e+02   3.0013208684e+01    0.2795781    0.1185932  50.00  0.001193336    1.597    0.374
        53  -9.5207     38.0181    217.4959   1.2470824070e+02   2.7198070439e+01    0.1539737    0.0820336  37.83 0.0007019643    1.550    0.355
        54 -10.5553     24.0852    216.7396   1.2727327862e+02   2.8715219436e+01    0.2511041   0.07790966  38.95  0.001406279    2.221    0.550
        55 -10.4256     31.1862    215.7575   1.2590649047e+02   2.8184152596e+01    0.2354948    0.1437116  34.99  0.001485749    1.528    0.346
        56  -9.4518    201.5571    215.5444   9.4179546192e+01   5.4863281020e+00    0.1142766   0.08264837  20.61 0.0005174054    1.082    0.076
        57  -9.2796    136.9765    216.0000   1.0570528961e+02   1.4844920709e+01    0.1930938    0.0518394  38.69 0.0007951377    2.892    0.654
        58  -9.6336    170.2870    213.3297   9.9268744148e+01   1.0305242299e+01    0.1128153    0.0765148  12.46 0.0004730631    1.616    0.381
        59 -11.0121     21.2376    212.1257   1.2761881673e+02   2.9765842015e+01    0.3265784    0.1196153  51.80  0.001941436    1.916    0.478
        60 -10.1781    208.9922    212.0735   9.2441944378e+01   4.7968795253e+00    0.1711606    0.1265022  20.54 0.0004526422    1.019    0.018
        61  -9.2030     76.3458    212.3026   1.1699988966e+02   2.3680742053e+01   0.09932423    0.0837571   7.99 0.0007039644    1.687    0.407
        62  -9.6112      2.2898    212.3333   1.3113736832e+02   3.1417239891e+01    0.1514515     0.117772  42.46 0.0005262534    1.337    0.252
        63 -11.9188      4.8373    207.5038   1.3053432188e+02   3.2029045918e+01    0.4606128    0.1911335  74.60  0.002856182    2.056    0.514
        64  -9.7929    124.0230    205.9698   1.0699793505e+02   1.8195417655e+01    0.1669469    0.1334289  39.73  0.001161689    1.031    0.030
        65 -11.5098     18.8345    202.8557   1.2770301985e+02   3.1602139088e+01     0.298013    0.2261925  89.21  0.001126018    1.322    0.243
        66 -10.3177    175.3622    202.6515   9.6854323046e+01   1.0893907737e+01    0.2032457    0.1512362  37.46 0.0005328705    1.159    0.138
        67  -9.3203     67.9778    203.7749   1.1797494582e+02   2.6152886795e+01    0.1451976   0.07626682  38.08 0.0004122519    1.582    0.368
        68  -9.4887    223.5970    201.8017   8.8492178004e+01   3.7852251944e+00    0.1327802   0.09974169 -31.97 0.0005725623    1.696    0.411
        69 -10.0667     10.9676    208.3343   1.2941111637e+02   3.1355191433e+01    0.1546911    0.1277987 -70.72 0.0008329907    1.588    0.370
        70  -9.6035     34.4931    201.1115   1.2453225466e+02   3.0386724875e+01    0.1383812   0.09337843 -87.12  0.000550745    1.464    0.317
        71  -9.3446    227.1550    196.8651   8.7129779461e+01   3.7862281160e+00    0.1634788    0.1047731  13.79 0.0008438666    1.362    0.266
        72 -10.1053    215.3987    194.7437   8.8686178286e+01   5.7426113389e+00    0.1467887   0.09641431  -9.79 0.0003656974    1.550    0.355
        73  -9.8271    187.0000    190.9746   9.2966837508e+01   1.0578592209e+01    0.1726752   0.06748268 -37.62 0.0008028804    2.946    0.661
        74  -9.5215    211.4034    188.7730   8.8363706801e+01   7.0258148555e+00    0.1613773    0.0991476 -12.50 0.0009472071    1.766    0.434
        75  -9.8983      1.7688    188.4427   1.3055778460e+02   3.5697879298e+01    0.1841299   0.09274424  72.09  0.001201594    1.580    0.367
        76  -9.5947     61.7936    185.0289   1.1770305729e+02   3.0294835677e+01    0.1447321   0.08779564 -75.96 0.0008691188    1.743    0.426
        77 -10.1009    167.1982    183.5834   9.5455571771e+01   1.4790018916e+01    0.1805023    0.1007385  31.79 0.0009469626    1.631    0.387
        78  -9.6600    142.3297    183.3350   1.0032594597e+02   1.8903430121e+01    0.1252112   0.09173656   8.63 0.0006850062    1.727    0.421
        79 -11.4546     15.9440    182.6243   1.2741264153e+02   3.5592648673e+01    0.3799175     0.162814  69.66  0.002128863    2.071    0.517
        80  -9.8441      2.0268    180.2923   1.3024201077e+02   3.7211126200e+01    0.1509475     0.105774  57.57 0.0005468965    1.101    0.091
        81  -9.9352    244.2624    178.3853   8.1319474921e+01   3.2126919013e+00    0.2063514    0.1165148 -10.56  0.001163911    1.725    0.420
        82 -10.8073    224.1818    178.4623   8.4474804900e+01   6.2320583865e+00    0.2117209    0.1747548   5.76 0.0004355226    1.105    0.095
        83  -9.7004     70.0892    177.8328   1.1519677050e+02   3.0627694891e+01    0.1602255     0.142088 -11.43   0.00061924    1.610    0.379
        84  -9.2533     36.4404    178.4571   1.2274962234e+02   3.4423043823e+01    0.1135601   0.09002516  64.81  0.000184917    1.020    0.019
        85 -10.1604    200.1772    176.7858   8.8234598359e+01   1.0270381088e+01    0.1750151    0.1237726  13.86 0.0006160218    1.342    0.255
        86  -9.9252     46.5097    177.1752   1.2042060309e+02   3.3590291388e+01     0.217535    0.1424864  41.47  0.001390826    1.354    0.262
        87 -11.2529     18.3068    173.1182   1.2643752445e+02   3.7232914538e+01    0.3966134    0.1289573  56.29  0.001923018    2.563    0.610
        88 -11.0402     12.9313    170.8711   1.2751630558e+02   3.8151053771e+01    0.3120419    0.1423936  79.20  0.001757782    1.975    0.494
        89 -10.4157     40.2162    170.2473   1.2130899754e+02   3.5655390564e+01    0.2894008    0.1192965 -73.48  0.001471717    2.370    0.578
        90  -9.5019     75.0750    170.9363   1.1333382293e+02   3.1314872576e+01    0.1781534    0.1489261 -19.88  0.001117684    1.754    0.430
        91  -9.6822      4.6152    168.2568   1.2924489534e+02   3.9355976573e+01    0.1497766   0.08462775 -76.16 0.0009585623    1.692    0.409
        92  -8.8234     59.6899    167.6805   1.1656438962e+02   3.3940265682e+01    0.1091077   0.09389811 -30.74 0.0003143066    1.643    0.391
        93 -11.0798     50.4146    165.4078   1.1852869155e+02   3.5506612392e+01    0.6764332    0.3135456 -65.46   0.00354415    2.167    0.539
        94 -11.3664     44.5021    162.4491   1.1966832143e+02   3.6783643210e+01    0.4807354    0.3496812 -35.08  0.002897905    2.104    0.525
        95 -11.5367     35.9547    162.7322   1.2172480817e+02   3.7638336007e+01    0.4518257    0.3477835  64.76  0.002275953    1.058    0.055
        96 -11.8197     36.9306    157.8735   1.2110409963e+02   3.8551248908e+01    0.2327667     0.171756  68.74 0.0002843709    1.137    0.120
        97  -9.7317     67.1837    165.1713   1.1453968411e+02   3.3504651940e+01    0.1807006    0.1221649  61.87 0.0009130499    1.357    0.263
        98  -9.4616    200.2689    162.6080   8.5627963792e+01   1.2111784151e+01    0.1695267    0.1049269  32.54 0.0004720841    1.449    0.310
        99 -11.3099     22.5122    156.4848   1.2449068685e+02   4.0250665898e+01    0.4367836    0.3022882  50.96  0.002923819    1.251    0.201
       100  -9.9903    247.4758    158.4893   7.7157729264e+01   4.8350786918e+00    0.1186732   0.09540589   3.15 1.349279e-05    1.063    0.059
       101  -9.0946    147.5049    156.4786   9.4811194254e+01   2.2468380977e+01    0.1335855    0.1196063  37.87 0.0008101251    1.028    0.027
       102  -9.0002    235.7062    154.6608   7.8192356499e+01   7.1316970517e+00     0.128573   0.07986305   8.64 0.0004521158    1.651    0.394
       103 -10.3709     12.2853    153.2480   1.2676148889e+02   4.1818576006e+01     0.255583    0.1538586  19.04  0.001310687    2.116    0.527
       104 -10.3795    178.1727    151.4743   8.7583214430e+01   1.7667977600e+01    0.2392724    0.2230979  51.38 0.0008782705    1.251    0.201
       105 -10.0938     26.8933    147.5930   1.2277245980e+02   4.1742940089e+01    0.1605701     0.131745 -82.81 0.0005905681    1.186    0.157
       106 -10.5801     17.7498    146.7511   1.2502075457e+02   4.2746894779e+01    0.2475503    0.1833364 -19.02  0.001220552    2.152    0.535
       107  -9.9398    207.0742    146.1879   8.1184087544e+01   1.3125600610e+01    0.2018327    0.1563426  16.08 0.0006508016    1.183    0.155
       108 -11.7456     10.5571    145.4562   1.2674687111e+02   4.3617947695e+01    0.3848176     0.217149  37.03  0.002365733    1.692    0.409
       109 -10.7236     16.6613    139.6843   1.2482012996e+02   4.4379351057e+01    0.2984315    0.1630962   2.47  0.001450834    3.369    0.703
       110 -11.1985     19.7698    141.3179   1.2412752431e+02   4.3756098024e+01    0.2951375    0.1480375  81.78  0.000758457    1.869    0.465
       111  -9.6858     50.0340    141.0612   1.1613810493e+02   4.0743240980e+01      0.19419    0.1472675 -36.65  0.001133617    1.806    0.446
       112  -9.4088    240.1565    140.6428   7.4691156500e+01   8.0312813656e+00    0.1713187   0.09892726  32.30 0.0005805924    1.669    0.401
       113 -11.3688      3.3949    135.9308   1.2804845397e+02   4.6221983055e+01    0.4512464    0.1676751 -61.47  0.002203111    2.697    0.629
       114 -11.2256      9.1264    136.8148   1.2660215569e+02   4.5609997125e+01    0.1985417       0.1528 -86.45 0.0002814086    1.151    0.131
       115 -10.2932     55.4645    136.4427   1.1412491603e+02   4.1121672728e+01    0.1976313    0.1324746  67.32 2.006154e-05    1.466    0.318
       116  -9.9095     53.3454    132.8968   1.1425083363e+02   4.2176745279e+01    0.2804217    0.1613936 -67.74  0.001470157    1.650    0.394
       117 -10.4012     21.0666    135.6707   1.2335725381e+02   4.4893790805e+01    0.2242475    0.1517373 -77.41  0.000716111    1.330    0.248
       118  -9.5173    137.8329    135.4149   9.2881915206e+01   2.8057725650e+01    0.2044959    0.1258808  32.45 0.0009456333    1.717    0.418
       119  -9.4390    122.7070    135.6528   9.6502990976e+01   3.0842325868e+01    0.1377488    0.1098344  -5.94  0.000702993    1.668    0.400
       120  -9.3665    250.0220    134.2252   7.1924355026e+01   7.1261605305e+00    0.1510225   0.09472925  41.28   0.00087078    1.642    0.391
       121 -10.1597    106.9655    133.2165   9.9939584566e+01   3.4147339029e+01    0.2276493    0.2072377 -58.76 0.0009700282    1.153    0.133
       122 -11.7576     37.6578    130.5092   1.1832700998e+02   4.4479975232e+01    0.3974795    0.2712312 -85.62  0.001410335    1.328    0.247
       123 -11.0320     33.1840    125.8569   1.1908817395e+02   4.5997270454e+01    0.2513204    0.1794781  50.25 0.0003167279    1.328    0.247
       124 -10.5977     74.1072    129.3999   1.0800147956e+02   4.0216729684e+01    0.2399818     0.227771  74.66 0.0007086103    1.085    0.078
       125 -11.3553     10.2213    122.2292   1.2532898745e+02   4.8797765764e+01    0.4384612    0.1992893  57.59  0.002179353    2.052    0.513
       126  -9.0411      6.6642    126.2760   1.2660584329e+02   4.8136443215e+01     0.123753   0.06814942  60.39 0.0006997559    1.607    0.378
       127 -11.2356      2.3539    123.1917   1.2761343182e+02   4.9124424425e+01    0.5469471    0.1496544 -73.57  0.002317884    2.890    0.654
       128  -9.7222     81.8453    125.1781   1.0514377299e+02   4.0009080677e+01    0.1781443    0.1613999 -29.12 0.0004646307    1.334    0.250
       129  -9.9051    226.0088    124.2264   7.3333231431e+01   1.2559289723e+01    0.1676628    0.1035551  45.05 0.0008769043    1.657    0.397
       130  -9.7442    219.7704    124.5697   7.4398873931e+01   1.3684234256e+01    0.1621899    0.1281292  54.63  0.000540762    1.522    0.343
       131 -10.5583     20.4481    121.7049   1.2234492595e+02   4.8115580442e+01    0.1850183    0.1451205 -27.51  0.001161608    1.765    0.433
       132  -9.1076     64.6945    120.2656   1.0918440401e+02   4.3608316515e+01    0.1351148   0.09319792  67.08 0.0002916257    1.529    0.346
       133  -9.7338     32.7367    119.0390   1.1846005082e+02   4.7620264515e+01    0.1752397    0.1404978 -83.31 0.0003977844    1.096    0.088
       134 -11.5555     23.3928    106.8190   1.1992858061e+02   5.1349862626e+01    0.3196983    0.2167505  54.13  0.001294959    1.444    0.307
       135 -12.6583     15.4744    109.3087   1.2268075088e+02   5.1398686106e+01    0.5510095     0.435912  63.91 0.0009106924    1.183    0.155
       136  -9.5926    220.4465    116.9873   7.2568476082e+01   1.4565708146e+01    0.1990273     0.120416 -28.39 0.0004689439    1.542    0.352
       137 -10.3413     51.1140    116.3585   1.1259624691e+02   4.6252210334e+01     0.311788    0.1599606 -63.10 0.0008206264    1.794    0.443
       138  -9.5616    166.2162    115.6809   8.2169400892e+01   2.5892867370e+01    0.1924442    0.1751794 -36.32 0.0004354426    1.146    0.127
       139  -9.3837     86.2772    116.6641   1.0229894150e+02   4.1215941229e+01    0.1421983    0.1038153  79.06 0.0004298766    1.610    0.379
       140  -9.3237    214.1889    115.6025   7.3253669595e+01   1.5978362108e+01     0.184565    0.1168298  35.46 0.0005309528    1.587    0.370
       141  -9.6366     71.9538    116.0000   1.0632085578e+02   4.3569452475e+01    0.2168181   0.07601038  35.12 0.0007401193    2.907    0.656
       142 -10.2753     35.0737    114.3176   1.1718692781e+02   4.8495631459e+01    0.2031022    0.1663751 -89.54 0.0005004276    1.057    0.054
       143 -12.0729     35.3758    108.2841   1.1630483659e+02   4.9892330469e+01    0.4823317    0.2599888  74.18  0.001483252    2.147    0.534
       144 -10.8469    249.0516    111.8879   6.7230547380e+01   9.8814434592e+00    0.2285627    0.1601686 -20.73 0.0006640939    1.227    0.185
       145  -8.7778    212.6466    112.7105   7.2826262814e+01   1.6685673670e+01    0.1437341   0.09673473  16.70 0.0005047603    1.674    0.403
       146 -10.5033     55.3778    109.6853   1.1022906317e+02   4.7295781540e+01    0.3288114    0.2225084   7.52  0.001621237    2.237    0.553
       147 -11.8498     17.0374    115.7512   1.2280629494e+02   4.9771903240e+01    0.4518275    0.2310761 -61.24   0.00227121    1.841    0.457
       148 -10.6582     62.6049    106.6895   1.0744320541e+02   4.7052758938e+01    0.2589412     0.225815 -55.45 0.0006486074    1.183    0.154
       149 -10.7486      6.1803    105.8373   1.2527513671e+02   5.2863862545e+01    0.3527769    0.1980465 -68.19  0.001739703    1.552    0.356
       150 -10.6646      2.5180    105.5331   1.2639635376e+02   5.3162801885e+01    0.2223682    0.1706119 -67.19 0.0005630499    1.267    0.211
       151 -12.4349      2.7990    100.4526   1.2591897569e+02   5.4333560541e+01    0.2708232    0.2181058  74.30 0.0003880863    1.111    0.100
       152 -11.1349      1.4754     96.0114   1.2599619020e+02   5.5453589667e+01    0.3464317     0.136094 -77.53  0.000342221    2.041    0.510
       153  -8.8829     69.6280    106.3124   1.0518695421e+02   4.6150946205e+01    0.1485761   0.09912781  69.78 0.0007033746    1.780    0.438
       154 -10.7747    243.5706    104.2975   6.6246227553e+01   1.1784065893e+01    0.1879209    0.1370436   9.53  0.001077942    1.378    0.274
       155 -10.9461    247.4881    102.1989   6.5242174160e+01   1.1311406124e+01    0.2221014    0.1804615  42.74 0.0008025235    1.366    0.268
       156  -9.8662    223.2993    104.0025   6.9073114440e+01   1.5733149363e+01    0.1933902    0.1543665 -19.24 0.0004144921    1.133    0.117
       157 -10.7688     36.4369    101.6131   1.1501285817e+02   5.1377101277e+01     0.428476    0.1830182  41.65  0.001953281    2.322    0.569
       158  -9.9218    119.9512    101.1966   8.9431697371e+01   3.8391065807e+01    0.2468345    0.1738349  15.24  0.001076328    2.048    0.512
       159 -11.0661     62.3519     98.5153   1.0593187644e+02   4.9014161513e+01    0.4280017     0.328438 -39.15  0.002328316    1.491    0.329
       160 -10.8542     66.7262     97.8319   1.0436829207e+02   4.8557007635e+01    0.4794688    0.1694441 -54.75  0.001811226    2.579    0.612
       161 -10.0174     91.4751    100.5386   9.7277558347e+01   4.3962205646e+01    0.1420805    0.1365031 -86.28  0.000808889    1.004    0.004
       162  -9.9507    145.3110     99.8805   8.2780995474e+01   3.3256829168e+01    0.2435729    0.1907987 -57.62  0.001197311    1.446    0.308
       163  -9.1949     50.5642     99.4520   1.0998488321e+02   5.0320904713e+01    0.1329826    0.1193597 -74.58 3.854585e-05    1.048    0.046
       164 -11.6268     20.0696     96.8589   1.1984022849e+02   5.3997872190e+01    0.4015823    0.2196521 -82.41  0.002105786    1.628    0.386
       165 -10.8468     95.7158     90.7017   9.3532971211e+01   4.5382701282e+01    0.4936739    0.3089758   7.43  0.001725661    3.629    0.724
       166  -9.8166     41.0411     96.9796   1.1274075864e+02   5.2006480428e+01     0.202107    0.1441433 -40.47   0.00054059    1.635    0.388
       167  -8.8305     85.2831     98.6488   9.8699423461e+01   4.5455679329e+01    0.1467089     0.108997  84.36 0.0007017279    1.655    0.396
       168  -9.6770    249.7570     95.5720   6.3418890180e+01   1.1676901771e+01    0.1458614    0.1290442  69.86 0.0002895893    1.492    0.330
       169 -10.0702     31.4579     93.6979   1.1549811328e+02   5.3768823527e+01    0.3661989    0.1603272 -83.31  0.001392822    2.577    0.612
       170 -11.3234     25.5125     91.6500   1.1726941224e+02   5.4800440049e+01    0.2414111     0.236623 -48.78 0.0001616215    1.216    0.178
       171 -10.6573     22.8810     86.9942   1.1753157841e+02   5.6146155004e+01     0.276841    0.1880677 -66.66 0.0004158074    1.268    0.211
       172 -11.0025    103.9977     91.7072   9.1351348589e+01   4.3583098015e+01    0.3259467    0.2036666 -46.12 0.0003230473    1.588    0.370
       173 -11.4218     10.2868     90.8570   1.2250965768e+02   5.6143457486e+01    0.2835016    0.2210986  37.08 0.0009003021    1.432    0.302
       174 -10.8502    158.0513     90.2385   7.7288037398e+01   3.2137861671e+01    0.2830011    0.2167528 -32.02  0.001390794    1.306    0.234
       175  -9.2269     21.2971     91.3404   1.1870832444e+02   5.5225903601e+01      0.12986   0.08252823 -48.32 0.0004117007    1.662    0.398
       176 -11.3572     46.1408     83.8954   1.0849126640e+02   5.4580204379e+01    0.7004671    0.4350368 -80.81  0.003458823    1.728    0.421
       177  -9.1319    139.2949     87.6894   8.0840722552e+01   3.6893849725e+01    0.1502516    0.1204781 -78.00 0.0007005648    1.592    0.372
       178 -10.4979    112.4921     86.5332   8.7490006499e+01   4.2967502069e+01    0.3068061    0.2156549 -66.11  0.001093203    1.747    0.428
       179 -12.5697     17.7391     66.3067   1.1616527755e+02   6.1547315494e+01    0.7738439    0.4707863 -57.06  0.001238066    1.415    0.293
       180 -11.3277     30.1934     66.7057   1.1100790563e+02   6.0408174875e+01    0.6277239    0.3008752 -40.71  0.002796805    2.388    0.581
       181 -12.4242     44.6648     75.2661   1.0714325528e+02   5.6822845060e+01    0.2727839     0.234492  49.02 0.0003621235    1.260    0.207
       182 -11.0902     37.8293     70.3196   1.0869125026e+02   5.8773004030e+01    0.5968483    0.3682059  74.28  0.002346176    2.181    0.542
       183 -10.3874      4.5791     86.5049   1.2406962080e+02   5.7532658095e+01    0.2774368    0.1936343  83.66  0.001728665    1.250    0.200
       184 -12.0657      5.5070     76.4412   1.2262421442e+02   5.9889525768e+01    0.8119205     0.411898 -57.73  0.003311948    1.727    0.421
       185 -12.1652     13.6117     77.2383   1.1959436513e+02   5.9198043152e+01    0.4969559    0.2433787 -46.81  0.002085622    2.114    0.527
       186 -10.7477     14.9461     83.2915   1.1992125158e+02   5.7645210323e+01     0.510619    0.1736531 -49.83  0.002102296    2.981    0.665
       187 -10.9906     21.0404     81.2450   1.1734755576e+02   5.7684969898e+01    0.3402133     0.217673 -11.80  0.001795156    2.269    0.559
       188 -12.1169     21.2813     76.9077   1.1656377810e+02   5.8715702913e+01    0.3556843    0.2732029 -60.04 0.0002459432    1.181    0.153
       189 -11.0363     67.4253     85.0470   1.0120840411e+02   5.1453307746e+01    0.3470238    0.2841608 -27.46  0.001519901    1.447    0.309
       190 -10.3331    167.2481     83.9968   7.3604362653e+01   3.1062414724e+01    0.4060114    0.2616039  75.30  0.001667541    2.272    0.560
       191 -10.2345     87.9411     83.3520   9.3951147586e+01   4.8438981353e+01    0.2329281    0.1895016 -64.90 0.0003231507    1.252    0.201
       192 -10.3395     29.8188     82.5290   1.1425996553e+02   5.6622404149e+01    0.3633528    0.1445379 -62.01  0.001606998    2.065    0.516
       193  -8.8213    188.2894     83.6540   6.9547165496e+01   2.6198439909e+01    0.1491505    0.1113257 -59.34 0.0002323334    1.657    0.397
       194 -10.3388    117.9797     82.8846   8.4908438686e+01   4.2555591080e+01    0.2766041    0.2164387 -40.86    0.0011031    1.273    0.214
       195 -10.7576     39.5344     80.3963   1.1021158084e+02   5.6166953960e+01    0.3579576    0.2627062  73.96  0.001673659    1.495    0.331
       196 -10.4855     71.2185     79.4452   9.8454276233e+01   5.2167503172e+01    0.1912974    0.1312516  52.09 0.0004489905    1.598    0.374
       197 -10.7473     92.3199     77.2504   9.0797190432e+01   4.8968230132e+01    0.3339049    0.2733923  80.58  0.001698192    1.464    0.317
       198 -12.0293     58.2964     74.6026   1.0181321923e+02   5.5225751445e+01    0.5847052    0.3740059  69.69  0.001546961    2.213    0.548
       199 -11.4958     62.0543     72.1423   9.9750251013e+01   5.5258525317e+01    0.4817222    0.3104428 -41.30  0.001656921    1.609    0.379
       200  -9.3275    150.5423     77.4366   7.5207005790e+01   3.6144211924e+01    0.1511435    0.1460903   9.12 9.697375e-05    1.028    0.028
       201  -9.5788    121.9841     76.0485   8.1747075273e+01   4.3036167789e+01    0.2398124    0.1888224 -84.00 0.0007871286    1.660    0.398
       202  -9.7324     75.6505     76.2819   9.6042692966e+01   5.2168409264e+01    0.1450036    0.1104543  76.96 0.0002689715    1.649    0.393
       203  -9.2865     33.1707     75.8111   1.1172092675e+02   5.7928623634e+01    0.1717188    0.1384413 -43.27 0.0004345848    1.301    0.232
       204 -10.0466    145.3000     74.2760   7.5419377028e+01   3.7951373135e+01     0.289875    0.1871808 -24.26   0.00124294    1.730    0.422
       205 -10.2884    138.9891     75.0074   7.7121077780e+01   3.9318099175e+01    0.2261645    0.2215738  -2.01  0.000345235    1.013    0.012
       206 -10.8853    102.5566     73.0248   8.6320627788e+01   4.7833543202e+01    0.3570939    0.2831834  15.66 0.0006153744    1.563    0.360
       207 -10.6948    102.6742     67.9550   8.4644452933e+01   4.8850183440e+01     0.260318    0.2198332  40.48 0.0008279748    1.222    0.182
       208 -10.4106     99.4577     65.2532   8.4728615390e+01   5.0071855427e+01    0.3028134     0.227254 -27.26  0.001153456    1.463    0.316
       209 -10.2539    128.9556     71.7912   7.8580086800e+01   4.2260611115e+01    0.2407639    0.2114823 -39.76 0.0002166418    1.128    0.113
       210 -11.2823     76.9198     71.2685   9.4129214846e+01   5.3080801694e+01    0.5507798    0.3773586  59.32  0.001666303    1.762    0.432
       211  -9.2627    135.9633     72.0000   7.6904020527e+01   4.0579871820e+01      0.24755   0.08717927  52.07 0.0007908089    2.862    0.651
       212 -10.0117    116.3007     71.0934   8.1719124945e+01   4.5273613098e+01    0.2798814     0.218665  47.99 0.0006936764    1.298    0.230
       213  -9.3168    250.7014     70.6337   5.7375778291e+01   1.4404105877e+01    0.1350339   0.09104205  10.64 0.0007032462    1.728    0.421
       214 -12.2405     94.2546     68.4386   8.7427054087e+01   5.0473219957e+01    0.4067547    0.2652805 -41.21 0.0003158966    1.505    0.336
       215 -11.2555     50.8191     67.8507   1.0288049616e+02   5.7820154119e+01     0.464076     0.213234 -44.63  0.001388926    2.224    0.550
       216 -10.8998     51.1668     63.1163   1.0141576817e+02   5.8878508370e+01    0.6927823    0.2795579 -38.60  0.002395309    3.485    0.713
       217  -9.9923    146.1369     67.9969   7.3250420782e+01   3.8844254825e+01    0.3849981    0.2185524 -19.58  0.001468262    2.279    0.561
       218  -9.9543    123.0522     68.4524   7.9027733887e+01   4.4253310230e+01    0.2394291     0.192283 -39.04 0.0006528664    1.229    0.186
       219 -10.3263     68.7665     67.5765   9.5933659945e+01   5.5267251735e+01    0.3938293    0.1727339 -48.13  0.001509557    2.122    0.529
       220 -12.3095      4.0084     65.1135   1.2178149209e+02   6.2688260715e+01     0.436815    0.2731754  66.90  0.001126025    1.701    0.412
       221 -10.5131     81.4846     66.9320   9.1186678456e+01   5.3228535056e+01    0.2143285    0.1906801 -46.26 0.0007099295    1.070    0.065
       222 -10.8348     77.1602     63.8191   9.1693544942e+01   5.4680970479e+01    0.3828208    0.2736049 -50.84  0.001252396    1.328    0.247
       223 -11.7645     62.9387     60.3545   9.5876976184e+01   5.7811632855e+01    0.7339845    0.4159209  21.81  0.003109886    2.506    0.601
       224  -9.7355     83.9821     72.3259   9.2030566896e+01   5.1596590666e+01    0.1915054    0.1826175  42.73 0.0002967938    1.100    0.091
       225  -9.1630    215.5411     64.4176   6.0046700534e+01   2.2611942071e+01    0.1394646    0.1277464 -29.91 0.0002243029    1.048    0.045
       226  -9.4830    120.6128     64.7186   7.8430988988e+01   4.5517786500e+01    0.1598539    0.1181631  18.18 0.0007004283    1.737    0.424
       227  -9.6443     41.4574     64.2148   1.0570786366e+02   5.9824149961e+01     0.186368    0.1542031  43.90 0.0004934677    1.341    0.254
       228 -10.9078     84.5394     61.7028   8.8395176844e+01   5.3779849102e+01    0.4589658     0.311101  47.30   0.00219912    1.563    0.360
       229 -10.4768     86.5691     57.5880   8.6257814675e+01   5.4243530556e+01    0.3957804    0.2441243 -32.96  0.001749478    1.755    0.430
       230 -11.5842     87.0867     52.2521   8.4118095892e+01   5.5217607426e+01    0.4477875    0.3364863  69.87 0.0005455672    1.730    0.422
       231 -10.6582     10.9908     62.6558   1.1841511808e+02   6.2882904469e+01    0.2081943    0.1522052 -80.61 0.0003371632    1.187    0.157
       232 -10.1970    201.0968     61.9681   6.1383887826e+01   2.6291923081e+01    0.2124912    0.1971095 -14.00 0.0003082248    1.030    0.029
       233  -9.6521    140.8540     62.1429   7.2533727760e+01   4.1138761265e+01    0.2313784    0.2011057 -62.90 0.0004072036    1.265    0.209
       234 -10.9276     45.5570     49.7419   9.9639254719e+01   6.2670800957e+01    0.4190097    0.2198549 -47.29  0.001217466    1.706    0.414
       235 -11.3441     29.6410     60.8623   1.0990134181e+02   6.1858024323e+01    0.6036647    0.2710591  13.74  0.002425885    3.314    0.698
       236 -12.7878     37.2235     51.0715   1.0384385409e+02   6.3374056612e+01    0.7862028    0.6224223 -28.91  0.003516159    1.353    0.261
       237 -10.8434     99.7715     55.5846   8.1223265200e+01   5.1922455283e+01    0.4470409    0.2325839  51.52  0.001352199    2.040    0.510
       238 -10.7007     57.6566     59.0899   9.7565158298e+01   5.8893405370e+01    0.3118767    0.2629706  29.94  0.001778546    1.310    0.237
       239 -10.0521     47.7987     58.3472   1.0140040661e+02   6.0421722527e+01    0.2594749    0.1954704 -84.06  0.001381977    1.562    0.360
       240 -10.1816     43.9419     57.0265   1.0265017973e+02   6.1211265295e+01    0.2039616    0.1801158 -54.94 0.0003314222    1.006    0.006
       241 -11.0286      5.5623     58.2358   1.2008475074e+02   6.4254597505e+01    0.3678555     0.150016 -73.93  0.001732814    1.998    0.499
       242 -11.2827      5.3382     51.8809   1.1911368238e+02   6.5782030668e+01    0.3197486     0.231062 -52.10 0.0008632781    1.253    0.202
       243 -10.3716    103.7606     57.2349   8.0603432918e+01   5.0737635071e+01    0.2861719    0.1987722 -11.42   0.00114926    1.985    0.496
       244 -10.3085    146.9803     57.0036   6.9445686195e+01   4.0467295050e+01    0.2279211    0.2165893 -49.72            0    1.074    0.069
       245 -10.6302    123.0749     56.3736   7.4879770815e+01   4.6458735310e+01    0.2801625    0.2147366 -43.54 0.0004494143    1.307    0.235
       246 -10.1256    129.8038     55.9239   7.3021082696e+01   4.4911000205e+01    0.2325886    0.2056016  -0.09 0.0005200951    1.216    0.178
       247 -10.4877     75.1425     55.9678   8.9738439731e+01   5.6725520750e+01     0.210797    0.1956407 -43.09 0.0003415721    1.013    0.013
       248 -10.2114     61.7151     54.1609   9.4286097803e+01   5.9373668798e+01    0.2559709     0.245173  53.46 0.0009918248    1.146    0.127
       249 -11.0914     12.6186     51.6926   1.1560494559e+02   6.5401029119e+01    0.2781864    0.2428191 -89.81  0.001364109    1.163    0.140
       250 -12.8388    128.5247     50.3901   7.1345938957e+01   4.6158720932e+01    0.4162035    0.3380104  10.34 0.0009205624    1.423    0.297
       251 -11.0982     69.9684     50.3904   8.9657533882e+01   5.8813316069e+01    0.4356719    0.3411611  82.20  0.001807675    1.774    0.436
       252 -11.1400    103.8554     48.1943   7.7183637381e+01   5.2400568481e+01    0.5721141    0.2959053 -39.21   0.00233178    1.875    0.467
       253 -10.7802     82.0246     46.7701   8.3763908264e+01   5.7303986587e+01     0.228801    0.2072838 -31.30 0.0004397491    1.050    0.047
       254 -10.0510     77.2914     50.3524   8.6875207801e+01   5.7498350139e+01    0.2277384    0.1891851  11.82  0.001199906    1.388    0.279
       255 -10.3768     78.4811     47.4772   8.5325201342e+01   5.7852357891e+01      0.21965    0.2030308 -30.84 1.371845e-05    1.023    0.023
       256  -9.6865    220.7169     48.9860   5.5186394349e+01   2.3334386766e+01    0.1951273    0.1604072 -26.20  0.001096242    1.105    0.095
       257  -9.2210    166.6599     49.2574   6.3015467284e+01   3.6620051951e+01    0.1520549    0.1152043 -69.68 0.0002981603    1.582    0.368
       258 -11.5430    152.4791     47.8688   6.5188801084e+01   4.0479180318e+01     0.643504     0.360206  49.00  0.001934928    1.789    0.441
       259 -10.7004     94.7163     48.4846   8.0133501329e+01   5.4361162638e+01    0.4233829    0.2353408 -30.68  0.001714262    1.951    0.487
       260  -9.9747    120.1793     47.2341   7.2268042647e+01   4.8730487895e+01     0.218613    0.2019465   7.47 0.0007691936    1.116    0.104
       261 -10.2675      4.5012     47.0408   1.1862673424e+02   6.6972485030e+01    0.3267281    0.1472844 -44.60  0.001625603    2.097    0.523
       262 -10.0343      7.0461     41.4133   1.1615098993e+02   6.8161633806e+01    0.3067167    0.1258567 -61.78 0.0008832816    1.839    0.456
       263  -9.9536    142.9397     45.9795   6.6468802817e+01   4.3219126292e+01    0.2289835    0.2256892 -37.94 0.0004724396    1.024    0.023
       264  -9.8926     86.1950     45.6329   8.1845228243e+01   5.6685601861e+01    0.2070221    0.1769556 -43.72 0.0006031825    1.143    0.125
       265  -8.8993     54.3273     46.2630   9.4535650254e+01   6.2219614122e+01    0.1354545    0.1028416 -16.50 0.0003243296    1.566    0.361
       266  -9.8452     51.2540     44.9891   9.5412007226e+01   6.2943663854e+01    0.2038307    0.1893012  77.91 0.0003093434    1.253    0.202
       267 -11.0109     52.1020     40.7224   9.3388269805e+01   6.3731500706e+01    0.3535063    0.2721268  53.64 0.0007471116    1.578    0.366
       268 -10.9362     11.6713     44.1216   1.1437914308e+02   6.7249856303e+01    0.3734799    0.2238667 -49.77  0.001301539    1.444    0.307
       269  -9.0948    233.2698     45.3967   5.2852535306e+01   2.0922404224e+01     0.138878    0.0971031  12.94 0.0005679213    1.732    0.423
       270 -10.9418     89.6165     39.6917   7.8229901733e+01   5.7065845274e+01    0.5694469    0.2408422 -47.40   0.00205053    2.646    0.622
       271  -9.9600    110.5863     41.8422   7.2733989963e+01   5.1938864249e+01    0.2316512    0.2047828 -86.98 0.0004011068    1.317    0.241
       272 -11.0674     97.4400     40.8165   7.6178849839e+01   5.5153213878e+01    0.3836289    0.3179869  23.85  0.000959203    1.299    0.230
       273 -10.8842     96.3092     36.7150   7.4800484645e+01   5.6110370628e+01    0.4443232    0.2571709 -54.57  0.001096766    2.255    0.557
       274 -10.4531    101.6800     36.9557   7.3271304865e+01   5.4841603747e+01    0.2657486    0.2118989  39.74 0.0005741639    1.275    0.216
       275 -10.6571    104.9792     34.0137   7.1062071746e+01   5.4540978612e+01    0.3552422     0.299374 -64.91  0.001301112    1.389    0.280
       276 -11.1947     98.0246     31.6933   7.2083964588e+01   5.6539334335e+01     0.347535    0.2571454  40.00 0.0007839314    1.377    0.274
       277 -11.1286    101.0857     28.7805   6.9884156105e+01   5.6272473889e+01    0.2890576    0.2534412 -52.91 0.0004843269    1.247    0.198
       278 -11.2799     68.4909     38.8874   8.5635626299e+01   6.1402212663e+01    0.6372142    0.3651932 -13.06  0.002212099    3.692    0.729
       279 -10.3521     34.2492     34.2213   9.9467614809e+01   6.7483944960e+01    0.3772685    0.1800527  39.67  0.001744521    2.431    0.589
       280 -10.6101     23.4182     41.1961   1.0753193068e+02   6.7032891783e+01    0.2838832    0.2317853  46.22  0.001103384    1.449    0.310
       281 -11.2142     19.9830     38.0093   1.0835489756e+02   6.8056877311e+01    0.2988836    0.2184619 -41.05  0.001802491    1.268    0.211
       282 -11.9794     27.7331     38.0144   1.0426008301e+02   6.7348955497e+01    0.3960361      0.26693 -70.00  0.001654526    1.525    0.344
       283 -12.4534     24.0583     35.1469   1.0522512022e+02   6.8345596099e+01    0.4039979    0.2680111   3.36 0.0003852368    1.897    0.473
       284  -9.1603    220.4189     41.4960   5.3158824319e+01   2.4275199255e+01    0.1382964    0.1244192 -28.89 0.0001347056    1.015    0.015
       285  -9.7692    215.8298     40.6389   5.3426367168e+01   2.5448781569e+01    0.1842645    0.1708205 -65.40 0.0005959397    1.123    0.110
       286 -10.0728    121.5044     41.5150   6.9727538725e+01   4.9336683383e+01    0.1502358    0.1478161 -12.09  0.000810441    1.015    0.015
       287  -9.8232     41.1597     41.3461   9.8724373485e+01   6.5096761275e+01    0.2683172    0.1561208  35.43  0.001341328    1.915    0.478
       288 -10.0048     42.9744     37.7258   9.6466739575e+01   6.5647711574e+01    0.5139567    0.3292555  88.57  0.002090471    3.361    0.703
       289  -9.6834    226.2390     40.3902   5.2239029092e+01   2.3060654863e+01    0.1709317    0.1307149 -88.85 0.0004523954    1.520    0.342
       290  -9.8378    184.2837     40.6717   5.7435234937e+01   3.3235548128e+01     0.154828    0.1055309 -55.33 0.0002557866    1.607    0.378
       291 -12.2535     81.8264     37.0895   7.9800549995e+01   5.9165497397e+01    0.6415233    0.5559192 -34.32  0.001466045    1.101    0.092
       292 -10.9431     78.6196     31.2327   7.8327073342e+01   6.0858393838e+01     0.547038    0.3042461 -18.25  0.002144424    2.554    0.608
       293  -9.8862     61.8761     37.8275   8.7910548294e+01   6.2770276022e+01    0.1999444    0.1725318 -22.68 0.0002911957    1.132    0.117
       294  -9.3690    199.5011     37.6160   5.4468328828e+01   2.9763758220e+01    0.1382895    0.1357171 -22.05 0.0001186504    1.043    0.041
       295 -10.2168    166.0790     36.5539   5.8859721937e+01   3.8492273042e+01    0.2305433    0.1486837  67.38  0.001027765    1.604    0.377
       296  -9.6283    155.6664     35.6712   6.0312966677e+01   4.1354830709e+01    0.2497463    0.1673269  28.89  0.001087419    1.780    0.438
       297  -9.5743    146.8853     36.1228   6.2092289212e+01   4.3610961469e+01    0.2127922    0.1712221  35.39 0.0004019283    1.306    0.234
       298  -9.5474    127.4760     36.4635   6.6309370500e+01   4.8605283438e+01    0.2159282      0.13833 -39.86 6.738088e-05    1.564    0.360
       299  -9.8117    125.7152     33.0104   6.5342035576e+01   4.9555667204e+01    0.2332482    0.1990646  58.15 0.0005252913    1.178    0.151
       300  -9.8812    150.8716     34.7919   6.0859119702e+01   4.2738644827e+01    0.2346332    0.1998195  30.07 0.0005759166    1.238    0.192
       301  -9.9729     60.4515     33.4924   8.6618992070e+01   6.3862555588e+01    0.1788921    0.1344802  25.39 9.460176e-06    1.474    0.322
       302 -10.9248     10.2417     34.7187   1.1272849960e+02   6.9524711746e+01    0.4188639    0.2416908   5.85  0.002287205    2.180    0.541
       303 -11.0093      7.1019     30.3519   1.1330410475e+02   7.0715023409e+01    0.3808679    0.2171545 -48.26  0.001575821    1.466    0.318
       304 -10.8453      9.9095     25.1799   1.0999487451e+02   7.1705180806e+01    0.3201065    0.2524942 -18.45 0.0008282649    1.366    0.268
       305 -10.0417    129.6813     32.5543   6.4267427978e+01   4.8599437456e+01    0.2546525     0.182973 -12.01 0.0005257663    1.535    0.349
       306 -10.4303     48.9345     31.5157   9.0973302991e+01   6.6097509817e+01    0.2900759     0.239122  15.48 0.0008138563    1.328    0.247
       307 -10.1431     50.3788     28.2634   8.8787703552e+01   6.6518657149e+01    0.2223477     0.189514  18.24  0.001314779    1.251    0.201
       308 -10.7511     42.7025     31.8486   9.4169483119e+01   6.6920133918e+01    0.2077032    0.1903238  20.69 0.0004940029    1.202    0.168
       309 -10.8311     17.0613     30.6363   1.0758054249e+02   6.9961586816e+01    0.5280065    0.2393169  46.91   0.00232181    3.195    0.687
       310  -9.2567     16.4828     26.5663   1.0647683112e+02   7.0911459731e+01    0.1871165    0.1196826 -39.63 0.0001019414    1.416    0.294
       311 -11.3285    177.2836     29.9967   5.4978897929e+01   3.6351138747e+01    0.4594867    0.2343864 -38.60  0.001909984    1.862    0.463
       312 -10.0333    207.5329     30.0366   5.1297434388e+01   2.8641320922e+01    0.2093419     0.130772 -24.62 0.0003373791    1.503    0.335
       313  -9.8142    139.6037     29.9871   6.1198478790e+01   4.6351695738e+01    0.2935942     0.150681 -14.19  0.001086962    2.406    0.584
       314 -10.2082    153.3447     28.8253   5.8249365490e+01   4.2846750413e+01     0.246402    0.1798021 -46.87 0.0007879231    1.413    0.292
       315 -10.0398    109.4637     28.9176   6.7633596683e+01   5.4228652009e+01    0.2106703    0.1996887  45.95 0.0003355827    1.065    0.061
       316 -10.9652    108.0941     24.8560   6.6203701697e+01   5.5143493637e+01    0.4278625    0.1985364 -47.09  0.001298895    2.609    0.617
       317 -11.2889     70.3671     25.6520   7.8793275662e+01   6.3469215704e+01    0.4104975    0.3144498  42.26  0.001272485    1.363    0.266
       318  -9.3813    156.6564    245.7325   1.0554176459e+02   8.3681707503e+00    0.1044301   0.06496082  21.22 0.0003029133    1.607    0.378
       319 -10.9213     65.1394     20.5813   7.8326725919e+01   6.5330780033e+01    0.2732137    0.2289435 -53.93 0.0007914104    1.393    0.282
       320  -9.1816     24.9197     26.9531   1.0166420159e+02   7.0060416108e+01    0.6350934    0.3634235 -73.46  0.002390922    2.385    0.581
       321  -9.7086     21.3502     28.2515   1.0423937392e+02   7.0121497084e+01    0.2530926    0.1088898 -65.08  0.001090053    2.413    0.586
       322 -11.2033     20.9704     18.5136   1.0037479318e+02   7.2232576092e+01    0.5066926     0.262407  33.19  0.002625956    2.213    0.548
       323  -9.3839    143.2980    245.3301   1.0776680477e+02   1.0190973940e+01     0.100593   0.06935427  16.22 0.0002716989    1.640    0.390
       324 -10.7100    237.4025     25.3557   4.7205820798e+01   2.2145667174e+01    0.2400091    0.1941548 -45.98  0.000569222    1.129    0.114
       325  -9.4578    146.1234     26.1264   5.8503403178e+01   4.5108208915e+01    0.2011573    0.1702912 -62.03  0.001022222    1.266    0.210
       326 -10.4572    134.7498     22.6354   5.9251600820e+01   4.8565764064e+01    0.3158024    0.1927828  51.75  0.000919187    1.586    0.369
       327 -11.0411    129.2179     23.4213   6.0675923292e+01   4.9930603874e+01    0.5323614    0.3912731  86.86  0.002507775    1.611    0.379
       328 -10.9946    130.3788     20.0881   5.9068058545e+01   5.0030923503e+01    0.4408159    0.2849839 -70.70  0.001145914    2.077    0.519
       329 -11.0463    197.2875     24.8333   5.0859706397e+01   3.1762328435e+01    0.2474285    0.2339522 -33.35 0.0003745992    1.028    0.027
       330  -9.8795    112.0043     25.0079   6.5270321568e+01   5.4150045492e+01    0.2236548    0.2099116  -3.28  0.000453284    1.048    0.046
       331 -11.2565    214.4560     27.2649   4.9783468081e+01   2.7257915719e+01     0.294808    0.2207257 -56.59 0.0003302622    1.344    0.256
       332 -12.0062     74.4604    238.5514   1.1927718351e+02   1.9842214620e+01      0.39792    0.3025454  88.64  0.003245987    1.499    0.333
       333 -10.5527     87.0213     24.5186   7.2230091859e+01   6.0157613729e+01    0.4134828    0.2841749  84.47  0.001800178    2.369    0.578
       334 -10.2084    109.6137    243.1679   1.1340597526e+02   1.4865598067e+01    0.2185708    0.1259127  55.91 0.0009164811    1.676    0.403
       335 -10.4424    191.1711     21.3637   5.0465441638e+01   3.3694563313e+01    0.2161021    0.1411479  70.33 0.0003085627    1.564    0.361
       336 -10.1343     56.2144     30.7595   8.7244393282e+01   6.5100973097e+01    0.2812109    0.1950024 -22.87  0.001027069    1.578    0.366
       337  -9.9628     94.0000     23.9600   6.9760349586e+01   5.8653065356e+01    0.2731778    0.1851436 -29.21  0.001309972    1.440    0.306
       338  -9.0123     96.7007     23.7280   6.8844837461e+01   5.8054884909e+01    0.2650413    0.2031209  22.07 0.0004105601    1.420    0.296
       339  -9.9945     54.1665     23.9174   8.4877836206e+01   6.6724932598e+01     0.217981    0.1933839  16.63 0.0007037601    1.165    0.142
       340  -9.0179    120.2392     27.9744   6.4546304981e+01   5.1660979598e+01    0.1778993    0.1247931 -27.77  0.000823445    1.416    0.294
       341 -10.6140    120.2489     21.4444   6.1767743111e+01   5.2517886889e+01    0.2736629    0.2225512   2.04 0.0003342505    1.315    0.240
       342  -9.6848     28.7162     21.4342   9.7032158725e+01   7.0809184160e+01    0.3677226    0.1583316 -29.90  0.001351558    3.609    0.723
       343  -9.7126    235.4110     21.2135   4.6278693301e+01   2.3002516687e+01    0.1929271     0.100874 -35.31 0.0003987466    1.608    0.378
       344  -9.6154    113.5505     20.2167   6.2771600294e+01   5.4391393747e+01    0.2921659    0.1322017 -32.01  0.001134274    2.124    0.529
       345 -10.3020     45.3916     20.6928   8.7502358477e+01   6.8723489210e+01    0.2705945    0.1881181  41.19  0.001267321    1.617    0.382
       346  -9.4112    115.5256    244.5093   1.1248753627e+02   1.3931396295e+01    0.1061437   0.07702713  40.57 0.0002602642    1.029    0.028
       347 -10.7966     10.1701     15.5167   1.0615035383e+02   7.3792306900e+01    0.2271991     0.163323 -35.09 0.0006044705    1.252    0.201
       348 -10.3446    161.9619     20.0298   5.3719652424e+01   4.1558973247e+01    0.2145418    0.2139916 -57.31 0.0003092531    1.014    0.014
       349  -9.8197    226.9683     19.2545   4.6429338601e+01   2.5119734151e+01    0.1791655    0.1639562 -77.47  0.000497921    1.137    0.120
       350 -10.1169    179.3489    243.6747   1.0153241986e+02   5.5648415958e+00   0.09972426    0.0698987  51.17  0.000704919    1.752    0.429
       351  -8.8103    151.2862     18.6948   5.4832802800e+01   4.4584090204e+01    0.1533798    0.1080232 -57.51 0.0002499068    1.565    0.361
       352  -9.5495    217.7746     16.4235   4.6408470037e+01   2.7564090868e+01    0.1880317     0.119388  57.72 0.0009467986    1.679    0.405
       353  -9.4323    213.9853     17.0000   4.6897363662e+01   2.8421336693e+01    0.2742417     0.139945  65.26  0.001249124    2.005    0.501
       354  -9.7218    108.3141     17.5775   6.2841312791e+01   5.6047744401e+01    0.2071604    0.1301161  48.68 0.0009395744    1.540    0.351
       355 -11.0830     37.3520    242.6957   1.2598459118e+02   2.3301036467e+01    0.2612033    0.1001356  43.59  0.001689733    1.709    0.415
       356 -10.6070    156.3358    240.8259   1.0506617813e+02   8.9708202627e+00    0.1602739     0.135555 -84.74  0.001259205    1.896    0.473
       357  -9.9790     89.0114    240.9605   1.1686295523e+02   1.7748624745e+01    0.1444119    0.1172025  12.49  0.001121004    1.701    0.412
       358 -11.1021     35.5161    239.5037   1.2616680673e+02   2.3964707477e+01    0.2783636    0.1836485 -49.48  0.002041727    2.571    0.611
       359  -9.3242     50.4683    240.4533   1.2361725966e+02   2.2265185934e+01    0.1006513   0.07174411  51.32 0.0008076467    1.039    0.038
       360 -10.3326    195.6768    238.3867   9.8225491828e+01   3.9260404648e+00    0.2115385     0.136096  22.83  0.001401922    1.223    0.182
       361  -9.7346     72.4002    250.2940   1.2037661596e+02   1.8416126906e+01    0.1242716    0.1092819   7.35  0.000961714    1.709    0.415
       362 -10.7573    176.9496    235.5064   1.0095746491e+02   6.7601993917e+00    0.3469222    0.1761911  15.56  0.001784748    2.968    0.663
       363  -9.6735     50.2888     15.4219   8.2196231615e+01   6.8871529935e+01    0.2722217    0.1321116  42.55  0.001234092    2.216    0.549
       364 -11.2285     29.4731    233.6116   1.2697818519e+02   2.5469065281e+01    0.3445853    0.1422586  67.72  0.002145694    2.206    0.547
       365 -10.3700    160.1010    235.8042   1.0385861385e+02   9.0407356640e+00    0.2077454    0.1187647  26.22  0.001069155    1.585    0.369
       366  -9.6951    231.3165    235.3163   9.2240936494e+01  -4.2609314421e-01    0.1074516   0.05845359  14.72 0.0003646534    1.650    0.394
       367 -11.0344    153.5537    233.9481   1.0478152442e+02   1.0163673890e+01    0.2027126    0.1668309  -8.32  0.001266386    1.492    0.330
       368 -10.3070    168.9535     13.3562   5.0433362956e+01   4.0373956112e+01    0.2925885    0.1582095  62.10 0.0007620713    1.772    0.436
       369 -10.0426    167.0198    233.7117   1.0242659261e+02   8.3287587716e+00    0.1566503     0.109977  32.96 0.0006936705    1.048    0.046
       370  -9.9719     85.9558    232.9539   1.1681068903e+02   1.9273600143e+01    0.1723583   0.09461655  56.79 0.0006294271    1.632    0.387
       371  -9.8199     24.1177    232.3055   1.2786520866e+02   2.6192576707e+01    0.1437287    0.1124902  80.38  0.000584201    1.316    0.240
       372  -9.5971    142.3259    232.2810   1.0657113662e+02   1.1921173831e+01    0.1059071   0.07183385  19.27  0.000241376    1.596    0.374
       373  -9.8475     79.9183    231.4941   1.1780219098e+02   2.0230083817e+01    0.1609674   0.07883649  40.00 0.0004195205    1.517    0.341
       374 -10.4945      5.5907    235.3227   1.3113415048e+02   2.7414308956e+01    0.2738915    0.1556323  51.96  0.001483782    1.170    0.145
       375  -9.1127     58.2909    230.2921   1.2166666085e+02   2.2946753296e+01    0.0857674   0.07674567  20.34 0.0002279552    1.549    0.354
       376 -10.1353    190.5074    227.2964   9.7644579609e+01   5.7775949285e+00    0.2702977    0.1058834 -36.98  0.001473695    3.182    0.686
       377  -9.9293    129.7836    226.8591   1.0824492914e+02   1.4367688821e+01    0.2319063    0.1094113  52.58  0.001249228    2.253    0.556
       378 -10.7328    120.1886    226.6539   1.0998029734e+02   1.5715608881e+01    0.1751247     0.105035  48.13 0.0006031054    1.379    0.275
       379  -9.8559     87.6109    227.1835   1.1605551432e+02   1.9924655961e+01    0.1234975   0.09945422 -55.33 0.0009462492    1.670    0.401
       380 -10.4141     66.7162    226.6709   1.1989258103e+02   2.2542593168e+01     0.269614    0.1263589  47.32  0.001004973    1.558    0.358
       381 -10.6087      4.8301    226.1846   1.3103956197e+02   2.8918084933e+01    0.2673203   0.06643719  47.83  0.001445924    2.254    0.556
       382 -10.6432    115.9704    225.7754   1.1067016565e+02   1.6413587447e+01    0.1530482    0.1072322  66.76 0.0007637229    1.656    0.396
       383  -9.8991     25.7623    225.5817   1.2732031402e+02   2.7101713668e+01    0.1785126    0.1449669 -49.21  0.001454702    1.961    0.490
       384  -9.7824    181.0000    224.9531   9.8942111414e+01   7.3705810820e+00    0.1456595   0.06271288 -39.13 0.0008013312    2.935    0.659
       385  -9.1271    156.3244    224.3247   1.0316930591e+02   1.0958878587e+01    0.1112849   0.07455469  14.91 0.0007048339    1.688    0.408
       386 -10.5148    123.4421    222.2360   1.0892390881e+02   1.5888253125e+01    0.2122255    0.1778719 -37.05  0.001071748    1.584    0.369
       387 -10.2282     13.4504    221.9113   1.2939745148e+02   2.8850012712e+01    0.1476204    0.1013981  51.89 0.0007811824    1.098    0.089
       388 -10.0927    141.8574    220.8946   1.0537510818e+02   1.3472528081e+01    0.1750678     0.127633  26.52 0.0007446263    1.260    0.206
       389 -10.3809     21.9305    220.6598   1.2782300412e+02   2.8270288760e+01     0.146513   0.09726611  53.62 0.0005840033    1.071    0.066
