#   1 NUMBER                 Running object number                                     
#   2 MAG_AUTO               Kron-like elliptical aperture magnitude                    [mag]
#   3 X_IMAGE                Object position along x                                    [pixel]
#   4 Y_IMAGE                Object position along y                                    [pixel]
#   5 X_WORLD                Barycenter position along world x axis                     [deg]
#   6 Y_WORLD                Barycenter position along world y axis                     [deg]
#   7 A_WORLD                Profile RMS along major axis (world units)                 [deg]
#   8 B_WORLD                Profile RMS along minor axis (world units)                 [deg]
#   9 THETA_WORLD            Position angle (CCW/world-x)                               [deg]
#  10 FWHM_WORLD             FWHM assuming a gaussian core                              [deg]
#  11 ELONGATION             A_IMAGE/B_IMAGE                                           
#  12 ELLIPTICITY            1 - B_IMAGE/A_IMAGE                                       
         1  -9.8330    188.6147     20.6802   4.8974062999e+01   3.5145134240e+01    0.2875135    0.2603689  75.57 0.0009125203    1.054    0.051
         2  -9.3451     97.3190     13.3064   6.3813062338e+01   5.8375302248e+01    0.5266629    0.2257489 -12.18  0.002035621    2.932    0.659
         3  -8.1987    137.8960      5.6506   5.1726263297e+01   4.9650627654e+01    0.1844614    0.1611686  55.70 0.0003693005    1.068    0.064
         4  -7.6565    237.7022      4.2896   3.9511833620e+01   2.4702093969e+01     0.134967   0.08213915 -60.89 0.0002564238    1.557    0.358
         5  -8.5356    106.1561      2.1315   5.6719233223e+01   5.7502184219e+01    0.2070153    0.1560564  29.31 0.0004482837    1.180    0.153
         6 -11.0272    250.0024    240.9651   9.0993449069e+01  -9.8303308633e+00    0.6093977    0.2828126 -31.61  0.003517277    2.412    0.585
         7 -11.5808    237.9413    240.8629   9.2964760966e+01  -8.0822292139e+00    0.5554371    0.3224569  30.41  0.003353459    1.346    0.257
         8 -10.0050    209.4764    248.8878   9.8977600838e+01  -4.6875850357e+00    0.3491237    0.2568304 -10.26  0.002442267    1.517    0.341
         9  -9.7223    195.3671    248.7005   1.0136338099e+02  -2.4923539051e+00    0.3384353    0.2258411  13.13  0.002139501    1.672    0.402
        10 -11.0952    166.2412    248.9322   1.0643715512e+02   2.0482270674e+00    0.5536663    0.2956464  41.70  0.002311167    1.452    0.311
        11 -11.2815    174.2094    244.9747   1.0453225096e+02   1.3066024174e+00    0.6870757    0.4513817  63.66  0.004000798    2.123    0.529
        12 -11.4398    168.0778    241.8662   1.0520117399e+02   2.7018202392e+00     1.134456    0.3879415  33.47  0.004431122    3.490    0.713
        13  -8.6136     61.3907    249.9137   1.2428534585e+02   1.7105607396e+01    0.1883705    0.1297292  31.02  0.001268725    2.022    0.505
        14  -9.1896     18.3604    249.8719   1.3088546279e+02   2.1993430563e+01    0.2315432   0.08000722  47.82  0.001450738    2.075    0.518
        15  -8.3856    103.3927    242.1010   1.1663891088e+02   1.2697036159e+01    0.1388653   0.09618828  88.30 0.0004152831    1.599    0.375
        16  -9.9915    107.7898    237.5452   1.1541621504e+02   1.2785395736e+01    0.4297719    0.2437168  88.56  0.002290607    2.606    0.616
        17 -11.2065    246.2965    228.9444   8.9624449068e+01  -8.0413238633e+00    0.4671718    0.4260554  29.92  0.003480753    1.536    0.349
        18  -8.1952    155.2650    238.3632   1.0702890506e+02   5.2554260600e+00     0.111075   0.08634504  10.49 0.0003226039    1.644    0.392
        19  -9.5752    160.8366    234.8427   1.0556265919e+02   4.8590133635e+00    0.3008834    0.2010255  23.79 0.0006793588    1.684    0.406
        20  -9.3820    164.8319    233.8759   1.0470803786e+02   4.3438214731e+00    0.3246736    0.2378455  89.28  0.001890204    2.246    0.555
        21 -10.5907    169.4408    232.1811   1.0363656936e+02   3.8271434838e+00    0.4981306    0.4307108 -28.11  0.003486024    1.400    0.286
        22 -11.3756    164.5427    226.5173   1.0373350951e+02   5.4660735268e+00    0.5861071    0.3439244  32.38  0.002802202    1.620    0.383
        23 -11.0547     89.6109    222.7170   1.1718119467e+02   1.7966916743e+01    0.5954744    0.2957103 -53.06  0.003217858    2.485    0.598
        24 -10.3921    107.6480    223.3188   1.1391911335e+02   1.5195183204e+01    0.4641692     0.324017  23.55  0.002251279    2.028    0.507
        25 -10.3124    160.5423    227.4872   1.0460980598e+02   5.9897582572e+00    0.3986045    0.2319365  39.15  0.001563214    1.439    0.305
        26  -7.4798    144.6756    233.6733   1.0834373258e+02   7.6601113943e+00    0.1155478   0.08825016  15.69 0.0007049193    1.693    0.409
        27 -10.6990    236.8605    230.5744   9.1480280473e+01  -6.8077779750e+00     0.308789    0.2898637  38.40  0.001763159    1.584    0.369
        28 -10.2064    128.5584    231.5341   1.1101874363e+02   1.0571861445e+01    0.5503386    0.2444112  53.65  0.002675943    2.190    0.543
        29 -10.4893    128.5725    225.7376   1.1031446301e+02   1.1511637563e+01    0.3169824    0.2545879 -75.25  0.002115547    1.442    0.306
        30 -11.2050    125.5775    221.1471   1.1030540605e+02   1.2759600785e+01    0.4120566    0.3690162  29.53 0.0007556233    1.289    0.224
        31  -9.2152    114.8952    228.7090   1.1318916190e+02   1.3167050951e+01     0.272476    0.1669323 -57.69  0.001220429    1.906    0.475
        32 -10.1069    185.0193    226.8627   1.0002253705e+02   1.9841563787e+00     0.285829    0.2649318  40.62   0.00115765    1.210    0.173
        33  -9.1470    181.4912    227.4826   1.0075943350e+02   2.4875702992e+00    0.2590415    0.1913023 -30.92   0.00163729    1.613    0.380
        34  -8.2326    144.9550    228.8138   1.0766865976e+02   8.3633461266e+00    0.1919439    0.1247098  23.91  0.001054102    1.931    0.482
        35  -8.4785     72.9893    228.7009   1.2071860248e+02   1.9197928244e+01    0.2354896    0.1134798  79.21  0.001169731    2.726    0.633
        36  -7.9335    109.5310    232.4774   1.1457622215e+02   1.3356341015e+01    0.1175539   0.09456626  56.69  4.32228e-05    1.021    0.021
        37 -11.1440     99.3739    219.1879   1.1500320205e+02   1.7170976495e+01    0.6309749    0.4133804  52.01  0.003181395    1.274    0.215
        38  -7.8618      1.4848    226.4945   1.3240166924e+02   2.7592910332e+01    0.1006398   0.06794363  74.51 -9.622839e-06    1.012    0.012
        39  -8.6535     10.3395    225.3122   1.3096981987e+02   2.6972691943e+01   0.08576987    0.0716233 -67.36 0.0003522599    1.695    0.410
        40 -10.9798    245.9747    248.1591   9.2787916422e+01  -9.9744375092e+00    0.5422362    0.2990956  39.14  0.002743721    1.617    0.382
        41  -9.1958    191.9714    218.6283   9.7459845985e+01   1.9606762349e+00    0.3678767    0.2008275 -43.80  0.001936073    2.229    0.551
        42  -9.4333    157.7060    222.0591   1.0437156585e+02   7.2943109734e+00    0.2185491    0.1977859  14.44 0.0007049835    1.221    0.181
        43  -9.1614    148.7966    220.8881   1.0588458053e+02   8.9798216769e+00    0.2805358    0.1697319 -46.08   0.00118309    1.982    0.495
        44  -9.8451     19.9722    222.6626   1.2929039773e+02   2.6497341981e+01    0.2095096    0.1734716  45.39  0.001041624    1.549    0.354
        45  -7.8687     51.0355    222.2228   1.2403132800e+02   2.3140927979e+01    0.1376752   0.07694085  44.12 0.0005166078    1.630    0.387
        46 -10.6145    132.0339    217.6635   1.0863256780e+02   1.2301032429e+01    0.6423441    0.3402639 -66.87  0.003139835    2.647    0.622
        47  -9.1614     74.8885    219.4700   1.1955577820e+02   2.0602183528e+01    0.2956656    0.1685583  74.62  0.001441474    1.814    0.449
        48  -8.1405    183.2093    219.6215   9.9238664006e+01   3.3152889998e+00      0.17725    0.1001226  33.55 0.0003725998    1.586    0.369
        49  -9.3864     84.2029    216.8512   1.1758819751e+02   1.9797537218e+01    0.3045912    0.2032577 -46.93  0.001826296    2.110    0.526
        50  -9.1723    175.8142    216.9395   1.0020098317e+02   4.9813559500e+00    0.2776111    0.2056533 -32.36  0.001239106    1.586    0.370
        51  -9.9979    118.6908    215.1673   1.1086651644e+02   1.4899372917e+01    0.3889923    0.2811128  88.29  0.002335413    1.614    0.380
        52  -9.4301    112.1647    214.5097   1.1203766993e+02   1.6050855555e+01    0.3212126    0.2652523 -18.68  0.001371086    1.886    0.470
        53  -8.9241    115.8413    210.5288   1.1083077173e+02   1.6185573513e+01    0.2831464    0.1839308  82.60  0.001191157    1.982    0.495
        54  -7.9334    180.2990    215.2913   9.9097789344e+01   4.4523297412e+00    0.1250511    0.0900382  15.16 0.0001864321    1.562    0.360
        55  -7.4402    137.2931    215.3148   1.0730867817e+02   1.1827710215e+01    0.1168814   0.09604733  10.20 0.0003868135    1.597    0.374
        56 -10.3125     77.9541    211.1061   1.1818027522e+02   2.1740944619e+01    0.3863133    0.3063729 -69.02  0.002483127    1.371    0.270
        57  -9.6317    114.7715    221.6479   1.1239838764e+02   1.4386216521e+01    0.2680874    0.2371535  12.10  0.001053216    1.544    0.352
        58  -8.5592    185.9446    211.8269   9.7474140924e+01   3.9856145634e+00    0.2019017    0.1551978  16.21   0.00101574    1.326    0.246
        59 -10.2990    202.1141    209.4848   9.4059877858e+01   1.5080016238e+00    0.4773879    0.2758349  27.83  0.002473256    1.683    0.406
        60  -8.9354    134.4407    208.6807   1.0694094522e+02   1.3453299818e+01    0.3291264    0.1282765  43.67  0.001430655    2.208    0.547
        61 -10.2726    244.8385    209.6782   8.6496749178e+01  -5.6182447533e+00    0.3426917    0.1838109  31.86  0.001882851    1.622    0.383
        62  -9.7892    211.9970    202.8476   9.1063947343e+01   7.2711595908e-01    0.3926345    0.2642038 -55.83  0.002014574    2.442    0.590
        63 -10.1390    212.9960    207.2044   9.1662497052e+01  -5.1651143598e-02    0.3225438    0.2263768  17.52  0.001450845    1.360    0.265
        64  -8.1271    216.2845    204.2992   9.0543282495e+01  -2.1726885852e-01    0.1851379    0.1503139   2.63 0.0003534781    1.149    0.129
        65  -8.0539    162.4827    208.4229   1.0141598239e+02   8.6435153717e+00    0.1309886    0.1102602  30.20 0.0003339816    1.122    0.109
        66  -9.9142     11.5295    207.3813   1.2985535221e+02   3.0148951910e+01    0.2068111    0.1803731  28.56  0.001432009    1.774    0.436
        67  -8.7101     99.4649    206.4908   1.1353245539e+02   1.9493678526e+01    0.2798138    0.1531798  71.20  0.001082372    2.369    0.578
        68  -8.5114    235.5478    205.9323   8.7411735699e+01  -3.6670813928e+00    0.1801781   0.09572842  -6.52 0.0008083683    2.641    0.621
        69 -10.1999    123.9933    205.9933   1.0862921240e+02   1.5682385393e+01    0.1817153    0.1552815  56.92            0    1.010    0.010
        70  -9.2889    143.5524    216.5832   1.0628255362e+02   1.0564227017e+01    0.2407175    0.2193689 -49.21   0.00107991    1.300    0.231
        71  -8.6680     56.4749    205.4599   1.2168539337e+02   2.5639532261e+01    0.2009166   0.09506843 -86.14  0.001020671    2.312    0.567
        72  -9.6450    248.6792    205.1102   8.5006970797e+01  -5.6712983207e+00    0.2741924    0.1597352  41.55  0.001213547    1.727    0.421
        73  -9.1079    130.3692    201.6547   1.0674521853e+02   1.5404674087e+01    0.2748638    0.2547194  53.98  0.001802592    1.079    0.073
        74 -10.1427    250.1352    198.7022   8.3558119502e+01  -5.1172632981e+00    0.3838837    0.1811692 -29.14   0.00153726    2.078    0.519
        75  -9.4735    164.6107    198.9811   9.9468068841e+01   9.8330796239e+00    0.3195542    0.2240969 -20.50  0.001402202    1.912    0.477
        76  -8.0907     33.9848    207.0000   1.2592211501e+02   2.7951075691e+01     0.163406   0.05557803  36.84 0.0008014526    2.936    0.659
        77  -8.8116    150.1775    199.5345   1.0244082300e+02   1.2332815598e+01    0.4112769    0.2100412  66.13  0.001384304    4.468    0.776
        78  -9.2245     89.0066    199.3055   1.1474837114e+02   2.2444996513e+01    0.2748886     0.180827  80.20 0.0009583965    1.612    0.380
        79 -11.1653     99.3332    227.0898   1.1585416348e+02   1.5787376635e+01    0.5542525    0.4898458  73.14  0.002830905    1.148    0.129
        80 -11.2776    173.6272    195.0649   9.7008535754e+01   8.8439864335e+00    0.6191317    0.4823359 -49.34  0.002543936    1.492    0.330
        81 -10.1378    180.3030    192.7980   9.5285389942e+01   7.9865463687e+00     0.552418    0.2711216 -52.72  0.002185892    2.818    0.645
        82  -9.7983    126.4227    197.2005   1.0689487516e+02   1.6901999364e+01    0.3021099    0.2533553  19.47  0.001085951    1.465    0.317
        83  -9.3342    124.5103    192.2390   1.0655179691e+02   1.8171560397e+01    0.2727182    0.2288394  83.17 0.0005937249    1.240    0.194
        84  -8.6466    112.6510    197.7193   1.0977507814e+02   1.9093024245e+01    0.2645094     0.160075  71.57  0.001292008    2.098    0.523
        85  -8.2004     13.4972    197.9852   1.2897272650e+02   3.1770694732e+01    0.1587676   0.06356369  77.09 0.0008095489    2.463    0.594
        86  -8.6002    132.0115    195.3788   1.0547995175e+02   1.6284516290e+01      0.24669    0.1892735 -38.86 0.0009609639    1.583    0.368
        87  -9.1088    135.5971    193.2887   1.0442073542e+02   1.6050028516e+01    0.3021995     0.200642  69.23  0.001513008    1.886    0.470
        88  -8.5515     66.6513    194.8577   1.1870690300e+02   2.6446933424e+01    0.2576532    0.1240421  82.44  0.001133884    2.907    0.656
        89  -9.3846    186.2161    191.7623   9.3934702026e+01   7.0584275125e+00    0.4290971    0.2088278 -33.45  0.001889701    2.410    0.585
        90  -8.3885     44.0592    193.8153   1.2302211478e+02   2.9432763177e+01    0.2457256    0.1114575  78.78  0.001169294    2.605    0.616
        91  -8.7717    162.1679    191.7029   9.8720796521e+01   1.1534810374e+01    0.3696772   0.09502865 -41.70  0.001146457    4.761    0.790
        92  -8.5429     77.8119    193.0424   1.1627225938e+02   2.5302119034e+01      0.21075    0.1200858  77.61   0.00106435    2.047    0.512
        93  -8.4331    224.2745    192.7257   8.6935974540e+01   4.0939596801e-03    0.2156167   0.09189887  32.17 0.0008968292    2.423    0.587
        94  -8.1209    113.3227    192.2980   1.0888099240e+02   2.0036213734e+01    0.1204475    0.1041561  -0.01 0.0004594234    1.624    0.384
        95  -8.0667    186.2641    201.3484   9.5638101279e+01   5.5244917169e+00    0.1304306   0.09570441   5.37 0.0003564656    1.611    0.379
        96  -9.6781    138.0274    179.7442   1.0168538573e+02   1.8209189726e+01    0.4658884    0.2315248 -54.21  0.002045489    2.221    0.550
        97  -8.6477    144.3194    186.7085   1.0154120561e+02   1.5723832771e+01    0.2157907    0.1857836 -77.99 0.0004098013    1.315    0.239
        98  -8.1454    136.6886    183.3335   1.0258060030e+02   1.7753103334e+01    0.2191995    0.1831315  60.64  0.000718082    1.164    0.141
        99  -8.9425    138.8064    189.5971   1.0316827558e+02   1.6174873332e+01    0.2344849    0.1993685 -71.68  0.001390341    1.302    0.232
       100  -9.4590    140.5596    184.9321   1.0203072231e+02   1.6744512742e+01    0.4786972    0.3160889  17.71  0.002208988    2.277    0.561
       101  -9.4639    203.5989    188.3566   8.9936068662e+01   4.3740680161e+00    0.3940345    0.3697356 -80.55  0.001857249    1.460    0.315
       102 -10.5623    197.4563    182.5863   9.0001741644e+01   6.4356906318e+00    0.6767925    0.4617685 -27.78  0.003395893    1.565    0.361
       103 -10.4187    211.0526    183.1154   8.7503413656e+01   3.8009953120e+00    0.7287507    0.4407826 -17.10  0.003377169    1.978    0.495
       104 -10.7903    204.7454    176.2094   8.7320754319e+01   6.0759980642e+00    0.5626047    0.4216179  16.57  0.002335417    1.352    0.260
       105 -10.3523    207.8984    170.2206   8.5481664788e+01   6.4366095659e+00    0.5531819     0.359381  12.28  0.002583056    1.918    0.479
       106 -10.6597    214.4365    167.7781   8.3724230923e+01   5.5631310011e+00    0.9547033    0.3839026  31.73  0.003322378    3.265    0.694
       107  -9.1574    156.0709    188.0154   9.9327012985e+01   1.3321242522e+01    0.2854457    0.2003839 -58.13  0.000972947    1.686    0.407
       108  -8.6709    129.4473    188.5204   1.0495055576e+02   1.8035500184e+01    0.2175257    0.1275128 -68.12 0.0007585321    2.197    0.545
       109  -8.0084     87.3043    189.6453   1.1392273478e+02   2.4631267394e+01    0.1349636   0.08526767  73.75 0.0007040356    1.713    0.416
       110  -9.1005    120.7215    186.7904   1.0651833948e+02   1.9881648602e+01    0.4055141    0.1830931 -62.58  0.001688825    2.716    0.632
       111  -9.9561     95.2511    187.1439   1.1194235646e+02   2.3947138988e+01    0.5757616    0.2423846  58.36  0.002071528    3.041    0.671
       112  -8.6076     55.0967    187.2260   1.2023701764e+02   2.9477358894e+01    0.3312192     0.145901  77.68  0.001345399    3.441    0.709
       113  -8.5901     34.7640    188.1607   1.2433697925e+02   3.1612683476e+01    0.2059373    0.0842325  67.91 0.0009452997    2.801    0.643
       114 -10.0082    230.6921    186.1935   8.4508849788e+01  -2.0416598259e-01    0.4225673    0.2560093  58.67   0.00193356    2.715    0.632
       115  -9.1869    148.8534    186.1965   1.0050802412e+02   1.4989092534e+01    0.2663843    0.1943467 -45.89  0.001442561    1.507    0.336
       116  -9.7611    149.5192    164.5516   9.6386203943e+01   1.9042598865e+01    0.4154004    0.3231142  78.84  0.001655572    1.635    0.388
       117  -9.3889    147.8509    180.8324   9.9783673483e+01   1.6185054620e+01    0.3041643    0.2355772 -83.55 0.0009807126    1.670    0.401
       118 -10.7824    148.9290    174.8928   9.8481859493e+01   1.7123099837e+01    0.6863759    0.3403735 -47.89  0.002660646    2.158    0.537
       119  -9.1060    108.7431    185.3443   1.0883995893e+02   2.2173911385e+01    0.3697587    0.2175674  76.06  0.001650846    2.466    0.595
       120  -8.9818    109.6048    180.2888   1.0790268177e+02   2.3064621850e+01    0.2983585    0.2237926   9.46  0.001528229    2.115    0.527
       121  -8.3955    246.4758    185.4838   8.1608304911e+01  -2.8211938021e+00     0.129928     0.107338   5.07 0.0008097827    1.030    0.029
       122  -8.2080     66.6042    185.3170   1.1768986054e+02   2.8414241717e+01    0.1371432   0.07704552  68.16 0.0003206483    1.864    0.463
       123  -8.9721    178.5003    176.5380   9.2595502366e+01   1.1106475821e+01    0.1978489    0.1807337  32.14 4.028086e-05    1.029    0.028
       124  -9.8950    174.0000    182.9910   9.4747524701e+01   1.0840165006e+01    0.3268348    0.2303351 -50.25  0.001368872    1.633    0.388
       125  -9.5794    175.0178    179.4718   9.3874108251e+01   1.1263675139e+01    0.3318561     0.211845  18.58  0.001497446    2.084    0.520
       126  -8.8485    165.0516    183.3659   9.6647807813e+01   1.2476852651e+01    0.2538559    0.1930216 -18.73 0.0008124357    1.617    0.382
       127  -8.3304     74.6099    184.2768   1.1590760827e+02   2.7552954948e+01    0.2023111    0.1238174  73.24  0.001078546    1.727    0.421
       128 -10.3325     13.7543    182.5666   1.2793605367e+02   3.4828821236e+01     0.332993      0.27372 -10.77  0.002153992    2.189    0.543
       129  -8.3540    217.9992    182.7252   8.6128794912e+01   2.5789594045e+00    0.1870281    0.1598399  14.82 0.0004152024    1.013    0.013
       130  -8.5621     44.3353    182.8671   1.2198077330e+02   3.1655956122e+01    0.2017705    0.1310505  58.05  0.000885691    1.386    0.279
       131  -9.6651    231.9389    178.2835   8.2696445969e+01   7.0180693428e-01    0.4922674    0.1769222 -30.41  0.001908495    2.921    0.658
       132  -9.6967    183.2972    180.8174   9.2456010360e+01   9.4347017690e+00    0.2721468    0.2159119  44.40   0.00110741    1.211    0.174
       133  -8.9103    157.0477    181.0791   9.7892350888e+01   1.4411071510e+01    0.2123064    0.1922903  34.89 0.0004917412    1.047    0.045
       134  -9.6936     96.5226    178.3961   1.1045929686e+02   2.5564880834e+01    0.4181617    0.2987384  15.61    0.0021348    2.212    0.548
       135  -8.5292    104.2189    179.2846   1.0891826826e+02   2.4154400863e+01    0.2997633    0.1445382 -71.08 0.0009189618    2.749    0.636
       136  -9.7233    105.5645    174.9428   1.0796559780e+02   2.4843652440e+01    0.4371424    0.2585269  71.30  0.001837108    2.281    0.562
       137  -8.7532    191.6105    177.8221   9.0211381079e+01   8.3395948362e+00    0.2482847    0.1315103 -50.64 0.0006875037    2.457    0.593
       138  -9.5384    193.3870    173.1836   8.8927030154e+01   8.7767204579e+00    0.3206467    0.2146187  13.81 0.0007273906    1.864    0.464
       139  -9.0164    170.3895    177.2629   9.4402411030e+01   1.2553399377e+01    0.3293373    0.1688143 -31.18  0.001343691    2.545    0.607
       140  -8.3312    120.0367    178.4778   1.0535704888e+02   2.1668560529e+01    0.2042352    0.1266963  41.00 0.0006231529    1.553    0.356
       141  -8.4618     12.3531    177.4567   1.2785097986e+02   3.6004390857e+01    0.2173477    0.1335861 -61.08   0.00112958    1.724    0.420
       142  -8.2784    129.4491    177.2511   1.0310925467e+02   2.0257554070e+01    0.1894242    0.1303759 -70.65 0.0009433315    1.726    0.421
       143  -8.7618     87.6381    177.1974   1.1222173286e+02   2.7176175339e+01    0.2804809    0.1644188  40.39  0.001452837    1.708    0.414
       144  -9.2816     76.8980    175.8790   1.1437782837e+02   2.9014367310e+01    0.3912387    0.1802153  57.03  0.001749281    2.383    0.580
       145  -8.4333     59.9587    177.0288   1.1814861311e+02   3.1024017684e+01    0.2156511    0.1225628  70.54  0.001126351    1.861    0.463
       146 -10.1511    183.7085    173.4817   9.0930302285e+01   1.0624640710e+01    0.5618291    0.3054972 -22.51  0.002237829    2.720    0.632
       147 -10.6539    161.7553    171.4069   9.5081264312e+01   1.5317665536e+01    0.5416702    0.3715506 -55.42  0.002673478    1.685    0.406
       148  -9.4693    159.1999    175.6009   9.6425934316e+01   1.5023248826e+01    0.3005457    0.1948236  48.47  0.001220151    1.481    0.325
       149  -8.9253     21.0610    174.6133   1.2593208617e+02   3.5805523591e+01    0.2582605    0.1754047  61.06   0.00176893    1.327    0.247
       150  -8.1636      3.9761    174.9761   1.2929189167e+02   3.7226570291e+01    0.2294774    0.0702704  65.45 0.0009383418    3.964    0.748
       151  -8.4321    218.4775    174.0736   8.4284318794e+01   3.8046396641e+00    0.1936804    0.1294774 -30.09 0.0003806913    1.497    0.332
       152  -8.1664     93.4753    174.4810   1.1056090713e+02   2.6868091852e+01    0.1327638    0.1162582  78.28 0.0008098143    1.016    0.015
       153  -8.5533     34.7829    174.1636   1.2311453004e+02   3.4539468055e+01    0.2124844   0.08946849  67.79 0.0009482137    2.859    0.650
       154 -10.0730    176.8251    171.2055   9.1883025540e+01   1.2387056113e+01    0.3821175    0.2377555 -22.45  0.001251514    2.114    0.527
       155  -8.8284    134.9810    171.9393   1.0097448507e+02   2.0321636938e+01    0.2293007    0.1654411  74.33 0.0009942257    1.735    0.423
       156  -7.8405     44.6800    172.3112   1.2087144822e+02   3.3862370277e+01    0.1274765   0.07538802  71.35 0.0003138057    1.647    0.393
       157  -9.2390    121.8447    169.5477   1.0346412939e+02   2.3194212078e+01    0.4377501    0.2669403 -83.21  0.001498203    2.628    0.620
       158  -8.8691    122.3498    163.3916   1.0225975561e+02   2.4399603346e+01      0.34194    0.2389126  15.78  0.001577457    2.161    0.537
       159  -8.7916     14.9314    171.0060   1.2687528984e+02   3.7124031684e+01    0.2456111     0.153276  25.41  0.001566307    2.218    0.549
       160  -8.8481     80.4595    170.5187   1.1288020437e+02   2.9666631071e+01     0.212494    0.1291927  25.88  0.001032272    2.286    0.563
       161  -8.6149     55.3338    170.1673   1.1835849142e+02   3.3080288627e+01    0.2454398    0.1254517  62.94 0.0009417722    2.115    0.527
       162  -8.7695    247.7573    169.0089   7.8015957633e+01  -7.8775517429e-01     0.173139    0.1018564 -28.31 0.0005786588    1.586    0.369
       163  -8.7516    198.4999    167.8436   8.6812151380e+01   8.6744590557e+00    0.2994971    0.1705051  28.31  0.001301092    1.978    0.495
       164  -9.6211    192.1071    164.8392   8.7452380111e+01   1.0466921099e+01    0.6710364    0.2456914 -30.37  0.002103652    3.961    0.748
       165  -8.7680    111.7529    166.4144   1.0520014760e+02   2.5617349298e+01    0.4523081    0.2017615 -67.40  0.001643382    3.216    0.689
       166  -9.3944     99.4518    166.1848   1.0795886532e+02   2.7712162811e+01    0.4012701    0.2609207  78.53  0.001304347    1.931    0.482
       167  -8.2891      3.3475    167.3155   1.2891027133e+02   3.8867809726e+01    0.1041393   0.07105638 -56.25 0.0007047653    1.723    0.420
       168 -11.0214    157.7547    163.9034   9.4456340932e+01   1.7548409654e+01    0.6130334    0.4723262  25.22  0.003141205    1.416    0.294
       169  -8.9578    139.3082    165.0858   9.8751058840e+01   2.0903008085e+01    0.3764913    0.2479745 -84.12  0.001460293    2.482    0.597
       170  -9.2177    144.5507    159.6446   9.6517527693e+01   2.1003873127e+01    0.2987397    0.1856646  40.92 0.0004785824    1.570    0.363
       171  -9.6098    139.1449    159.1051   9.7628761397e+01   2.2164368883e+01    0.3793593    0.2392732  20.37  0.001573181    2.406    0.584
       172 -10.4679    150.6219    159.4224   9.5117227152e+01   1.9853418801e+01    0.4357019    0.3641701  40.69  0.002341885    1.157    0.136
       173  -9.3565     79.7261    164.0277   1.1212908268e+02   3.1197534236e+01    0.4050159    0.2191261  83.09  0.001676806    2.830    0.647
       174  -8.3744     37.8269    164.7981   1.2156357544e+02   3.6244336459e+01    0.1710918    0.1150082  74.36 0.0005045405    1.349    0.259
       175  -9.2366      9.1268    161.1273   1.2729878917e+02   3.9715564076e+01    0.3860002     0.145596  74.22  0.001699417    3.235    0.691
       176  -8.5096    177.8448    161.2590   8.9620615369e+01   1.4000935418e+01    0.2315086    0.1623327  89.66 0.0009397882    2.731    0.634
       177  -9.0183     93.1669    160.6237   1.0851285756e+02   2.9932066683e+01     0.339551    0.2108833  82.36  0.001553332    2.160    0.537
       178  -8.4808     31.5024    160.4917   1.2249876615e+02   3.7837656819e+01    0.2221618   0.09523462 -85.77  0.001021885    2.423    0.587
       179  -8.3808    205.6327    159.6827   8.3669017178e+01   8.6300222194e+00    0.2172725    0.1552761   6.94 0.0008801252    1.634    0.388
       180  -8.4924     23.2985    159.7403   1.2419974700e+02   3.8787848389e+01    0.2902038    0.1074816  67.05  0.001137633    3.886    0.743
       181  -9.2517    105.7309    158.0647   1.0515058501e+02   2.8453681259e+01    0.4093538    0.2561976  80.15  0.001358035    2.337    0.572
       182  -8.7336    106.2257    153.1774   1.0416168005e+02   2.9450819345e+01    0.3132703     0.223843   2.11  0.001404978    2.475    0.596
       183  -8.5229    167.8427    157.7102   9.0990949917e+01   1.6715213567e+01    0.2744572    0.1966812 -73.97  0.001216018    2.109    0.526
       184  -9.8830    212.9328    155.1202   8.1260557061e+01   7.9242057385e+00    0.3340558    0.2997256 -64.20  0.001169375    1.455    0.313
       185  -8.2293    178.0433    156.0290   8.8456756368e+01   1.4933836444e+01    0.2401484    0.1755625   7.87  0.001074461    1.742    0.426
       186  -9.3079    119.3837    155.4627   1.0147734289e+02   2.6636998315e+01    0.3779371       0.2357 -82.33  0.001561575    2.483    0.597
       187  -8.6145    119.9897    150.8339   1.0044346363e+02   2.7535750288e+01    0.2320198     0.172574   6.87  0.001019404    2.049    0.512
       188  -9.7384     81.9070    153.6667   1.1004968079e+02   3.3201749910e+01    0.5983387    0.2800062 -72.07  0.002447586    2.535    0.606
       189  -8.6029     62.2013    160.7895   1.1568132227e+02   3.4297116299e+01    0.2196564    0.1113258  71.85 0.0009357676    2.714    0.632
       190  -9.1454    133.7387    153.2898   9.7706269964e+01   2.4425134645e+01    0.3818218    0.2609346 -85.77  0.001457396    2.206    0.547
       191  -9.5190    133.5170    148.4488   9.6765909454e+01   2.5500377690e+01    0.3255226    0.2383481 -12.24  0.001454171    2.047    0.511
       192  -9.8817     68.8592    145.1217   1.1185811046e+02   3.6988554403e+01    0.3610167    0.2664246  78.43  0.001916343    1.399    0.285
       193 -10.0747     70.0932    141.2304   1.1092975738e+02   3.7721810027e+01    0.4319943    0.2478782  84.08  0.001878423    2.480    0.597
       194  -8.6835    205.3377    152.5210   8.2139983195e+01   9.9101302520e+00    0.2496911    0.1321524 -35.69 0.0005646366    1.884    0.469
       195  -8.8305    168.8212    152.2641   8.9604098674e+01   1.7566820532e+01    0.2833025    0.1942064 -11.35  0.001014135    2.080    0.519
       196  -9.6268    185.5045    163.9804   8.8610429845e+01   1.1950114289e+01    0.3213696    0.2315938  -3.93  0.001042709    1.758    0.431
       197  -8.4431     98.4911    150.9753   1.0561803267e+02   3.1234932360e+01    0.1952379    0.1172859 -84.92 0.0008084871    2.408    0.585
       198  -8.2477     91.2981    151.6324   1.0746461684e+02   3.2237858557e+01    0.1454773    0.1000193  81.16 0.0007031511    1.730    0.422
       199  -8.7817     28.4759    149.7040   1.2206281116e+02   4.0525851688e+01    0.3275309    0.1438787  76.58  0.001394453    3.103    0.678
       200  -9.6762    190.0106    146.2262   8.3771702624e+01   1.4238711168e+01     0.380283    0.2063326 -28.64  0.001239926    2.090    0.522
       201  -8.5565    220.8392    149.1387   7.8433996357e+01   7.3168567405e+00    0.2019895    0.1951206 -37.61  0.000634103    1.230    0.187
       202  -9.1723     39.5432    147.6683   1.1927191122e+02   3.9887052430e+01    0.3746403    0.1859593  69.62  0.001745464    2.515    0.602
       203  -9.9263     56.8039    146.2294   1.1496472564e+02   3.8271330434e+01    0.5656362    0.2670135  68.93  0.002183893    3.452    0.710
       204 -10.1859    149.1887    145.3930   9.2470396439e+01   2.3013803489e+01    0.5231816    0.3461631 -86.16  0.001766876    2.825    0.646
       205  -8.2229    142.8364    146.9851   9.4281995764e+01   2.3970270545e+01     0.240294     0.170224 -19.70  0.001010586    1.949    0.487
       206  -9.8295    107.3970    145.3752   1.0241409887e+02   3.0993872035e+01    0.5762487     0.323439  71.91  0.002077455    3.291    0.696
       207  -9.6578    108.0255    137.6819   1.0072258057e+02   3.2621118029e+01    0.5397848    0.3411445   7.43  0.001964382    3.536    0.717
       208  -8.2046    195.4919    146.5132   8.2723742208e+01   1.3023048883e+01     0.209755    0.1396117 -46.58 0.0008716063    1.642    0.391
       209  -9.6966    196.1184    142.8560   8.1749562621e+01   1.3549069764e+01    0.2771978    0.2558759 -18.04   0.00152256    1.060    0.057
       210  -8.7033     13.1645    146.3140   1.2518588216e+02   4.2614623802e+01     0.211744    0.1249593  60.10  0.001180194    1.681    0.405
       211 -10.4539     67.9611    153.1962   1.1329399476e+02   3.5259760520e+01    0.5603976    0.2337729 -71.88  0.002110365    2.632    0.620
       212  -8.7357    218.7376    143.6137   7.7554904427e+01   8.6578012729e+00    0.2429507    0.1824628  52.80 0.0009625832    1.508    0.337
       213  -8.5368    165.3992    144.2714   8.8567061552e+01   1.9857094801e+01    0.2072442    0.1417786 -53.55 0.0004917682    1.632    0.387
       214  -9.2709    125.2056    142.8997   9.7582056567e+01   2.8302049690e+01    0.4917165    0.3004708 -85.43  0.001691565    3.250    0.692
       215  -9.4421     88.0471    143.8127   1.0689440562e+02   3.4524747451e+01    0.2904112    0.2121133 -89.26  0.001022961    1.510    0.338
       216  -8.3886    206.7921    143.1388   7.9708501757e+01   1.1230187331e+01     0.208874     0.165487  14.43  0.001057072    1.323    0.244
       217  -9.0327    230.3148    149.4961   7.6796351985e+01   5.3720914491e+00    0.3792779    0.2189527 -49.09  0.001653635    2.264    0.558
       218  -8.8204      2.8245    142.4774   1.2715608847e+02   4.4237206120e+01    0.2831451    0.1165441  83.47  0.001362365    2.535    0.606
       219  -8.2850     99.7486    146.1802   1.0443945459e+02   3.2110343019e+01    0.1863076    0.1683594 -17.55 0.0007572863    1.373    0.272
       220  -8.8431     40.1624    140.6482   1.1824721477e+02   4.1425361517e+01    0.2781378    0.1619761 -25.30  0.001226645    3.599    0.722
       221  -9.3561     39.2415    136.4382   1.1792116254e+02   4.2488632728e+01    0.3022375    0.1605264  61.65  0.001220792    2.204    0.546
       222  -9.4046     23.4055    138.2594   1.2200023886e+02   4.3565019526e+01    0.4574346    0.1918708  72.21  0.001829998    3.669    0.727
       223  -8.0351     81.3116    139.6655   1.0784228221e+02   3.6497876092e+01    0.1432547    0.1000093  79.83 0.0006087529    1.681    0.405
       224  -7.9440    182.5057    138.4977   8.3525832442e+01   1.7298266373e+01    0.1543323    0.1414837   6.38 0.0008093618    1.081    0.075
       225 -10.2677    150.4965    136.3050   9.0108019178e+01   2.4635240551e+01    0.5784438    0.3009028  28.91  0.002043071    2.800    0.643
       226  -8.7703     89.0875    137.4247   1.0546020670e+02   3.5834136811e+01    0.2790923    0.2091422  -4.08  0.001356638    2.121    0.529
       227  -8.8520    208.0771    136.5358   7.7901802807e+01   1.2108267665e+01    0.3467515    0.2446266  84.12  0.001423189    2.643    0.622
       228  -8.2523    197.3258    137.6927   8.0287773304e+01   1.4222778771e+01    0.1463932    0.1220424 -79.51 0.0003149725    1.651    0.394
       229  -8.8014    125.3301    136.0818   9.6081462588e+01   2.9779503174e+01    0.3190448    0.2331915   7.67   0.00136118    2.060    0.515
       230  -9.0824     57.7587    136.3075   1.1325176396e+02   4.0450662907e+01    0.2919444    0.2049345 -11.46  0.001472565    2.464    0.594
       231  -9.0768    231.9200    133.3300   7.2774312399e+01   7.6353806697e+00    0.2592397    0.1864366 -37.77  0.001314442    1.367    0.268
       232  -9.2952     50.0545    155.4470   1.1778136031e+02   3.6972273502e+01    0.3780036    0.1791685  61.96  0.001637973    2.536    0.606
       233  -9.5482     69.2160    133.8682   1.0991551352e+02   3.9553246223e+01    0.2403591    0.1776356 -14.81  0.001215722    2.117    0.528
       234  -9.2430    132.4498    132.0864   9.3433086430e+01   2.9255017986e+01    0.3764559    0.2503243 -76.95  0.001191778    2.280    0.561
       235  -9.7953     83.5843    132.0957   1.0586293616e+02   3.7916404561e+01     0.408783    0.2766488  81.40  0.001237483    1.899    0.473
       236  -8.9752    226.9460    131.8018   7.3283905448e+01   8.9124999237e+00    0.2352896    0.1900958   7.16  0.001236818    1.268    0.211
       237  -8.9889    143.1302    131.7281   9.0768156055e+01   2.7145500285e+01    0.3296945    0.2326297 -77.35  0.001398836    2.062    0.515
       238  -9.1422     23.3404    130.5612   1.2112643143e+02   4.5323160862e+01    0.4364906    0.1732742 -41.97  0.001749863    3.997    0.750
       239  -9.2893     12.8198    129.4863   1.2359591993e+02   4.6406054650e+01    0.3831419    0.1704466  75.98  0.001744931    2.888    0.654
       240  -8.8502    168.8331    130.2028   8.4477772335e+01   2.1917177356e+01    0.2607338    0.1753109 -83.12  0.000949154    2.899    0.655
       241  -9.1981    153.0290    129.7137   8.7950522249e+01   2.5470654924e+01    0.3145514    0.1929105 -68.37  0.001099836    2.688    0.628
       242  -9.7794     99.2154    128.1439   1.0098004431e+02   3.6326453391e+01    0.5034319    0.3185365  89.24  0.001879328    2.581    0.613
       243  -9.2076     73.5928    129.7999   1.0804751632e+02   3.9904891837e+01    0.2675851    0.1888106  83.97 0.0009290409    1.656    0.396
       244  -9.1720     40.7813    129.9105   1.1663002752e+02   4.3842403125e+01    0.2787519    0.1633801 -18.17  0.001203251    3.694    0.729
       245  -8.8096    143.7767    126.8069   8.9431701669e+01   2.8058557968e+01    0.2573166    0.1710053  -0.23 0.0009474549    2.770    0.639
       246  -9.3920    118.1104    125.5078   9.5496705381e+01   3.3520774950e+01    0.4953465    0.3150007  78.66  0.001873577    2.816    0.645
       247  -9.8977     59.6242    124.6218   1.1082947475e+02   4.2956511271e+01    0.5843219    0.3099036  79.79  0.002206064    3.501    0.714
       248  -9.3114    132.9032    125.1752   9.1689026387e+01   3.0671866072e+01     0.428872    0.2706014  28.52  0.001796425    1.982    0.496
       249 -10.2386     44.0218    122.9260   1.1472941911e+02   4.5134475219e+01    0.6949094    0.3521451  81.48  0.002553896    3.258    0.693
       250 -10.2507     28.4057    122.2920   1.1877338150e+02   4.6787448849e+01    0.7326123    0.3168141  77.74  0.002506571    4.872    0.795
       251  -8.7331    179.5601    122.9759   8.0335547414e+01   2.0929662311e+01      0.53189    0.2627386 -23.71  0.001747514    3.045    0.672
       252  -9.3539     85.1622    122.2029   1.0346065651e+02   3.9981861485e+01    0.4665528    0.3053687  11.45  0.002050381    2.525    0.604
       253  -8.0138    153.3000    123.3635   8.6318164449e+01   2.6732882762e+01    0.1609452    0.1228443  -2.84  0.000702011    1.724    0.420
       254  -9.5014     13.3202    120.7025   1.2248470889e+02   4.8361272219e+01    0.4036676    0.1488047 -44.51  0.001727447    3.494    0.714
       255  -8.5214    172.4474    121.4970   8.1497352687e+01   2.2832699225e+01     0.153909    0.1504727 -23.30 0.0005321887    1.034    0.033
       256  -8.2703    158.3141    121.6636   8.4721574866e+01   2.5977454396e+01    0.1583664    0.1251841 -81.34 0.0007046761    1.692    0.409
       257  -9.7428    142.1695    119.9472   8.8116216845e+01   2.9862640419e+01    0.4729821    0.2993115 -67.01  0.001552334    2.293    0.564
       258  -9.0621    107.5788    120.1556   9.6991079366e+01   3.6689907535e+01    0.3377717    0.2481805 -47.43  0.001065635    1.303    0.232
       259  -9.5383    100.2210    119.3698   9.8772825588e+01   3.8173120717e+01    0.6077641    0.3464862  20.84  0.002324762    2.923    0.658
       260  -9.1183    131.2415    119.0255   9.0591808756e+01   3.2354636904e+01    0.3699206    0.2463579 -88.72  0.001338178    2.741    0.635
       261  -9.2868    119.3446    119.3035   9.3702002279e+01   3.4672584938e+01    0.4924158    0.2698372  22.46  0.001680224    3.320    0.699
       262  -9.1402     70.9429    119.8396   1.0685897271e+02   4.2607513529e+01    0.3525135    0.2110558 -86.87  0.001520777    2.393    0.582
       263  -9.4916      2.7553    117.1111   1.2478266559e+02   4.9882624234e+01    0.4581494    0.1870486  81.86  0.001986829    3.216    0.689
       264  -9.1677      2.4170    109.8242   1.2406670638e+02   5.1542459002e+01    0.2914788    0.1424214 -44.55  0.001608124    2.232    0.552
       265  -8.3179    159.4969    116.9965   8.3245821634e+01   2.6666137798e+01     0.216684       0.1379 -15.09 0.0008078107    2.366    0.577
       266  -8.2139    192.9925    116.4758   7.5879340079e+01   1.9081534200e+01    0.2070082    0.1416599  80.34 0.0008082272    2.418    0.586
       267  -9.6479    109.8422    114.6038   9.5057563059e+01   3.7534004719e+01    0.4683122    0.2902063 -80.41  0.001405683    2.951    0.661
       268  -9.7212     79.5139    113.1669   1.0307870382e+02   4.2945740519e+01    0.4414805     0.292241  86.96   0.00164965    2.209    0.547
       269  -9.6766     92.8165    112.7084   9.9250949816e+01   4.0960835588e+01    0.4444174    0.2949858 -81.63  0.001571271    2.139    0.533
       270  -8.1164     58.5957    114.7155   1.0929644222e+02   4.5410346890e+01    0.1356736   0.09586832 -30.31 0.0005508492    1.790    0.441
       271  -9.1855    142.4819    111.9656   8.5971358614e+01   3.1489761976e+01    0.5281515    0.2624686  29.83  0.001730824    3.117    0.679
       272  -8.6490    131.4340    113.3704   8.9101624297e+01   3.3545515475e+01    0.3336788      0.21181  15.03  0.001230455    2.730    0.634
       273  -9.1931    133.5040    109.9891   8.7688230189e+01   3.3840788246e+01    0.3146717    0.1470487 -49.49 0.0007221501    2.196    0.545
       274  -9.1583    122.2203    113.0984   9.1404812319e+01   3.5484893964e+01    0.2811266    0.2007651  74.71  0.001133741    1.979    0.495
       275  -9.9823     66.0547    110.3563   1.0630357088e+02   4.5488398231e+01    0.4141585    0.2625189 -88.80  0.001867127    2.200    0.545
       276  -8.5635     67.1173    105.0160   1.0484649571e+02   4.6594804936e+01    0.2359789    0.1839655   5.78  0.001283142    1.691    0.409
       277 -11.0188     14.4805    109.0267   1.2070871222e+02   5.0943215502e+01    0.5908065    0.2650885 -67.73  0.002251977    1.671    0.402
       278  -9.5373     59.0020    109.7317   1.0820398941e+02   4.6530125832e+01    0.1813153    0.1661563 -69.39 0.0005921361    1.072    0.067
       279  -9.7817     60.8249    106.3758   1.0698533038e+02   4.7089998994e+01    0.2725643    0.2126778  -4.24   0.00146738    1.724    0.420
       280  -9.7360    123.3793    107.3009   8.9588558475e+01   3.6524739161e+01    0.4743681    0.2260305  33.28  0.001674694    2.720    0.632
       281 -10.2067    110.9347    106.4836   9.2707012588e+01   3.9152121856e+01    0.5452871    0.3178709  27.34  0.001907267    2.292    0.564
       282  -9.9627    109.2556     99.3584   9.1266724563e+01   4.1050096180e+01    0.6964774    0.3958516  65.99  0.002433742    3.290    0.696
       283 -10.2513     45.6534    102.4876   1.1067615414e+02   4.9742795214e+01    0.7216088    0.3772719  71.87  0.002700096    4.007    0.750
       284 -10.6337     23.1487    103.0049   1.1738520221e+02   5.1681824926e+01     0.663183     0.331144  74.35  0.002861029    3.276    0.695
       285 -10.2470     21.6564     92.3879   1.1606767800e+02   5.4231995915e+01    0.5361098     0.223372 -38.83  0.002394241    2.894    0.655
       286  -9.2771    150.4453    104.1444   8.1914895656e+01   3.1340718635e+01     0.361002    0.2426769 -62.79  0.001042695    1.953    0.488
       287  -9.6085     94.2928    103.9227   9.6692503601e+01   4.2725014408e+01    0.4851553    0.2564123  26.00  0.001887593    2.712    0.631
       288  -8.6004    215.4793    103.0377   6.8125150207e+01   1.6266993752e+01    0.2344734    0.1415485 -34.37  0.001017739    1.553    0.356
       289  -9.3850      6.7445    102.8947   1.2204068791e+02   5.2847796196e+01    0.2270895    0.1311764 -88.24  0.001013444    1.634    0.388
       290  -9.7616    128.4282    102.1312   8.6862328190e+01   3.6597200577e+01    0.3238477    0.2393272 -75.68  0.001315266    1.867    0.465
       291  -9.7853    130.2045     97.4686   8.5089419012e+01   3.7208124921e+01    0.5168777      0.28064  30.05  0.001724793    2.509    0.601
       292  -8.5076    139.8035    105.0520   8.4767672898e+01   3.3531487081e+01    0.2472381    0.2107747 -75.64 0.0009776576    1.385    0.278
       293  -8.5850     82.0022    100.0229   9.9279535204e+01   4.5608055301e+01    0.2244443    0.1697373 -88.09 0.0007323896    1.716    0.417
       294  -9.7139     64.0035     96.3489   1.0380277519e+02   4.9012051582e+01    0.4597333    0.2867195  80.67   0.00192784    2.899    0.655
       295  -8.7560     94.8447     97.0094   9.4732396881e+01   4.4189786782e+01    0.2712283     0.199303 -68.74  0.001058357    1.585    0.369
       296  -9.0424      7.9518     96.9911   1.2089460757e+02   5.4111156118e+01    0.1952088    0.1057381 -47.76 0.0007962853    1.725    0.420
       297  -8.4473     83.2685     93.7177   9.7282521653e+01   4.6841402370e+01    0.2745502    0.1767777   8.29  0.001164811    2.525    0.604
       298  -9.9256     45.1451     92.2707   1.0873094742e+02   5.2160892512e+01    0.5150968    0.2968339   7.14  0.002433384    2.766    0.638
       299  -8.5086    138.6481     92.2875   8.1424052424e+01   3.6424686288e+01    0.2437254    0.1882243 -75.36 0.0008661933    1.742    0.426
       300  -9.2285    124.4950     91.0402   8.4731065885e+01   3.9769390583e+01    0.3808482    0.2906586 -83.40  0.001171379    1.888    0.470
       301  -9.4140    109.1231     91.4992   8.9095517850e+01   4.2786070955e+01    0.5655515    0.2602225  31.17  0.001949668    3.061    0.673
       302  -9.9109     34.6199     89.3486   1.1143900100e+02   5.3856757923e+01    0.5493926    0.2553551 -77.57  0.002128638    2.929    0.659
       303  -9.9338     37.1860     81.0809   1.0881461916e+02   5.5496304365e+01    0.4572965    0.2564255 -19.09  0.002137757    2.746    0.636
       304  -9.2895      4.8015     91.8110   1.2108309616e+02   5.5464272963e+01    0.3091425    0.1479624  61.90  0.001494985    3.073    0.675
       305  -8.7993     96.7182     90.3684   9.2352880749e+01   4.5331688462e+01     0.364777    0.2375168  -2.57  0.001440822    2.716    0.632
       306  -9.6553     66.6727     86.5644   1.0053760346e+02   5.0884054834e+01    0.6648259    0.3317778  13.52  0.002297166    4.361    0.771
       307  -8.5711    138.8170     87.7894   8.0042208705e+01   3.7290634435e+01    0.2676071    0.1713069   6.29 0.0009456694    2.809    0.644
       308  -7.9606    103.0198     87.9957   8.9825746563e+01   4.4698685079e+01    0.1728448    0.1657857 -25.00            0    1.041    0.039
       309  -9.4632     86.3864     86.7813   9.4436510896e+01   4.7882655967e+01    0.3661117    0.2605484  87.02  0.001009163    2.341    0.573
       310 -10.1252      8.3860     83.4755   1.1869122697e+02   5.7130536948e+01    0.4750925    0.2962062 -52.01  0.001157814    1.324    0.245
       311  -9.4596     48.4435     84.6019   1.0592770185e+02   5.3557364696e+01    0.3867229    0.2442325  71.28  0.001791256    2.686    0.628
       312  -9.3281    126.9535     83.7773   8.1886750207e+01   4.0729277783e+01    0.5633161    0.3112133  18.75  0.001702792    4.040    0.752
       313  -9.2210    104.6697     83.1450   8.7899480081e+01   4.5417215502e+01    0.3819555    0.2699352 -75.86  0.001402153    2.210    0.547
       314  -9.1283    140.7161     79.6334   7.7063773032e+01   3.8446479920e+01    0.2545948    0.1865692  11.99  0.001045787    1.760    0.432
       315  -9.5475     24.4246     80.9346   1.1302020798e+02   5.6619498715e+01    0.3460029    0.2116606 -88.97  0.001552411    2.111    0.526
       316  -9.7645     87.3301     80.2655   9.2247267713e+01   4.9138461776e+01    0.5201647    0.2733351  18.46  0.001808039    3.645    0.726
       317  -8.4742     74.6659     80.8714   9.6422605444e+01   5.1010658986e+01    0.2858254    0.1700892 -73.32  0.001043112    2.922    0.658
       318  -9.7525    184.1035     77.8748   6.6962110513e+01   2.8171776854e+01    0.2832345    0.2232722 -32.64 0.0007787303    1.237    0.191
       319  -8.7788     61.6295     77.2402   9.9657637436e+01   5.3621758077e+01    0.3298717    0.1572453 -63.08  0.001318115    2.589    0.614
       320 -10.0243     49.9877     77.0971   1.0353239913e+02   5.5065301186e+01    0.4255083    0.2393138  10.54  0.001965506    2.695    0.629
       321  -9.2979    106.3155     76.3270   8.5297848541e+01   4.6505454516e+01    0.4877144    0.2444094  26.53  0.001676886    3.208    0.688
       322  -8.6405    127.8982     75.7371   7.9108078439e+01   4.2104632590e+01    0.2971574    0.1955305 -61.71 0.0009978368    2.110    0.526
       323  -9.0137    166.2166     74.8256   6.9685898034e+01   3.3170194578e+01    0.2742321    0.1699883 -70.52 0.0009556753    2.873    0.652
       324  -8.0813    140.3330     75.6489   7.5901541878e+01   3.9288539524e+01    0.1620626    0.1240529 -72.48 0.0007046989    1.779    0.438
       325  -9.4073     11.0470     74.5265   1.1622498517e+02   5.8966078510e+01    0.2792786     0.183437  14.64   0.00166696    1.984    0.496
       326  -9.3233     82.5027     72.8949   9.1511335431e+01   5.1493339586e+01     0.346965    0.2572914 -85.98  0.001619044    2.235    0.553
       327  -9.9839     28.7131     70.4182   1.0921847947e+02   5.8615487295e+01    0.7672088    0.3288759 -23.38  0.002673422    5.101    0.804
       328  -8.5882     95.2854     71.6264   8.7086949686e+01   4.9543637604e+01    0.2774512    0.1639208 -51.60  0.001102699    1.792    0.442
       329  -9.7745    129.7911     69.0670   7.6436193637e+01   4.2936349215e+01    0.5778621    0.3242941  23.01  0.002015051    2.934    0.659
       330  -9.4978     51.2220     69.5534   1.0104286609e+02   5.6570916406e+01    0.4746748    0.2376071 -68.63  0.001752846    3.141    0.682
       331  -8.6433     16.6481     70.5328   1.1349056557e+02   5.9492017647e+01    0.1991216    0.1287757 -82.39 0.0007201117    1.742    0.426
       332  -8.8749      1.4720     69.0344   1.1846746686e+02   6.0691036036e+01    0.2322887    0.1383752 -32.33  0.001236135    1.797    0.443
       333 -10.1213      5.2362     69.4987   1.1725470430e+02   6.0399571904e+01     0.557072    0.1213665 -53.79  0.002376248    2.722    0.633
       334  -9.8529      9.0582     66.3153   1.1528253724e+02   6.0883930881e+01    0.2870407    0.1381803 -33.84   0.00152709    2.226    0.551
       335  -8.1823    146.6376     68.8218   7.2182885689e+01   3.9034306105e+01    0.2258584    0.1377962 -43.90  0.000510528    1.684    0.406
       336 -10.0367    117.6268     66.8036   7.8942097477e+01   4.6038809166e+01    0.2917956     0.248319 -10.34 0.0003414913    1.192    0.161
       337  -9.4473     44.6899     67.4796   1.0276580872e+02   5.7743908155e+01     0.300097    0.1920464  21.79  0.001656057    1.879    0.468
       338  -9.3343    106.8269     66.7486   8.1999960379e+01   4.8290582074e+01      0.23873    0.1838069  20.14 0.0007966852    1.441    0.306
       339  -9.5492     84.0058     64.3728   8.8250548748e+01   5.2977513006e+01    0.4738008    0.2832499   0.95  0.001791467    3.166    0.684
       340  -8.5170     37.4082     64.2592   1.0449734688e+02   5.9172790015e+01    0.1763479    0.1078958 -63.60  0.000658447    1.628    0.386
       341 -10.0961     18.1916     62.3460   1.1107900766e+02   6.1167935848e+01    0.3651947    0.1861625 -34.85  0.001153575    1.972    0.493
       342  -9.0322     51.4487     61.8430   9.8667538290e+01   5.8175758839e+01    0.2571963    0.1489139 -20.52  0.001193377    2.291    0.564
       343  -8.2855    170.3536     60.8144   6.4474193753e+01   3.4475766646e+01     0.215785     0.145881 -18.39 0.0004179885    1.647    0.393
       344  -8.3188    122.7935     61.3949   7.5685076843e+01   4.5893936457e+01    0.2272076    0.1341365  36.75 0.0009510127    1.825    0.452
       345  -9.6489     73.2354     59.9479   9.0342543094e+01   5.5591576175e+01    0.3661229     0.221332 -53.58   0.00107146    1.799    0.444
       346  -9.6049     76.0921     50.0203   8.5810665122e+01   5.7025864474e+01    0.4492829    0.2641356   4.96  0.001825578    2.855    0.650
       347  -9.3650    111.8076     58.6305   7.7747328882e+01   4.8765431968e+01    0.3703821     0.207733  27.89  0.001465892    2.320    0.569
       348  -9.7002      1.7666     55.7934   1.1572937147e+02   6.3523325882e+01    0.3765352    0.1253036 -61.20  0.001847049    2.056    0.514
       349  -9.5464     39.2193     58.2810   1.0210070871e+02   6.0255951430e+01    0.2485257    0.1642327 -25.87  0.001179339    1.556    0.357
       350  -9.7762    100.5179     54.3103   7.9502216232e+01   5.1838445178e+01    0.2656872    0.2330683   2.64 0.0001947313    1.102    0.092
       351  -8.8034     62.8714     55.1143   9.2317110957e+01   5.8062692850e+01    0.2005271    0.1703043 -51.93 0.0005677293    1.287    0.223
       352  -8.8533     54.0473     54.0681   9.5188221606e+01   5.9438541665e+01    0.2832994    0.1749165 -67.25  0.001176411    2.582    0.613
       353 -10.0313      6.9996     57.6353   1.1415958262e+02   6.2865347605e+01    0.2563191     0.224411  77.00  0.001579097    1.467    0.318
       354  -9.3394     26.1452     54.7661   1.0607487147e+02   6.2176479612e+01    0.2431679    0.1601581   0.47  0.001446292    1.866    0.464
       355  -8.8734     92.3583     50.9107   8.0768325104e+01   5.4010244428e+01    0.3132421    0.1558019 -46.03  0.001256368    2.167    0.538
       356  -9.1412     30.8740     51.7556   1.0333570677e+02   6.2393315118e+01    0.2165395    0.1532461 -78.47  0.000813344    2.035    0.509
       357  -9.7108      8.2145     49.9971   1.1185579643e+02   6.4402974777e+01    0.3862164   0.05822369 -47.62  0.001444051    3.593    0.722
       358  -9.4080     46.3023     49.1120   9.6429232448e+01   6.1346575817e+01    0.2820969    0.1894442  -1.16  0.001097485    1.782    0.439
       359  -9.3348     64.0734     47.0707   8.8977981161e+01   5.9421251966e+01     0.370735    0.2248715   7.82  0.001724959    2.309    0.567
       360  -8.9605     44.8472     45.0128   9.5554524989e+01   6.2306155877e+01    0.2659119    0.1707663 -66.94 0.0008378268    2.472    0.595
       361  -8.2269    130.8038     45.7441   6.8080177685e+01   4.6626490996e+01    0.2424529    0.1701047  34.26 0.0007376221    1.463    0.317
       362  -8.0424      1.4730     46.4358   1.1367700841e+02   6.5490429067e+01    0.1167082   0.08399875 -50.69  0.000110498    1.016    0.016
       363  -9.1939    149.7715     44.2432   6.3237731359e+01   4.2212881589e+01    0.2677912    0.1869827 -31.56 0.0008715673    1.435    0.303
       364  -9.4205     22.4322     47.1467   1.0531348594e+02   6.4035451407e+01     0.312218    0.1916756  -5.28  0.001810304    2.004    0.501
       365  -9.5349     16.2373     44.4128   1.0704255433e+02   6.5042176642e+01    0.3497432    0.1711008 -64.61  0.001788159    2.125    0.529
       366  -8.8708     58.2044     42.9078   8.9586080409e+01   6.1013214757e+01    0.2564174     0.145793 -57.85  0.001136753    2.628    0.619
       367  -9.8314      4.7179     41.3342   1.1099769203e+02   6.6365476273e+01    0.4123192    0.1978668 -75.50  0.001931095    3.040    0.671
       368  -8.6299    113.8708     41.8590   7.0994699574e+01   5.1088340323e+01    0.2324126    0.1829829  16.15 0.0006612519    1.302    0.232
       369  -8.3703     81.8170     47.1348   8.2772582487e+01   5.6577608428e+01    0.2029139    0.1797812 -39.51  0.000541647    1.229    0.186
       370  -8.6200     36.8952     41.1718   9.7381435408e+01   6.3903685932e+01    0.1770025    0.1586306 -52.06 0.0008554682    1.337    0.252
       371  -8.0051    123.5126     40.5065   6.7960838972e+01   4.9110234537e+01     0.150803    0.1336558  14.30 0.0008093762    1.076    0.071
       372  -9.2020     84.1562     39.7025   7.9073920168e+01   5.7415842080e+01    0.2560349    0.1950853  -5.75 0.0003760839    1.295    0.228
       373  -8.3923     46.5054     39.0069   9.2657105077e+01   6.3232562964e+01    0.1866494   0.08666471 -28.47 0.0006512231    2.398    0.583
       374  -8.9297     57.1958     37.1682   8.7711194195e+01   6.2170762853e+01    0.2300112    0.2068716 -36.26  0.001484955    1.279    0.218
       375  -8.6093     26.0051     36.7007   1.0036866084e+02   6.5789635392e+01    0.2201899    0.1450403 -73.50 0.0007572327    2.594    0.614
       376  -8.3755     38.7455     35.3999   9.4449975333e+01   6.4778987354e+01      0.16401    0.1094605   6.45 0.0009517947    1.676    0.403
       377  -8.5393    119.3237     33.9263   6.6516666735e+01   5.1001962792e+01    0.2066695    0.1762866 -17.89   0.00058071    1.150    0.130
       378  -9.1824     96.0203     33.8437   7.2935245974e+01   5.6045574350e+01    0.2426396    0.1424793  23.82  0.001071799    2.021    0.505
       379  -8.6790     21.3787     34.2375   1.0151050483e+02   6.6644868861e+01    0.1595357   0.09636427 -54.96 0.0005572543    1.558    0.358
       380  -9.4440      6.7534     34.0691   1.0797054787e+02   6.7690783522e+01    0.2105106    0.1509746  -9.10  0.001167151    1.515    0.340
       381  -9.7972    222.3655     32.6340   4.8167079949e+01   2.5186170587e+01    0.3127643     0.213246 -71.48   0.00044706    1.607    0.378
       382  -8.3063     60.4688     32.9551   8.4714849625e+01   6.2412643567e+01    0.1660923    0.1083508 -55.96  0.000602669    2.334    0.572
       383  -9.3524    106.3880     36.8416   7.1116698318e+01   5.3457775114e+01    0.3135559    0.1880043  39.43  0.000481954    1.649    0.393
       384  -8.6206     12.7382     31.3948   1.0438612681e+02   6.7826727377e+01    0.2031436    0.1227405 -59.73 0.0006083808    1.654    0.396
       385  -8.5165     46.3037     31.2909   8.9644247622e+01   6.4618632644e+01    0.1283405   0.08303288 -14.41 0.0003129492    1.571    0.363
       386  -8.1027    112.6755     30.6363   6.6940689182e+01   5.2949132190e+01    0.1564606    0.1012012  17.92 0.0007040002    1.791    0.442
       387  -9.0641    147.4743     28.5361   5.8221850140e+01   4.4871792355e+01    0.3482336    0.1903557  27.86 0.0008787644    2.374    0.579
       388  -8.4884      1.8599     28.0279   1.0827826276e+02   6.9122244526e+01    0.1833136    0.1339405  -5.10 0.0008645932    1.515    0.340
       389  -8.6215     80.7368     27.3664   7.5044931799e+01   5.9914358590e+01    0.1926178    0.1652917 -68.80  0.001090703    1.810    0.448
       390  -9.0601     43.8869     25.6628   8.8245848643e+01   6.5858215651e+01    0.2050401    0.1505279 -10.32 0.0004797736    1.224    0.183
       391  -8.9787    110.4614     24.5123   6.5053823740e+01   5.4225999769e+01    0.2372401    0.2094835  20.51 0.0001400036    1.021    0.021
       392  -8.5171     76.7730     25.5836   7.5599821841e+01   6.0882007233e+01    0.1665546    0.1277128  48.49 0.0003730341    1.555    0.357
       393  -8.9057     67.0198     23.7183   7.8215762700e+01   6.2816159364e+01     0.180087    0.1515672   1.93 0.0003561705    1.059    0.056
       394  -8.9375     84.8304     21.3800   7.1079223959e+01   5.9955720582e+01    0.2736973    0.1860104 -44.92  0.001156628    1.861    0.463
       395  -8.8208     58.8101     22.1517   8.0595359319e+01   6.4340280054e+01    0.1803226    0.1529984 -16.85 0.0002999512    1.145    0.126
       396  -8.1240     48.4411     21.9406   8.4662979049e+01   6.5857800544e+01    0.1508762    0.1024397 -53.37 0.0004410715    2.224    0.550
       397  -9.4955     13.0909     21.3249   1.0047079686e+02   6.9647443277e+01    0.2361553    0.1836358  -9.35 0.0007934101    1.272    0.214
       398  -8.9587    107.5701    248.9532   1.1657922097e+02   1.1016817294e+01    0.1923199    0.1341535  36.99 0.0006349066    1.466    0.318
       399  -8.2446     62.8121     20.9575   7.8514465625e+01   6.3889541698e+01    0.1962203    0.1390895 -49.97  0.000846038    2.020    0.505
       400  -8.0963     40.8600     21.1852   8.7540222010e+01   6.6948930899e+01    0.1706531    0.1170373 -13.10 0.0003701383    1.312    0.238
       401  -7.7967     73.3616     19.6733   7.4107688021e+01   6.2293145232e+01    0.1217289    0.1048839 -60.91 0.0007041226    1.791    0.442
       402  -9.7089     29.3870     18.4393   9.1451121471e+01   6.8686146518e+01    0.3083128    0.1999802  28.11 0.0008483781    1.763    0.433
       403  -8.3232      1.5027     19.5543   1.0550388652e+02   7.0715337059e+01    0.1137968   0.08046729 -38.17 8.975877e-05    1.007    0.007
       404  -8.8930     88.6562    249.1412   1.1977874335e+02   1.3659602605e+01    0.2009591    0.1130964  52.54  0.001302551    1.361    0.265
       405  -8.2754     78.6908     21.6664   7.3203895337e+01   6.1071153608e+01    0.1410279   0.09149124   9.01 0.0003882127    1.673    0.402
       406  -8.5213     50.7026     15.5925   8.0730969566e+01   6.6474802781e+01    0.1943068    0.1225183   2.12 0.0009109261    1.675    0.403
       407  -9.3814     41.0735     13.9567   8.4022976810e+01   6.8014277860e+01    0.2187268    0.1514868  15.21 0.0003945256    1.410    0.291
       408  -8.2297     80.5685     12.7752   6.8510263395e+01   6.1815881365e+01    0.1850409     0.110964 -34.23 0.0009502866    1.766    0.434
       409  -8.9852     97.5474    243.7239   1.1779950101e+02   1.3278077541e+01    0.3136889    0.1897145 -64.28  0.002043006    1.916    0.478
       410  -8.7010      3.6596    247.7099   1.3292836441e+02   2.3797391327e+01   0.07725312    0.0673943 -84.60 0.0005224012    1.646    0.392
