#   1 NUMBER                 Running object number                                     
#   2 MAG_AUTO               Kron-like elliptical aperture magnitude                    [mag]
#   3 X_IMAGE                Object position along x                                    [pixel]
#   4 Y_IMAGE                Object position along y                                    [pixel]
#   5 X_WORLD                Barycenter position along world x axis                     [deg]
#   6 Y_WORLD                Barycenter position along world y axis                     [deg]
#   7 A_WORLD                Profile RMS along major axis (world units)                 [deg]
#   8 B_WORLD                Profile RMS along minor axis (world units)                 [deg]
#   9 THETA_WORLD            Position angle (CCW/world-x)                               [deg]
#  10 FWHM_WORLD             FWHM assuming a gaussian core                              [deg]
#  11 ELONGATION             A_IMAGE/B_IMAGE                                           
#  12 ELLIPTICITY            1 - B_IMAGE/A_IMAGE                                       
         1 -15.7997    241.5636     96.1889   2.6456491030e+01   1.1793147590e+01     3.854903     1.414137 -36.45   0.01460848    2.455    0.593
         2 -11.1420     24.2447     79.7473   7.9222937200e+01   5.7780759651e+01    0.4063394    0.1872644 -72.95  0.001715941    2.538    0.606
         3 -11.0086     40.8986     13.9673   4.9891950498e+01   6.8360149806e+01    0.1847563    0.1427197   6.70 0.0002987635    1.094    0.086
         4 -10.0309    145.3317    232.6768   7.3175987652e+01   6.0948815491e+00    0.1321029   0.09101599  64.15 0.0004209366    1.702    0.413
         5 -10.4355     92.3327    230.6519   8.3589411725e+01   1.5020070447e+01     0.136035   0.07934884  66.27   0.00070487    1.770    0.435
         6 -10.6382    162.2659    224.8360   6.8606119438e+01   4.5252691195e+00    0.3014835    0.2165268  12.29  0.001624738    1.725    0.420
         7 -10.2288     84.3411    226.6733   8.4767505707e+01   1.6974984272e+01    0.1360085   0.07817384  65.51 0.0007051348    1.735    0.424
         8  -9.9892     99.2818    224.9915   8.1567587117e+01   1.5040827657e+01    0.1770328    0.1489775  68.10 0.0005702586    1.066    0.062
         9 -10.4265     59.5003    222.9930   8.9332841658e+01   2.1162125252e+01    0.1729057   0.08375086  78.45 0.0008096177    2.462    0.594
        10 -10.8786    126.1957    220.4788   7.5433918399e+01   1.1524436033e+01    0.2408448    0.1941893  74.14 0.0007352917    1.314    0.239
        11 -10.0792     74.6647    219.3263   8.5968299504e+01   1.9830302320e+01    0.1363394   0.07798342  66.28 0.0007051566    1.719    0.418
        12 -10.2366    143.7951    216.8199   7.1216513733e+01   9.1696732653e+00    0.1872589    0.1506016  65.66  0.001074558    1.337    0.252
        13 -10.3735     76.5705    212.2240   8.4839089837e+01   2.1012251985e+01    0.2373525    0.1182187 -73.25  0.001153835    2.138    0.532
        14 -10.2414    116.5008    210.0095   7.6056967135e+01   1.5200339939e+01    0.1861664     0.112738  88.53 0.0008103887    2.540    0.606
        15 -11.1809    186.0121    203.8447   6.0242182476e+01   3.8777787876e+00    0.2360469    0.2060387 -33.50  0.001400278    1.256    0.204
        16 -12.2532    165.5461    201.9009   6.4182095150e+01   7.9918334658e+00    0.5557972     0.356764 -53.69  0.002745034    1.848    0.459
        17 -11.7470    163.0831    193.8822   6.3292835052e+01   9.9619441606e+00    0.3976029    0.2829026  70.90  0.001552916    1.984    0.496
        18 -11.3480    178.0160    197.2830   6.0714736551e+01   6.5113986324e+00    0.2627372    0.2174269 -51.73  0.001466174    1.404    0.288
        19 -10.2945    149.0113    198.0270   6.7096468035e+01   1.1801579204e+01    0.2395373    0.1555657 -79.84  0.001019095    2.587    0.614
        20 -10.9301    125.0019    197.0240   7.2271503431e+01   1.6378118346e+01     0.348065    0.2247885  42.61  0.001738165    1.406    0.289
        21 -10.0428    186.3321    193.6687   5.8303293592e+01   5.6015964464e+00    0.1373244    0.1124361  76.52  0.000490263    1.724    0.420
        22  -9.7917     43.6587    192.9855   8.9865755858e+01   2.9463356708e+01    0.2109144   0.08226176  84.49 0.0007051321    4.414    0.773
        23 -10.0823    206.3265    191.6430   5.3851514564e+01   2.2462728796e+00    0.1316782    0.1128055  87.12 0.0007044747    1.778    0.437
        24 -10.9090    172.4444    190.7468   6.0692294597e+01   8.7731641713e+00    0.2538753    0.1418832 -50.12 0.0007481095    2.043    0.511
        25 -10.2027    138.9942    189.0067   6.7788695523e+01   1.5488581818e+01    0.2323439    0.1719927  75.67  0.001003616    1.693    0.409
        26 -10.0480    129.3861    188.1793   6.9842142773e+01   1.7441924028e+01    0.1988911    0.1359804 -69.99 0.0008752918    1.740    0.425
        27 -10.0626    165.4086    186.2249   6.1372756048e+01   1.0997128758e+01    0.1951322    0.1404449 -59.58 0.0009469744    1.680    0.405
        28 -10.7078    120.4131    184.1421   7.1246307062e+01   1.9940187793e+01    0.3323306    0.1410358 -64.84   0.00114905    3.307    0.698
        29 -10.1728    109.3247    185.6627   7.4084177719e+01   2.1559111075e+01    0.1505935    0.1022377  72.12  0.000341559    1.720    0.419
        30 -11.2222     94.7958    183.1023   7.7104911516e+01   2.4557413238e+01    0.4318591    0.2471808 -70.82   0.00199665    1.902    0.474
        31 -10.4936    174.4223    183.2932   5.8844897797e+01   9.8080495736e+00    0.2484268    0.1784184  61.04 0.0008298248    1.701    0.412
        32 -10.0146     74.4908    183.5131   8.1918892595e+01   2.7568854728e+01    0.1373506    0.1151142  75.88 0.0001047227    1.051    0.048
        33 -10.8613      1.8410    180.3371   9.7632061123e+01   3.6371116400e+01    0.2506039   0.07230934 -58.93  0.001083063    3.464    0.711
        34 -10.1107    138.0183    179.0105   6.6234703140e+01   1.7777982258e+01    0.2404502    0.1771495  76.91 0.0008661191    1.733    0.423
        35 -11.3919     77.2802    174.9492   8.0104871990e+01   2.9133807283e+01    0.3616655    0.2019151  78.36  0.001523572    2.456    0.593
        36  -9.9695    183.5046    175.0057   5.5236888788e+01   9.6013429012e+00    0.1990454    0.1307693 -67.95 0.0008102861    2.520    0.603
        37 -10.8771    147.4971    179.5038   6.4132522011e+01   1.5844062032e+01    0.2521271    0.1438477 -62.26 0.0009279824    2.270    0.559
        38 -10.6822    176.9828    170.3073   5.5679733213e+01   1.1826226405e+01    0.3348821    0.2098811 -51.75  0.001492726    1.804    0.446
        39 -10.1231    134.5265    171.0307   6.5571721224e+01   2.0179815429e+01     0.208976    0.1317943 -80.05 0.0008098717    2.545    0.607
        40 -11.3924    121.7210    167.9068   6.8081887095e+01   2.3312228082e+01    0.6274252    0.3135332 -61.77  0.002457375    2.329    0.571
        41  -9.6376    168.3117    168.6673   5.7259044536e+01   1.3921119353e+01    0.1498985    0.1200788  84.06 0.0004667875    1.677    0.404
        42 -11.2254    139.1397    163.9549   6.3084566153e+01   2.0834133111e+01    0.5361046    0.2957065 -66.57  0.001999181    2.636    0.621
        43 -10.0463    192.3952    165.2215   5.1307524633e+01   9.6767511960e+00    0.2091618    0.1385029 -50.58 0.0008545028    1.705    0.414
        44 -10.7492     79.8378    163.3717   7.7761950398e+01   3.1476776375e+01    0.4830177    0.2456974  87.70  0.001624178    3.793    0.736
        45 -11.0011    213.6103    163.7888   4.6716219955e+01   5.7045238324e+00    0.2024153    0.1306325 -46.37 0.0009132161    1.680    0.405
        46 -11.3166    146.3380    162.6969   6.1105384133e+01   1.9664197544e+01    0.3573614    0.2416185  68.28 0.0008957331    1.976    0.494
        47 -11.0658    144.2519    159.4635   6.0936350883e+01   2.0795308706e+01     0.290058    0.2523432 -86.13 0.0004099059    1.294    0.227
        48  -9.4911     15.4599    163.5032   9.3432193197e+01   3.8986073268e+01    0.1218192    0.0948029 -89.78 0.0001815834    1.003    0.003
        49 -10.9664    205.8675    161.7737   4.7807371958e+01   7.6000120780e+00    0.2736094    0.1935693 -64.43  0.001236179    2.091    0.522
        50 -10.9048    177.6498    159.6981   5.3280822372e+01   1.3802980426e+01    0.4308005    0.1861952 -47.18  0.001570173    2.467    0.595
        51 -10.6335     92.7802    159.5194   7.3835192796e+01   3.0361094558e+01    0.3482954    0.1977043 -81.21  0.001386425    2.455    0.593
        52 -11.2989    197.1040    157.1907   4.8583702841e+01   1.0238967453e+01    0.3395988    0.2091169 -44.30  0.001475724    1.669    0.401
        53 -11.1041    188.7456    156.7434   5.0233607514e+01   1.2064132160e+01    0.3788406    0.2618973 -48.30  0.001423261    1.544    0.352
        54  -9.9406    128.4005    158.2362   6.4563719670e+01   2.4233877907e+01    0.2163957    0.1443597 -65.26 0.0009511219    1.710    0.415
        55 -10.2533    105.4895    157.6106   7.0233934394e+01   2.8648612907e+01     0.305396    0.1991407  85.26  0.001281182    2.176    0.540
        56 -10.6556    167.8539    156.8931   5.4859434295e+01   1.6436981916e+01    0.2805752     0.214512 -51.39  0.001027958    1.391    0.281
        57  -9.6396    157.6848    155.3699   5.6873186226e+01   1.8902051068e+01    0.1595953    0.1228393  88.38 0.0007035675    1.782    0.439
        58  -9.9999    206.4263    169.2288   4.9290567876e+01   6.1354250348e+00     0.199552    0.1344662 -48.50 0.0009485826    1.673    0.402
        59 -11.5155    204.8652    154.0886   4.6320333189e+01   9.2236453356e+00    0.2245326     0.204964 -60.15 0.0008071163    1.266    0.210
        60 -10.3590     81.7982    154.0125   7.5738870058e+01   3.3419207754e+01    0.2427094    0.1547959  84.31  0.001076464    2.010    0.502
        61 -10.9007     67.7901    153.0523   7.9250933376e+01   3.5684334843e+01     0.413473    0.2481794  80.42  0.001649114    2.138    0.532
        62 -10.5345    133.0232    152.2338   6.2172796897e+01   2.4684020414e+01    0.3757063    0.2537823 -84.39  0.001517821    2.257    0.557
        63  -9.5891     95.6528    153.7314   7.2063777771e+01   3.1264047955e+01     0.139949    0.1164894 -12.89 0.0003348281    1.617    0.381
        64 -12.3019    189.1212    148.4772   4.8298192272e+01   1.3607193303e+01    0.6180053    0.3245445 -51.07  0.002411358    2.201    0.546
        65  -9.7772     98.4136    150.2041   7.0681945439e+01   3.1638969029e+01    0.2147103    0.1375721 -71.53 0.0009513384    1.737    0.424
        66 -11.7439    200.1868    148.1425   4.5925869663e+01   1.1318048865e+01    0.3315709     0.239264 -47.37  0.001295265    1.453    0.312
        67  -9.6642    162.3167    149.6667   5.4530179884e+01   1.9135304854e+01    0.1575792    0.1243805  88.23 0.0003944187    1.690    0.408
        68 -10.4699     38.9049    146.7894   8.5909204118e+01   4.0683497869e+01    0.2661987    0.1464701  80.61  0.001242402    2.157    0.536
        69 -11.4107    148.5951    143.1375   5.6316634203e+01   2.3493828672e+01    0.7079649    0.3380144 -56.15  0.002486394    2.559    0.609
        70 -11.0134    106.9249    144.4039   6.7279458979e+01   3.1520888836e+01    0.5286792    0.3271515  89.88  0.001979625    2.745    0.636
        71 -11.0276     55.5137    144.6415   8.1210553741e+01   3.9317711746e+01    0.4103868    0.2368179  86.57  0.001845125    2.169    0.539
        72 -11.1265    124.7139    141.5458   6.1982190818e+01   2.8802439230e+01    0.6707734    0.3343012 -66.90  0.002165252    3.293    0.696
        73 -10.7847     87.6955    141.8139   7.1960714973e+01   3.5441813900e+01    0.5324379    0.1676937 -58.21   0.00174954    3.077    0.675
        74 -12.4593    189.1539    136.8512   4.5584876684e+01   1.5900651818e+01    0.7204623     0.336596 -48.45  0.002643975    2.332    0.571
        75 -10.5116    182.1641    140.7685   4.8007494153e+01   1.6658983127e+01    0.3094127     0.177149 -54.45  0.001212488    2.101    0.524
        76 -10.7183    197.5829    137.7849   4.4059150513e+01   1.3865903582e+01     0.217352    0.1399148 -49.70 0.0008667968    1.665    0.399
        77 -10.9223     22.6910    136.1814   8.8848265927e+01   4.4741090293e+01    0.5585563    0.2167113 -87.90  0.002055525    3.592    0.722
        78 -10.0885    162.6665    135.4961   5.1155356222e+01   2.2082038544e+01    0.2860121    0.1464152 -43.66   0.00108623    1.971    0.493
        79 -10.0251     38.6918    135.3453   8.4411222910e+01   4.3455009278e+01    0.1368022    0.0892477  74.71  0.000704397    1.699    0.411
        80 -10.7986    179.4442    132.4922   4.6625791660e+01   1.8945934664e+01    0.4250229    0.1931968 -43.00  0.001549495    2.193    0.544
        81 -10.3657    112.8256    132.7446   6.3178241834e+01   3.3185770192e+01    0.3010918    0.2037437 -81.50  0.001240207    2.089    0.521
        82 -11.1555    131.7272    129.5042   5.7375204535e+01   3.0141310246e+01    0.6431002    0.3010369 -58.82  0.002154152    2.786    0.641
        83 -11.5956     83.1692    129.1195   7.0703710142e+01   3.9239186805e+01    0.9044966    0.2866178 -60.17  0.002858694    3.356    0.702
        84 -10.6931    143.0032    129.8882   5.4576095303e+01   2.7643964271e+01     0.513401    0.2138882 -46.41  0.001767998    2.414    0.586
        85 -11.8316    192.7208    129.5983   4.3100030283e+01   1.6536243179e+01    0.3319884    0.2827054 -16.14  0.001217018    1.255    0.203
        86 -11.4250    168.7313    128.4758   4.8040890726e+01   2.2201941443e+01     0.468332    0.2060891 -47.52   0.00163591    2.374    0.579
        87 -10.9814    152.7740    127.3058   5.1519953096e+01   2.6056502927e+01    0.5858805    0.2133552 -49.30  0.001823989    2.979    0.664
        88 -11.9600     99.0339    124.5829   6.5166329462e+01   3.7671049321e+01      1.01328    0.3755371 -54.03  0.003481671    2.638    0.621
        89 -10.4086     72.7887    128.3121   7.3536696171e+01   4.0997273051e+01    0.3506794    0.1897096 -75.89  0.001403795    2.385    0.581
        90 -10.5926     12.5050    128.5134   9.0674732345e+01   4.7340762923e+01    0.2881905    0.1324858  77.96  0.001259926    2.857    0.650
        91 -11.4534    180.1237    123.2813   4.4208661109e+01   2.0660993840e+01    0.5119002    0.2377826 -39.09  0.001871762    2.165    0.538
        92 -11.2496    117.4600    123.7221   5.9798816134e+01   3.4394091527e+01    0.5299394    0.3091911 -57.25  0.002166462    1.828    0.453
        93 -11.2936     58.8458    122.4310   7.6497104635e+01   4.4303253533e+01    0.6497504    0.3170525 -85.05   0.00211368    4.149    0.759
        94 -10.2221     17.0984    244.7965   9.8434519109e+01   2.1985244985e+01    0.1674528   0.09975611  65.29 0.0005395779    1.213    0.176
        95 -10.7241     70.5607    118.2032   7.2138329984e+01   4.3763199659e+01    0.3466379    0.1326317 -59.79  0.001278491    2.486    0.598
        96 -11.6229     43.2396    121.0215   8.0882624829e+01   4.6440534779e+01    0.8192577    0.3564354 -84.17  0.002674045    4.294    0.767
        97 -10.6489      2.7825    116.0830   9.1932561321e+01   5.0858191312e+01    0.4328954    0.1407126 -87.93  0.001436394    4.774    0.791
        98 -11.5449    185.9581    114.8085   4.0825397385e+01   2.0994388094e+01    0.4314155    0.2139783 -44.59  0.001580343    2.012    0.503
        99 -11.6871    192.9901    113.9956   3.9179148040e+01   1.9510987222e+01    0.3926011    0.2175303 -46.57  0.001582308    1.830    0.454
       100 -11.5746    108.8401    111.7876   5.9246845114e+01   3.8848369682e+01    0.8754091    0.3303629 -53.13  0.002887583    2.804    0.643
       101 -11.5728     92.2775    109.3013   6.3502302086e+01   4.2465702098e+01    0.9662313     0.275992 -52.34  0.002953286    3.369    0.703
       102 -11.2818     78.3508    110.6886   6.8090350153e+01   4.4412783439e+01    0.6562582    0.3025808 -68.99  0.002184702    3.405    0.706
       103 -11.0585    174.7416    110.4366   4.2092955667e+01   2.4506688395e+01    0.4725369       0.1995 -44.93  0.001628426    2.394    0.582
       104 -11.3281    159.3125    110.3362   4.5579068030e+01   2.8172525019e+01    0.4575418    0.2154727 -42.62  0.001661005    2.120    0.528
       105 -11.4136    122.3194    110.0984   5.5004589031e+01   3.6513408083e+01    0.5677336    0.2682551 -40.09  0.002064445    2.242    0.554
       106 -11.2812     14.0077    109.3923   8.7818970269e+01   5.1711899827e+01    0.4631344    0.2214706 -79.39  0.002275625    1.990    0.498
       107 -11.2676     66.1265    108.6160   7.1426499864e+01   4.6673488640e+01    0.5403962    0.2205008 -61.04  0.002064148    2.433    0.589
       108 -11.9282    141.4913    116.7484   5.1655867346e+01   3.0886021891e+01    0.8852915    0.3124837 -49.35  0.002717141    3.056    0.673
       109 -11.3743    182.9695    107.9998   3.9693379695e+01   2.3033131425e+01    0.3429934    0.2153998 -39.39  0.001461311    1.573    0.364
       110 -10.4948    133.1305    108.6801   5.1699393968e+01   3.4505418926e+01    0.3227324    0.1855202 -58.01  0.001226312    2.112    0.526
       111 -12.2096    189.3877    106.1964   3.7906680698e+01   2.1855403512e+01     0.465651    0.2196072 -39.59  0.001620664    2.070    0.517
       112 -11.4601    139.7810    102.4895   4.8266924684e+01   3.4347767300e+01     0.628052    0.2836198 -41.16  0.002241973    2.238    0.553
       113 -11.7920    150.0933    100.5588   4.5137292579e+01   3.2361661706e+01    0.7907013    0.2250904 -43.64  0.002244154    3.517    0.716
       114 -12.5769     21.6160     99.1034   8.3847159664e+01   5.3569906186e+01    0.9587916    0.3817835 -79.21  0.003674134    3.345    0.701
       115 -11.4524    201.2962    102.7789   3.4715579927e+01   1.9680759090e+01    0.3232501    0.1196659 -44.07  0.001076552    2.663    0.625
       116 -10.9965    166.5619    102.2980   4.1740668552e+01   2.8088035141e+01    0.4017681    0.1569677 -37.73  0.001311736    2.651    0.623
       117 -11.9293     44.5057    100.3682   7.6605252192e+01   5.1229349535e+01    0.6643691    0.3590685 -89.69  0.002522182    3.514    0.715
       118 -11.6079    128.5015    100.2219   5.0617066446e+01   3.7354702222e+01     0.572166    0.2949535 -41.45  0.002205875    1.951    0.487
       119 -10.3893      6.4049    102.2194   8.9130806798e+01   5.3844161027e+01    0.1780633   0.09637569 -81.93 0.0009553306    1.724    0.420
       120 -11.1997    175.6176    100.4261   3.9242045547e+01   2.6272811701e+01    0.3877761    0.1542221 -34.34  0.001250354    2.797    0.643
       121 -11.2676    159.7687     99.5389   4.2542168051e+01   3.0270443780e+01     0.463575    0.1316336 -40.25  0.001305817    3.526    0.716
       122 -11.2137     81.6561     98.1649   6.3956419255e+01   4.6812741306e+01       0.4999    0.1676682 -54.07  0.001670282    2.961    0.662
       123 -11.2008     29.1838    122.1742   8.5184300918e+01   4.7517187566e+01    0.5138329    0.2145297 -80.65  0.002054804    2.847    0.649
       124 -11.0787     94.9717     94.2768   5.8705449035e+01   4.5411607684e+01    0.6463574    0.2137164 -43.62  0.002100512    2.999    0.667
       125 -11.5715     63.2173     94.5277   6.9054851580e+01   5.0359126158e+01    0.6017361    0.2667765 -66.97  0.002122333    3.252    0.692
       126 -11.2083    183.6808     95.4661   3.6227744712e+01   2.5262526276e+01     0.283639    0.1419519 -37.84   0.00107733    1.984    0.496
       127 -12.1660    108.1283     95.7837   5.5139693182e+01   4.2581578042e+01     0.823711    0.3755804 -49.58    0.0030703    2.220    0.549
       128 -11.8777    177.0723     92.0642   3.6661303079e+01   2.7516491632e+01    0.4225971    0.2104629 -33.86  0.001578547    2.130    0.531
       129 -11.1553    164.8815     92.4384   3.9396925108e+01   3.0431038309e+01    0.3266159    0.2161211 -20.88  0.001333901    1.934    0.483
       130 -11.3737    138.7940     90.3188   4.5054039211e+01   3.7089899460e+01    0.5412771    0.2482572 -44.09  0.001966832    2.203    0.546
       131 -10.1155     57.8604     91.8721   7.0201927082e+01   5.1660856329e+01    0.1765805     0.157649  89.15   0.00103906    1.298    0.230
       132 -10.6159    157.8636     90.5511   4.0460905877e+01   3.2504812565e+01    0.2790445    0.1856445 -44.03  0.001207153    1.516    0.341
       133 -11.8038    124.8359     87.5089   4.7941804949e+01   4.0823934048e+01    0.8486013    0.3958086 -33.09  0.002979591    2.556    0.609
       134 -11.2021     34.8096     86.6769   7.6964680186e+01   5.5340428863e+01    0.7965976    0.2014887 -58.17  0.002926175    3.002    0.667
       135 -11.8330      5.2325     88.5835   8.7497272756e+01   5.7009976289e+01     0.659439    0.1235928 -58.41  0.002622276    2.972    0.664
       136 -10.6540    172.5529    119.8192   4.5003117857e+01   2.3117843480e+01    0.3977595    0.1512776 -43.56   0.00130273    2.620    0.618
       137 -10.8646    158.5290    119.9730   4.8282659283e+01   2.6328811775e+01    0.4628847    0.2581085 -48.52  0.001816004    1.854    0.461
       138 -10.8244    188.4993     86.5152   3.2868472301e+01   2.5725948980e+01    0.1513842     0.149473 -72.62 0.0007920254    1.027    0.027
       139 -10.0609    163.9930     86.0024   3.7773032094e+01   3.1873866762e+01    0.1963951    0.1845254 -42.08 0.0008486997    1.073    0.068
       140 -11.2462    179.4528     84.7563   3.4160287511e+01   2.8277451113e+01    0.3078878    0.1430689 -42.16    0.0011386    2.125    0.530
       141 -12.5224     47.9552     81.2495   7.0987760252e+01   5.5226639817e+01    0.7189831    0.2179271 -52.15  0.002734484    2.658    0.624
       142 -11.2573    158.4954     81.5060   3.7704008347e+01   3.4066391806e+01    0.3325196    0.1551058 -37.18  0.001216213    2.184    0.542
       143 -10.2225     74.3015     78.7877   6.0994515081e+01   5.2254283544e+01    0.4585479    0.1294341 -55.16  0.001233166    5.088    0.803
       144 -11.3352    188.7527    122.8521   4.2267262698e+01   1.8763094833e+01    0.3702784    0.2002768 -46.43  0.001466436    1.885    0.470
       145 -10.9872    174.5925     77.2755   3.3041565094e+01   3.0824436463e+01    0.3013231    0.1426747 -40.59  0.001132888    2.092    0.522
       146 -10.9780    151.1598     87.5508   4.1175681112e+01   3.4708708502e+01    0.3096946    0.2236842 -38.34  0.001404539    1.402    0.287
       147 -12.1265    211.6469     75.4510   2.5925758481e+01   2.1988584001e+01    0.2913303        0.184 -32.89  0.001089721    1.602    0.376
       148 -10.6911    167.5771     76.2283   3.4185967231e+01   3.2765699719e+01    0.2183098    0.1522973 -22.82 0.0009541717    1.677    0.404
       149 -11.0342    189.4908     75.0316   2.9563682242e+01   2.7485083389e+01    0.2362106     0.148234 -36.08  0.001035373    1.598    0.374
       150 -10.6848    161.0023    239.4945   7.1005866209e+01   2.3472815230e+00    0.1844083   0.09209158  55.24 0.0008102361    2.521    0.603
       151 -11.7580    104.3865     80.4228   5.1717166742e+01   4.6572415411e+01    0.7281876    0.2741938 -42.67  0.002546104    2.608    0.617
       152 -11.3865    128.0900     72.6883   4.2492121947e+01   4.2979569287e+01    0.6527095    0.3022105 -30.87  0.002338427    2.544    0.607
       153 -11.4080     81.8986     71.5617   5.6167049552e+01   5.2519736705e+01     0.428842    0.2354327 -58.36  0.001752892    2.438    0.590
       154 -11.0541     82.4847     66.0141   5.4159702637e+01   5.3515687360e+01    0.3967985     0.212605 -23.52  0.001546762    2.639    0.621
       155 -11.3786     62.4666     70.3477   6.2640293879e+01   5.5758047512e+01    0.5380297    0.1041396 -47.40  0.001577684    4.337    0.769
       156 -10.6660    119.2392     78.5058   4.6757190291e+01   4.3852844420e+01    0.4032085    0.2097258 -36.22  0.001594108    1.994    0.499
       157 -10.3095    115.6360     70.9807   4.5390363977e+01   4.6079300075e+01     0.353163    0.1414218 -39.55  0.001255408    2.507    0.601
       158 -10.6069    170.6017     82.1715   3.5254663324e+01   3.0945222600e+01    0.2234689    0.1513052 -24.14 0.0009531865    1.728    0.421
       159 -11.0345     94.6682     68.0820   5.0809609276e+01   5.0906349856e+01    0.6793851     0.156614 -44.69  0.001898011    4.429    0.774
       160 -10.3554    170.5979     70.1779   3.1809597887e+01   3.3055058651e+01    0.2184235    0.1503256 -21.42 0.0009558892    1.734    0.423
       161 -10.5107    163.0046     70.0098   3.3328796760e+01   3.4995017419e+01    0.2535761    0.1902146  18.33  0.001139567    1.739    0.425
       162 -11.5893    140.9347     81.3934   4.1858680470e+01   3.8340527361e+01    0.4530711    0.2258262 -36.72  0.001720484    2.073    0.518
       163 -11.4262     86.0491     86.0272   5.9192139409e+01   4.8788942456e+01    0.4076559     0.264345 -65.23   0.00151125    2.008    0.502
       164 -10.0534    157.2915     68.3526   3.4062476654e+01   3.6709650135e+01    0.1573366    0.1202483  15.72 0.0005831238    1.677    0.404
       165 -10.6731    147.2265     65.7411   3.5527968381e+01   3.9652116840e+01     0.386816    0.1879759 -25.94  0.001382319    2.627    0.619
       166 -11.1813    130.4968    117.3518   5.4679733756e+01   3.3154532057e+01     0.531988    0.2766787 -60.14  0.001862007    2.573    0.611
       167 -10.9248    138.5435     64.2033   3.7111030259e+01   4.2029201904e+01    0.3710645    0.1538114 -32.98  0.001302885    2.610    0.617
       168 -11.7488     26.3904     72.3481   7.6743664522e+01   5.9240722019e+01    0.6321151    0.2423923 -25.77  0.002010972    5.611    0.822
       169 -11.1168    150.2365     78.9399   3.8854622619e+01   3.6565498608e+01    0.3971419    0.2121357 -40.39  0.001573013    1.889    0.471
       170 -10.2728    194.3098     76.3560   2.9059107191e+01   2.6064099843e+01    0.1540538    0.1194808  16.59 0.0007043099    1.730    0.422
       171 -11.1116    203.5063     65.9750   2.4755347610e+01   2.5495455591e+01    0.2315086    0.1408715 -36.71  0.001041711    1.617    0.382
       172 -11.0737    100.3208     55.3337   4.4652918102e+01   5.2105847958e+01    0.3137148    0.1831411   2.44  0.001098432    3.422    0.708
       173 -11.2517    110.2353     60.7198   4.3543476735e+01   4.9104346799e+01    0.5348476    0.2558492 -23.39  0.001847395    3.123    0.680
       174 -10.8720      7.9925     51.0104   7.8854861683e+01   6.4945526333e+01    0.4088195          nan -48.80  0.001279664    5.064    0.803
       175 -10.3954     10.0362     74.4778   8.3327428957e+01   5.9884300605e+01    0.1478497    0.1174179   4.50 0.0003224284    1.510    0.338
       176 -10.5300    121.6064     63.8377   4.1376257805e+01   4.6053829961e+01    0.4208733    0.1892368 -32.56  0.001559477    2.424    0.587
       177 -11.8701     45.3148     49.3674   6.2455783071e+01   6.2085631059e+01     0.362959    0.1895251 -38.13 0.0005106336    1.682    0.406
       178 -10.9780     53.4595     49.9513   5.9354054454e+01   6.0965281508e+01     0.646336    0.1217871 -47.86  0.001860654    5.260    0.810
       179 -11.0453     73.2533     55.9034   5.3938823850e+01   5.6967151052e+01    0.7912832    0.1841096 -41.20  0.002425967    4.129    0.758
       180 -10.8413     91.8921     47.6857   4.4547969993e+01   5.5056351381e+01    0.6353615    0.1552732 -39.63  0.001958379    4.086    0.755
       181 -10.2565     63.4966     47.9949   5.4712425498e+01   5.9909254879e+01    0.1986663    0.1005119 -23.12 0.0008106243    2.608    0.617
       182 -10.3524    113.3209     42.5862   3.6280681793e+01   5.1339226433e+01    0.4026081    0.2162433  -0.01  0.001285091    4.240    0.764
       183 -10.4045    122.8758     41.8172   3.3496338957e+01   4.9262225727e+01    0.3595773    0.1976268   1.65  0.001209165    3.762    0.734
       184 -10.3609     16.6791     42.2854   7.2534232961e+01   6.6117843522e+01    0.3567939   0.04632008 -50.89   0.00125042    3.999    0.750
       185 -10.7056      4.6850     40.0667   7.7351884471e+01   6.7281841697e+01    0.2836933   0.09538852 -62.96  0.001252759    2.973    0.664
       186  -9.9368     83.7730     40.4005   4.4468776573e+01   5.7752561330e+01    0.1969351    0.1166555  31.96 0.0007778032    1.699    0.411
       187 -10.3571     27.4935     29.0082   6.2780570753e+01   6.7609941553e+01    0.1830509   0.07301999 -30.53 0.0008106574    2.627    0.619
       188  -9.9837     12.6776     21.2849   6.7035833443e+01   7.0174492205e+01   0.09071115   0.09004592  32.99 0.0003111358    1.597    0.374
