#   1 NUMBER                 Running object number                                     
#   2 MAG_AUTO               Kron-like elliptical aperture magnitude                    [mag]
#   3 X_IMAGE                Object position along x                                    [pixel]
#   4 Y_IMAGE                Object position along y                                    [pixel]
#   5 X_WORLD                Barycenter position along world x axis                     [deg]
#   6 Y_WORLD                Barycenter position along world y axis                     [deg]
#   7 A_WORLD                Profile RMS along major axis (world units)                 [deg]
#   8 B_WORLD                Profile RMS along minor axis (world units)                 [deg]
#   9 THETA_WORLD            Position angle (CCW/world-x)                               [deg]
#  10 FWHM_WORLD             FWHM assuming a gaussian core                              [deg]
#  11 ELONGATION             A_IMAGE/B_IMAGE                                           
#  12 ELLIPTICITY            1 - B_IMAGE/A_IMAGE                                       
         1 -13.9812    135.9817    127.7049   1.1164686631e+02   3.0366811600e+01     1.532679    0.2879348 -48.86  0.003971262    6.202    0.839
         2 -14.6341    163.9801     40.0866   8.0350185745e+01   3.9348410500e+01     1.363068    0.9897048  -6.63  0.003342887    1.454    0.312
         3 -14.3461    177.9043      7.1409   6.6354480148e+01   3.9412165145e+01       1.2053    0.9647488  51.08  0.005115025    1.206    0.171
         4  -9.8123    150.8785    247.5346   1.2606951744e+02   9.9770472168e+00    0.1398962   0.07290024  42.63 0.0003044786    1.368    0.269
         5 -19.7223     73.6085    181.5517   1.3286166884e+02   2.9931893463e+01     13.44398     5.726658 -69.50   0.07299022    2.475    0.596
         6 -13.2317     11.7344    206.1753   1.4534301398e+02   3.2209430450e+01    0.3634935    0.2082347  34.63   0.00238055    1.936    0.483
         7  -9.5877      9.3679    201.7895   1.4555201624e+02   3.3120727976e+01    0.1608941   0.09094559 -79.62 0.0004140521    1.642    0.391
         8 -11.7445    163.3658    209.3192   1.1970209007e+02   1.2694823459e+01    0.2865159    0.1632193  60.25  0.001573391    2.318    0.569
         9 -11.9679    111.0934    209.3712   1.2877709599e+02   2.0444872617e+01     0.225296    0.1817842  20.62  0.001115746    1.650    0.394
        10 -10.5240    101.9031    207.7139   1.3021710670e+02   2.1951730334e+01    0.2887442    0.1456531  65.04 0.0008646025    2.384    0.581
        11 -10.8011     13.5135    244.5692   1.4640809785e+02   2.6333083923e+01    0.1180564   0.07889901  78.74  0.000567849    1.255    0.203
        12 -11.6448    156.6776    199.1661   1.1951714661e+02   1.5090219237e+01    0.2339414    0.1240392 -50.34  0.001146703    2.404    0.584
        13 -11.2713    158.3154    204.2978   1.1991609982e+02   1.4138690539e+01    0.3153479    0.1706004  57.67  0.001698497    2.207    0.547
        14 -12.8867    163.3310    203.6486   1.1895514778e+02   1.3433603442e+01    0.3167111    0.2570503 -59.06 0.0008911783    1.638    0.389
        15 -13.3898    161.6798    198.9411   1.1860086763e+02   1.4322180011e+01    0.4210225    0.2971873 -78.06  0.001833921    2.450    0.592
        16 -10.6512     14.0000    240.9770   1.4622781029e+02   2.6788762289e+01    0.1408922   0.07889853 -89.66 0.0009828975    1.620    0.383
        17 -11.0061    138.9352    198.9646   1.2265871849e+02   1.7896831966e+01    0.4628144    0.2002969  56.13  0.002135009    2.840    0.648
        18 -10.9623    119.2671    244.1037   1.3065128048e+02   1.4638927707e+01    0.1266928   0.09003758  54.88  0.001024082    1.128    0.113
        19 -11.1204    153.0821    194.3081   1.1949521812e+02   1.6341420120e+01    0.1698932     0.125818  44.97 0.0003937579    1.117    0.105
        20 -12.0651    168.9653    202.6395   1.1783736060e+02   1.2668605048e+01    0.1781621    0.1704766 -86.53 0.0002455262    1.351    0.260
        21 -14.2510    207.0228    179.7195   1.0762474839e+02   9.1881696556e+00    0.7530097    0.6634543  18.55  0.004249027    1.132    0.117
        22 -13.4793    196.6264    172.3078   1.0813681689e+02   1.1946754667e+01    0.6477093    0.3752463 -43.33  0.002789426    2.159    0.537
        23 -10.3802    139.7290    250.0398   1.2801916754e+02   1.1214970958e+01    0.1834507    0.1024365  55.83  0.001282285    1.669    0.401
        24 -12.5440     30.3482    183.5307   1.4107208188e+02   3.4323593654e+01    0.3607419    0.1620743  48.14  0.001050203    1.802    0.445
        25 -11.1803     28.5209    179.4070   1.4115337190e+02   3.5227376343e+01    0.2637418    0.1732647  38.74  0.001892693    1.607    0.378
        26 -10.2584    131.9775    236.9965   1.2801314318e+02   1.3808889714e+01    0.1219337   0.09434427  61.66 0.0003448222    1.260    0.206
        27 -11.3032    108.0787    182.2952   1.2632721680e+02   2.5149527604e+01    0.2408245    0.1601324  63.72 0.0003977282    1.494    0.331
        28 -10.3995    135.2120    235.2477   1.2732788799e+02   1.3578337915e+01    0.1330829    0.1019349  53.35 0.0005763075    1.125    0.111
        29 -11.7649      4.1053    180.4563   1.4557608950e+02   3.7154565069e+01    0.2125709    0.1702885  28.32  0.001606906    1.751    0.429
        30 -10.6746     10.7130    174.7135   1.4414042946e+02   3.7637625323e+01    0.1482796    0.1005306  83.87 0.0003929004    1.138    0.121
        31 -12.9978    177.7647    171.9349   1.1149891609e+02   1.5354060454e+01     0.431278    0.2735465 -51.50  0.002351675    2.097    0.523
        32 -12.8539    138.4767    171.6816   1.1896222232e+02   2.2174733079e+01    0.4367459    0.3159303  84.86  0.001962886    1.929    0.482
        33 -14.0829    144.5566    169.1273   1.1737311821e+02   2.1570259807e+01    0.7454492    0.4673224  69.21  0.003714162    2.363    0.577
        34 -12.6585    155.1520    186.1274   1.1795211805e+02   1.7181362079e+01    0.3315738    0.1715645  46.71   0.00178233    1.661    0.398
        35 -11.3494    122.8864    165.9352   1.2120532405e+02   2.5684755705e+01    0.3157965    0.1665891  54.53  0.001231017    1.935    0.483
        36  -9.7621     17.6781    234.1501   1.4547420327e+02   2.7426563698e+01    0.2414592   0.05062481  54.23  0.001372118    2.914    0.657
        37 -11.1946    223.8393    163.8815   1.0184400606e+02   8.1312957459e+00    0.1985732    0.1769019 -18.07 0.0004666034    1.316    0.240
        38  -9.8096      3.2253    164.3063   1.4501831141e+02   4.0120835375e+01   0.08714186   0.06191123 -71.62 0.0002403919    1.474    0.322
        39 -10.0594     13.3589    163.2744   1.4304516314e+02   3.9512014497e+01    0.1336769   0.07371931  86.60 0.0003202247    1.466    0.318
        40 -10.5783    237.6756    159.3105   9.8661371359e+01   6.1996544211e+00    0.1077173    0.1036327 -75.77   0.00058553    1.655    0.396
        41 -11.9610    164.6786    158.0310   1.1153002547e+02   1.9793963865e+01    0.2645254    0.1797061  42.66 0.0005794116    1.312    0.238
        42 -14.4073    134.5864    146.5865   1.1560594580e+02   2.7146569621e+01     1.294615    0.4393209 -55.69  0.004484564    4.149    0.759
        43 -14.3742    143.4274    143.7753   1.1321048180e+02   2.6064946453e+01    0.9470651    0.4814602 -57.82  0.004108963    2.627    0.619
        44 -12.4422    125.0448    247.2617   1.3002722971e+02   1.3495670708e+01    0.2105517    0.1300205 -57.18  0.001614726    2.196    0.545
        45 -11.5733    174.4779    148.8072   1.0786103832e+02   1.9408288132e+01    0.2766539    0.2369962  56.98 0.0009489802    1.281    0.219
        46  -9.0553     25.7904    232.1567   1.4421052056e+02   2.6963338634e+01    0.1287717   0.09952339 -77.51  0.001207299    1.597    0.374
        47 -10.2663    174.6853    141.2913   1.0630245404e+02   2.0551665102e+01    0.1281499    0.1081482  81.00  0.000277244    1.593    0.372
        48 -11.6404      4.9901    137.5363   1.4321641985e+02   4.5121771503e+01    0.2190533    0.1667151 -81.11 0.0007002737    1.187    0.158
        49 -10.2481     28.2264    229.7184   1.4374799640e+02   2.7087471139e+01   0.08843985   0.04582288  65.44 0.0002607707    1.434    0.302
        50 -12.2254    160.8622    127.8692   1.0626471890e+02   2.5515548247e+01    0.3654265    0.2831299 -44.93  0.001979541    1.386    0.278
        51 -10.8014     24.5378    226.9499   1.4418807849e+02   2.7845176655e+01    0.3086213   0.09829392 -66.21  0.001891586    3.457    0.711
        52 -10.9468    219.2602    224.0468   1.1257349660e+02   2.4797043136e+00    0.1451676     0.113569  22.59 0.0004090326    1.112    0.101
        53 -10.8478     19.7657    222.9209   1.4474865425e+02   2.8889746074e+01    0.1173685   0.09352167  76.03 0.0005698596    1.265    0.209
        54 -11.8207    171.7245    117.2762   1.0156626963e+02   2.5090248644e+01    0.3398125    0.2797391  89.31 0.0009196764    1.694    0.410
        55 -11.2862     22.8904    155.2376   1.4066057258e+02   4.0228138766e+01    0.2503875    0.1748068  82.52  0.000992459    1.122    0.109
        56 -10.2743     14.2963    221.6680   1.4552889703e+02   2.9572028070e+01    0.1264472   0.07621023 -70.08 0.0006653462    1.927    0.481
        57 -12.5348    133.7766    249.5254   1.2888405316e+02   1.2071330443e+01    0.1588056    0.1472209 -60.42  0.001486995    1.505    0.336
        58 -10.6252    205.5295    110.1968   9.3266451238e+01   1.8928058702e+01    0.2616598    0.1938889  42.34 0.0006697386    1.309    0.236
        59 -10.2437      1.2750    214.7983   1.4726623658e+02   3.1734761078e+01    0.1043306   0.06102429 -82.87 0.0004091548    1.591    0.372
        60 -10.4566    154.9247    104.7804   1.0209388559e+02   3.0826739633e+01    0.2095529     0.186332  13.70  0.000329668    1.155    0.134
        61 -10.8695      9.0085    101.9745   1.3949522141e+02   5.2233423098e+01    0.1888724    0.1581224  45.68 0.0009928661    1.412    0.292
        62  -9.8761     10.3730    210.8924   1.4573666768e+02   3.1577896104e+01    0.1165906    0.0705223 -88.54 0.0006339879    1.439    0.305
        63 -10.0118    122.0548     68.5458   9.9803811711e+01   4.4559430525e+01    0.2156473    0.1469722  49.25 0.0009746437    1.559    0.358
        64 -14.2885    152.4641     54.8422   8.7847225402e+01   4.0051479341e+01     1.181013    0.9337528  15.92  0.001035188    1.365    0.267
        65 -10.3939    114.0853    249.1008   1.3185897057e+02   1.4699610602e+01   0.09192066   0.07992196  74.24 0.0002925002    1.311    0.237
        66 -12.7099    167.6045     31.9487   7.6799262405e+01   3.9474467315e+01    0.4526052    0.3586616  -3.36 0.0009067234    1.279    0.218
        67 -10.8445     13.5213     59.9382   1.3253229514e+02   6.1193440080e+01    0.1629278    0.1395486 -67.78 0.0004361563    1.116    0.104
        68 -10.2713    144.4261     33.8691   8.2086145662e+01   4.5160816143e+01    0.2470728     0.209717  71.93 0.0006198646    1.361    0.265
