#   1 NUMBER                 Running object number                                     
#   2 MAG_AUTO               Kron-like elliptical aperture magnitude                    [mag]
#   3 X_IMAGE                Object position along x                                    [pixel]
#   4 Y_IMAGE                Object position along y                                    [pixel]
#   5 X_WORLD                Barycenter position along world x axis                     [deg]
#   6 Y_WORLD                Barycenter position along world y axis                     [deg]
#   7 A_WORLD                Profile RMS along major axis (world units)                 [deg]
#   8 B_WORLD                Profile RMS along minor axis (world units)                 [deg]
#   9 THETA_WORLD            Position angle (CCW/world-x)                               [deg]
#  10 FWHM_WORLD             FWHM assuming a gaussian core                              [deg]
#  11 ELONGATION             A_IMAGE/B_IMAGE                                           
#  12 ELLIPTICITY            1 - B_IMAGE/A_IMAGE                                       
         1 -14.5605    134.1108    146.6530   1.1719595637e+02   2.6825945589e+01     1.608792     0.599122 -58.49  0.005002887    4.619    0.784
         2 -14.7680    157.5981     45.8060   8.4387716261e+01   3.9889172649e+01     1.395687     1.113826 -26.86  0.003849893    1.306    0.234
         3 -14.7008    169.7376     13.9378   7.1524179356e+01   4.0482887658e+01     1.309177     1.064753  41.40  0.004558179    1.333    0.250
         4 -13.2158    188.9039     13.5515   6.9252786791e+01   3.5299322246e+01    0.5549111    0.3471268 -60.25  0.002250565    1.631    0.387
         5 -11.5605     21.7159    234.0160   1.5116415773e+02   2.6212586143e+01    0.1381186   0.09834863  65.00  0.001113863    1.169    0.145
         6 -19.9882     94.3799    227.2081   1.3669749694e+02   1.8896408129e+01     8.088504     5.406147  48.75   0.05500793    1.143    0.125
         7 -10.8201      4.9599    232.7212   1.5419651827e+02   2.7962601602e+01    0.1236712   0.08255962  45.67 0.0005313101    1.178    0.151
         8 -19.0996     77.9220     93.7662   1.2208665104e+02   4.8783661726e+01     18.11551    0.8368193 -56.53   0.02350456   20.471    0.951
         9 -12.4495    187.8664    174.7198   1.1079997377e+02   1.2181625014e+01    0.3035267    0.2056245 -57.68  0.001571725    2.457    0.593
        10 -12.0246    165.1715    171.7110   1.1480191740e+02   1.6645375583e+01    0.2525623    0.1853464  54.88  0.001403837    1.525    0.344
        11 -12.1858    230.5381    167.4032   1.0189133184e+02   5.9442999166e+00    0.3243421    0.1539197 -41.38  0.001561977    2.770    0.639
        12 -11.4998    218.4974    220.8943   1.1275784819e+02   1.8350486838e+00    0.2593616    0.1383224 -37.32  0.001593479    2.465    0.594
        13 -13.4459    163.8077    156.8597   1.1239087602e+02   1.9313557934e+01    0.4245898    0.3335646  38.04  0.001225269    1.119    0.106
        14 -12.5399    153.9512    152.5397   1.1371713399e+02   2.1935032226e+01    0.3911123    0.2663226  68.59  0.001818237    2.162    0.537
        15 -13.8441    160.3344    151.4831   1.1210552804e+02   2.0889785122e+01    0.5436075    0.3576156  36.47  0.002760825    1.375    0.273
        16 -11.4444     13.3307    239.9769   1.5284875089e+02   2.6051527701e+01    0.1278565    0.1005879  61.34 0.0006366079    1.231    0.188
        17 -11.7002    192.3100    158.0266   1.0685006820e+02   1.3791449428e+01    0.3423331    0.2283696   7.48  0.001313632    1.790    0.441
        18 -11.2484    192.4172    153.2279   1.0588616607e+02   1.4477900292e+01    0.2456504    0.1676785 -39.39  0.001028021    1.644    0.392
        19 -13.5554    151.4282    144.5504   1.1271785427e+02   2.3856108990e+01    0.5129563      0.38648 -55.50  0.002688098    1.584    0.369
        20 -14.4094    135.9494    129.1277   1.1318392844e+02   2.9901568211e+01     2.454925    0.4571398 -51.04  0.005017554    9.073    0.890
        21 -12.8180    134.5333    108.6828   1.0877472580e+02   3.4310466686e+01     1.187874    0.1742309 -45.66  0.002525647    7.332    0.864
        22 -11.6698    167.9516    238.5701   1.2386367911e+02   7.0166930924e+00     0.176032    0.1563468  -0.41 0.0006020741    1.361    0.265
        23 -10.5541     18.2407    153.6086   1.4865444708e+02   4.1835229707e+01    0.2003941     0.127857 -55.53 0.0006564491    1.907    0.476
        24 -11.0844     17.7647    150.2816   1.4859515022e+02   4.2604512625e+01    0.2984477    0.1449205 -56.93   0.00154014    2.415    0.586
        25 -10.5780     24.2939    216.1638   1.5007433376e+02   2.8962106994e+01    0.1311419   0.09250854  58.53 0.0002943812    1.043    0.041
        26 -13.3274    173.7818    149.0172   1.0875506376e+02   1.8694104126e+01    0.4197023    0.3711789 -40.05  0.001513441    1.291    0.225
        27 -12.6541     27.8413    145.0172   1.4553280274e+02   4.2883650711e+01    0.3957312    0.3114884  77.09  0.001453607    1.076    0.071
        28 -11.2112      7.8987    149.3183   1.5113970651e+02   4.3598008248e+01    0.2222743    0.1455045 -82.15  0.001420719    1.408    0.290
        29 -12.3157    174.0925    140.8250   1.0700151787e+02   1.9982035610e+01     0.235021    0.2068471 -27.83 0.0005985114    1.214    0.176
        30 -13.0570     11.4037    206.0072   1.5232716607e+02   3.1970061792e+01    0.4005755    0.2347501  24.89  0.002081984    1.906    0.475
        31 -13.2056    145.2523    189.6453   1.2185476084e+02   1.7229988860e+01    0.5871108    0.3167709  29.64  0.001624801    1.809    0.447
        32 -12.1444    148.0524    133.8170   1.1127037612e+02   2.6520572529e+01    0.2196069    0.1911261  64.00 0.0004181612    1.242    0.195
        33 -13.4199    160.5123    128.2058   1.0717907018e+02   2.4963533758e+01    0.4578308    0.4134751 -43.63  0.001787615    1.211    0.174
        34 -11.4652    152.0569    237.8476   1.2666748726e+02   9.3497881553e+00    0.2960721    0.1498601  25.47   0.00114351    1.974    0.493
        35 -13.6455     38.8607    123.6483   1.4032976305e+02   4.6763533436e+01    0.5632911    0.3702358  14.81  0.002997953    1.941    0.485
        36 -13.3928    139.9494    200.2947   1.2445389204e+02   1.6414015790e+01    0.6574876    0.2675234  40.10 0.0008577968    1.928    0.481
        37 -12.2515    135.6718    195.9918   1.2476987600e+02   1.7779526083e+01    0.2958315    0.2467225  33.54  0.001148543    1.079    0.074
        38 -10.9437    167.7370    112.8495   1.0196691665e+02   2.6135715928e+01    0.2786766    0.2001195  78.88  0.001226512    2.075    0.518
        39 -11.3078      3.6326    112.6356   1.5057494865e+02   5.2210575865e+01     0.304204    0.1722326  -2.32  0.001626235    2.554    0.608
        40 -10.9096    205.4218    110.1703   9.4014592423e+01   1.8312340308e+01    0.3040241    0.1894443  40.22 0.0009778257    1.598    0.374
        41 -11.8252     31.8568    104.3820   1.4035502163e+02   5.2108092473e+01    0.3252405    0.2176373   0.41  0.001701447    2.092    0.522
        42 -11.0505    155.9182    247.3113   1.2699923269e+02   7.6696519504e+00    0.1565036    0.1251186  30.22 0.0003488701    1.153    0.132
        43 -10.3087     24.7045    202.9363   1.4947824703e+02   3.1293816983e+01    0.1415836     0.103447  68.92 0.0002609154    1.142    0.124
        44 -14.7848    143.5058    143.3965   1.1432159301e+02   2.5628919754e+01     1.084737    0.5943164 -56.37   0.00466551    2.345    0.573
        45 -11.2022     41.9757     92.4122   1.3489737096e+02   5.4044748631e+01     0.301018    0.1812397  85.96  0.001169799    1.878    0.467
        46 -12.3228     52.2480     91.6036   1.3088348935e+02   5.3050142815e+01     0.328537    0.2606581  36.02 0.0008128561    1.316    0.240
        47 -10.6527     29.8908    200.3807   1.4827002052e+02   3.1253551883e+01    0.1455065     0.107431  46.54 0.0003501532    1.154    0.134
        48 -10.1984     22.5163     83.5585   1.4110202281e+02   5.8010633954e+01    0.1281151    0.1123001 -79.33 7.569014e-05    1.026    0.025
        49 -10.4499    105.9683     82.3332   1.0969969411e+02   4.6056249188e+01    0.2127348    0.1894386  49.38 0.0003547033    1.099    0.090
        50 -10.9935    142.2245     81.1031   9.9215677665e+01   3.7943298497e+01    0.2355791    0.2145703   9.49 0.0005460721    1.203    0.169
        51 -14.5549    147.2886     60.6522   9.1536581732e+01   4.0306863514e+01     1.267804     1.089564 -23.11   0.00106348    1.238    0.192
        52 -11.0323    162.4814    245.4994   1.2563248866e+02   6.9765094171e+00    0.2025444    0.1301593  34.31 0.0007548638    1.092    0.084
        53 -13.1722    161.4780     36.9399   8.0651328612e+01   4.0066574307e+01    0.4487857    0.4372787 -55.95 0.0008486311    1.044    0.042
        54 -11.7370     28.2824    236.0171   1.5001380284e+02   2.5245627072e+01    0.1707714     0.109017 -88.85  0.001298408    1.678    0.404
        55 -11.0495     13.4150     59.8781   1.4153974042e+02   6.4412585696e+01    0.1897674    0.1652219  52.86 0.0004222051    1.258    0.205
        56 -10.9961     20.7106    195.4706   1.5002421345e+02   3.3070399261e+01    0.1379951    0.1225166  71.67 0.0005393759    1.276    0.217
