#   1 NUMBER                 Running object number                                     
#   2 MAG_AUTO               Kron-like elliptical aperture magnitude                    [mag]
#   3 X_IMAGE                Object position along x                                    [pixel]
#   4 Y_IMAGE                Object position along y                                    [pixel]
#   5 X_WORLD                Barycenter position along world x axis                     [deg]
#   6 Y_WORLD                Barycenter position along world y axis                     [deg]
#   7 A_WORLD                Profile RMS along major axis (world units)                 [deg]
#   8 B_WORLD                Profile RMS along minor axis (world units)                 [deg]
#   9 THETA_WORLD            Position angle (CCW/world-x)                               [deg]
#  10 FWHM_WORLD             FWHM assuming a gaussian core                              [deg]
#  11 ELONGATION             A_IMAGE/B_IMAGE                                           
#  12 ELLIPTICITY            1 - B_IMAGE/A_IMAGE                                       
         1 -10.5840      4.5050     86.5721   1.4060507883e+02   5.7481050013e+01     1.751297    0.2786807 -67.31  0.004581929    3.719    0.731
         2 -10.7539     37.2481      9.6385   1.0423625086e+02   6.9872410720e+01    0.8683056    0.3944885 -43.35  0.002593412    2.332    0.571
         3 -10.7878     19.1844      6.9656   1.1194602521e+02   7.2238134305e+01    0.9120415       0.7509  73.00  0.005521466    2.764    0.638
         4 -11.0091     24.0952     32.1206   1.2018126252e+02   6.7544560316e+01     1.546936    0.4383575 -41.47  0.003686645    2.960    0.662
         5 -10.1075      4.4330     42.0355   1.3207691331e+02   6.6962642621e+01    0.8483894    0.3000607 -66.42  0.003998242    2.600    0.615
         6  -9.3050      2.1098     14.3745   1.2445723000e+02   7.2302782675e+01    0.3942179    0.1959011 -65.39  0.002128254    2.618    0.618
         7 -10.3374      5.1924      4.6493   1.1858347578e+02   7.3740736885e+01    0.4339575    0.3400782 -17.20  0.001527172    1.144    0.126
         8 -10.3546     45.4363     29.4183   1.0962583611e+02   6.5778808299e+01    0.4316682    0.3815463  62.24  0.002851146    1.719    0.418
         9 -10.2794     10.6763     18.5439   1.2157218248e+02   7.1029450863e+01     1.194451    0.4142092 -23.77  0.003693254    7.390    0.865
        10 -10.4976     89.7777     38.1330   9.6645860890e+01   5.7281725506e+01     1.073404    0.5147793  26.84  0.003921045    3.299    0.697
        11 -10.0060     79.5230     24.0160   9.4138095394e+01   6.1308657795e+01    0.6873118    0.3266787  27.17  0.002141019    2.915    0.657
        12  -9.1627    102.7887     21.8397   8.6069321118e+01   5.6893552807e+01    0.5997918    0.2721996 -22.34  0.002063063    2.411    0.585
        13  -8.6710    104.3263     15.2411   8.2888443995e+01   5.7327892003e+01    0.3513173    0.1763314  24.95  0.001203938    2.705    0.630
        14  -8.7807     67.7981      8.8018   9.1166979916e+01   6.5363555146e+01    0.3177464    0.1304574  47.02   0.00110878    2.389    0.581
        15  -9.6701     63.8220      3.0193   8.9702120172e+01   6.6706968427e+01    0.4592758    0.2548023 -34.92  0.001648514    1.937    0.484
        16  -9.5958     63.1081     21.4985   9.8943054237e+01   6.4498744505e+01    0.4271992    0.2844789 -47.36  0.001892249    1.875    0.467
        17  -9.9152     64.3337     13.5663   9.4759453141e+01   6.5376761384e+01    0.4380018    0.2905768 -20.70  0.002482525    1.395    0.283
        18 -10.3661     50.5834     15.6349   1.0124974123e+02   6.7237289754e+01     1.061208    0.6009324   0.70  0.005137523    2.482    0.597
        19  -9.4832    152.6688     27.9199   7.7034984587e+01   4.4100517694e+01    0.4117214    0.2165451  -6.20  0.001523705    2.949    0.661
        20  -8.8992    144.3101     25.6922   7.7860732650e+01   4.6520542597e+01    0.3743564     0.176042 -29.68  0.001086142    2.183    0.542
        21  -9.1431     96.1398     15.4658   8.5212911597e+01   5.9080680939e+01    0.6886362    0.2863809 -14.92  0.001763725    3.302    0.697
        22  -8.8008     97.4306      5.8216   8.0618538344e+01   5.9816997732e+01    0.2882428    0.2106688  11.11 0.0007132353    1.373    0.271
        23  -7.9982     95.7024      2.7075   7.9678653577e+01   6.0482297657e+01    0.2006369    0.1637161  25.10 0.0004019522    1.092    0.084
        24  -8.7909    128.6509     24.9547   8.0877631216e+01   5.0522154009e+01    0.5606107    0.3123678  -9.03  0.001388696    2.354    0.575
        25  -8.4210     76.8796      6.8364   8.7103761680e+01   6.3916152344e+01    0.3076382    0.1815055 -13.52  0.001265512    1.722    0.419
        26  -8.6120     78.6975      3.0695   8.4702978572e+01   6.3952612016e+01    0.2427342     0.194037 -46.45  0.000585207    1.654    0.395
        27  -9.9213     73.4743     18.2137   9.3621395939e+01   6.3190584900e+01     0.765986    0.2176084 -31.17  0.002799471    3.441    0.709
        28  -8.3772     72.0661      8.5251   8.9531656447e+01   6.4629207855e+01    0.2322883    0.1624245 -13.02 0.0005725037    1.351    0.260
        29  -8.6988    112.3654     15.5863   8.1003127636e+01   5.5469414024e+01    0.2725399    0.2093824 -42.20 0.0005615006    1.485    0.327
        30  -8.8784    110.4804      6.5580   7.7721274288e+01   5.6820042127e+01    0.5204419     0.235225  -4.16  0.001992212    3.218    0.689
        31  -9.1237    114.1228      9.9524   7.8284628572e+01   5.5646870892e+01    0.3774057    0.2115403  33.65 0.0003678681    1.850    0.460
        32  -9.4761     85.1778     13.0475   8.7380894811e+01   6.1611352934e+01    0.4221894    0.2537672 -49.40  0.001508898    2.425    0.588
        33  -8.3019     85.2306      6.1354   8.4171518026e+01   6.2347666312e+01    0.4566945    0.3049832  -3.13  0.002534092    1.532    0.347
        34  -8.5920     88.6645      2.7904   8.1619220684e+01   6.1968688371e+01    0.3394568    0.2118762 -31.00  0.001463616    1.715    0.417
        35  -8.8297    115.1095      4.4320   7.5805921703e+01   5.5934052780e+01     0.321532    0.2085124 -42.35 0.0009395727    1.813    0.449
        36  -9.2364    135.0677      1.9840   7.0969983200e+01   5.1281649905e+01    0.4593746    0.2379653  39.12     0.002072    1.966    0.491
        37  -9.8589    132.8621     10.6069   7.4594505980e+01   5.1050573779e+01    0.5202535    0.2367032 -37.10  0.002197263    2.358    0.576
        38  -9.2211    124.9834     13.1541   7.7163339827e+01   5.2735090565e+01    0.3512785    0.2165965 -32.09  0.001667359    1.717    0.418
        39  -9.2175    126.7865      8.9939   7.5178923531e+01   5.2706690720e+01    0.2816533    0.1638726  46.99 0.0006457353    1.551    0.355
        40  -9.3431    125.5052      5.5077   7.4083505104e+01   5.3342717333e+01    0.4012257    0.2184824  15.63  0.001523116    2.449    0.592
        41  -7.9835     80.4718     12.4878   8.8611967696e+01   6.2597240350e+01    0.2301836    0.1038609 -38.12  0.001023935    2.445    0.591
        42  -9.6019    142.0391     29.1432   7.9541893442e+01   4.6674504187e+01    0.3845628    0.3083807  -4.58  0.000348744    1.388    0.280
        43  -8.4015    141.1701     11.9215   7.3525300616e+01   4.8830122772e+01    0.2187973    0.1855247 -72.43  0.001217421    1.328    0.247
        44  -8.5668    101.9574      7.9852   8.0397392494e+01   5.8613034172e+01    0.3433924    0.1655637 -29.66   0.00103793    2.127    0.530
        45  -7.6622    143.0066      5.4615   7.0882459723e+01   4.8972269873e+01    0.1836369    0.1118201 -78.54 0.0003565328    2.220    0.549
        46  -9.1602    236.1648      2.4066   5.9396853207e+01   2.5434639647e+01    0.2712585    0.2236884 -50.48 0.0008934792    1.146    0.127
        47  -8.1563    104.3280      1.8285   7.7150762579e+01   5.8651934065e+01    0.2244277    0.1744957  46.73  0.001148748    1.142    0.124
        48 -10.3251    237.7312    126.0864   8.9590127539e+01   7.6889686138e+00    0.2673425    0.2452347  41.43 0.0005166148    1.162    0.139
        49  -8.7933    222.5100    250.2962   1.1572985563e+02  -6.5876331951e+00    0.2073837   0.07922001  40.15 0.0007400173    2.032    0.508
        50 -10.1004    200.7381    247.7149   1.1904598221e+02  -2.9576000791e+00    0.4371363    0.2110006  29.27  0.002319115    2.016    0.504
        51 -10.4278    187.4491    246.5373   1.2118254233e+02  -7.0701564249e-01    0.3431357    0.1585941  46.88  0.001555296    1.847    0.458
        52  -9.1626     59.8099    249.1062   1.4358159638e+02   1.8172266595e+01    0.1725921    0.1341219  72.45  0.001365189    1.163    0.140
        53  -9.9876     58.1008    124.5978   1.3078655133e+02   4.3955605970e+01    0.5554043    0.3099487  81.52  0.002295547    2.555    0.609
        54  -9.6572     27.4672    123.1517   1.3888209107e+02   4.7550517141e+01    0.5090983    0.2342871  69.73  0.002091122    3.043    0.671
        55 -10.7823    133.4655    109.4347   1.0698858933e+02   3.4440851757e+01    0.8323482    0.4520608 -47.35  0.002305303    1.839    0.456
        56 -10.0993    139.2413    103.7436   1.0402779128e+02   3.4371176828e+01    0.7379889    0.3346695 -45.27  0.002137785    2.203    0.546
        57  -9.5063    135.1243    121.9277   1.0969623386e+02   3.1393569801e+01    0.4198961     0.306416 -61.63  0.001376133    1.486    0.327
        58  -9.8568    130.2975    118.7159   1.1012705256e+02   3.3110214859e+01    0.4243981    0.3093759 -83.37  0.001102461    1.828    0.453
        59  -9.4724     40.8467    121.3424   1.3500375845e+02   4.6681296924e+01    0.5525231    0.2572528 -87.76  0.001887845    2.951    0.661
        60  -7.3880    152.4683    121.5340   1.0541319232e+02   2.7682486373e+01     0.152804    0.1497265  31.65 0.0001702603    1.053    0.050
        61  -9.9569    140.6001    118.4094   1.0748557041e+02   3.0969171006e+01    0.5080307    0.3288121 -66.07  0.001136963    1.993    0.498
        62  -6.9553    166.3020    118.3100   1.0144205160e+02   2.5180697587e+01    0.1553527    0.1237701   8.61 0.0007015591    1.606    0.377
        63  -8.2758      1.4159    115.8039   1.4496399266e+02   5.1155365854e+01    0.2856124   0.07883426 -71.71  0.001261154    2.579    0.612
        64  -8.0777    152.5461    115.4746   1.0387552765e+02   2.8919319574e+01    0.1535836    0.1508186  79.59 6.809093e-05    1.006    0.006
        65 -10.0549     91.8103    112.9696   1.1906856403e+02   4.1736220310e+01    0.6151083    0.4123927  80.37  0.001760024    2.117    0.528
        66  -8.5484     91.8676    104.3211   1.1701871056e+02   4.3702909599e+01    0.6020145     0.408134  10.06  0.002613721    2.428    0.588
        67 -10.1935     78.0834    112.9414   1.2295912623e+02   4.3933948647e+01    0.5276332    0.3180359 -81.33  0.001737281    2.244    0.554
        68  -8.0626     78.0487    105.3254   1.2129524045e+02   4.5700667432e+01    0.3002288    0.1934903 -25.68  0.001327358    2.346    0.574
        69  -8.3380    140.4636    124.9381   1.0910736181e+02   2.9604447289e+01    0.2341566    0.1502381 -45.15 0.0007351881    1.586    0.369
        70 -10.0458     14.1859    111.4524   1.4102953901e+02   5.1286220466e+01    0.4814793    0.2375524  84.38  0.001548194    2.278    0.561
        71  -9.0317     13.9979    105.0270   1.4026509168e+02   5.2754192176e+01    0.2906811    0.1521135 -46.57  0.001091633    1.978    0.494
        72  -8.5342    158.8699    112.3677   1.0160472161e+02   2.8100060633e+01    0.3000672    0.2221219 -52.28  0.000637479    1.412    0.292
        73  -8.7888     65.5143     85.5278   1.2041061955e+02   5.2003345984e+01    0.5374328    0.3191572   0.72  0.002111926    3.503    0.715
        74  -9.1801     64.5182    103.8157   1.2499685125e+02   4.7975265101e+01    0.4419779    0.2709994 -67.56  0.002198937    1.585    0.369
        75 -10.5539     62.7524     95.7107   1.2375085680e+02   5.0073012364e+01    0.8719513    0.4914084  88.05  0.001500826    3.748    0.733
        76  -9.9168     65.8186    110.9193   1.2608411554e+02   4.6152177840e+01    0.5400901    0.3280327  84.39   0.00130757    2.422    0.587
        77  -9.6268     59.9922    109.9481   1.2759452439e+02   4.7138949539e+01    0.5158626    0.3762957 -89.98  0.002118305    1.496    0.331
        78  -7.8005    184.0569    111.6901   9.5940918635e+01   2.2287905983e+01    0.2095054    0.1946555  46.14 0.0003722766    1.072    0.067
        79  -8.1702    149.8368    110.4926   1.0323234079e+02   3.0566208069e+01    0.2630805    0.1824236 -48.02 0.0005387407    1.462    0.316
        80  -9.2219     35.8800    111.0642   1.3482201342e+02   4.9558988187e+01    0.1959917    0.1521811  82.78  0.000831717    1.279    0.218
        81  -9.1654    241.4109    106.9775   8.4507373380e+01   9.9272999530e+00    0.2524464    0.2028392  82.89 0.0008724809    1.586    0.369
        82  -9.6752     35.6396    105.2433   1.3394644526e+02   5.0926443797e+01    0.2865996    0.1910838 -20.50  0.001552405    2.216    0.549
        83  -7.8282    188.0486    106.7283   9.3841606818e+01   2.2259134771e+01    0.2122075    0.2011326  40.42 0.0004001764    1.060    0.057
        84 -10.7585     44.7582    102.4663   1.3071153437e+02   5.0650563576e+01     0.830473    0.4374839  78.20  0.003291162    3.465    0.711
        85  -9.4429     39.8352    106.5018   1.3291330281e+02   5.0225947800e+01    0.5803268    0.1877086 -69.78  0.001170131    3.139    0.681
        86 -10.8647     21.0939    101.6167   1.3770699300e+02   5.3007356115e+01     1.027481     0.459254  81.91  0.003465114    3.898    0.743
        87 -10.3587     20.2668     85.1944   1.3529782049e+02   5.6781384053e+01     0.888337     0.125333 -56.61  0.003153685    3.709    0.730
        88 -10.5807     25.6137     77.9274   1.3211077642e+02   5.7993321840e+01    0.7582637    0.3904518 -83.93  0.003497983    2.657    0.624
        89 -10.4548     31.6006     64.8112   1.2696421178e+02   6.0350884879e+01     1.045758    0.3797993 -40.92  0.003514649    2.831    0.647
        90  -8.2924    165.9803    104.1001   9.7810198829e+01   2.8069005899e+01    0.2671252    0.2196573 -47.96 0.0004731316    1.233    0.189
        91  -9.7638    149.4378    103.3424   1.0142503375e+02   3.2126161947e+01    0.4607738    0.2830745 -52.37 0.0009703821    1.754    0.430
        92  -9.5635      5.6880    103.7525   1.4248803794e+02   5.3584765797e+01    0.4112498    0.3016421  48.07  0.002257382    1.571    0.364
        93  -8.0163     73.8634    102.5768   1.2191465975e+02   4.6956422354e+01    0.2802462    0.1691083 -72.19 0.0007037962    1.916    0.478
        94  -8.5443    159.1310    101.4690   9.8643624805e+01   3.0223258904e+01    0.2864653    0.2318273 -72.20 0.0005238798    1.450    0.310
        95  -9.4678     81.4217    100.2663   1.1910795224e+02   4.6338715192e+01    0.3759224     0.263104 -83.64  0.001078053    1.840    0.456
        96  -8.1306     82.0022     94.3761   1.1747252370e+02   4.7579720900e+01    0.4084477    0.2392929 -22.15  0.001530314    3.237    0.691
        97  -9.3177     94.2713     97.2396   1.1453556262e+02   4.4881058136e+01    0.3321343    0.2643791 -82.59 0.0005125421    1.477    0.323
        98  -8.6986     96.2578     90.7547   1.1221368069e+02   4.5959271824e+01    0.4836341    0.3158568  -7.43  0.001877712    2.939    0.660
        99 -10.7572    172.0804    247.9528   1.2405325964e+02   1.5807802154e+00    0.5022057    0.2247358  48.08  0.002631868    1.887    0.470
       100  -7.6146     84.8311    245.4127   1.3910294302e+02   1.5432355411e+01    0.1410768   0.09074997  39.54 0.0004279815    1.565    0.361
       101 -10.7610     16.0635     67.3194   1.3330968162e+02   6.1009783065e+01     1.421571    0.3165621 -61.92  0.004345336    3.096    0.677
       102  -9.2301    157.1483    249.6723   1.2688332062e+02   3.7481647373e+00     0.250578   0.07892973  47.24    0.0010938    2.581    0.613
       103  -7.9119     16.3174    244.6437   1.5027107354e+02   2.3941642519e+01    0.1118674   0.04736737  65.38 0.0003901936    1.751    0.429
       104  -8.7716    229.7632    243.8176   1.1357037598e+02  -6.9835490782e+00    0.2598346   0.06135977  37.23  0.001006063    3.549    0.718
       105  -7.3060    127.3599    236.4960   1.3068641585e+02   1.0469192701e+01    0.1171287   0.09389736  55.49 -0.0003205684    1.042    0.040
       106  -9.5259    188.1085    233.6090   1.1926700647e+02   8.4628001025e-01    0.2574521    0.1936336 -72.26  0.001060129    2.256    0.557
       107  -7.5136      4.3196    235.6767   1.5175900162e+02   2.6665064104e+01    0.1091989      0.04682  64.97 0.0002046973    1.673    0.402
       108 -10.8790     21.9083     53.7052   1.2783875741e+02   6.3479400703e+01    0.7762702    0.4244215 -85.85   0.00282168    3.643    0.725
       109  -9.8339     14.9600     44.3397   1.2815788611e+02   6.5879271435e+01    0.4519311    0.2220948 -39.34  0.001232098    1.763    0.433
       110  -9.4924      6.7235     32.5755   1.2839416086e+02   6.8696360163e+01    0.2277002    0.1819367 -15.37   0.00077109    1.307    0.235
       111 -10.1680      7.1930     28.3531   1.2683807000e+02   6.9470993189e+01    0.3375796     0.268934  26.13   0.00097837    1.604    0.377
       112  -9.3395    241.5602     94.7693   8.1542504141e+01   1.1801434645e+01    0.2881773    0.2258186  12.36  0.001495214    1.556    0.357
       113  -7.4440    171.2695     95.6823   9.4354617918e+01   2.8408044771e+01    0.1567755    0.1220342 -71.38 0.0001960105    1.559    0.358
       114  -8.8057    164.5795     94.3321   9.5438936870e+01   3.0301406583e+01    0.3298162    0.2489319 -50.46   0.00101814    1.372    0.271
       115 -10.1948     34.5086     90.8249   1.3170651571e+02   5.4335856670e+01    0.6102153    0.2741161 -79.51  0.001889161    3.075    0.675
       116 -10.0715     36.8900     80.9498   1.2888244436e+02   5.6338058812e+01     0.577504    0.3099765 -22.84  0.002352684    3.037    0.671
       117  -8.6620    157.4194     90.9904   9.6107364470e+01   3.2686189221e+01    0.3530681    0.1877779 -41.63  0.001073032    1.876    0.467
       118  -9.3261    110.8074     89.8145   1.0772459643e+02   4.3388016748e+01    0.7190308    0.3819301  25.29  0.002454564    3.322    0.699
       119 -10.5988     55.2129     71.0027   1.2002255037e+02   5.6522010662e+01    0.7001327    0.4862482  75.26  0.001196077    2.327    0.570
       120  -8.9778     55.3208     62.5271   1.1751101899e+02   5.8292045027e+01    0.3786222    0.3614375  45.21  0.002051342    1.241    0.194
       121 -10.0576     62.4060     60.8658   1.1441851918e+02   5.7694175857e+01    0.9468729    0.3012574  32.87  0.003441855    3.741    0.733
       122  -8.6983    150.4994     89.1487   9.7189918183e+01   3.4711498072e+01     0.246046    0.2116145 -78.72 0.0006905334    1.319    0.242
       123 -10.0909     85.1912     86.6178   1.1443625782e+02   4.8782971946e+01    0.4509454    0.3481753  79.12 0.0009077857    1.712    0.416
       124  -9.4131     87.4339     78.7651   1.1149408450e+02   5.0096285854e+01    0.5827909    0.3648485  18.33  0.001786133    2.351    0.575
       125  -9.8797     81.6001     72.4842   1.1147381016e+02   5.2396687629e+01    0.4745394     0.318434 -70.65 0.0009154729    2.100    0.524
       126  -8.8858     83.9344     64.0578   1.0802531694e+02   5.3712982056e+01    0.4654165    0.3187085  -0.73  0.002153288    2.118    0.528
       127  -8.1119    163.3049     87.0628   9.3653224013e+01   3.1993150117e+01    0.2244792    0.1951637 -43.60  0.000423873    1.153    0.133
       128  -9.1999    138.7035     92.6912   1.0109214219e+02   3.6772293719e+01    0.3969684    0.2863107 -70.89 0.0008106077    1.814    0.449
       129  -7.1681    208.5757     85.5780   8.4414260053e+01   2.0980483114e+01    0.1473653    0.1445218 -31.61 0.0001990163    1.030    0.029
       130 -10.4487     48.0261     83.0383   1.2558832696e+02   5.4724750478e+01     1.059268    0.3958373 -55.45  0.003076105    2.186    0.543
       131 -10.2213    103.8637     82.7198   1.0766385505e+02   4.6255366535e+01    0.5550075     0.295808 -55.50 0.0007955527    2.113    0.527
       132  -9.3628    105.3222     71.0480   1.0362314540e+02   4.8343171871e+01    0.7136082    0.4161722 -28.70  0.002999622    2.025    0.506
       133  -8.0719    156.7617     70.4937   9.0150381103e+01   3.6640347137e+01    0.3696006    0.1956386 -55.78  0.001179872    2.555    0.609
       134  -8.8734    157.8114     82.9870   9.3691705264e+01   3.4111347003e+01    0.4973218    0.2619388 -32.05  0.001116755    2.067    0.516
       135  -8.4917    156.9815     76.1452   9.1831635801e+01   3.5576480860e+01    0.3336561    0.2149513 -42.67 0.0008090614    1.562    0.360
       136  -9.3093    140.4726     82.0947   9.7535552321e+01   3.8464862542e+01    0.5678042    0.3140637 -30.18  0.001355977    2.090    0.522
       137  -8.8214    139.8874     75.0153   9.5509911086e+01   3.9951888913e+01    0.5696327    0.2364223 -43.87  0.001640487    2.451    0.592
       138  -8.4256    170.2313     83.0001   9.0981298495e+01   3.1018390907e+01    0.2844615    0.2245481 -16.06  0.001101291    1.468    0.319
       139  -9.2151     74.3142     79.2794   1.1585708347e+02   5.2108054066e+01    0.6811047    0.2517256 -51.23  0.002526101    2.459    0.593
       140  -7.5957     63.4316     82.2124   1.2023849611e+02   5.3021236393e+01    0.1873388      0.12105 -65.68 0.0005947087    1.620    0.383
       141  -8.4429    149.7885     80.6619   9.4850767806e+01   3.6510554588e+01    0.2988923    0.2387348 -59.05  0.000605316    1.371    0.271
       142  -8.8308    118.9862     80.4863   1.0267629940e+02   4.3625002275e+01    0.3516768    0.2311786 -51.53 0.0007428279    1.589    0.371
       143  -8.0691    119.8261     76.3793   1.0117529791e+02   4.4261976041e+01    0.2493395    0.2055636   6.49 0.0006537098    1.447    0.309
       144  -8.3781     68.5306     79.6080   1.1785246632e+02   5.2887457790e+01    0.2840672    0.1229701 -52.95  0.001184763    2.083    0.520
       145  -8.5484    166.3773     78.5808   9.0505172543e+01   3.2784571538e+01    0.2937171    0.1890657 -34.49 0.0005110056    1.583    0.368
       146  -8.2032    184.1109     78.0316   8.6754214414e+01   2.8386191085e+01    0.2319544    0.2295054  14.34 0.0005460053    1.049    0.047
       147  -9.3542    127.3410     75.2221   9.8783935346e+01   4.2823570385e+01    0.4117235    0.2748577 -57.82 0.0009283573    1.784    0.439
       148  -8.8514    129.6563     68.6160   9.6066584564e+01   4.3540025244e+01    0.6199773    0.3123134  28.17   0.00193196    3.705    0.730
       149  -8.3814    130.4764     64.5452   9.4522529977e+01   4.4089250410e+01     0.428192     0.221319 -46.67  0.001085388    2.077    0.519
       150  -7.4045    132.0000    231.9680   1.2931361327e+02   1.0439364892e+01    0.1690139   0.07006841 -55.24 0.0008064865    2.971    0.663
       151  -9.1299    115.3541     72.1195   1.0107065476e+02   4.6056944294e+01    0.5894907     0.268477 -36.29  0.001570465    2.294    0.564
       152  -7.9602    162.6248     73.0254   8.9645433835e+01   3.4718671795e+01    0.2492708    0.1796515 -52.71 0.0007469389    1.495    0.331
       153  -8.6715    169.4620     71.0152   8.7601756198e+01   3.3330758050e+01    0.3970966     0.152307 -34.94 0.0009372872    2.617    0.618
       154  -9.3562    146.9861     69.3706   9.2027914169e+01   3.9267182254e+01    0.3978316    0.2751347 -58.75  0.001002738    1.730    0.422
       155  -8.9110     88.0387     56.5615   1.0412196013e+02   5.4428428907e+01    0.8738426    0.5729241  -9.92  0.003584041    2.158    0.537
       156 -10.1829     85.1272     48.1829   1.0204820613e+02   5.6473626922e+01    0.3996757    0.3019333 -61.41  0.001014523    1.749    0.428
       157  -8.5207     37.8421    227.2865   1.4587903090e+02   2.4608514029e+01    0.1693357     0.134395  81.39 0.0003154605    1.216    0.178
       158  -9.7160     94.7459     68.3312   1.0595899317e+02   5.0928530635e+01    0.4522316    0.2453781 -48.62 0.0008623468    1.841    0.457
       159  -9.3444     97.0015     58.9410   1.0209907854e+02   5.2303613571e+01    0.7359362    0.4661573 -19.32  0.003266554    2.014    0.504
       160  -9.1199    137.9730     65.7685   9.3038662757e+01   4.2096749694e+01    0.5012327     0.246698 -40.73  0.001292022    2.031    0.508
       161  -8.9823    121.2111     66.2002   9.7519928096e+01   4.5902053877e+01    0.3626269    0.2523305 -54.12  0.001024607    1.626    0.385
       162  -7.8932    122.4714     61.4645   9.5595363160e+01   4.6479215152e+01    0.2671595    0.1721806  31.60  0.001057053    1.808    0.447
       163  -9.2612    109.7979     63.9248   9.9964557596e+01   4.8793005933e+01    0.3796272    0.2502035 -51.76 0.0007557149    1.672    0.402
       164  -8.9657    110.4911     58.1037   9.7771244415e+01   4.9710412411e+01    0.3748022    0.2805584  15.12  0.001013878    1.613    0.380
       165  -8.7509    191.9742     63.9190   8.1264336870e+01   2.8697581347e+01    0.2182254    0.2137287  55.10  0.000292927    1.058    0.055
       166  -8.5763    157.6320     63.3365   8.7724679219e+01   3.7650215561e+01    0.3032088    0.2131017 -58.42  0.000655929    1.663    0.399
       167  -8.9702     80.3429     46.8164   1.0315377274e+02   5.7562546254e+01    0.3080111     0.232514 -12.04  0.001147708    1.413    0.292
       168  -9.9471     72.9708     59.1691   1.1011261698e+02   5.6475450579e+01    0.5970801    0.2460922 -52.81  0.001701217    2.700    0.630
       169  -9.3590     75.7771     50.4214   1.0607017394e+02   5.7687417986e+01    0.5333578    0.3338451  -3.72  0.002336033    2.518    0.603
       170  -7.7059    164.5006     60.5059   8.5395337778e+01   3.6360320695e+01    0.1546189    0.1477153 -82.58 -0.0001975188    1.062    0.059
       171  -8.3292    152.4069     59.7490   8.7719765269e+01   3.9570501647e+01    0.3383166    0.1472007 -34.97 0.0009993025    2.308    0.567
       172  -9.4161    146.9322     56.9623   8.8035009407e+01   4.1403768548e+01    0.7940868    0.2915033 -27.26  0.002424236    3.528    0.717
       173  -9.6402    149.8177     47.4054   8.4221275577e+01   4.2175926657e+01    0.8117889    0.2344782 -36.94  0.002542569    3.296    0.697
       174  -9.0237    138.8082     57.0773   8.9965705353e+01   4.3390668403e+01    0.3586655    0.2715366 -24.34  0.001138792    1.402    0.287
       175  -9.0233    130.1548     56.4002   9.1867062582e+01   4.5581262669e+01    0.6182972    0.3122479 -26.46  0.001460355    2.327    0.570
       176  -9.3857    118.2508     54.8713   9.4466325234e+01   4.8580712067e+01    0.5037523    0.2922173 -42.66  0.001201675    1.761    0.432
       177  -9.3228    121.0484     46.9323   9.0887187477e+01   4.9253565737e+01    0.3976942    0.2319562 -33.49 0.0005156521    1.723    0.420
       178  -8.0858    122.8330     40.7750   8.8178336923e+01   4.9783204352e+01    0.3648862    0.1795887  24.68  0.001107118    4.199    0.762
       179  -8.8744    163.2792     54.6346   8.3793210874e+01   3.7610524799e+01     0.384249    0.2305322 -63.27  0.001371565    2.349    0.574
       180  -9.4849     55.4929     43.9427   1.1120175204e+02   6.1911853607e+01    0.7318084    0.3921233 -10.14   0.00270932    4.052    0.753
       181  -7.5935    157.2793     55.6790   8.5358826147e+01   3.8991071836e+01    0.1549713     0.117132 -66.92 0.0004402682    1.583    0.368
       182  -9.9580     44.1968     53.0489   1.1876763017e+02   6.1539689732e+01      0.54243    0.3911791 -70.82  0.001377549    1.764    0.433
       183 -10.0731     37.4920     41.9655   1.1779843465e+02   6.4426331970e+01    0.4476616    0.3071378 -79.32  0.001482326    2.614    0.617
       184 -11.0216     35.3684     37.9613   1.1728245754e+02   6.5399990275e+01    0.3650754    0.2373659 -15.03 0.0002363382    1.708    0.414
       185  -9.2877    153.0538     41.3002   8.1498891499e+01   4.2236910850e+01    0.2992923    0.2353602  80.43 0.0007685359    1.397    0.284
       186  -9.0988    105.2472     51.7658   9.7049642788e+01   5.1927064977e+01    0.5587845    0.2627023 -35.24  0.001731087    2.115    0.527
       187  -9.8881    247.0858     50.4622   6.9986467567e+01   1.7065044407e+01    0.2654862    0.2577571  12.55 0.0005205225    1.215    0.177
       188  -8.8216    250.5237     46.0581   6.8552368049e+01   1.6873594917e+01     0.276424    0.1615727 -27.93  0.000771239    1.718    0.418
       189  -7.8830    138.9662     52.0000   8.8211408077e+01   4.4179723797e+01     0.218187    0.2049346  47.88 0.0004830816    1.041    0.039
       190  -8.9991    142.0060     47.8649   8.6096229906e+01   4.4073814350e+01    0.5618442    0.2518226 -27.68  0.001644758    2.473    0.596
       191  -9.2285    157.6255     49.4999   8.3284325563e+01   3.9859831573e+01    0.3909359    0.2272962 -57.19  0.001541404    2.238    0.553
       192 -10.0202     49.8872     53.8689   1.1682283876e+02   6.0717690521e+01    0.6273395    0.3200602 -61.45  0.002339623    2.435    0.589
       193  -9.6198    130.3695     46.6288   8.8410748691e+01   4.7110460402e+01     0.742182    0.3030937 -26.34  0.001217117    2.944    0.660
       194  -8.9225    132.9315     36.1639   8.4047653016e+01   4.8021348178e+01    0.3333088    0.2382129 -30.41  0.000481345    1.440    0.305
       195  -9.8477    133.9086     31.1593   8.2005765853e+01   4.8451756989e+01    0.2630337    0.2295881  45.08  0.001444832    1.080    0.074
       196  -8.9417    112.3697     44.8559   9.2471664445e+01   5.1539156149e+01    0.7652077    0.3330737 -21.86  0.002529264    3.498    0.714
       197  -7.3109    161.7172     46.3206   8.1435478636e+01   3.9272225935e+01    0.1539399    0.1141742 -65.75 0.0003034514    1.589    0.371
       198 -10.1215     69.4831     40.6537   1.0464030578e+02   6.0445989502e+01    0.8136828    0.3775888 -37.00  0.002390468    2.009    0.502
       199  -9.0579     71.1389     25.9183   9.7916994525e+01   6.2528092957e+01    0.3924975    0.2175513  25.54  0.001872208    2.116    0.527
       200 -10.0750     76.0693     31.7965   9.8673323296e+01   6.0791719087e+01    0.3832113     0.334363 -82.91  0.001282498    1.727    0.421
       201  -6.9531     56.0194    217.0000   1.4193885602e+02   2.4304019551e+01    0.1655972   0.05518778  39.35 0.0007688308    2.714    0.632
       202  -9.0422     84.7092     21.9603   9.1519932052e+01   6.0604628893e+01    0.2673971    0.2293443  -6.65 0.0009135581    1.077    0.072
       203  -8.9742    104.7182     40.8118   9.3120694531e+01   5.3831410154e+01    0.3315965    0.2300075 -41.68 0.0007591819    1.511    0.338
       204  -8.4271    105.8730     36.3854   9.1075406751e+01   5.4253540944e+01    0.2925278    0.2237393  23.29 0.0009796791    1.358    0.263
       205  -8.8254    139.6840     39.6115   8.3752157499e+01   4.5868898352e+01     0.495386    0.2294631 -33.50  0.001497858    2.174    0.540
       206  -9.0402     53.2227     38.6353   1.1009660043e+02   6.3176923505e+01    0.4764093    0.1729345 -35.82  0.001893732    2.848    0.649
       207  -7.7522    248.3196     39.3191   6.7162762327e+01   1.8262490477e+01     0.129444    0.1040727  27.15 0.0002349515    1.664    0.399
       208  -8.2592    160.3846     39.3044   7.9402103235e+01   4.0613724180e+01    0.2078703    0.1344543 -41.06 0.0005354018    1.595    0.373
       209  -8.3018    188.3244     37.3623   7.4065068015e+01   3.3515338498e+01    0.2437412    0.2113522  41.89 0.0006636346    1.238    0.193
       210  -8.9715    144.0906     36.4142   8.1677232362e+01   4.5204316941e+01    0.2658285    0.2049285 -42.38 0.0004433638    1.369    0.270
       211  -8.9515    118.8313     34.7104   8.6929750091e+01   5.1589221329e+01    0.3926358    0.2537403 -12.92  0.001335158    1.810    0.447
       212  -7.2553     35.1859    214.1694   1.4551422807e+02   2.7333317393e+01    0.1536497   0.09276201  67.60 0.0003453619    1.278    0.218
       213  -9.6480      7.7183    208.2291   1.5001296126e+02   3.1293093634e+01     0.226646    0.1543668  38.12  0.001132005    1.733    0.423
       214  -8.2310    100.2985     36.3234   9.2672363427e+01   5.5446446027e+01    0.2103038    0.1730536  31.54 0.0005528704    1.176    0.150
       215  -9.1351    101.1212     32.2359   9.0800967482e+01   5.5870363008e+01    0.4814148    0.2058907 -36.44  0.001509915    2.326    0.570
       216  -8.5217    153.0474     34.9784   7.9366539827e+01   4.3103304662e+01    0.2302516    0.2140013  47.59 0.0006876482    1.043    0.041
       217  -9.6340     11.5153    207.0099   1.4929080186e+02   3.1163851359e+01    0.3026314    0.1598537  69.32  0.001413649    1.450    0.310
       218  -9.4392     60.1138     33.5696   1.0534369527e+02   6.3083883151e+01    0.3974604    0.2265958 -47.46  0.001184581    1.880    0.468
       219  -8.5439     62.8854     26.6482   1.0132801735e+02   6.3769147575e+01    0.3658758     0.193741  32.10  0.001270352    2.001    0.500
       220  -8.4322    123.9880    206.0150   1.2759768003e+02   1.6218956433e+01     0.185157    0.1531041  58.48            0    1.020    0.019
       221  -7.1951     56.8107    204.3417   1.4074746164e+02   2.6635593166e+01    0.1405247    0.1010211  39.53            0    1.546    0.353
       222  -8.0044    194.5765    199.3039   1.1262619112e+02   4.6067281260e+00    0.2810857    0.1229976 -49.47  0.001161757    3.151    0.683
       223  -7.5636    192.4923    195.0057   1.1226837993e+02   5.6547047300e+00    0.2731131     0.125549 -50.16  0.001141918    2.957    0.662
       224  -9.1364    110.2308     33.1511   8.8597325309e+01   5.3762736808e+01    0.3464069    0.2153885 -46.05 0.0008355395    1.866    0.464
       225  -8.3349    110.4851     26.5323   8.5909679998e+01   5.4596235140e+01     0.383281    0.2087394  -4.34  0.001427438    2.770    0.639
       226  -7.8928    111.4367     21.1472   8.3495742276e+01   5.5047987210e+01    0.3268047    0.1772862 -18.00  0.001460466    2.049    0.512
       227  -7.8544    190.3197    191.6307   1.1208461325e+02   6.5947596451e+00    0.2245473    0.1335534 -53.24  0.001068295    2.245    0.555
       228  -9.8571    181.5439    197.5207   1.1482198003e+02   7.2956655790e+00     0.237375    0.2065515  34.96 0.0002491343    1.011    0.011
       229  -7.6090    181.9023    182.8984   1.1214700148e+02   9.6473934407e+00    0.1802717    0.1530333  60.18  0.001025935    1.278    0.217
       230  -8.9863     91.3789     26.1414   9.1213914877e+01   5.8728584845e+01    0.3441705    0.2360405 -51.90 0.0009864219    1.948    0.487
       231  -8.5377     92.2492     20.8332   8.8678050543e+01   5.9247302425e+01    0.3253542     0.196706  24.11 0.0009317299    1.872    0.466
       232  -7.2338    229.3341    166.6765   9.9948742261e+01   3.0511740609e+00    0.1267039    0.1102343 -80.28 0.0007050688    1.709    0.415
       233  -7.1183     56.5871    163.4458   1.3665484477e+02   3.5246714977e+01    0.1250599    0.1047972  88.86 5.865232e-05    1.052    0.049
       234  -7.6083     22.5457    157.4702   1.4374058716e+02   4.0282230366e+01    0.1203794   0.08941522  82.83  0.000247597    1.069    0.065
       235  -9.0210    132.5135     17.4653   7.7235584808e+01   5.0430995466e+01    0.2818656    0.2385364   7.54 0.0008723889    1.252    0.201
       236  -8.2114    140.2882     22.9466   7.7676648323e+01   4.7866435425e+01    0.1935121     0.184088 -14.85 0.0005622793    1.112    0.101
       237  -9.5342    118.8504     21.5640   8.1836463767e+01   5.3278691302e+01    0.3266423     0.263511 -30.21 0.0007317647    1.305    0.233
       238  -8.6252    119.3439     17.3315   8.0050822714e+01   5.3644936367e+01    0.3280027    0.1756002  19.27  0.001299254    2.709    0.631
       239  -9.0318     40.9179     20.7654   1.0785889533e+02   6.7752017461e+01    0.2566594    0.1471892 -34.76 0.0004161119    1.493    0.330
       240  -7.7359      9.5308    153.9676   1.4633171184e+02   4.2175228053e+01    0.1685395   0.08813988 -78.98 0.0003492179    1.502    0.334
       241  -8.5896    133.5286    145.7920   1.1541186769e+02   2.6564454219e+01    0.5182959     0.146833 -50.99  0.001574285    3.727    0.732
       242  -7.2019     11.9801    148.2324   1.4532373549e+02   4.3225231534e+01    0.1235282   0.09119785  41.97  0.000330731    1.534    0.348
       243  -8.7376    233.1625    147.1053   9.5107561849e+01   5.3098441877e+00    0.2257453    0.1801982   4.81  0.001241759    1.284    0.221
       244  -7.6983    136.0415     27.0195   8.0030346168e+01   4.8446176135e+01    0.2170943    0.1686968 -66.77  0.000578254    1.577    0.366
       245  -7.6357    139.6785     17.6858   7.5892313125e+01   4.8610826758e+01    0.1517917   0.09860665  33.45 0.0007040101    1.657    0.396
       246  -9.7549     67.0528    144.3559   1.3158545448e+02   3.8201381843e+01    0.5190035    0.2990655  69.69  0.002359988    2.076    0.518
       247  -8.3027    112.3313    134.1522   1.1819784615e+02   3.3242772100e+01     0.287582    0.2059789  80.45  0.001342253    1.735    0.424
       248  -8.6752    191.9697    133.9893   9.9818483672e+01   1.6294848069e+01      0.22032    0.2084221  20.50  0.000306112    1.040    0.039
       249  -8.5373    135.8823    132.1939   1.1190748915e+02   2.9013943978e+01    0.4950791    0.1442508 -48.34  0.001495428    3.503    0.715
       250  -9.5460     98.7038    128.9473   1.2064514584e+02   3.6882131092e+01    0.5835443    0.3443476  73.86  0.002282861    2.714    0.632
       251  -9.9002     70.9726    125.6410   1.2745170455e+02   4.2006814499e+01    0.5557333      0.34826 -89.83  0.001606646    1.974    0.493
       252  -9.6151     66.9809    128.4828   1.2903836224e+02   4.1893766254e+01    0.3896796    0.3334655 -31.15  0.001775923    1.471    0.320
       253  -7.9828    160.7450    128.9045   1.0529451435e+02   2.4312410509e+01    0.3104175    0.1978768 -47.20  0.001357491    1.616    0.381
       254  -8.8939    130.4822     96.9085   1.0438642790e+02   3.7747840334e+01    0.5002041     0.237986  31.00  0.001558049    3.538    0.717
       255  -8.8093    126.2482     83.7692   1.0170053217e+02   4.1383253060e+01    0.5760975    0.3554102  10.06  0.001884917    3.673    0.728
       256  -9.2980    124.2897    128.7886   1.1400606240e+02   3.2127798733e+01    0.3520797    0.2512535  45.68 0.0003759368    1.394    0.283
       257  -9.9756    117.4290    123.8881   1.1464560285e+02   3.4575533988e+01    0.9961249    0.4664288 -51.65  0.002920832    2.121    0.528
       258 -10.2301    123.3319     91.3264   1.0469933889e+02   4.0468320315e+01    0.6364313    0.5402803 -18.88  0.001011183    1.329    0.247
       259  -9.4797    127.7055    102.5551   1.0665616135e+02   3.7155567062e+01    0.4522906     0.356296 -50.09 0.0008755561    1.259    0.205
       260  -9.9919    108.5321    114.5193   1.1481420199e+02   3.8391828579e+01    0.5967228    0.3667634 -73.19  0.001435204    2.257    0.557
       261 -10.6322    108.1839    100.5362   1.1140623739e+02   4.1580464629e+01     1.031013     0.733216 -74.95  0.003378613    1.798    0.444
       262  -9.6085      8.4039     47.3176   1.3172596602e+02   6.5680880178e+01    0.4968563    0.2308314  18.02  0.001916137    2.634    0.620
       263 -10.4440    121.4148    111.2713   1.1057630665e+02   3.6581587996e+01    0.8088938    0.5622939 -37.51  0.002073229    1.556    0.357
       264 -10.0116    120.2994    103.7700   1.0893978601e+02   3.8451514561e+01    0.8962143    0.5925421 -20.04    0.0036316    2.332    0.571
