#   1 NUMBER                 Running object number                                     
#   2 MAG_AUTO               Kron-like elliptical aperture magnitude                    [mag]
#   3 X_IMAGE                Object position along x                                    [pixel]
#   4 Y_IMAGE                Object position along y                                    [pixel]
#   5 X_WORLD                Barycenter position along world x axis                     [deg]
#   6 Y_WORLD                Barycenter position along world y axis                     [deg]
#   7 A_WORLD                Profile RMS along major axis (world units)                 [deg]
#   8 B_WORLD                Profile RMS along minor axis (world units)                 [deg]
#   9 THETA_WORLD            Position angle (CCW/world-x)                               [deg]
#  10 FWHM_WORLD             FWHM assuming a gaussian core                              [deg]
#  11 ELONGATION             A_IMAGE/B_IMAGE                                           
#  12 ELLIPTICITY            1 - B_IMAGE/A_IMAGE                                       
         1 -12.9640      3.7891     50.5255   1.2571453933e+02   6.4454688837e+01     0.633315    0.5391337  63.36  0.002147832    1.838    0.456
         2 -15.2412     11.3180    146.8367   1.4028486168e+02   4.3306565306e+01      11.4029     5.028399  85.27   0.04834091    3.059    0.673
         3 -13.4118    199.5202     29.0816   6.4999831262e+01   3.2056553831e+01     1.330482     1.127596  50.87  0.006656474    1.350    0.259
         4 -13.4741    215.5649     11.1561   5.9134899627e+01   3.0411282024e+01    0.9367897     0.825007  62.64   0.00388723    1.335    0.251
         5 -12.6694      3.4575      7.1430   1.1117604671e+02   7.1388869534e+01    0.9061366    0.3205275 -34.96  0.005115058    2.244    0.554
         6 -11.0397    109.7250    247.6530   1.3073415832e+02   8.1178996921e+00    0.2873299    0.1776992 -82.57  0.001214752    2.022    0.505
         7 -11.9275    240.9845    246.6834   1.0523153792e+02  -1.3080169079e+01    0.4354497    0.2438425   9.96  0.002272777    2.136    0.532
         8 -11.1830    249.3967    248.6005   1.0405582675e+02  -1.4497289675e+01    0.3442486    0.1854564 -37.06  0.001982824    1.991    0.498
         9 -11.6993    139.2637    249.8538   1.2523387112e+02   2.8281141466e+00    0.4384944    0.1803359  40.60  0.001959716    2.071    0.517
        10 -11.2852    125.3300    250.0505   1.2798638659e+02   5.1226753199e+00    0.4071442    0.1847118  35.44  0.001835368    2.243    0.554
        11 -10.9332     65.0464    248.3415   1.3922867059e+02   1.4746551443e+01    0.2805748    0.1825876  73.85 0.0006622803    1.340    0.254
        12 -12.0994     45.7098    248.2962   1.4267488249e+02   1.7341429724e+01    0.5893844    0.2923893  43.18  0.003384287    1.841    0.457
        13 -11.6093     29.4806    248.8220   1.4549589704e+02   1.9235346063e+01    0.3501791    0.2732358 -81.92  0.002609486    1.338    0.253
        14 -12.2841     36.5118    243.5467   1.4392521316e+02   1.9417888857e+01    0.4132963    0.3608293 -77.32   0.00310734    1.450    0.311
        15 -12.8577      5.8565    227.7149   1.4815584847e+02   2.5982261761e+01    0.8325789    0.5319833  80.85  0.005819566    1.154    0.134
        16 -13.1964      7.2018    247.3814   1.4905902096e+02   2.1987588490e+01      1.17736    0.6877555  43.82  0.008132271    1.729    0.422
        17 -12.3953     11.5499    239.2427   1.4788901716e+02   2.3103716326e+01    0.5875902     0.277659  60.46  0.002724555    1.706    0.414
        18 -10.6600    185.8634    249.5898   1.1606380653e+02  -4.9685961961e+00    0.3134519   0.09779109  46.40  0.001149374    3.300    0.697
        19 -10.5898     53.1744    238.3551   1.4052802517e+02   1.8333173792e+01    0.1869597    0.1460098 -81.34 0.0006765558    1.258    0.205
        20 -10.1336    233.6261    236.8009   1.0487586411e+02  -1.0652784336e+01    0.1632023    0.1114148 -42.23 0.0009547703    1.734    0.423
        21 -10.6810     21.1583    235.0733   1.4599682266e+02   2.2890536422e+01    0.1660863    0.1344614 -83.81  0.001049166    1.306    0.234
        22 -11.5119    228.4492    248.9099   1.0788546902e+02  -1.1564580334e+01    0.3769116     0.189043  45.71  0.001901784    2.278    0.561
        23 -10.8544      6.9934    215.2654   1.4716953665e+02   2.8427716812e+01    0.2387835    0.1316895 -70.52 0.0006062259    1.604    0.376
        24 -12.5957     10.3571    207.0318   1.4598335547e+02   2.9842497959e+01    0.6608394    0.4612836  34.33  0.002753186    1.802    0.445
        25  -9.7161     74.2530    215.4176   1.3410236444e+02   2.0203599823e+01    0.1874769     0.104665  51.95 0.0009495881    1.622    0.383
        26  -8.8148    152.6942    212.9714   1.1695161661e+02   7.3547441056e+00    0.1816834    0.1758409  85.84 0.0003431379    1.096    0.088
        27 -10.7091     54.4492    204.3110   1.3698540084e+02   2.5423716047e+01    0.5059127     0.191183  58.67  0.001959841    3.204    0.688
        28 -11.6055     57.6828    196.9974   1.3547506130e+02   2.6653801836e+01    0.3240215    0.2403113 -64.50 0.0005764336    1.335    0.251
        29  -9.6729    192.2331    193.3649   1.0494775148e+02   3.6918881677e+00    0.4397415    0.2315702 -66.75  0.001244867    5.611    0.822
        30 -11.8504     64.2395    188.7406   1.3301251726e+02   2.7673702373e+01    0.2806253    0.2432914 -62.24 0.0004324329    1.260    0.207
        31 -12.6612     44.8255    212.7612   1.3980778711e+02   2.4783403889e+01    0.7025023    0.5893335 -70.14  0.003113087    1.328    0.247
        32 -10.7890     74.9352    176.1398   1.2876621895e+02   2.9127306696e+01    0.2480832    0.2273136 -86.27 0.0003295519    1.080    0.074
        33 -13.1840     61.5075    173.8767   1.3164513885e+02   3.1563474246e+01    0.5448959    0.2785521 -46.66  0.001883652    2.323    0.570
        34  -9.5484     93.7051    170.9899   1.2337457177e+02   2.7417700038e+01    0.2540303    0.1843506  69.34  0.000465034    1.488    0.328
        35 -11.7420     82.7162    167.1475   1.2544186285e+02   3.0112639267e+01    0.6273786    0.5488961 -52.44   0.00356393    1.219    0.180
        36 -12.7603     29.7032    230.1453   1.4414030572e+02   2.2920311329e+01    0.3107443     0.242556 -81.12 0.0007530397    1.267    0.211
        37 -10.0386     95.9718    151.5423   1.1922782362e+02   3.1740631501e+01    0.2974551    0.2737181  54.10  0.000797935    1.125    0.111
        38 -11.9563     84.4779    150.5359   1.2204787893e+02   3.3873900071e+01    0.3180471     0.254078 -45.79 0.0005557289    1.302    0.232
        39  -9.0906     99.0700    147.6432   1.1763602053e+02   3.2151022680e+01    0.2005212    0.1914512  51.64 0.0005130518    1.109    0.098
        40 -12.1710     67.3913    143.5362   1.2530305200e+02   3.8109326197e+01    0.7155167    0.4573325  64.24  0.003097553    1.934    0.483
        41  -9.6105    108.6947    136.6839   1.1273564742e+02   3.3047188412e+01     0.380696    0.2485018 -21.43  0.001475823    2.483    0.597
        42 -10.3752     95.4575    134.0038   1.1573021428e+02   3.6061578360e+01    0.2499237    0.2347907 -18.36  0.000456566    1.184    0.156
        43  -8.8760    106.0055    123.5290   1.1041936505e+02   3.6645987196e+01    0.2028569     0.150751  39.88 0.0001891547    1.406    0.289
        44 -10.0476    167.6335    112.6462   9.2108332373e+01   2.5825244550e+01    0.3424463    0.2637455 -73.07 0.0008538523    1.545    0.353
        45  -8.6472    203.3168    111.3390   8.4490834568e+01   1.7784649498e+01    0.1514961    0.1220602   5.26 0.0007048582    1.705    0.413
        46 -11.1763    243.5680     93.7535   7.3883951660e+01   1.2130142243e+01     0.279428    0.2043119 -19.38  0.001414263    1.840    0.456
        47  -8.6675     59.3284     76.6884   1.1245278348e+02   5.4307040253e+01    0.1228291    0.1055717  83.25 0.0004262817    1.667    0.400
        48  -9.1167     55.8852     74.6755   1.1305461493e+02   5.5148499787e+01    0.1670286    0.1551745  11.40  0.000445178    1.180    0.152
        49 -13.8487     35.1894    223.1971   1.4258943770e+02   2.3719139832e+01    0.7318385    0.5557026  76.65  0.002376564    1.022    0.022
        50 -11.3158    162.5972    249.5080   1.2059838500e+02  -1.0602391919e+00    0.4338243    0.1088229  40.89  0.001512494    3.349    0.701
        51  -9.6994     88.4377    249.2429   1.3498225604e+02   1.1160568787e+01    0.1656188    0.1072806 -87.59 0.0006161885    1.643    0.391
        52 -10.7508     81.4655    249.3530   1.3629955046e+02   1.2187057807e+01    0.2506934    0.1304926  47.12  0.001357106    1.602    0.376
