#   1 NUMBER                 Running object number                                     
#   2 MAG_AUTO               Kron-like elliptical aperture magnitude                    [mag]
#   3 X_IMAGE                Object position along x                                    [pixel]
#   4 Y_IMAGE                Object position along y                                    [pixel]
#   5 X_WORLD                Barycenter position along world x axis                     [deg]
#   6 Y_WORLD                Barycenter position along world y axis                     [deg]
#   7 A_WORLD                Profile RMS along major axis (world units)                 [deg]
#   8 B_WORLD                Profile RMS along minor axis (world units)                 [deg]
#   9 THETA_WORLD            Position angle (CCW/world-x)                               [deg]
#  10 FWHM_WORLD             FWHM assuming a gaussian core                              [deg]
#  11 ELONGATION             A_IMAGE/B_IMAGE                                           
#  12 ELLIPTICITY            1 - B_IMAGE/A_IMAGE                                       
         1 -13.1669    184.2983     43.1609   5.2902904018e+01   3.3912578272e+01      1.25558    0.9698279  21.58  0.004561037    1.636    0.389
         2 -12.1252    203.1899     13.2351   4.1991337076e+01   3.2882281944e+01    0.8536812    0.3967594 -43.91  0.003860489    2.041    0.510
         3 -12.2280    208.8045     10.8558   4.0787370086e+01   3.1766023026e+01    0.8787292    0.4692762 -43.64  0.004329703    1.758    0.431
         4 -10.4286     71.5865    240.6825   1.1892495925e+02   1.6050005564e+01    0.1731787      0.14008  80.78  0.000385051    1.167    0.143
         5 -19.4293     31.3651    147.9111   1.1855500734e+02   4.0499969767e+01     19.63423     3.620675 -71.86   0.05795725    5.094    0.804
         6  -9.2706     64.6044    223.1006   1.1875021800e+02   2.0226864326e+01    0.1695203   0.08139122  80.29 0.0008011821    2.587    0.613
         7  -9.5841     61.4131    219.7628   1.1907042526e+02   2.1287446107e+01    0.1927509    0.1559887 -70.06  0.000866631    1.401    0.286
         8  -9.3691     18.3796    219.8446   1.2695200802e+02   2.6199710970e+01    0.1276372   0.08278687 -75.16   0.00022075    1.498    0.333
         9  -9.9355     90.2461    213.1730   1.1276388074e+02   1.8615468969e+01    0.2568737    0.1700962  60.61  0.000930682    1.358    0.264
        10 -10.0896     56.5647    213.4910   1.1946615312e+02   2.3145151171e+01     0.210442    0.1526807  70.68 0.0006678997    1.120    0.107
        11 -10.0074     67.7800    206.9079   1.1664634035e+02   2.3032362826e+01     0.177521     0.146389  65.00 0.0003229186    1.073    0.068
        12 -11.8435     11.4688    206.0273   1.2742152696e+02   2.9598973892e+01    0.4038541    0.1653322  47.19  0.002340107    2.031    0.508
        13 -10.5483     96.4715    201.8672   1.1015053417e+02   1.9959215994e+01    0.2877474    0.2018294  80.65    0.0014069    1.509    0.337
        14 -10.2383     60.8825    203.6928   1.1772960510e+02   2.4599494183e+01    0.1802391    0.1460554  86.52 0.0008235602    1.097    0.089
        15 -10.9016    140.5555    197.7041   1.0016245211e+02   1.3490609778e+01    0.2824319    0.2090815  15.80  0.001351248    1.742    0.426
        16  -8.9204     82.5204    194.9870   1.1228264798e+02   2.3480328236e+01    0.1873447    0.1195581 -70.97  0.001018671    1.554    0.356
        17  -9.4396    151.4936    193.5113   9.7145226475e+01   1.2345225709e+01    0.1377965    0.1258871  41.85 0.0001076975    1.003    0.003
        18  -8.2672     78.4351    193.4279   1.1297618523e+02   2.4399755051e+01    0.1297427    0.1080196  73.22 0.0001153667    1.023    0.023
        19 -10.2707     66.5241    192.3247   1.1540475950e+02   2.6274884439e+01    0.3234038     0.209045 -46.16  0.001230683    2.079    0.519
        20 -10.9768     95.9326    190.0042   1.0873088052e+02   2.2533635973e+01    0.3689341    0.2832993  42.94  0.001390542    1.279    0.218
        21 -11.2312     75.3801    248.6825   1.1889080658e+02   1.4151104500e+01    0.3193048     0.142511 -61.75  0.001795633    2.550    0.608
        22 -11.3616     77.0107    178.4440   1.1144391430e+02   2.7900682326e+01     1.051806    0.7702232 -36.34  0.005671672    1.940    0.485
        23  -8.7040     69.5021    178.4545   1.1315161446e+02   2.8941255970e+01    0.1316298    0.1120571  80.79 8.377269e-05    1.004    0.004
        24 -10.5598     85.2947    168.3381   1.0811068727e+02   2.8994016284e+01    0.2274973    0.2027577 -50.02 0.0005562697    1.290    0.225
        25 -11.4793     88.0145    164.2818   1.0684273003e+02   2.9519765438e+01    0.4253025    0.3157029 -47.57   0.00227368    1.501    0.334
        26 -11.0188     99.2273    181.0086   1.0672883146e+02   2.3970794372e+01    0.2827923    0.2624968  29.59 0.0007077921    1.270    0.212
        27  -9.9504    187.1581    175.8064   8.6351211268e+01   8.9908217097e+00    0.3011356    0.2959906 -10.32  0.001001612    1.119    0.107
        28  -9.4990    149.3641    177.0294   9.4698797137e+01   1.5993824460e+01     0.196621     0.178926 -54.11 0.0004070767    1.163    0.140
        29 -11.4376    113.7448    173.2418   1.0216368983e+02   2.3275919985e+01    0.3010623    0.2411423  52.26   0.00164457    1.186    0.157
        30 -11.2169     94.8035    168.9256   1.0593454666e+02   2.7389015185e+01    0.3323681    0.3093593 -28.53  0.001099321    1.335    0.251
        31 -11.1333    103.7942    172.5714   1.0438349257e+02   2.5105724283e+01    0.3129234     0.224987 -87.24  0.001594168    1.558    0.358
        32 -10.3345     78.9552    167.9359   1.0956233845e+02   3.0022330281e+01    0.2770655     0.177493  50.45 0.0005221915    1.517    0.341
        33 -11.2744     71.8636    161.1900   1.1030782214e+02   3.2600565486e+01    0.4638844    0.2846764  69.05  0.002244988    1.838    0.456
        34  -9.3549     83.6753    239.2346   1.1661635824e+02   1.4670229125e+01    0.1593286    0.1191659  61.44 0.0004622327    1.055    0.052
        35 -10.2645     94.6077    155.8472   1.0384322556e+02   3.0455842408e+01    0.2755489    0.2386118 -49.73 0.0004432269    1.241    0.194
        36 -11.8670     83.8091    149.9287   1.0556591480e+02   3.3546917212e+01    0.3909765    0.2986205 -43.37 0.0008979093    1.478    0.324
        37 -11.2217     99.7379    149.9773   1.0150623735e+02   3.0997614526e+01     0.548953    0.4070333 -25.79  0.001644826    1.884    0.469
        38  -8.5001     93.4969    250.4965   1.1584772063e+02   1.1366575356e+01    0.1147954   0.08953732  56.19  0.000810391    1.038    0.036
        39 -10.2457    134.1819    146.6698   9.2217071033e+01   2.5462599940e+01    0.7720407    0.2031082 -55.13  0.001887078    5.434    0.816
        40 -10.2860    109.6599    136.7889   9.6334112283e+01   3.2392491106e+01    0.3550365    0.2396253 -32.56  0.001199201    1.869    0.465
        41 -10.8919     98.6911    135.7921   9.9032827155e+01   3.4551347299e+01    0.3064291    0.2693297 -31.00 0.0009791695    1.301    0.231
        42 -10.4945    105.9173    130.9637   9.6079976311e+01   3.4445382019e+01      0.36885    0.3213761 -75.83  0.001084041    1.150    0.131
        43  -9.6047    116.1121    128.1747   9.2734238137e+01   3.3224108576e+01    0.2312968    0.2117564 -12.24 0.0008029071    1.246    0.197
        44  -9.3447    104.2462    123.7503   9.4930347651e+01   3.6458570036e+01    0.2659765    0.2205483 -25.06 0.0007684798    1.416    0.294
        45  -8.4316    111.2672    117.6742   9.1567830410e+01   3.6600411048e+01    0.1514191     0.118591 -86.71   0.00028003    1.570    0.363
        46  -8.6659    231.1985    113.8112   6.4010496289e+01   1.1247975361e+01    0.1969865    0.1652408  -2.10 0.0008707683    1.297    0.229
        47  -8.9666    167.4822    112.4908   7.6051497453e+01   2.5755286309e+01    0.1572147    0.1522927 -58.05  0.000809843    1.050    0.048
        48 -10.5176     68.0465    247.7435   1.2009647848e+02   1.5275287386e+01    0.1639367    0.1364138 -82.79 0.0005817919    1.353    0.261
        49  -8.4575    167.3734    226.2095   9.9075497104e+01   3.8798990844e+00    0.1488041    0.1221936 -61.45 0.0003388771    1.561    0.359
        50 -12.0444    168.9802     57.4050   5.9894093381e+01   3.5659569201e+01    0.5213724    0.4598659  58.67  0.001491797    1.126    0.112
        51 -11.4580    248.6419    247.7912   8.7734188246e+01  -1.1249701351e+01    0.3730599    0.2642258 -10.94  0.002694483    1.310    0.237
        52 -11.6976    189.1940     36.7568   5.0288769821e+01   3.3548002183e+01     0.554538     0.410172  36.24  0.001531296    1.595    0.373
        53 -10.0126     55.9134    223.5348   1.2041472631e+02   2.1250574566e+01    0.1573862    0.1178112  69.16 0.0005273272    1.036    0.035
