#   1 NUMBER                 Running object number                                     
#   2 MAG_AUTO               Kron-like elliptical aperture magnitude                    [mag]
#   3 X_IMAGE                Object position along x                                    [pixel]
#   4 Y_IMAGE                Object position along y                                    [pixel]
#   5 X_WORLD                Barycenter position along world x axis                     [deg]
#   6 Y_WORLD                Barycenter position along world y axis                     [deg]
#   7 A_WORLD                Profile RMS along major axis (world units)                 [deg]
#   8 B_WORLD                Profile RMS along minor axis (world units)                 [deg]
#   9 THETA_WORLD            Position angle (CCW/world-x)                               [deg]
#  10 FWHM_WORLD             FWHM assuming a gaussian core                              [deg]
#  11 ELONGATION             A_IMAGE/B_IMAGE                                           
#  12 ELLIPTICITY            1 - B_IMAGE/A_IMAGE                                       
         1  -9.7263    180.5539     12.1900   2.8976969973e+02   6.6110566481e+00   0.02961609   0.01322346  19.76  0.002406132    2.311    0.567
         2 -10.1359    179.9611      5.8164   2.8974232969e+02   6.6884055874e+00   0.02958165   0.01854315  16.40  0.002896426    1.615    0.381
         3  -9.1703    235.4977      3.4256   2.8903643184e+02   6.3968768999e+00   0.01771856   0.01225316 -62.70  0.001203792    1.528    0.346
         4 -10.1636    168.6447    247.2932   2.9119566655e+02   3.9470566636e+00    0.0207691    0.0123602  44.24  0.001129974    1.685    0.406
         5 -11.1819    244.9275    248.4697   2.9025279578e+02   3.4971178752e+00   0.05526922    0.0327277 -49.29  0.005359663    1.759    0.431
         6  -9.6781    214.2422    246.8577   2.9062573931e+02   3.6914416680e+00   0.01974042   0.01002863 -35.05  0.001621819    2.546    0.607
         7  -9.7543    223.6056    250.1490   2.9052708515e+02   3.5996225257e+00   0.02971876   0.01106546  16.24  0.002014778    3.407    0.706
         8 -10.2923    217.4272    249.5170   2.9060052332e+02   3.6423146753e+00   0.03428297   0.01564001   6.48   0.00239412    3.454    0.710
         9  -9.4192    208.8675    249.3137   2.9070592361e+02   3.6936379184e+00   0.01932875   0.01067884 -31.61  0.001663193    2.341    0.573
        10 -10.1208    197.5423    249.0338   2.9084534515e+02   3.7616554876e+00   0.02061756   0.01430606   8.57  0.002106407    1.532    0.347
        11 -11.0838    187.2670    248.1853   2.9096864717e+02   3.8302629732e+00    0.0405862   0.01984944  42.73   0.00353944    2.031    0.508
        12  -8.3666    124.9835    248.2031   2.9174440047e+02   4.1857251468e+00   0.01503574   0.00868134 -66.02  0.001029535    1.863    0.463
        13 -17.5656     62.6773    244.0021   2.9249819433e+02   4.5895491992e+00    0.1914508     0.181517   7.86  0.006258973    1.039    0.038
        14  -8.6000    138.4630    199.9571   2.9131545268e+02   4.6700018136e+00   0.01647209   0.01057888  70.77  0.001213217    2.076    0.518
        15 -10.0209    179.9686    198.3872   2.9078970463e+02   4.4510145735e+00   0.01125655   0.01111942  23.56  0.000206196    1.055    0.052
        16  -7.8060    130.9649    192.6320   2.9136926499e+02   4.7980281051e+00   0.00957136  0.008331412  27.78 0.0005143262    1.075    0.069
        17  -8.8837    186.4047    230.7719   2.9088507062e+02   4.0376530267e+00   0.01646136  0.007063089 -68.97  0.001306463    2.685    0.628
        18  -9.0776     46.4622    187.9934   2.9239829470e+02   5.3335527681e+00   0.01227591  0.008617521  35.51 0.0006485487    1.333    0.250
        19 -13.9613     58.6684    232.5127   2.9248623115e+02   4.7460519550e+00   0.02215638   0.01642468   4.71  0.001363179    1.436    0.303
        20  -7.6273    180.5475    183.7458   2.9070308092e+02   4.6179474544e+00  0.008696581  0.006704835  89.76 0.0003552962    1.530    0.346
        21  -8.9130     29.3905    184.3277   2.9259156475e+02   5.4732354780e+00   0.01571447  0.008673395  31.26 0.0009431111    1.647    0.393
        22  -8.5642    115.9997    179.5034   2.9148480205e+02   5.0361805858e+00   0.01059918  0.006485071  21.92 0.0006560048    1.565    0.361
        23 -10.9187    231.3415    249.1816   2.9042561558e+02   3.5666007961e+00   0.06854685   0.01901042  42.28  0.004409207    3.728    0.732
        24  -9.2605     77.3650    174.2338   2.9193830395e+02   5.3177832589e+00   0.01489632   0.01176079  25.00   0.00120826    1.186    0.157
        25 -10.4782     36.2256    170.7245   2.9243282503e+02   5.5927001874e+00    0.0302504   0.02177836 -19.80  0.002879041    1.616    0.381
        26  -8.2109      9.2885    175.8604   2.9279681198e+02   5.6858947925e+00   0.01256522  0.009380521  15.67 0.0005189965    1.317    0.241
        27  -8.3287    195.9837    170.5444   2.9043910522e+02   4.6830658424e+00   0.01328109  0.009091731 -43.25 0.0009235842    1.560    0.359
        28  -8.9821     12.8280    170.0034   2.9272103587e+02   5.7339693594e+00    0.0177234   0.01109641  -0.23 0.0006260329    1.954    0.488
        29  -8.2028     14.4667    166.4530   2.9268142213e+02   5.7659850372e+00   0.01128728   0.00833819  32.74 0.0005372052    1.260    0.207
        30  -9.4908     13.0547    243.7339   2.9311534839e+02   4.8745981768e+00   0.03935696   0.01535839 -62.39  0.003145354    2.607    0.616
        31  -8.4012    151.0306    218.2213   2.9125771258e+02   4.3857794796e+00   0.02078789   0.01131404 -11.38  0.001616232    2.941    0.660
        32  -7.2438     32.6655    163.2996   2.9243717583e+02   5.6993305137e+00  0.007254669  0.004829803  53.43 0.0003314131    1.654    0.395
        33  -8.5409    169.7242    218.4450   2.9102603034e+02   4.2763557841e+00   0.01379404  0.005854504  30.00  0.001137672    2.091    0.522
        34  -9.5388     29.2172    159.4885   2.9245964961e+02   5.7632692679e+00    0.0165898   0.01222829  33.98  0.001788471    1.267    0.211
        35  -8.9996     49.1987    158.8007   2.9220644438e+02   5.6576852109e+00   0.01184381   0.01081057  32.17 0.0006553929    1.042    0.040
        36  -8.9911    107.3721    156.3454   2.9146701299e+02   5.3548073451e+00   0.02884854   0.01450354 -39.55  0.002445244    2.366    0.577
        37  -8.5249     65.8485    156.9750   2.9198870471e+02   5.5841759098e+00   0.01038268   0.00881448 -17.89 0.0004297109    1.254    0.203
        38  -9.5872     37.2083    156.2085   2.9234214900e+02   5.7560258527e+00   0.01713918   0.01055268  -9.55  0.001195826    2.153    0.536
        39  -8.2268    116.3159    212.8541   2.9166133658e+02   4.6463906184e+00   0.01490904  0.009986624  77.12  0.001436675    1.963    0.491
        40  -7.6448     53.2938    155.6697   2.9213838911e+02   5.6708197173e+00  0.009159616  0.005892935 -65.82 0.0006012401    1.665    0.400
        41  -9.4429     96.0000    151.8297   2.9158447631e+02   5.4722127970e+00   0.01526517   0.01292699  -9.00 0.0009313882    1.246    0.197
        42  -7.5077      8.6517    153.6871   2.9268514896e+02   5.9475324671e+00  0.007255151  0.005006742 -22.84  0.000377106    1.718    0.418
        43  -8.2148    111.2608    148.1799   2.9137423785e+02   5.4275929183e+00   0.01821725   0.01120663  57.37  0.001707127    1.944    0.486
        44 -10.6255     68.6096    144.1505   2.9188484219e+02   5.7176533206e+00   0.03925274   0.01923748  56.88  0.003065332    2.862    0.651
        45  -7.8791     10.2073    211.6346   2.9297811415e+02   5.2643375491e+00   0.01172736  0.007883136   0.33 0.0006807616    1.720    0.419
        46  -7.5455     10.2586    147.4491   2.9263140760e+02   6.0109996684e+00   0.01027905   0.00568977  36.43 0.0009514023    1.672    0.402
        47  -8.3392     54.0624    145.9431   2.9207619263e+02   5.7796113305e+00   0.01051057  0.009960344  -1.12 0.0006360906    1.058    0.055
        48  -8.3023     44.0438    146.0016   2.9220162238e+02   5.8359207091e+00    0.0107183  0.009690425  13.02 0.0006148961    1.068    0.064
        49  -9.1454    125.5136    144.2289   2.9117495801e+02   5.3921576755e+00   0.01197878   0.01051413  22.17 0.0003102929    1.072    0.067
        50  -8.9025     75.2128    137.5183   2.9176648425e+02   5.7571910472e+00   0.02026332   0.01183044 -41.30  0.001900887    1.901    0.474
        51  -8.4939    106.5113    137.3087   2.9137459028e+02   5.5811460630e+00   0.01177226    0.0094878  32.06  0.000267802    1.160    0.138
        52  -8.1103    190.3452    135.0788   2.9031670068e+02   5.1276225340e+00  0.008745187  0.008487023  76.12 0.0003860259    1.099    0.090
        53  -8.2610     69.2637    134.4274   2.9182403841e+02   5.8270370144e+00   0.01245351  0.006236221  24.62 0.0008472445    1.872    0.466
        54  -9.8277     63.1839    133.5552   2.9189524705e+02   5.8718057981e+00   0.02633314   0.01117022  28.94  0.002190782    2.104    0.525
        55  -8.6065    122.9561    129.0763   2.9112467944e+02   5.5829827439e+00  0.009827943  0.009172393  31.28 0.0002838503    1.028    0.027
        56 -10.2080    236.4833    127.1814   2.8969891361e+02   4.9547922405e+00   0.01436366   0.01165442  22.72 0.0002831348    1.162    0.139
        57  -9.0985     62.5986    125.3521   2.9185814476e+02   5.9705589862e+00   0.01925926  0.008103562  38.50  0.001497444    2.203    0.546
        58  -8.2531     49.3181    125.5051   2.9202487127e+02   6.0443655036e+00   0.01438531   0.00952228 -33.83  0.001131305    1.724    0.420
        59  -6.9784    109.3421    125.2726   2.9127398567e+02   5.7049655585e+00  0.007009331  0.005058852 -18.50 0.0002076148    1.614    0.380
        60  -7.1924     47.0289    114.9894   2.9199655229e+02   6.1797053643e+00  0.008257467  0.007439811  23.80 0.0003778458    1.041    0.039
        61  -7.5233    183.1315    112.8127   2.9028558367e+02   5.4277393495e+00   0.00907377  0.007617143 -19.63 0.0003998582    1.277    0.217
        62 -10.0024     11.1958    206.8264   2.9293988970e+02   5.3146894099e+00   0.02955868   0.01855285  19.29  0.002554553    1.560    0.359
        63  -9.1838    239.7315    108.3473   2.8955592474e+02   5.1549056855e+00   0.01491745   0.01000385  55.20 0.0009249426    1.671    0.401
        64  -7.3597    186.8313    107.5935   2.9021106100e+02   5.4671873276e+00  0.009496187  0.005759168  36.72 0.0002968597    1.537    0.349
        65  -7.5820     63.3131    107.3090   2.9175148500e+02   6.1763434894e+00  0.007067549  0.005034535 -24.09 0.0007027666    1.627    0.385
        66  -7.5056     65.4869     94.4590   2.9165467299e+02   6.3133879753e+00  0.006828264  0.006388798   8.63 -2.920636e-06    1.045    0.044
        67  -7.5133     22.2206     94.6364   2.9219644375e+02   6.5574300924e+00   0.00961201  0.006266658  11.67 0.0005746603    1.614    0.380
        68  -7.0179    207.6608     86.7477   2.8983789731e+02   5.5899004477e+00  0.006880637  0.005058152 -15.46 0.0003939538    1.571    0.364
        69  -7.5329    153.4479     68.5014   2.9041490224e+02   6.1126692224e+00  0.006793996  0.006412441  10.53 9.316577e-05    1.035    0.034
        70  -8.5570    190.9742     64.9890   2.8992747500e+02   5.9383592889e+00  0.009807399  0.009216762  27.11  0.001181939    1.013    0.013
        71  -8.7485    153.5404     56.4792   2.9034831467e+02   6.2517925911e+00   0.01390211  0.009070491  33.76  0.001407997    1.417    0.294
        72 -10.0209    246.1952     52.0678   2.8916865084e+02   5.7711128820e+00   0.01855821   0.01301746 -48.12 0.0004259715    1.493    0.330
        73  -8.5321    250.0173     47.5294   2.8909627849e+02   5.8017844722e+00   0.01112575   0.01003548 -56.46  0.000581008    1.172    0.146
        74 -10.5230    166.8397     40.8384   2.9009708970e+02   6.3572159107e+00   0.03369028   0.02528111 -42.25  0.003656744    1.415    0.293
        75  -7.2653    240.6215     41.7082   2.8918156948e+02   5.9233778326e+00  0.007260988  0.005015779 -19.50 0.0007020112    1.742    0.426
        76  -8.3781    131.6741     53.4252   2.9060477860e+02   6.4124418749e+00    0.0110167   0.01039918 -86.79 0.0002176351    1.146    0.127
        77  -7.2030    187.4653     38.5037   2.8982692777e+02   6.2660065947e+00  0.006811406  0.006411399  19.17 8.219971e-05    1.013    0.012
        78  -9.2723    169.7919     33.2401   2.9001882887e+02   6.4285017554e+00   0.01488419   0.01191617 -23.97 0.0008710756    1.366    0.268
        79  -8.4224    159.7786     31.0714   2.9013203821e+02   6.5110877401e+00   0.01692088  0.006774521 -42.28  0.001246431    3.061    0.673
        80 -10.2291    141.4850     29.8083   2.9035365117e+02   6.6305585079e+00   0.01220574   0.01167245  13.98 0.0002722179    1.027    0.026
        81  -9.4596    205.9279    246.8597   2.9072920852e+02   3.7389760551e+00   0.02191577  0.007284099 -52.17  0.001623516    2.952    0.661
        82  -8.0537    133.7519    248.5387   2.9163697870e+02   4.1317966452e+00   0.01222325  0.008840502 -63.46 0.0005961706    1.466    0.318
