#   1 NUMBER                 Running object number                                     
#   2 MAG_AUTO               Kron-like elliptical aperture magnitude                    [mag]
#   3 X_IMAGE                Object position along x                                    [pixel]
#   4 Y_IMAGE                Object position along y                                    [pixel]
#   5 X_WORLD                Barycenter position along world x axis                     [deg]
#   6 Y_WORLD                Barycenter position along world y axis                     [deg]
#   7 A_WORLD                Profile RMS along major axis (world units)                 [deg]
#   8 B_WORLD                Profile RMS along minor axis (world units)                 [deg]
#   9 THETA_WORLD            Position angle (CCW/world-x)                               [deg]
#  10 FWHM_WORLD             FWHM assuming a gaussian core                              [deg]
#  11 ELONGATION             A_IMAGE/B_IMAGE                                           
#  12 ELLIPTICITY            1 - B_IMAGE/A_IMAGE                                       
         1  -7.5742    178.1228      8.8003   4.6052006027e+01   3.9178642355e+01    0.1851834    0.1543297  36.05 0.0005139846    1.301    0.231
         2  -8.4309    169.9742      8.3692   4.6995598166e+01   4.1327651534e+01    0.2200044    0.1963224   1.64 0.0003362845    1.256    0.204
         3  -8.9599    136.9518      7.0409   5.1722057470e+01   4.9870061113e+01    0.2569606    0.1927452  -9.99 0.0004086797    1.444    0.307
         4  -7.6981    201.6369      6.3202   4.2626285148e+01   3.3399725508e+01    0.1501795   0.08990489 -64.25  0.000704114    1.777    0.437
         5 -10.0969    124.9460    239.8593   1.1168978770e+02   9.3168351763e+00    0.1993327    0.1799717  64.01 0.0004161408    1.162    0.140
         6 -16.6602     30.4257    243.2747   1.2809729182e+02   2.1460080048e+01     1.976457     1.297337  53.00  0.009726893    1.287    0.223
         7  -8.4217    235.9980    214.1791   8.7640458287e+01  -5.2462257787e+00     0.190505     0.160544  -9.56  0.000344749    1.220    0.181
         8  -7.5344    248.1424    226.1143   8.7642232172e+01  -8.5057468345e+00    0.1512729    0.1217709  29.10 0.0005760139    1.310    0.237
         9  -8.8775     70.9925    210.5396   1.1865737515e+02   2.2483240532e+01     0.211189    0.1537848 -87.41 0.0004053809    1.270    0.212
        10  -9.7276     63.8060    207.6441   1.1975595566e+02   2.4003899125e+01    0.2591732    0.2090324  67.05 0.0009774861    1.075    0.070
        11  -7.2671    139.9927    226.7425   1.0733254202e+02   9.0103817990e+00    0.1626187   0.09011398  42.82 0.0005040126    1.495    0.331
        12  -8.8407    126.5166    225.1899   1.0968190441e+02   1.1466698486e+01    0.2856902    0.1553241  52.47  0.001075702    1.630    0.386
        13  -7.9957     18.0765    201.0112   1.2774546127e+02   3.0548881591e+01    0.1646672    0.1249922  78.42 0.0006024277    1.074    0.069
        14  -9.4597    234.1012    196.0643   8.4652320357e+01  -2.5782809256e+00    0.2881634    0.2588181 -73.01  0.001791056    1.851    0.460
        15  -8.8377     67.3436    196.4440   1.1796704951e+02   2.5783553241e+01    0.2561102    0.1954005 -47.37  0.001245222    1.784    0.439
        16  -8.7083    223.3937    181.3202   8.3705741348e+01   1.4033148088e+00    0.2257501     0.204689  12.17 0.0003116153    1.111    0.100
        17  -9.2047    222.2505    191.0061   8.5816631863e+01   1.7450567236e-01    0.2625991    0.2045677  36.58 0.0003460282    1.244    0.196
        18  -9.1168    223.1054    186.2711   8.4740085010e+01   7.1698773914e-01    0.2823414    0.2130425 -19.22  0.000188035    1.300    0.231
        19  -7.1831    146.4406    191.8028   1.0092870840e+02   1.4004283741e+01    0.1715295    0.1302917 -34.61 0.0003733734    1.581    0.367
        20 -10.6170     35.8426    186.2070   1.2330626568e+02   3.1731828888e+01     0.599834    0.2246939  43.84  0.002472355    2.380    0.580
        21  -7.7221    248.2859    187.3110   8.0494386412e+01  -3.7575119589e+00    0.1309846   0.08543843   5.44 0.0001812216    1.576    0.365
        22  -6.9214     84.2895    187.3632   1.1343560586e+02   2.5289277130e+01    0.1194608   0.09923238 -36.05 0.0003122226    1.698    0.411
        23  -7.4787    233.3144    181.3134   8.1910634611e+01  -3.6920067631e-01    0.1385025   0.09203187   7.84 0.0001923045    1.639    0.390
        24  -8.5328    143.9257    179.1079   9.9294507464e+01   1.6905950929e+01    0.2047991    0.1961634 -70.88 -0.0006383859    1.111    0.100
        25 -10.0569    191.3447    177.9193   8.9169306065e+01   7.9826923512e+00    0.2564151    0.2374418  16.22 0.0003932753    1.033    0.032
        26  -9.4502     76.8559    177.0308   1.1373015683e+02   2.8574826779e+01    0.2409021    0.1902899 -62.88            0    1.311    0.237
        27  -8.0914    249.9595    176.3345   7.8010981934e+01  -2.5397639084e+00     0.235017    0.1666344 -14.96 0.0004100131    1.283    0.221
        28  -6.7663    202.3106    233.2796   9.6766449069e+01  -2.2593858589e+00    0.1210069   0.07951225  17.31 0.0003532024    1.563    0.360
        29  -8.1678     89.7993    171.1191   1.1003369518e+02   2.7951937308e+01    0.2676901    0.1509156 -58.96  0.001317225    1.742    0.426
        30  -8.3056     86.1363    171.2750   1.1088453999e+02   2.8475985395e+01    0.1897386    0.1665481  24.81 0.0004889219    1.445    0.308
        31  -7.9927     33.3425    170.3620   1.2241413357e+02   3.5393523671e+01     0.243687    0.1353321  53.65 0.0007962545    1.695    0.410
        32  -8.0764     88.8547    166.8792   1.0962229616e+02   2.9035168943e+01    0.1939092    0.1804399 -53.18 0.0005454735    1.261    0.207
        33  -9.0450     77.1136    161.4885   1.1155123764e+02   3.1992357442e+01    0.2667691    0.1921786 -87.15 -9.480517e-05    1.359    0.264
        34  -8.7189    211.7568    161.3525   8.1731759451e+01   6.7865884623e+00    0.2409712    0.2085066  -3.24 0.0002396651    1.096    0.088
        35  -7.2713    197.2172    159.3778   8.4148149099e+01   1.0051038478e+01    0.1956811    0.1339725  54.65 0.0004567886    1.653    0.395
        36  -7.4237    121.5470    159.5186   1.0077300754e+02   2.5144310184e+01    0.1415725    0.1348828  76.47  0.000176459    1.024    0.024
        37  -7.3047     58.4824    159.5008   1.1562340045e+02   3.4948180786e+01    0.1316774    0.1070209  85.36 0.0008096402    1.063    0.059
        38  -7.4539     95.1844    157.6406   1.0667753618e+02   3.0112545342e+01    0.1767681    0.1308645  32.26 0.0002763536    1.552    0.356
        39  -7.8581    139.8228    156.1087   9.5865264914e+01   2.2403699905e+01    0.2082098    0.1902651 -89.66 0.0002709568    1.145    0.127
        40  -7.7295     28.0727    155.8730   1.2216712730e+02   3.9132760800e+01    0.1837203    0.1314281  75.40  0.000515382    1.236    0.191
        41  -7.0570    109.0040    154.9802   1.0290724374e+02   2.8392658105e+01    0.1686988    0.1556048 -85.70 0.0003847277    1.028    0.027
        42  -8.9060     84.3944    152.7632   1.0847235863e+02   3.2913048320e+01    0.2952835    0.2166874 -43.84 0.0008054805    1.581    0.368
        43  -8.1141     69.9228    153.2182   1.1204880844e+02   3.4891451642e+01    0.2486658    0.1886807 -58.85  0.001346999    1.299    0.230
        44  -7.8968    102.6010    152.3590   1.0397660318e+02   3.0084757494e+01    0.2950533    0.1941498  66.02 0.0005327491    1.766    0.434
        45  -7.5468    144.5020    152.0369   9.3949412758e+01   2.2334470002e+01    0.2135877    0.1465186 -47.70 0.0004018776    1.494    0.331
        46  -6.7042     31.6891    152.3085   1.2097671783e+02   3.9584770120e+01    0.1268858   0.07679886  72.78 0.0003305618    1.621    0.383
        47  -8.3894    117.6930    227.0380   1.1156440678e+02   1.2559076686e+01    0.1636244     0.144734  65.55  0.001006807    1.109    0.098
        48  -7.0966    239.2982    149.6870   7.4153797891e+01   3.3104432518e+00    0.1292837    0.1095035 -59.96 0.0002499233    1.604    0.377
        49  -7.4054    178.6740    148.3136   8.5531689015e+01   1.5970823679e+01    0.1488098    0.1213698 -89.42  0.000704237    1.666    0.400
        50  -9.3296     68.8321    143.7367   1.1086690564e+02   3.7245022767e+01    0.5617669    0.2829867  62.87  0.002329884    2.695    0.629
        51  -7.4619    152.4753    142.9920   9.0146414247e+01   2.2601510326e+01    0.2103072    0.1331922 -70.21 0.0007250543    2.433    0.589
        52  -8.2872     99.0261    137.7838   1.0211651448e+02   3.4041060784e+01    0.2396714    0.2002978 -56.84 0.0007500648    1.155    0.134
        53  -7.1026    230.5636    137.2632   7.2849659486e+01   7.0189704883e+00    0.1386782    0.1141118 -83.07 0.0001287885    1.818    0.450
        54  -7.3927    168.7910    134.8283   8.4553220876e+01   2.0776268433e+01    0.1977128    0.1796155 -83.22 0.0002892104    1.260    0.206
        55  -8.4367      3.7037    133.5336   1.2565873729e+02   4.6165577989e+01    0.2059928     0.107397  84.20 0.0006020622    1.754    0.430
        56  -6.9458     49.6342    131.7241   1.1392067939e+02   4.2465630007e+01     0.126385   0.09363087 -37.39 0.0007007088    1.673    0.402
        57  -8.4083      5.5379    129.5332   1.2484316741e+02   4.6941436988e+01    0.1668159   0.09344991  45.60 -8.535219e-06    1.953    0.488
        58  -8.6807    156.1793    111.1752   8.1463252060e+01   2.8465691188e+01    0.2496834    0.2363013 -19.12 0.0003149054    1.068    0.064
        59  -9.6811    212.6377    106.9923   6.8641557855e+01   1.6073557795e+01    0.2721727     0.248003  30.94 0.0006126622    1.138    0.121
        60  -8.0497    217.6520    103.4892   6.6853446762e+01   1.5532281363e+01    0.2717264    0.2279644 -21.08 0.0007263137    1.168    0.144
        61  -7.1506    118.7021     98.6365   8.7538205037e+01   3.9322824082e+01    0.1589938    0.1205529 -11.42 0.0007033203    1.719    0.418
        62  -7.6824    119.1528    107.9011   8.9920715115e+01   3.7186379108e+01    0.2195336     0.197279 -79.18  0.001135656    1.203    0.169
        63  -7.0905    146.3089     95.6751   7.9537842544e+01   3.3925049877e+01    0.1603608    0.1261122 -77.75 0.0002603426    1.652    0.395
        64  -7.4735    240.0651     90.9700   6.0081204663e+01   1.2563815550e+01    0.2204205    0.1670125   7.07   0.00109278    1.649    0.394
        65  -8.6845    100.9924     88.7314   8.9750046938e+01   4.4940451624e+01    0.2628613    0.2029246 -46.34 0.0002558512    1.214    0.176
        66  -7.6737    158.1422     85.0976   7.3630577070e+01   3.3211012818e+01    0.2058878    0.1816162 -67.24  0.001008897    1.257    0.204
        67  -7.4138      9.6344     81.8002   1.1753241641e+02   5.7544772286e+01    0.1625598   0.09257466 -76.13 0.0002914126    1.551    0.355
        68  -7.6630    133.5477     72.3817   7.5640919626e+01   4.1463129552e+01     0.325088    0.1760847  30.29 0.0007488263    2.572    0.611
        69 -10.3849    115.8516     67.7024   7.8858019716e+01   4.6282583143e+01     0.270586      0.23317 -30.89 0.0002640607    1.112    0.101
        70  -7.3962    127.2334     65.2137   7.4923538715e+01   4.4235969702e+01      0.19901    0.1773775 -63.74 0.0004271455    1.283    0.220
        71  -7.1291     79.4925     65.6138   8.9359397765e+01   5.3569208248e+01    0.1383029    0.1268257 -27.38 0.0001560162    1.042    0.040
        72  -9.1396    211.9612     58.9693   5.5881145722e+01   2.4159416303e+01    0.3847518    0.2900883 -27.64  0.001007732    1.335    0.251
        73  -7.5346    186.1631     49.8327   5.7331993573e+01   3.2069787094e+01    0.1981154    0.1727013  14.92 0.0002594684    1.298    0.230
        74  -8.4327    183.9968     42.2325   5.5395887683e+01   3.3710349586e+01    0.2031032    0.1215855  63.40 0.0008821858    1.645    0.392
        75  -7.0385    242.6546     40.6794   4.7207134224e+01   1.9363817319e+01    0.1346622     0.104212  27.21 0.0007049611    1.730    0.422
        76  -7.4570    160.0080     39.0193   5.8594005370e+01   4.0369133125e+01    0.1726059    0.1650906  52.69            0    1.015    0.014
        77  -8.3417    188.3478     33.0014   5.1943617146e+01   3.3803756010e+01    0.2068845    0.1886644 -31.54  0.001149044    1.136    0.119
        78  -7.3732    139.5432     18.5522   5.5439224753e+01   4.8081451459e+01    0.1403645    0.1319329  47.53 1.744781e-05    1.031    0.030
        79  -9.6253     12.5650    213.9136   1.2944455132e+02   2.8596006389e+01    0.3033155    0.2926449 -25.66  0.001494892    1.819    0.450
        80  -8.9807      2.4259    241.5370   1.3229813038e+02   2.4625858979e+01    0.1700278    0.1351854  70.68   0.00151597    1.319    0.242
        81  -7.7761    239.6745    241.3047   9.1558766393e+01  -8.9285554979e+00   0.09872917   0.08557724  43.64 0.0007033761    1.645    0.392
