#   1 NUMBER                 Running object number                                     
#   2 MAG_AUTO               Kron-like elliptical aperture magnitude                    [mag]
#   3 X_IMAGE                Object position along x                                    [pixel]
#   4 Y_IMAGE                Object position along y                                    [pixel]
#   5 X_WORLD                Barycenter position along world x axis                     [deg]
#   6 Y_WORLD                Barycenter position along world y axis                     [deg]
#   7 A_WORLD                Profile RMS along major axis (world units)                 [deg]
#   8 B_WORLD                Profile RMS along minor axis (world units)                 [deg]
#   9 THETA_WORLD            Position angle (CCW/world-x)                               [deg]
#  10 FWHM_WORLD             FWHM assuming a gaussian core                              [deg]
#  11 ELONGATION             A_IMAGE/B_IMAGE                                           
#  12 ELLIPTICITY            1 - B_IMAGE/A_IMAGE                                       
         1 -12.9996    205.2033     22.2623   5.5098376247e+01   3.0995973994e+01      0.68513    0.3754752 -65.68  0.003547816    1.736    0.424
         2 -13.1006    216.2492     15.0481   5.2578880243e+01   2.9372395378e+01     0.743821    0.5871692  88.57  0.002558817    1.250    0.200
         3 -11.9960     43.0605     20.5498   9.1550110980e+01   7.0706793996e+01    0.7016541    0.3228459  40.49  0.001520021    2.043    0.511
         4 -13.3793    188.7357      7.3213   5.2551678870e+01   3.6365637005e+01     1.124346    0.4911084 -73.33   0.00491884    2.420    0.587
         5 -11.8456     58.2709      8.0677   7.6416693659e+01   6.9365283627e+01    0.5315024    0.3764706  52.71  0.002369413    1.278    0.217
         6 -12.0768     43.7971      8.3730   8.3630596320e+01   7.2358366019e+01    0.3819092    0.2793514  51.00  0.001095894    1.378    0.274
         7 -10.6228    109.4003      8.5617   6.2222399193e+01   5.6618721599e+01    0.2619848    0.2084535 -71.47 0.0008034155    1.304    0.233
         8  -9.1073     24.9946     10.0000   9.7157448272e+01   7.5348329936e+01    0.1947324    0.0667339  35.85  0.000398883    2.770    0.639
         9  -9.1456    149.3098      8.2832   5.6379993609e+01   4.6098604671e+01    0.1340216   0.09587593  48.59 0.0002534126    1.568    0.362
        10 -12.0250    166.0172      2.5619   5.2998988144e+01   4.2358370158e+01    0.6114156    0.2921161  66.29  0.002896686    1.928    0.481
        11 -11.5044     55.1907      2.6200   7.4327597201e+01   7.0640353304e+01    0.5381963    0.2974429  71.18  0.002419495    2.354    0.575
        12 -10.5208    185.5597    223.1215   1.0128353859e+02   3.7582700431e+00    0.2341651    0.1369303  32.58 0.0008371358    1.522    0.343
        13 -10.0457    149.2500    223.2556   1.0862514840e+02   8.6417972840e+00    0.1672035    0.1099948 -63.86 0.0008949342    2.432    0.589
        14 -10.7445    226.6086    221.3348   9.3717180401e+01  -1.0267470258e+00     0.140806    0.1316905   7.10  0.001104688    1.652    0.395
        15 -10.2279    233.2866    219.6412   9.2370960343e+01  -1.5754228491e+00   0.09105512   0.08383112 -18.64 0.0006650253    1.680    0.405
        16 -10.2173    236.7810    210.6157   9.0399832042e+01  -8.8133311497e-01    0.1941254    0.1677465  56.37  0.001358422    2.366    0.577
        17 -10.9395    225.3259    212.6836   9.2579611005e+01   1.9288775863e-01    0.1588832   0.08256539  27.87 0.0009401572    1.768    0.434
        18 -10.5390    116.0087    209.3418   1.1420769478e+02   1.5838677062e+01     0.302802    0.1472041 -64.32  0.001327912    2.893    0.654
        19 -10.9576    232.6225    223.7702   9.3110503304e+01  -1.9912210128e+00    0.2023135    0.1073734  17.85  0.001023396    1.702    0.412
        20 -10.3341     48.8979    201.1965   1.3009096593e+02   2.6548256987e+01    0.3597309    0.1753822 -83.28  0.001672785    2.370    0.578
        21 -10.6818     41.6287    201.2664   1.3196216927e+02   2.7355226452e+01    0.2289046    0.2090772 -76.43 0.0004641959    1.273    0.214
        22 -11.2008      5.0988    199.6254   1.4106898467e+02   3.1226669346e+01    0.3976809     0.153115  46.14 0.0009346641    1.924    0.480
        23  -9.9021    149.3186    198.6507   1.0499616552e+02   1.2787043066e+01    0.1292726    0.1015707  61.44 0.0007048198    1.735    0.424
        24 -10.1143    112.6630    197.8263   1.1346267602e+02   1.8578084138e+01     0.277808    0.1731615  81.27  0.001168029    2.999    0.667
        25  -9.9062     66.2042    194.4207   1.2496243739e+02   2.5923008185e+01    0.2065476    0.1014721  41.08 0.0008277971    1.687    0.407
        26  -9.7677     94.6826    187.0097   1.1654741516e+02   2.3562332016e+01    0.2143435    0.1132941  87.73 0.0007045626    4.246    0.764
        27 -12.2469    160.9997    194.0169   1.0169706355e+02   1.1798582841e+01     0.703271    0.6143205  61.11  0.004101883    1.532    0.347
        28 -10.6656    183.6499    183.3768   9.5189535282e+01   1.0085856204e+01    0.3750308    0.1525418 -45.25  0.001601133    2.708    0.631
        29 -10.7188    224.0060    183.5000   8.7922086874e+01   4.2338555026e+00    0.2071352    0.1499953 -66.99  0.001037345    3.468    0.712
        30  -9.8462    128.7793    177.6465   1.0637712469e+02   2.0098822614e+01    0.2086928     0.118882  41.40 0.0009460428    1.622    0.384
        31  -9.3943     12.6646    176.3410   1.3814271171e+02   3.5923159373e+01    0.1475074   0.07231363  55.66 0.0007050865    1.758    0.431
        32 -11.2181    158.6853    190.6866   1.0164299203e+02   1.2740099572e+01    0.3115217    0.2739093  -7.46 0.0009316551    1.113    0.102
        33 -10.6595     38.2052    174.8058   1.3083625031e+02   3.3852716852e+01    0.2625799    0.1930203  26.68  0.001263981    1.362    0.266
        34 -10.9427     34.4028    173.2133   1.3179700473e+02   3.4642630440e+01    0.3680538    0.1949379 -79.86  0.001743905    1.915    0.478
        35 -10.7968     44.4684    171.9696   1.2877205512e+02   3.3844321304e+01    0.4538131    0.1704334  61.49  0.001520376    3.584    0.721
        36 -10.2268    176.5370    171.4438   9.4440649577e+01   1.3234031340e+01    0.3086644    0.1755516 -49.04  0.001470825    2.040    0.510
        37 -10.8040    121.4377    169.2953   1.0679459569e+02   2.3091577085e+01    0.3443754    0.2413207  83.65  0.001529736    2.257    0.557
        38 -11.3220     55.5232    167.4155   1.2504600270e+02   3.3628671163e+01    0.4903348    0.2833028  83.21  0.002036651    2.067    0.516
        39  -9.6943    168.3426    169.6686   9.5816598186e+01   1.4918558184e+01    0.1319529    0.1106225  75.49 0.0007051032    1.751    0.429
        40  -9.9324    139.5489    165.4129   1.0156053658e+02   2.0741413454e+01    0.3386249    0.2180256  73.95  0.001291284    3.184    0.686
        41 -10.0545     79.8263    164.1582   1.1744297065e+02   3.1053343175e+01    0.4426267    0.2063633  72.10  0.001096828    6.499    0.846
        42 -10.8118     51.8246    159.8782   1.2529353678e+02   3.5963790515e+01    0.3813257    0.2042607  83.63  0.001570057    2.333    0.571
        43 -11.6389    106.7225    158.4432   1.0881545656e+02   2.8038871574e+01    0.6359596     0.370157  61.74  0.002506363    2.398    0.583
        44 -10.4513     22.3782    159.2675   1.3427731954e+02   3.9260478279e+01    0.3720227    0.2023998  65.07  0.001767721    1.778    0.438
        45 -10.3875    128.7489    159.2231   1.0308053087e+02   2.3964139592e+01    0.3745307      0.17682  49.92  0.001404319    2.432    0.589
        46 -11.9075    119.1648    156.6179   1.0509021025e+02   2.6257765605e+01    0.5311797    0.4721013 -73.82   0.00227123    1.269    0.212
        47 -11.0588    167.7338    157.2832   9.3538664196e+01   1.7291156894e+01    0.3658206    0.2872577  76.82  0.001848084    1.966    0.491
        48 -10.2716    218.3190    156.4770   8.3873574360e+01   8.9765084853e+00    0.3070202    0.1021199 -37.68  0.001263991    2.711    0.631
        49  -9.5450      6.9872    155.9751   1.3873904939e+02   4.1327904381e+01    0.1633535    0.1318518  80.17 0.0005974091    1.097    0.088
        50  -9.7713     81.8060    155.1960   1.1548167855e+02   3.2926712009e+01    0.2729012    0.1403331  63.05 0.0009574207    2.888    0.654
        51  -9.2073     35.5910    155.4926   1.2986800461e+02   3.8930230868e+01    0.1403579    0.1224877  66.86 0.0001060034    1.026    0.025
        52 -10.0786     23.2091    153.7298   1.3359724217e+02   4.0584669542e+01      0.23306    0.1638304  78.67 0.0005406672    1.333    0.250
        53 -10.2310     40.3707    152.6357   1.2806435579e+02   3.9144961514e+01    0.2844739    0.1772769  69.96  0.001114543    1.666    0.400
        54  -9.7223    132.4037    152.2007   1.0077761553e+02   2.4798146204e+01    0.2080396    0.1442568 -63.89 0.0009490151    1.782    0.439
        55  -9.7034     64.0456    152.4916   1.2053712491e+02   3.6224726643e+01    0.2159719    0.1390896  30.41  0.000382888    1.502    0.334
        56  -9.8413    189.8137    150.5569   8.7718860594e+01   1.4591565270e+01    0.2423594     0.182671 -74.89  0.001203219    2.255    0.556
        57 -10.9789    107.2877    145.5557   1.0624113494e+02   3.0929633558e+01    0.6404789    0.3672706  71.72  0.002103349    3.556    0.719
        58 -10.6030     55.7923    146.0951   1.2227853000e+02   3.8970301405e+01    0.4622242    0.1952802  62.30  0.001433586    3.795    0.736
        59 -10.5369    148.4199    145.0151   9.5354984257e+01   2.3264443233e+01    0.4106124    0.2827243  87.16  0.001637564    2.810    0.644
        60 -10.0836    124.8710    143.0470   1.0086497360e+02   2.8217664632e+01    0.3564612    0.2119257 -76.01  0.001246713    3.203    0.688
        61 -10.1560     87.7135    144.3699   1.1183253502e+02   3.4634775930e+01    0.2501527    0.1689282  63.87  0.001096429    1.736    0.424
        62 -10.6537    241.1714    150.0037   7.9146330239e+01   6.5466829521e+00    0.1923747    0.1261328 -52.61  0.001094332    2.090    0.522
        63  -9.9853     23.2683    138.4099   1.3226303480e+02   4.4532552045e+01    0.4404606    0.1477015  66.56  0.001268908    4.745    0.789
        64 -10.2786    132.1741    132.0221   9.6534857043e+01   2.9209368174e+01    0.2484571     0.180852 -80.88    0.0010465    1.984    0.496
        65 -10.9626     82.6357    129.6315   1.1062879653e+02   3.9167646605e+01    0.7279235    0.2027343 -61.87  0.001962856    4.401    0.773
        66  -9.8517     52.2799    132.6188   1.2149843042e+02   4.2936791893e+01    0.2004003    0.1424755  15.51 0.0009447802    1.605    0.377
        67 -12.0745     97.6739    127.0105   1.0526106038e+02   3.7135765777e+01     1.251905    0.7140411  77.59  0.003709798    4.236    0.764
        68 -10.0535     13.4145    129.8494   1.3492482065e+02   4.7560166012e+01    0.3585649    0.1339469  47.61  0.001415508    2.556    0.609
        69 -10.3909     59.4547    124.9244   1.1769118514e+02   4.3993971448e+01    0.4926346    0.2705461  75.03  0.001778444    2.796    0.642
        70 -10.8935     43.5262    123.4899   1.2324790609e+02   4.6426517463e+01    0.5783641    0.2958378  79.53  0.002127185    2.769    0.639
        71 -10.8196     28.7709    123.3753   1.2870272193e+02   4.8007511233e+01      0.38219    0.1850839  61.82  0.001518597    2.397    0.583
        72 -10.7104     14.0642    121.0461   1.3392499442e+02   4.9831493411e+01    0.4235667    0.2678624 -37.56  0.002092444    1.845    0.458
        73 -12.1222    193.2382    118.0530   8.0071271375e+01   1.9542970969e+01    0.6206915    0.4795993 -67.64  0.002382298    1.646    0.393
        74 -10.4687     70.7635    118.3741   1.1238850577e+02   4.3999744787e+01    0.6268136    0.2133261 -64.56  0.001899791    3.462    0.711
        75 -10.0405    130.7928    119.1772   9.3871468390e+01   3.2293076952e+01     0.268971    0.1760417  85.68 0.0009594303    2.913    0.657
        76 -10.4897      2.5120    116.6352   1.3787796031e+02   5.1700280475e+01    0.5306352    0.1876156  74.83  0.001894025    3.261    0.693
        77 -10.4465    109.1520    114.4429   9.8797453239e+01   3.7883984925e+01    0.4397879    0.2679068 -81.12  0.001478808    3.173    0.685
        78 -12.9033    160.1696    110.4099   8.4665353853e+01   2.7757005386e+01    0.9359468    0.5696982 -64.52  0.003727526    2.424    0.587
        79 -11.0497    174.6979    111.1889   8.1882379048e+01   2.4506755265e+01    0.4487174    0.3099518 -44.92  0.001206878    1.410    0.291
        80 -10.4345    122.2885    112.5987   9.4532145208e+01   3.5549528652e+01    0.3435838    0.2207468  75.46  0.001264163    2.598    0.615
        81 -10.3308     91.7605    111.4583   1.0356424658e+02   4.2047720941e+01    0.5088576    0.2180769 -61.08  0.001670154    2.881    0.653
        82 -11.5536     15.3283    110.5954   1.3239645551e+02   5.2512794026e+01    0.7234598    0.4027197  66.11  0.002665172    1.926    0.481
        83 -13.2894    142.1591    105.6735   8.7567832975e+01   3.2667229959e+01      1.10088     0.507688  59.39   0.00368557    2.952    0.661
        84 -10.4735     78.9872    112.8515   1.0826830666e+02   4.4036240132e+01    0.4430163    0.2695551  86.75  0.001581154    2.811    0.644
        85 -11.7578     44.9050    101.4096   1.1886823807e+02   5.2125036590e+01    0.8430762    0.4500524  76.87  0.002994994    3.051    0.672
        86 -11.3428    140.6802    117.1613   9.0850805684e+01   3.0615813048e+01    0.4809225    0.2607517 -49.14  0.001945434    1.919    0.479
        87 -12.1491    127.7303    100.8596   8.9953805239e+01   3.6908578753e+01    0.6653168    0.4910047  88.57  0.002745554    1.870    0.465
        88 -11.9725    118.3570    102.0000   9.2854577445e+01   3.8748954404e+01    0.8804232    0.3421417  39.47  0.002844254    2.791    0.642
        89 -11.7966    108.2233     99.2569   9.5100251338e+01   4.1570292520e+01     0.766349    0.5326645  85.30   0.00306591    2.197    0.545
        90 -10.7237     21.7650    101.3274   1.2860753548e+02   5.4495726135e+01    0.5081528    0.1743529  61.48  0.001320163    5.949    0.832
        91 -10.1386     94.4134     97.2264   9.8972808981e+01   4.4938898357e+01    0.2268501    0.1521867 -63.91 0.0009551331    1.714    0.417
        92 -10.8371     62.7428     94.9495   1.1009363134e+02   5.1287368282e+01    0.7300596    0.3360619 -77.76  0.001949558    5.056    0.802
        93 -10.7083     82.2050    100.5060   1.0410299801e+02   4.6533980595e+01    0.3421911    0.2951726  85.56  0.001061929    1.278    0.218
        94 -12.8809    170.2980     90.7469   7.7583665348e+01   2.9140100603e+01     0.448013     0.410737 -72.43  0.001032511    1.101    0.092
        95 -10.6969    123.8822     91.5546   8.8384662130e+01   3.9745415865e+01    0.2914456    0.2002441 -82.26 0.0008650957    2.219    0.549
        96 -10.5142      4.7227     89.4919   1.3461571357e+02   5.8704481280e+01    0.5190223    0.1513132 -81.43  0.001772533    3.347    0.701
        97 -10.5790     34.2756     88.4904   1.2088680829e+02   5.6733230933e+01    0.6061122    0.2579673 -80.65  0.002040127    3.305    0.697
        98 -11.7394     42.4899     87.7712   1.1700461248e+02   5.5983518645e+01    0.8665941    0.4596306   0.26  0.002019557    3.195    0.687
        99 -10.4123     45.2779     81.9577   1.1433511496e+02   5.7117616135e+01    0.3078488    0.2467216 -63.52 0.0006655461    1.233    0.189
       100 -11.0258     87.5407     87.1221   9.8457878593e+01   4.8694531246e+01    0.5490243    0.2738947  50.65  0.002033665    2.161    0.537
       101 -10.0807    152.1255     87.1375   8.0268079374e+01   3.3993691502e+01    0.2221135    0.2073282  14.32 0.0005098862    1.209    0.173
       102 -10.6641    105.2201     84.3444   9.1691029211e+01   4.5532854181e+01    0.3852768    0.2728104 -89.57  0.001572579    2.097    0.523
       103 -10.7608      9.0105     81.9687   1.3169679539e+02   6.0448905216e+01     0.297404    0.1570724 -60.11  0.001415369    1.654    0.395
       104 -10.5454     24.3108     80.6375   1.2402261146e+02   5.9729462237e+01     0.468793    0.2269149  84.05  0.001690001    3.209    0.688
       105  -9.9455      1.7971     77.8252   1.3469442416e+02   6.1855015064e+01    0.2077292     0.155188 -52.82 0.0006630535    1.232    0.189
       106 -10.8338     82.1086     73.3196   9.6115100732e+01   5.2927405250e+01    0.5415137    0.3407624  81.97  0.001833591    3.367    0.703
       107 -10.7002     62.4103     70.2918   1.0316463928e+02   5.7352262889e+01    0.3497079    0.1422941 -52.77  0.001256614    2.484    0.597
       108  -9.6061    116.3203     73.6507   8.5018256153e+01   4.5160694677e+01    0.1638176    0.1221565 -82.21 0.0004627169    1.740    0.425
       109  -9.1669      1.4735     73.3839   1.3432457505e+02   6.3005685673e+01    0.1289162    0.1157861 -59.17 0.0001451315    1.034    0.033
       110 -11.9014    223.3197     70.9230   6.4908600396e+01   2.0952935620e+01    0.2963452    0.2288557 -49.82   0.00166598    1.120    0.107
       111  -9.6747     94.8416     71.7134   9.1015091000e+01   5.0542994688e+01    0.3436867    0.1799326 -64.48  0.001093219    3.409    0.707
       112 -10.4077     51.9209     70.6568   1.0806495308e+02   5.8969404737e+01    0.2784997    0.2218061 -66.50 0.0008744103    1.341    0.254
       113 -10.3926    196.5760     67.8722   6.7455485975e+01   2.6956812920e+01    0.3791837    0.1992802  63.07  0.001762205    2.028    0.507
       114 -10.7670      9.5338     57.3212   1.2726288786e+02   6.6678963540e+01    0.9478721    0.4571289  56.92  0.003917908    2.935    0.659
       115 -11.1537     28.3160     52.9128   1.1489774433e+02   6.6231506230e+01    0.4851806    0.3607077   1.13  0.002216535    1.434    0.303
       116 -11.8877     21.1912     52.9799   1.1917573040e+02   6.6904657149e+01     0.958806    0.5402251 -76.79  0.004385983    2.121    0.528
       117 -11.0956     39.8031     52.5714   1.0821328048e+02   6.4917541927e+01     0.545369    0.2478335 -45.41  0.001953837    2.155    0.536
       118 -13.5190     30.4553     59.7194   1.1575816443e+02   6.4386916083e+01     1.846179    0.7810971  25.06  0.004381842    2.389    0.581
       119 -10.9015     19.2745     59.5196   1.2205508597e+02   6.5480672459e+01    0.2645851    0.2181536 -30.17 0.0007582453    1.177    0.150
       120 -11.7157    240.6346     65.0372   6.1836541368e+01   1.8473070015e+01    0.2971327    0.1726019  79.01  0.001646882    2.179    0.541
       121 -10.3859    102.0668     61.5594   8.5132260009e+01   5.0904172337e+01    0.4272429    0.2598547  81.30  0.001476501    3.071    0.674
       122  -9.8426     72.5234     58.5234   9.4666146589e+01   5.8044944244e+01    0.2722466    0.1438214 -57.43  0.001037081    2.413    0.586
       123  -9.8962    119.4839     56.9893   7.8582522283e+01   4.7459261692e+01     0.222401    0.1214422 -59.21 0.0006513923    2.505    0.601
       124 -10.0733     53.8053     53.8775   1.0137148264e+02   6.2495514009e+01    0.4300489    0.2081013 -65.27  0.001435204    3.644    0.726
       125 -12.1959    149.4000     52.3388   7.0518517995e+01   4.0594964438e+01    0.3972246    0.2964807  62.43  0.000527692    1.294    0.227
       126 -10.5060    162.1049     53.2833   6.8598950092e+01   3.7253446194e+01    0.3422996    0.1846658  62.09  0.001012375    1.807    0.447
       127 -11.2813    232.4256     59.6227   6.1433165892e+01   2.0717516275e+01    0.3318101    0.1687876 -60.99   0.00162109    2.217    0.549
       128 -10.2470     81.9764     46.5429   8.6186576252e+01   5.8343297202e+01    0.2868215    0.2080913 -57.53  0.001104764    1.637    0.389
       129 -11.1400     75.1199     45.2433   8.8281100687e+01   6.0093102758e+01    0.4963959     0.306015 -48.11  0.001200258    1.784    0.439
       130 -10.8885     69.8733     42.1692   8.9109363797e+01   6.1770358593e+01     0.466925    0.3090344  69.33  0.002016595    2.193    0.544
       131 -10.8691    157.0412     45.0497   6.6949835278e+01   3.9723395989e+01    0.2848849     0.209227  60.40  0.000398718    1.341    0.254
       132 -11.3544      7.6360     43.3005   1.2521686494e+02   7.0164178907e+01    0.5976452     0.250802  32.35  0.002653533    2.546    0.607
       133 -11.9941     41.8043     37.7393   1.0107079929e+02   6.7789039929e+01    0.7992718     0.447262  20.79  0.002090894    2.114    0.527
       134 -10.6819     83.1119     38.1424   8.2198989281e+01   5.9518394418e+01    0.4899115    0.2251137  54.77  0.001915058    2.108    0.526
       135 -10.9389    145.0826     37.3259   6.6483003612e+01   4.3865334458e+01      0.24728    0.2235874 -50.31 0.0003139608    1.138    0.122
       136 -11.3325    120.2015     34.2640   7.0200411643e+01   5.0794014931e+01    0.3473516    0.2824684  84.15 0.0007553486    1.214    0.176
       137 -11.2002     47.4599     35.8218   9.6999676333e+01   6.7241303349e+01    0.4769808    0.2996865  13.60  0.001398977    2.114    0.527
       138 -10.2233     74.3087     32.9351   8.3112848221e+01   6.2371618659e+01    0.3375782    0.2062002  65.86  0.001462111    2.034    0.508
       139  -9.7595    101.2926     27.3100   7.1940812786e+01   5.6630942218e+01    0.2158435     0.193563  46.08 0.0003849189    1.109    0.098
       140 -10.9487    105.6850     30.6290   7.2192130007e+01   5.5060752422e+01    0.5305001    0.2552679  67.95  0.001669676    2.168    0.539
       141 -10.2606    102.3277     30.6543   7.3070543120e+01   5.5918220235e+01    0.3188804    0.2389258  86.88  0.001252222    1.501    0.334
       142 -10.8618    220.2298    249.0276   9.8806290630e+01  -3.5478338720e+00    0.2332402    0.1214948  38.63  0.001416694    2.406    0.584
       143  -9.4531    187.6451    248.5574   1.0445335342e+02   1.2921576749e-01    0.2305488   0.08237735  20.27 0.0009508837    3.451    0.710
       144 -10.1404     68.5006     25.3037   8.1706816229e+01   6.4836771976e+01     0.285759    0.2027078   8.76 0.0009067922    1.822    0.451
       145 -10.5128     37.0269     23.4941   9.6876079098e+01   7.1225982962e+01    0.4148551    0.2013726  47.52  0.001774535    2.457    0.593
       146 -12.4689     22.1830    239.8968   1.3858361780e+02   2.1482429797e+01    0.6708096    0.2302264  53.13  0.003343536    2.230    0.552
       147  -9.8631     46.5394     16.5122   8.7219929343e+01   7.0691589849e+01    0.2317596    0.1937999 -10.16 0.0007736071    1.216    0.177
       148 -11.5666    239.7191     20.5700   5.2370240387e+01   2.4005250261e+01    0.2772207    0.2054248 -80.22 0.0007503571    1.286    0.223
       149 -10.5686     30.6885     18.6712   9.8364814485e+01   7.3048923637e+01    0.2369315    0.1466812 -30.41 0.0006835078    1.674    0.403
       150  -9.8899     89.2011     18.4154   7.1262767505e+01   6.0810040399e+01     0.290514     0.173619  78.34  0.001273125    1.988    0.497
       151 -10.2989    127.0365     15.4485   6.1872622030e+01   5.1255172813e+01    0.2577951     0.202418  17.74  0.001066858    1.638    0.390
       152 -10.7769     32.9193    242.1262   1.3635551690e+02   1.9997139965e+01    0.1976544    0.1138761  49.19  0.001221455    1.310    0.237
       153 -10.8722      8.1246    240.7483   1.4160188377e+02   2.2629590899e+01     0.193445    0.1477643  13.61  0.001355527    1.619    0.382
       154 -10.1677      2.4326    240.1685   1.4277721133e+02   2.3235577681e+01    0.1891066   0.09880185  38.86 0.0008527526    1.389    0.280
       155  -9.7421     72.1643    229.1760   1.2668391129e+02   1.7995977199e+01    0.1799716    0.1203451  51.63 0.0004550914    1.327    0.246
       156 -10.7658     12.8640    227.2896   1.4017624524e+02   2.4786888982e+01    0.2366285     0.156166  72.83 0.0005505742    1.377    0.274
       157  -9.9270    104.4618    225.4269   1.1883759036e+02   1.4483778904e+01    0.2274446    0.1306858 -61.13  0.001210482    2.179    0.541
       158 -11.2192     96.2003    223.9289   1.2058819941e+02   1.5876411927e+01    0.3575847    0.2813286 -57.82  0.002243793    1.553    0.356
