#   1 NUMBER                 Running object number                                     
#   2 MAG_AUTO               Kron-like elliptical aperture magnitude                    [mag]
#   3 X_IMAGE                Object position along x                                    [pixel]
#   4 Y_IMAGE                Object position along y                                    [pixel]
#   5 X_WORLD                Barycenter position along world x axis                     [deg]
#   6 Y_WORLD                Barycenter position along world y axis                     [deg]
#   7 A_WORLD                Profile RMS along major axis (world units)                 [deg]
#   8 B_WORLD                Profile RMS along minor axis (world units)                 [deg]
#   9 THETA_WORLD            Position angle (CCW/world-x)                               [deg]
#  10 FWHM_WORLD             FWHM assuming a gaussian core                              [deg]
#  11 ELONGATION             A_IMAGE/B_IMAGE                                           
#  12 ELLIPTICITY            1 - B_IMAGE/A_IMAGE                                       
         1 -12.0775     61.8883     24.3011   8.9091361934e+01   6.4535410775e+01    0.4896208    0.3833183 -78.33    0.0025746    2.628    0.620
         2 -12.7475    129.6618     24.3326   6.9552820598e+01   4.9816092817e+01    0.4851074    0.3712673 -64.16  0.001012626    1.547    0.354
         3 -11.4290      4.0093     18.4301   1.1555690188e+02   7.2486349064e+01    0.3798141    0.2514098 -13.09  0.002379405    1.312    0.238
         4 -10.9734      9.8985     15.7417   1.1086887370e+02   7.2494788525e+01    0.2574993    0.1584482 -11.51  0.000676133    1.478    0.323
         5 -11.7943     84.6940     20.9449   7.9570867982e+01   6.0565664170e+01     0.323286    0.2787566  52.90 0.0002957588    1.225    0.184
         6 -10.8694     23.4877     19.4841   1.0486074562e+02   7.0639057227e+01    0.3691293    0.3025987  -8.42  0.002264755    1.098    0.089
         7 -10.8370     19.7456     15.9438   1.0525775870e+02   7.1566227908e+01    0.3259315    0.2470408 -21.24  0.002290122    1.098    0.089
         8 -10.2941     30.6395     13.3098   9.8040452648e+01   7.0704901363e+01    0.2087541    0.1532966 -14.62 0.0006802462    1.149    0.130
         9 -10.3487     26.3159     13.9112   1.0063684290e+02   7.1146471075e+01    0.2018436    0.1341511  -5.17 0.0002548518    1.366    0.268
        10 -11.7765     34.4538     16.4679   9.7662373186e+01   6.9781958760e+01    0.3230957    0.2126368 -19.04  0.001008518    1.368    0.269
        11 -11.5187    107.8548     17.2437   7.1753343281e+01   5.5818552127e+01    0.3584359    0.2083632  50.88 0.0004285463    1.466    0.318
        12 -11.2626     76.0568     15.2915   7.9866940267e+01   6.2953276135e+01    0.4651438    0.2583167  -4.92  0.001174646    2.301    0.565
        13 -12.1804     80.9769      6.7442   7.4500659340e+01   6.2780553260e+01    0.3904594    0.2575169   9.84 0.0006427724    1.649    0.393
        14 -11.6430     74.3847      6.6399   7.6465735335e+01   6.4146489591e+01    0.3750268    0.2187545 -13.61  0.000547077    1.874    0.466
        15 -10.9769     70.5528     14.7568   8.1491906830e+01   6.4092139173e+01    0.4961396    0.2199893 -11.12  0.001947228    3.526    0.716
        16 -10.7563     61.7726     15.4174   8.5022024047e+01   6.5653616220e+01    0.4197487    0.2503774  21.69  0.002237008    1.728    0.421
        17  -9.2146     62.3288     11.6875   8.3028951116e+01   6.5967850992e+01    0.2024101    0.1501109  63.28 0.0008617175    1.862    0.463
        18  -9.6848     59.2195     10.0082   8.3398783792e+01   6.6709580053e+01    0.2231512    0.1998289  54.56 0.0009912371    1.455    0.313
        19 -10.9763    131.5150     14.5446   6.5845470211e+01   5.0365906552e+01    0.3340094    0.1995513  22.34  0.001337865    2.280    0.561
        20 -10.7820     55.6811     13.7946   8.6657312176e+01   6.6908328750e+01    0.2943674    0.2435076 -65.34 0.0007734139    2.134    0.531
        21  -9.6846     50.8196     14.8206   8.9198664557e+01   6.7595826621e+01    0.2889171    0.1284533  36.13  0.001408852    2.070    0.517
        22 -10.3506     99.8068     12.9639   7.2033899068e+01   5.8091799809e+01    0.2335043    0.2059454  10.45 0.0009446217    1.180    0.152
        23 -10.0301    175.9008     11.8275   5.8519755152e+01   3.9467841343e+01    0.1968425    0.1637255  61.83 0.0004619658    1.204    0.169
        24  -9.9300    118.0396     11.9617   6.7530809829e+01   5.3906367026e+01    0.2142915    0.1797743  54.94 0.0009039689    1.024    0.023
        25  -9.4485    114.0030     12.0055   6.8387378757e+01   5.4870562772e+01    0.1599368    0.1367371  52.73  0.000399005    1.005    0.005
        26 -10.4229    108.4846     10.6276   6.9067708633e+01   5.6301801075e+01    0.2309094    0.1920122  53.48 0.0005972221    1.041    0.039
        27 -10.6694      2.8437      8.0178   1.1160429509e+02   7.4245674988e+01    0.3765141    0.1300792  23.56  0.001582884    2.889    0.654
        28 -13.3803     29.9158      3.0259   9.2953474761e+01   7.2098995925e+01    0.8218974    0.3432001  21.93  0.003099005    3.090    0.676
        29 -12.6176     14.0239      2.7424   1.0181591259e+02   7.4023726724e+01    0.6581035    0.3893051  22.43  0.002082033    1.582    0.368
        30  -9.4360    122.3038      8.3302   6.5387697883e+01   5.3196119061e+01    0.1403162   0.08668088  37.88 0.0004208641    1.653    0.395
        31 -11.0086    115.8740      5.1790   6.5478537914e+01   5.5013667590e+01    0.4778225    0.2308762 -27.38  0.002290039    2.309    0.567
        32  -9.3452     31.6537      8.7331   9.5146152682e+01   7.1174217806e+01    0.1207257   0.07434171   5.88 0.0003598667    1.612    0.379
        33  -9.6647    182.8134      7.2213   5.6527239586e+01   3.8203837357e+01    0.1686512    0.1437566  54.35 0.0006688633    1.308    0.236
        34 -10.2302    145.4903      6.8314   6.1036740322e+01   4.7581055990e+01    0.2588295     0.140729 -84.08  0.001140221    2.294    0.564
        35 -10.8028     88.6794      6.7555   7.2342016236e+01   6.1132569511e+01    0.4707993    0.2354191  73.77  0.001203584    3.042    0.671
        36  -9.5622    132.5855      5.1854   6.2498131441e+01   5.0937321091e+01    0.1598653    0.1244247  13.77 0.0002938379    1.549    0.354
        37  -9.7437     59.5258      5.4689   8.1035518024e+01   6.7115324144e+01    0.2595786      0.10482  48.86  0.001221573    2.212    0.548
        38  -9.4294    166.5149      1.4028   5.6725362733e+01   4.2783933742e+01     0.132215    0.1079557  83.49 7.375454e-05    1.026    0.025
        39  -9.6798    139.2357      1.6272   6.0299715702e+01   4.9576754509e+01    0.1896053   0.09985556  60.93 0.0004407195    1.554    0.356
        40  -9.9334    155.5717      7.1125   5.9714773582e+01   4.5023234352e+01    0.2996666    0.1778947  -1.35  0.001289819    2.536    0.606
        41  -9.6490    194.5204    215.4865   1.0425700770e+02   5.2159848442e-01     0.133999    0.1138602  15.35 -7.352131e-05    1.013    0.013
        42 -10.3724    247.2924    250.0806   1.0025489124e+02  -1.1899170870e+01    0.2409129    0.1460417  15.67  0.001548426    1.372    0.271
        43 -10.8133    250.4067    245.5302   9.8993113929e+01  -1.1757516978e+01    0.4393778    0.1272263 -33.09  0.001974982    3.442    0.710
        44 -12.4360    226.2807    246.2029   1.0332647296e+02  -8.6918963740e+00    0.5865944    0.3727225   0.80  0.003592311    1.561    0.359
        45 -10.2549      5.3322    235.4052   1.4582324077e+02   2.4666115974e+01    0.2019424      0.16023  71.49 0.0008973401    1.159    0.138
        46 -12.2426     16.3806    238.3083   1.4395371764e+02   2.2985144381e+01    0.9563901    0.2447472  35.15  0.004326704    3.307    0.698
        47 -13.1443     18.8472    247.7323   1.4397696801e+02   2.0923727878e+01     1.081065    0.2845519  45.44   0.00535305    2.510    0.602
        48 -12.3304      6.7671    244.4720   1.4596045268e+02   2.2787622369e+01    0.5886073    0.3521318  80.84  0.002911495    1.334    0.250
        49 -10.6990      1.4434    245.0324   1.4690722243e+02   2.3205075186e+01    0.1983971   0.08172473 -76.66 0.0006068493    2.240    0.554
        50 -10.9139      9.9123    217.0732   1.4407415093e+02   2.7908974913e+01    0.2871018    0.1470793  61.07 0.0008141527    1.573    0.364
        51 -10.9362    235.0144    216.5208   9.6754492268e+01  -5.9637735185e+00    0.1897552    0.1798832  71.41  0.001280428    1.748    0.428
        52 -10.9638    236.0096    213.5202   9.6041289647e+01  -5.6854349701e+00    0.1833822    0.1096664  32.47 0.0004209836    1.580    0.367
        53  -9.4902     37.9780    217.5058   1.3843986795e+02   2.4820820821e+01    0.1751977    0.1060002  40.31 0.0005050911    1.548    0.354
        54  -9.6885    201.2764    215.8901   1.0298539085e+02  -6.5530704481e-01    0.2132942     0.136591  -5.53  0.001062082    1.955    0.488
        55 -10.2885     31.2656    215.7565   1.3970210202e+02   2.5960426107e+01    0.2044237    0.1543517  52.94  0.001357665    1.195    0.163
        56  -8.9627    179.6923    215.7002   1.0731516753e+02   2.9865928151e+00    0.1356302   0.09740978   5.95 0.0003267247    1.596    0.374
        57  -9.4265    137.1735    215.6393   1.1643899271e+02   1.0372417479e+01    0.1998021    0.1179741  30.38 0.0007991972    1.697    0.411
        58  -9.7954    170.3126    213.3247   1.0887822568e+02   5.0179149715e+00    0.1389167    0.1010114   3.66 0.0006112313    1.661    0.398
        59  -9.0595     51.6298    222.6908   1.3600759458e+02   2.2062460825e+01    0.1108966   0.09705631 -26.78 0.0007034857    1.766    0.434
        60 -11.0069     20.8760    211.9509   1.4158090254e+02   2.7890294805e+01    0.3465898    0.1602525  64.56  0.001193478    1.937    0.484
        61 -10.1731    208.9727    212.0792   1.0080930396e+02  -1.3060055615e+00    0.1992452    0.1670186   9.99 0.0004445165    1.016    0.016
        62  -9.2369      2.2931    212.3200   1.4531637650e+02   2.9611606846e+01    0.1014593   0.07838434 -62.24 0.0004217002    1.608    0.378
        63 -11.8464      4.3000    206.7621   1.4463552052e+02   3.0602363173e+01    0.5410691    0.2325633  77.87  0.002805361    2.107    0.525
        64  -9.4275    184.4628    208.5328   1.0508665895e+02   3.3930908121e+00    0.1376884    0.1192698  16.91 0.0001512804    1.031    0.030
        65 -10.8961    240.8828    211.1099   9.4745775716e+01  -6.0521391234e+00    0.1805526    0.1640342   2.96  0.001250384    1.281    0.220
        66 -11.1159     18.8132    202.7432   1.4140648375e+02   3.0090916381e+01    0.3325331    0.2288611 -82.33  0.000751674    1.281    0.220
        67 -10.1413    175.1716    202.7932   1.0601757756e+02   6.0495283650e+00     0.205436    0.1819274  49.29 0.0006023609    1.226    0.184
        68  -9.9758    223.0823    201.2400   9.6147174613e+01  -1.8856403773e+00    0.3017055    0.2176552 -75.45   0.00132339    3.628    0.724
        69  -9.6231     34.6774    200.9990   1.3784927356e+02   2.8791555750e+01    0.1704273    0.1350686  82.62 0.0003788113    1.063    0.060
        70  -9.7252    227.1597    196.8439   9.4567506733e+01  -1.8539050622e+00    0.1872345    0.1360116   1.18 0.0006915574    1.369    0.270
        71 -10.8483    215.5319    194.2520   9.6248545242e+01   4.6638201246e-01    0.2905478    0.1177484 -30.84 0.0009143137    2.835    0.647
        72  -9.6236    203.0035    195.9710   9.9015865756e+01   2.3213802386e+00    0.1668326    0.1468716   8.41 0.0006320631    1.002    0.002
        73  -9.4781    205.6019    190.7938   9.7510093431e+01   2.7504245527e+00    0.1836282    0.1274859 -46.55  0.000946441    1.635    0.389
        74 -10.2453    187.3091    190.3511   1.0114336945e+02   6.1144162472e+00    0.1475212     0.105369  -0.50 0.0007044028    1.716    0.417
        75  -9.3668      1.5264    188.4295   1.4419195131e+02   3.4831613015e+01    0.1177057   0.09050529  80.57 0.0001575865    1.018    0.018
        76  -9.3820     61.6244    184.8217   1.2993761413e+02   2.9185849661e+01    0.1962548    0.1180076 -84.26 0.0009514244    1.724    0.420
        77 -11.4251     15.9318    182.5433   1.4060678009e+02   3.4903778742e+01    0.4133531    0.2077654  78.46  0.002117143    1.897    0.473
        78 -10.1647    166.9937    183.4892   1.0420966520e+02   1.1245391871e+01    0.2291313     0.136931  40.34 0.0009546351    1.575    0.365
        79  -9.8839      1.9941    180.2997   1.4359852774e+02   3.6616316293e+01    0.1639063    0.1292905  72.68 0.0005686221    1.090    0.083
        80 -10.6966    244.5629    178.1347   8.7870461753e+01  -1.7121863671e+00    0.2596423    0.1423146 -23.27  0.001266066    1.875    0.467
        81 -10.8900    224.2917    178.3456   9.1486325553e+01   1.6027638014e+00    0.2451563    0.2338692  31.05 0.0004615402    1.247    0.198
        82  -9.0852     36.3961    178.4915   1.3541857898e+02   3.3780027254e+01    0.1303198    0.1068957  84.36 0.0002208818    1.023    0.022
        83 -10.2608    200.1611    176.8034   9.5819553513e+01   6.2029024019e+00    0.1997985    0.1586378  -1.40 0.0006074035    1.335    0.251
        84  -9.6451     70.0652    177.5435   1.2689772414e+02   2.9742112850e+01    0.1922045    0.1330666  36.26 0.0004810561    1.479    0.324
        85  -9.7130     74.8767    171.1138   1.2474781474e+02   3.0590639623e+01    0.2105472    0.1692645 -29.52  0.001007316    1.649    0.394
        86 -10.5541     12.6839    170.2629   1.4041680909e+02   3.8043025483e+01    0.3472518    0.1182911  84.22  0.001201669    4.089    0.755
        87  -9.7361      4.5259    168.5252   1.4222812851e+02   3.9115326769e+01    0.1227063   0.09535339  84.84 6.823119e-05    1.016    0.016
        88  -9.5645    209.8256    166.3825   9.1755369741e+01   6.2764082220e+00    0.1974622    0.1267276  29.92 0.0005971833    1.665    0.399
        89 -10.5217     41.3305    165.4433   1.3277215871e+02   3.6364273447e+01     0.233761    0.1398686  82.41 0.0006300724    1.744    0.426
        90 -10.3762     36.2798    166.0214   1.3414406454e+02   3.6780624756e+01     0.234871    0.2130922 -84.77 0.0007209148    1.125    0.111
        91 -11.0707     36.4554    162.5170   1.3370717405e+02   3.7613227435e+01    0.3617803    0.2420889  49.31  0.002010909    1.472    0.321
        92 -11.0598     36.9883    158.0448   1.3304784394e+02   3.8649406334e+01    0.2343709     0.169091 -75.94            0    1.217    0.178
        93  -9.6925     67.1673    165.1555   1.2591056573e+02   3.3160088252e+01    0.2039561    0.1523707  70.06 0.0009142363    1.343    0.255
        94 -10.8872     51.4074    164.5484   1.3001853347e+02   3.5392104259e+01    0.3471034    0.2255839 -36.31  0.001679079    2.139    0.532
        95 -11.3232     44.4741    162.5328   1.3159914441e+02   3.6715897451e+01    0.3279819    0.2257351 -79.55  0.001118539    1.319    0.242
        96 -10.4043     48.7769    159.5960   1.3007655820e+02   3.6930411398e+01    0.2921227    0.1684376  38.59  0.001441961    1.752    0.429
        97  -9.5095    200.2491    162.6242   9.2843819136e+01   8.8005602245e+00    0.1927864    0.1326877  33.07 0.0005627611    1.491    0.329
        98 -10.1063    246.4823    162.5157   8.4419413198e+01   4.4252932363e-01    0.1313758    0.1132111 -20.69 0.0002072298    1.033    0.032
        99 -10.0759    238.7845    158.4006   8.4849793442e+01   2.4136666812e+00    0.1858027    0.1203001  28.78 0.0008112233    1.735    0.424
       100 -11.2445     22.5990    155.8678   1.3662200127e+02   4.0601628796e+01    0.3931239    0.3351125 -86.79  0.002562821    1.044    0.042
       101  -9.3122    197.9659    154.3185   9.1501859377e+01   1.0821832802e+01    0.2349679    0.1209473  64.46 0.0007047075    4.388    0.772
       102  -9.0534    151.6628    153.3124   1.0154167374e+02   2.0674299234e+01    0.1590137    0.1236874  80.83  0.000543758    1.689    0.408
       103 -10.0098     11.0916    153.2440   1.3937159771e+02   4.2206943573e+01    0.2209279    0.1474413  36.14  0.001232544    1.644    0.392
       104 -10.4178    178.1555    151.4592   9.5026336525e+01   1.5475495735e+01    0.2793885     0.219528 -50.08 0.0005728136    1.332    0.249
       105  -9.1527    147.5004    156.4796   1.0324202145e+02   2.0842992184e+01     0.154164    0.1489564  54.46 0.0006442328    1.027    0.026
       106 -10.5150     17.4374    146.7866   1.3706197348e+02   4.3253177422e+01      0.29215    0.1495373 -34.30  0.001117164    3.010    0.668
       107 -10.3224    207.0300    146.0311   8.7882606031e+01   1.0554440869e+01    0.2229089    0.2105791 -13.51 0.0006926823    1.012    0.012
       108 -10.4320      2.9642    143.7748   1.4066263107e+02   4.5059389709e+01    0.2368703    0.1205818 -63.30  0.001272951    1.661    0.398
       109 -10.8975     11.2367    146.6913   1.3872411026e+02   4.3768779871e+01    0.3836409    0.1036313  35.89  0.001580501    3.376    0.704
       110 -11.3381     21.3978    136.5462   1.3480527884e+02   4.5423580066e+01    0.4487433    0.2830558 -62.89  0.002053701    1.369    0.269
       111 -10.3008    236.6993    138.9058   8.1062050295e+01   6.0624793918e+00    0.1931913    0.1605023 -32.95 0.0008022524    1.073    0.068
       112 -10.1159     55.4603    136.4398   1.2471143479e+02   4.1882629185e+01    0.2653463    0.1653572  69.42 0.0007383527    1.999    0.500
       113 -11.4301      9.1114    136.7984   1.3832750187e+02   4.6310262650e+01    0.2246847    0.1651608 -73.82 0.0002567333    1.119    0.106
       114 -11.1292      2.9804    136.9071   1.4004008534e+02   4.6697431267e+01    0.3806533    0.1797571 -65.01  0.001895727    1.708    0.414
       115  -9.4501    138.0217    135.2580   1.0081420770e+02   2.7620444901e+01    0.2140968    0.1355419  43.19 0.0008906149    1.563    0.360
       116 -10.3889    106.9888    133.2088   1.0877752341e+02   3.4445337403e+01    0.2848142    0.2585135  41.60 0.0009841875    1.115    0.103
       117  -9.4263     79.6658    133.2735   1.1682239026e+02   3.9224780486e+01    0.1512613    0.1109197  69.33  0.000556446    1.599    0.375
       118 -11.1700     36.8292    130.8343   1.2945163101e+02   4.5407708711e+01    0.3877233    0.3342237 -51.90  0.002361713    1.178    0.151
       119 -10.7672     74.5880    129.6515   1.1762560146e+02   4.0915968589e+01    0.3388021    0.2621035  29.93  0.001726429    1.407    0.289
       120  -9.3646    243.1645    128.4084   7.7771513107e+01   6.6328829210e+00    0.1621917    0.1326128  70.08  0.000579137    1.538    0.350
       121 -11.1376      2.1866    125.0959   1.3910896344e+02   4.9571645982e+01    0.3926123    0.1475397 -66.01  0.001382753    2.010    0.503
       122 -10.1546     82.0483    125.1201   1.1437193785e+02   4.0859909567e+01    0.2203754    0.2062397 -53.92 0.0005450401    1.051    0.048
       123  -9.5742     29.9226    124.8391   1.3067851069e+02   4.7560599343e+01    0.1774041    0.1397151  84.54 0.0005221225    1.266    0.210
       124 -10.2402    226.2217    124.3865   7.9571019971e+01   1.0600293482e+01    0.1861399     0.137319  65.32 0.0009460992    1.648    0.393
       125  -9.5484    219.5233    124.5115   8.0726918592e+01   1.1942385176e+01    0.1434458    0.1324321 -34.33 0.0008101081    1.008    0.008
       126 -11.4317     10.5058    122.6607   1.3635935823e+02   4.9632140109e+01    0.2871822    0.2223835  55.70  0.001581959    1.405    0.288
       127 -11.8170     23.0291    106.9554   1.3011694931e+02   5.2522629010e+01    0.5079467    0.2933003  67.01   0.00242639    2.339    0.572
       128 -12.2982     18.3893    115.1832   1.3291598056e+02   5.0885943140e+01    0.5910774    0.2818062 -53.61  0.002903843    1.801    0.445
       129 -12.2052     15.4408    109.1638   1.3300440916e+02   5.2554707240e+01     0.569546    0.3696257  28.11  0.002745833    1.788    0.441
       130  -9.8073     20.5926    121.4904   1.3310516990e+02   4.9179299828e+01    0.2128172    0.1237272  -4.22  0.001028356    2.570    0.611
       131 -10.0532     33.3838    118.9679   1.2866705317e+02   4.8686295878e+01    0.2012903    0.1746337 -35.47 0.0005809423    1.254    0.202
       132 -10.5649     86.1552    116.4970   1.1111733414e+02   4.2278176581e+01    0.2617024    0.2017272 -55.01 0.0004342059    1.253    0.202
       133 -11.0950     51.0553    116.8749   1.2253695807e+02   4.7304324414e+01    0.2308294    0.1806386 -59.12            0    1.150    0.130
       134  -9.6247    166.2579    115.9705   8.9146474955e+01   2.5448297828e+01    0.2050671    0.1349083 -42.94  0.000315515    1.513    0.339
       135  -9.9801     39.6738    114.9578   1.2592511582e+02   4.9049411905e+01    0.1907218    0.1580792 -67.54  0.000566904    1.074    0.069
       136 -11.6194     35.9596    110.4395   1.2634505103e+02   5.0531204629e+01    0.5642346    0.2446571 -60.98  0.002482219    1.931    0.482
       137 -10.6653    248.9898    111.9942   7.3367442119e+01   8.2536104713e+00    0.2110306    0.1780401 -42.45 0.0005903491    1.030    0.029
       138  -9.0202    212.5300    112.4922   7.9123600255e+01   1.5584667015e+01    0.1453071    0.1362629 -38.93 0.0002673838    1.028    0.027
       139  -9.0389    223.3343    111.7132   7.7142666344e+01   1.3415776944e+01     0.142877    0.1073417 -71.53 0.0004917888    1.626    0.385
       140 -10.7381     55.6172    109.7118   1.1954700761e+02   4.8498981616e+01    0.2788429    0.1779116   8.25   0.00116413    2.153    0.536
       141 -10.4816      2.9187    105.2876   1.3660205873e+02   5.4248812032e+01    0.2050882    0.1422836 -78.39 0.0004706105    1.230    0.187
       142 -10.7590      6.5152    107.5206   1.3571330880e+02   5.3518396428e+01    0.2528416    0.2081519 -27.49  0.001025043    1.390    0.280
       143 -11.3892    243.8301    104.4504   7.2435427758e+01   1.0479019715e+01     0.258464    0.1685496 -22.05 0.0007614667    1.801    0.445
       144 -10.2843    223.2745    103.9653   7.5350954250e+01   1.4773802050e+01    0.2216633      0.20721  78.41 0.0004744392    1.144    0.126
       145 -10.4810     27.4661    101.5026   1.2763452801e+02   5.3471416261e+01    0.3479965    0.1402549 -49.51 0.0008362219    2.144    0.534
       146 -10.8599    247.8273    102.1637   7.1389976905e+01   1.0071242620e+01    0.2110904    0.1674163 -57.95 0.0008813099    1.232    0.189
       147 -10.2939    119.4309    101.7161   9.7188272644e+01   3.9204101090e+01    0.2688205    0.1984691  18.95  0.001172735    1.722    0.419
       148 -10.1192     35.8414    101.7321   1.2472703856e+02   5.2653428095e+01    0.3460936    0.1476609  28.93  0.001511986    2.542    0.607
       149 -11.4480      3.3696    100.4231   1.3580776966e+02   5.5372671265e+01     0.276576    0.2532478  58.66 0.0008371816    1.280    0.219
       150 -10.5604     63.1516     99.1207   1.1449890254e+02   5.0034251096e+01    0.5173916     0.250813  22.34  0.002028377    2.688    0.628
       151  -9.9353     85.0386     98.9366   1.0700028695e+02   4.6619170891e+01    0.2395841     0.176763 -20.80 0.0008288505    1.653    0.395
       152  -9.3501     81.3156     99.2712   1.0832542184e+02   4.7182556398e+01    0.1466485    0.1142363 -12.95 0.0003267784    1.557    0.358
       153 -11.5303     20.3860     97.3419   1.2939235967e+02   5.5027898171e+01     0.298442    0.2304744 -76.71  0.001022746    1.232    0.188
       154  -9.8006     95.0590     96.5893   1.0309601747e+02   4.5322156389e+01    0.2250124    0.1468455  41.21 0.0005001716    1.557    0.358
       155 -10.4134      1.6792     93.8239   1.3546856327e+02   5.7002270814e+01    0.3640443    0.1024036 -64.59  0.001132765    2.460    0.593
       156  -9.7450     67.8965     93.1825   1.1129952677e+02   5.0728977052e+01    0.2325792     0.161523  -1.96  0.001068174    1.954    0.488
       157 -10.4099    105.3731     91.7841   9.8480374500e+01   4.4334674343e+01    0.2217035    0.1408331 -34.78 0.0009412486    1.701    0.412
       158 -10.6978     95.0934     91.0321   1.0148506999e+02   4.6544568754e+01    0.4703934    0.2896692   2.19  0.001593243    3.461    0.711
       159 -10.9699     22.9225     87.0651   1.2649748839e+02   5.7247714034e+01    0.2984037    0.1865584 -38.70  0.001062125    1.524    0.344
       160 -12.3062     11.4285     91.0476   1.3153503881e+02   5.7115050849e+01    0.4262289    0.2345351  19.12  0.002314939    2.144    0.534
       161 -10.1763    171.5871     90.8004   8.1311276801e+01   2.9126404510e+01    0.2272181    0.1397392 -49.94 0.0009512079    1.687    0.407
       162 -10.1788    158.0002     90.2359   8.4080003824e+01   3.2556955907e+01    0.2831896    0.2103159 -22.48  0.001274107    1.606    0.377
       163 -10.9965      4.5465     86.3499   1.3328759731e+02   5.8588537268e+01    0.3792076    0.2844853 -77.29   0.00243823    1.241    0.194
       164 -11.5985     48.2060     85.7886   1.1655916821e+02   5.5070044248e+01    0.7021171    0.4597718  61.00  0.003328568    2.264    0.558
       165 -11.3092     25.7448     91.6092   1.2635810974e+02   5.5963017077e+01    0.2644657     0.216224 -35.11 0.0008295508    1.201    0.167
       166 -10.7344    112.9017     86.3745   9.4598913189e+01   4.3881840370e+01    0.3516546    0.2602939  73.82  0.001560653    1.817    0.450
       167 -10.5217     67.1098     85.1237   1.0935195013e+02   5.2669764950e+01    0.2296321    0.1842166 -22.86 0.0007152224    1.297    0.229
       168 -10.2495     16.0328     83.9257   1.2850406451e+02   5.8470011574e+01    0.2417642    0.1675375  22.67    0.0010829    1.680    0.405
       169 -10.1017    117.8917     83.3944   9.2241698521e+01   4.3388229570e+01    0.2221401    0.1959813  39.16 0.0008859293    1.119    0.106
       170  -9.8736     29.9803     81.6895   1.2259087339e+02   5.7896777959e+01    0.1729867    0.1605076 -26.07 0.0009990376    1.117    0.105
       171 -10.5193     74.6052     81.1104   1.0547041559e+02   5.2363739443e+01    0.2582653    0.2133956  30.53 0.0004301034    1.244    0.196
       172  -9.8298     70.8199     79.3826   1.0631095265e+02   5.3348382014e+01    0.2038902    0.1806845  14.39 0.0005114559    1.148    0.129
       173 -11.7032     21.8010     80.3556   1.2551361674e+02   5.8874268700e+01    0.4249545    0.3304499  -0.10  0.001722832    1.448    0.310
       174 -10.2803     21.3216     76.7253   1.2489743771e+02   5.9730976459e+01    0.2111679    0.1160245  26.09 0.0005461042    2.052    0.513
       175  -9.7019     39.5838     80.2959   1.1847205660e+02   5.7280399963e+01    0.2002993    0.1046226 -47.65  0.000953531    1.653    0.395
       176 -10.7725     11.9545     78.9001   1.2910419501e+02   5.9877003333e+01    0.4194466    0.2059737 -46.69  0.001467357    1.690    0.408
       177 -10.4483      2.3747     72.7340   1.3174808234e+02   6.1774160975e+01    0.2383432    0.1578732 -51.22 0.0007695495    1.195    0.163
       178 -11.4918      3.5882     78.6196   1.3233748533e+02   6.0398047153e+01    0.3760918    0.3026934  33.41  0.001565776    1.526    0.345
       179 -11.3256      7.1582     74.0329   1.3006080982e+02   6.1245518661e+01    0.4050629    0.2278705   0.77  0.002247037    2.153    0.535
       180  -9.3988     81.4481     79.0080   1.0241114604e+02   5.1641101559e+01    0.2077131    0.1374517 -42.52 0.0003572566    1.466    0.318
       181 -11.8084     58.5887     74.9760   1.0955535759e+02   5.6123104472e+01     0.541334    0.4226626  69.65  0.002044855    1.856    0.461
       182 -10.9106     62.6690     72.4484   1.0721093072e+02   5.6070451933e+01    0.4143685    0.2880878  53.28  0.002060585    1.876    0.467
       183 -10.7923    150.2335     77.4312   8.2139279900e+01   3.6852802981e+01    0.3072509    0.2498208 -45.32 0.0006807928    1.257    0.204
       184 -10.4806     88.1367     76.8299   9.9429956655e+01   5.0871448142e+01    0.2029028    0.1690893  -6.46 0.0004011807    1.303    0.233
       185  -9.6479    121.7816     76.5504   8.9018010351e+01   4.3841370840e+01    0.2126703    0.1466463  61.07 0.0009382324    1.607    0.378
       186 -11.6036     44.8014     75.2385   1.1504517910e+02   5.7827450770e+01    0.2246241    0.2069549 -37.53  0.000257942    1.070    0.065
       187 -11.2716     37.8248     69.3835   1.1623065211e+02   5.9865737140e+01    0.6211846    0.4497257  74.05  0.003211508    2.258    0.557
       188 -10.5199     16.8621     72.7519   1.2581829744e+02   6.0939257408e+01     0.257791    0.1575703 -60.11  0.001023507    1.387    0.279
       189 -11.2627    102.5668     72.9678   9.3496068481e+01   4.8762289613e+01    0.2709023    0.2265885  38.20 0.0003578386    1.172    0.147
       190  -9.8674    157.8688     72.1798   7.8912909643e+01   3.5880076841e+01    0.2306558    0.2009085  34.42 0.0003032413    1.251    0.201
       191  -9.5345    160.6874     69.6954   7.7598399526e+01   3.5596893800e+01    0.2158844    0.1384798 -46.24 0.0007469749    1.601    0.375
       192 -10.1755    152.0986     71.5745   7.9978944672e+01   3.7427084108e+01    0.3081135    0.2143158 -13.87  0.001328273    1.963    0.491
       193 -10.2332    137.3632     72.2062   8.3597301005e+01   4.0950185040e+01    0.2127349    0.1403055 -47.86 0.0003460143    1.613    0.380
       194 -11.3265     76.8143     71.2696   1.0157653514e+02   5.4042882625e+01    0.5573137    0.3267725  50.26  0.001527187    2.052    0.513
       195 -11.6713     49.7254     69.2325   1.1130379469e+02   5.8521936387e+01    0.4494782    0.2791459 -21.94  0.002179811    1.894    0.472
       196 -11.0515     27.3300     70.3026   1.2086449705e+02   6.0669538457e+01    0.2496237    0.1943351 -45.98 0.0002838848    1.082    0.076
       197 -11.2231     30.9761     66.1382   1.1819782808e+02   6.1240608203e+01    0.3208726    0.1988858 -57.98 0.0006419242    1.519    0.342
       198 -11.0309     68.6514     67.7673   1.0342754265e+02   5.6106984357e+01    0.3969309    0.2305492 -39.19 0.0009105586    1.659    0.397
       199 -11.1462     94.7472     67.6363   9.4207892591e+01   5.1388549650e+01    0.3657575    0.3312171 -44.64  0.001182737    1.171    0.146
       200  -9.9868     99.4834     64.9852   9.1789519676e+01   5.0906686796e+01    0.3075967    0.2161479 -16.32  0.001428938    1.726    0.421
       201 -10.4105    102.9061     68.0268   9.1753051304e+01   4.9625260185e+01    0.2394779    0.1784818  11.18  0.001065646    1.657    0.396
       202  -8.8576    195.3074     69.3214   7.1227500849e+01   2.7035785676e+01    0.1423692    0.1153966  22.92 0.0007033668    1.642    0.391
       203 -12.2766     18.2212     65.3435   1.2347527238e+02   6.2465496998e+01    0.7456862     0.448253 -46.84  0.003907155    1.351    0.260
       204  -9.9543      6.3530     67.7436   1.2910962857e+02   6.2678404530e+01    0.1733904    0.1496057 -43.11 0.0006014488    1.092    0.084
       205 -11.6684      3.4822     64.2424   1.2959088943e+02   6.3584687303e+01    0.2849056    0.2451126 -86.48  0.001325344    1.352    0.261
       206 -10.7000     81.1912     66.6407   9.8468923568e+01   5.4180940439e+01    0.2453959    0.1955033 -48.86 0.0009680764    1.340    0.254
       207 -10.5727     77.0779     64.0411   9.9049161099e+01   5.5417247322e+01    0.3889813    0.2541413 -43.15  0.001915618    1.521    0.342
       208 -10.1560    108.8098     75.2173   9.2322496192e+01   4.6996083287e+01    0.2223649    0.1817313   7.66  0.001093708    1.416    0.294
       209 -10.0248    146.3610     66.0292   7.9574727133e+01   3.9804623326e+01    0.2053944    0.1878396 -46.53 0.0003561569    1.133    0.117
       210 -10.5132    138.9647     65.9008   8.1242343597e+01   4.1657543540e+01    0.2256283    0.2152349  53.94 0.0003941458    1.013    0.013
       211  -9.6726    129.6533     66.7007   8.3787362252e+01   4.3782682339e+01    0.1577009    0.1161811  22.03 0.0007036678    1.681    0.405
       212  -9.3173    135.4572     65.4871   8.1954282142e+01   4.2587088693e+01    0.1509027    0.1444113  49.17 -4.532834e-06    1.016    0.016
       213  -9.3808    174.0143     63.9947   7.3395127418e+01   3.3174723985e+01     0.179925    0.1650434  78.87 0.0004245006    1.034    0.033
       214  -9.5078    209.9163     63.4469   6.7565080217e+01   2.4451431573e+01    0.1936317    0.1340543  69.51 0.0003035036    1.453    0.312
       215 -11.3506     58.1474     61.0723   1.0525853076e+02   5.9040115728e+01    0.5345659    0.1983903 -39.78  0.001743186    2.681    0.627
       216 -11.7455     63.9762     59.9183   1.0254877437e+02   5.8385880629e+01    0.5059063    0.2318259  30.95   0.00212757    2.355    0.575
       217 -10.4004     51.6206     62.5841   1.0841825634e+02   5.9645891962e+01    0.2884966    0.1945859 -24.74  0.000907881    1.526    0.345
       218 -12.0846     10.1593     61.9452   1.2616183528e+02   6.3722206120e+01    0.5430456    0.3194485  63.21 0.0009989183    3.054    0.673
       219 -11.5928      5.4158     51.9475   1.2583827485e+02   6.6086996903e+01    0.3782545    0.2149804 -34.98   0.00224276    1.515    0.340
       220 -10.9010     87.3786     52.8195   9.1412157641e+01   5.5508712138e+01    0.3057014    0.2330604 -55.66   0.00121049    1.653    0.395
       221 -10.7065     83.9642     61.5003   9.5717087340e+01   5.4637027666e+01    0.3711392    0.2273835  45.26  0.001742249    1.672    0.402
       222 -10.7118     86.5028     57.8593   9.3546486159e+01   5.4808919451e+01    0.3421499    0.2606627 -31.49  0.001603915    1.313    0.239
       223 -11.5588     29.6685     60.8529   1.1724326636e+02   6.2476492398e+01    0.6422616    0.2700417  12.16  0.002483854    3.308    0.698
       224 -12.3624     38.3258     50.9527   1.1019132618e+02   6.3568438260e+01    0.6769412      0.44829 -30.60  0.002989848    1.372    0.271
       225 -10.1831     44.5958     57.0123   1.0951242116e+02   6.1650619053e+01    0.3536583     0.209651 -26.78   0.00131977    1.783    0.439
       226 -10.9308     44.9956     51.4501   1.0740583067e+02   6.2675541868e+01    0.4509982     0.193796 -37.90  0.001983322    2.231    0.552
       227 -11.7917    123.5266     56.1661   8.1893368459e+01   4.7008396395e+01    0.3361666    0.2915689  23.98 0.0009005497    1.210    0.174
       228 -12.3693    128.1903     50.7044   7.8889642577e+01   4.6735046537e+01    0.5991971    0.3597408 -12.11  0.001783203    2.469    0.595
       229 -10.4312    100.6850     55.8212   8.8213551256e+01   5.2256815380e+01    0.4194092    0.1770059  49.12   0.00160483    2.306    0.566
       230 -10.5168     75.1340     56.0330   9.6917445502e+01   5.7247288749e+01    0.2034398    0.1877975  -4.56 0.0003453178    1.037    0.036
       231 -10.8493     12.7844     51.5896   1.2226356808e+02   6.5723789472e+01    0.2787597    0.1888808 -51.76 0.0009146426    1.242    0.195
       232 -11.6807    153.7899     48.6969   7.2685752905e+01   4.0634483883e+01    0.7361278      0.37092 -63.24  0.002210733    3.435    0.709
       233 -10.3000     76.9370     50.6792   9.4271096535e+01   5.7860124991e+01    0.2618902    0.1812295  46.11 0.0004527956    1.521    0.343
       234 -10.6137     70.9715     50.9887   9.6600842046e+01   5.8868255864e+01    0.3617641    0.2314558  52.11 0.0009813742    1.948    0.487
       235  -9.9131     51.5526     50.4720   1.0422071459e+02   6.1990937187e+01    0.3093016    0.1995944 -12.48  0.001569221    1.809    0.447
       236 -10.5994    114.8116     57.1525   8.4556905582e+01   4.8890175853e+01    0.2596961     0.190948  49.62 0.0003861864    1.295    0.228
       237 -10.4692     94.4171     49.2794   8.7792111799e+01   5.4655963517e+01    0.3061099    0.2206405  -2.32  0.000978399    1.681    0.405
       238 -10.0639    147.0597     48.8798   7.4084126124e+01   4.2314448018e+01    0.2278592    0.1684107  30.73 0.0004978256    1.594    0.373
       239 -10.0059    114.2842     48.2170   8.1583427197e+01   5.0420319965e+01    0.3043762    0.1928031  61.50  0.001394479    1.678    0.404
       240 -10.3906     62.1998     47.2838   9.8607687821e+01   6.0970170382e+01    0.2288421    0.1969189  -4.40 0.0006572991    1.039    0.037
       241 -10.5166    142.7641     45.8786   7.4019443311e+01   4.3827110859e+01    0.2991216    0.2388472 -52.66 0.0009501853    1.355    0.262
       242 -10.9122      4.6534     46.9417   1.2487298500e+02   6.7147427815e+01    0.2345386    0.1589013 -35.60  0.001142765    1.207    0.171
       243 -11.3843     12.4124     43.7136   1.2009703712e+02   6.7320942521e+01     0.351386    0.2165568 -18.02  0.001388771    1.597    0.374
       244  -9.0447    233.2845     45.3090   6.0483179533e+01   2.1722669236e+01    0.1156415    0.1033042  26.49 0.0003693825    1.569    0.363
       245 -10.1227    163.5416     45.4834   6.9921488979e+01   3.8603444125e+01     0.144996    0.1337085  72.43 -6.696816e-05    1.033    0.032
       246 -10.3905     85.9246     45.0105   8.8955545155e+01   5.7065661547e+01    0.2068785    0.1871291  16.74 0.0003875295    1.006    0.006
       247 -10.6667    118.8203     53.9090   8.2355841440e+01   4.8481412537e+01    0.4959903    0.2641549  28.91  0.001215992    2.798    0.643
       248 -10.4256    121.8755     43.0533   7.7811635906e+01   4.9376053475e+01    0.3934163    0.1619211 -43.46  0.001464556    2.790    0.642
       249 -10.9878     51.0131     44.7127   1.0227244427e+02   6.3101475580e+01    0.2173426    0.1752145 -22.93 0.0006830163    1.110    0.099
       250 -10.0484    103.8371     46.3727   8.3846393609e+01   5.3073782594e+01    0.2149119    0.1198499  41.48 0.0009476743    1.720    0.419
       251 -10.5346      7.0013     41.1800   1.2203381803e+02   6.8158557042e+01    0.2315811    0.1281559 -49.91 0.0006350743    1.432    0.302
       252 -10.0836    110.9291     42.0219   8.0264462817e+01   5.2102300628e+01    0.2124758    0.1955951  46.15 0.0004202365    1.045    0.043
       253 -10.1495     28.8823     41.1184   1.1107380434e+02   6.6426618297e+01    0.2250641    0.1705874 -16.63 0.0003448447    1.162    0.139
       254 -10.6769     23.6312     41.2939   1.1371046884e+02   6.6896402187e+01    0.2386057    0.2001643  23.26 0.0009461381    1.385    0.278
       255 -11.8444     20.7813     37.7857   1.1387025145e+02   6.7799358657e+01    0.2771132    0.2002374 -33.33  0.000386547    1.129    0.114
       256 -11.6671     24.9175     35.7685   1.1101821601e+02   6.7785616914e+01    0.4039614    0.2734804  50.37  0.002249167    2.472    0.595
       257 -10.1903    226.1181     40.4564   6.0124048533e+01   2.3978121487e+01    0.1965117    0.1608608 -55.59 0.0006204138    1.108    0.098
       258 -10.9928     97.4995     40.9089   8.3683192979e+01   5.5269884576e+01    0.4319699    0.2541782  54.88  0.001412434    1.722    0.419
       259 -11.9768    100.0072     29.3311   7.8477671395e+01   5.6263801619e+01    0.6786429    0.3370109  28.37  0.002029263    2.785    0.641
       260 -11.2527    101.6235     36.9027   8.0943127187e+01   5.4923627444e+01    0.2889957    0.2132358  42.74  0.000364415    1.234    0.190
       261 -11.3448     97.0773     36.9680   8.2296532343e+01   5.5915950126e+01    0.2871532    0.2561791 -55.06 0.0003882864    1.358    0.264
       262 -10.7880    105.1481     34.1504   7.8911579565e+01   5.4495311856e+01    0.3468369     0.238471 -53.70  0.001216715    1.896    0.473
       263 -10.5579     67.2444     41.0165   9.4136856612e+01   6.1172814251e+01    0.3703249    0.2050031 -18.54  0.001641452    2.328    0.570
       264 -10.3098     70.7907     35.2577   9.0419119583e+01   6.1426485954e+01    0.3287904    0.2081686  -4.92  0.001203366    1.980    0.495
       265 -11.1043     89.3515     39.2670   8.5590123831e+01   5.7232569782e+01    0.2930132    0.2221612 -41.45 0.0007528642    1.483    0.326
       266 -10.1845     43.0083     38.1286   1.0322254062e+02   6.5323394562e+01    0.4625382    0.3098399 -67.91  0.002174318    3.119    0.679
       267 -10.0102    132.0123     38.9591   7.4045676079e+01   4.7459215457e+01    0.1654186    0.1636843  30.54 0.0005353137    1.087    0.080
       268 -10.5487    163.4642     36.7210   6.7345618905e+01   3.9792745849e+01    0.3039905    0.1371505  53.27  0.001242359    2.068    0.516
       269 -11.1355     80.1013     36.8944   8.7736507179e+01   5.9434709140e+01    0.2603521    0.2279615  46.57  0.001015217    1.237    0.192
       270 -11.7495     76.5889     32.6180   8.7205650686e+01   6.0720236554e+01    0.5839966    0.3108352  51.69  0.002737536    2.006    0.502
       271 -10.4803    128.3366     35.2078   7.3578907103e+01   4.8852782953e+01     0.427892    0.2387043  10.18  0.001527944    3.592    0.722
       272 -10.2135      3.5036     35.9503   1.2221773142e+02   6.9364913534e+01    0.3050321    0.1342654 -47.32  0.001214523    1.694    0.410
       273 -10.4287      9.7660     34.5932   1.1845008602e+02   6.9238817719e+01    0.4173658    0.2173445   0.96  0.002315629    2.136    0.532
       274 -10.9759      7.3580     29.9577   1.1810836842e+02   7.0249676970e+01     0.313667    0.1640004 -43.15   0.00046809    1.492    0.330
       275 -10.3804      9.4249     25.6439   1.1533287164e+02   7.0875807848e+01    0.2915416    0.1812349  -7.16  0.001843527    1.550    0.355
       276 -10.1184    139.8838     34.0980   7.0785063526e+01   4.6117513971e+01    0.2119683    0.1809444 -85.68 0.0002948618    1.243    0.195
       277 -10.0276    124.2093     32.7991   7.3667181659e+01   5.0165261465e+01    0.2970256    0.1649533  51.08 0.0008500023    1.600    0.375
       278 -10.7525    118.0682     32.2009   7.4884393521e+01   5.1722812293e+01    0.2201352    0.1965868 -40.63 0.0002547131    1.245    0.197
       279  -9.9601     32.0516     33.7362   1.0664563402e+02   6.7397270602e+01    0.2231024   0.09427574  34.12  0.001061992    2.515    0.602
       280 -10.6684     18.5319     32.0492   1.1287595193e+02   6.9029469061e+01    0.2636808    0.2384827 -71.43  0.001859004    1.626    0.385
       281  -9.9527    178.8641     31.8821   6.3636917897e+01   3.6485678335e+01    0.1957688    0.1478524 -76.64 0.0003920996    1.312    0.238
       282 -10.1852     56.3831     31.3272   9.4459660188e+01   6.4467133506e+01    0.2416372    0.1133079 -31.47 0.0008326534    2.145    0.534
       283 -10.4698     50.0546     29.1012   9.6207639647e+01   6.5778425193e+01    0.3668601    0.1624573 -31.83  0.001297306    2.261    0.558
       284 -10.3539     81.9756     28.7177   8.3726986955e+01   6.0181620961e+01     0.437161     0.256813 -59.44  0.001723139    3.709    0.730
       285  -9.6559    162.8426     28.8067   6.5107646693e+01   4.0924534419e+01    0.1918648    0.1500619 -74.08  0.000271173    1.314    0.239
       286 -10.0343    140.1929     28.2395   6.8806514072e+01   4.6744222034e+01    0.2230735    0.1912682   1.80 0.0006772661    1.379    0.275
       287 -11.4992     70.5390     26.4008   8.6726972828e+01   6.2701723309e+01    0.3931244    0.2965501  30.90  0.001207593    1.184    0.155
       288 -10.6544    181.1378    248.7085   1.1221173852e+02  -2.4473478583e+00    0.2681026    0.1445357 -34.29  0.001427597    2.228    0.551
       289  -9.8469    124.8651     27.8810   7.1793701414e+01   5.0594835369e+01    0.2038685    0.1666588  40.07  0.001138213    1.181    0.154
       290  -9.8071     21.3608     27.7306   1.0964220853e+02   6.9521167936e+01     0.290462    0.1087418 -53.49  0.001241609    3.260    0.693
       291 -10.0775    214.5136     27.4866   5.8298205809e+01   2.8309276861e+01    0.1315951    0.1126858 -79.23 -0.000106493    1.037    0.036
       292 -10.0764    203.2873     27.0144   5.9359327737e+01   3.1036492854e+01     0.183927       0.1624 -72.93 0.0004498452    1.072    0.067
       293  -9.9498    137.0180    247.5206   1.2086634490e+02   4.6712395580e+00    0.1939986    0.1039019  38.17 0.0003612268    1.512    0.339
       294 -10.6763    134.6047     22.7779   6.8054455611e+01   4.8757271464e+01    0.2573195     0.215299  24.14 0.0007178148    1.337    0.252
       295  -9.7726     24.7778     26.8166   1.0744904670e+02   6.9336482456e+01    0.1441649    0.1337529  -8.17 0.0005877079    1.331    0.248
       296 -10.1400     16.8458     25.4537   1.1113164925e+02   7.0316936899e+01     0.319681    0.0851867 -42.32  0.001347935    2.990    0.666
       297 -10.4516      1.8423     24.7147   1.1929213025e+02   7.1530440162e+01    0.3305397    0.1406161 -39.87  0.001841208    1.789    0.441
       298  -9.7198      8.0134     20.9692   1.1425154564e+02   7.1780429667e+01    0.1625067    0.1341229 -31.05 0.0004262735    1.191    0.161
       299 -10.5349    147.6178    245.2008   1.1841196326e+02   3.3671975831e+00    0.1631768    0.1176951 -33.25 0.0009552371    1.753    0.430
       300  -9.6008    115.4303    244.7295   1.2493768375e+02   8.5482065419e+00    0.1493457    0.1213314 -44.58 0.0006961795    1.575    0.365
       301 -10.4291    112.0080     24.9481   7.3677796256e+01   5.4020868624e+01    0.1938144    0.1737893  45.98 0.0004942214    1.015    0.015
       302 -10.3040     93.9926     24.3308   7.8194036197e+01   5.8190853474e+01    0.2177002    0.1870356 -13.98  0.001311308    1.233    0.189
       303  -9.9270    173.7948     24.5841   6.2306494292e+01   3.8632126591e+01     0.194386     0.120435  82.85 0.0004654095    1.580    0.367
       304 -10.8435    119.5027     24.5600   7.1793424581e+01   5.2275489328e+01    0.4448664    0.1755199  64.03  0.001699489    2.522    0.604
       305  -9.7478    120.5131     21.5136   7.0472920416e+01   5.2362614037e+01    0.2057926    0.1383423 -22.29 5.720601e-05    1.687    0.407
       306 -10.2757    109.8120    243.1491   1.2591143518e+02   9.7029618525e+00    0.2646416    0.1843985  60.21 0.0008717875    1.381    0.276
       307  -9.8504     54.4947     23.4955   9.1751892300e+01   6.5884697629e+01    0.2013133    0.1156378  49.51  0.001019255    2.128    0.530
       308  -9.7729     15.1754     14.1596   1.0701973514e+02   7.2281787536e+01    0.1682667    0.1422761   6.63 0.0004728046    1.295    0.228
       309 -11.9756     74.2947    238.3883   1.3270757833e+02   1.5858740206e+01    0.4688042    0.3518662  72.38  0.002871628    1.210    0.174
       310 -10.3691     88.8956    241.1953   1.2999661403e+02   1.3223883104e+01    0.2081559    0.1573585 -33.83  0.001218602    2.059    0.514
       311 -12.2007     35.6035    241.4743   1.4055395849e+02   2.0239617215e+01     0.407365    0.2448311  45.02  0.002595046    1.403    0.287
       312 -10.9330    156.5020    241.0197   1.1603043414e+02   2.6221352623e+00    0.1706445    0.1298655 -46.82  0.001033769    1.593    0.372
       313  -9.9267     35.3124     22.1898   9.9973108399e+01   6.8850459885e+01    0.2093788    0.1420512   9.92  0.001279169    1.386    0.279
       314  -9.4647     47.2501    241.3613   1.3831987009e+02   1.8857652945e+01    0.1005801   0.08742375 -56.20 0.0003357265    1.612    0.380
       315  -9.3162    161.9819     20.0184   6.2646986257e+01   4.2131788907e+01    0.1628888    0.1424069  79.44 0.0003424881    1.004    0.004
       316 -10.1197     46.0883     20.3281   9.3959921326e+01   6.7623087973e+01    0.4112091    0.1048922  41.16  0.001515945    3.869    0.742
       317  -9.2052     11.7146     19.2612   1.1137460147e+02   7.1778988996e+01    0.0916951   0.08715099   7.51 0.0002325842    1.486    0.327
       318  -9.4406     50.4522    240.4549   1.3763295476e+02   1.8632987973e+01    0.1196199     0.092552  63.18 0.0006455716    1.024    0.023
       319 -10.3117    195.6901    238.3435   1.0780727390e+02  -3.1790609213e+00    0.2513739    0.1828604  14.90  0.001534098    1.248    0.199
       320  -9.8235     24.0643    232.3098   1.4219290673e+02   2.3345700303e+01    0.2021936    0.1148004  51.15 0.0009297503    1.399    0.285
       321 -11.2983     31.3569    237.4029   1.4110762758e+02   2.1524016332e+01    0.2723508    0.2050277 -87.62  0.001269656    1.280    0.219
       322 -10.6051     29.1797    232.9003   1.4124839001e+02   2.2662045235e+01    0.2820139    0.2519478  54.11  0.002120448    1.343    0.256
       323 -10.1862    217.0605     16.5714   5.5523925519e+01   2.8996707812e+01    0.3475039   0.09764577  67.98  0.001348013    3.068    0.674
       324  -9.5193    243.4850    237.4992   9.8864321036e+01  -9.9068278979e+00    0.1181368   0.08990131   5.11 2.598047e-05    1.004    0.004
       325 -10.4033    159.9245    235.8551   1.1458964100e+02   2.9126579370e+00    0.2037656    0.1588753  18.44  0.000618188    1.269    0.212
       326 -10.1461     72.5728    250.1339   1.3407586275e+02   1.3878469134e+01    0.1826031     0.160456  14.87  0.001252265    1.622    0.383
       327 -10.4689    177.6045    234.8349   1.1083621597e+02   2.0189029171e-01    0.2493452    0.1762444  14.13 0.0009526768    1.461    0.316
       328 -10.1456    167.0332    233.7132   1.1281238170e+02   2.1001106787e+00    0.1880774    0.1489499  31.52 0.0008005088    1.056    0.053
       329 -10.1850    127.4818    233.5158   1.2105003225e+02   8.6450759969e+00    0.1322936    0.1115096  40.76 5.863781e-06    1.041    0.040
       330 -11.3663     73.9998    232.9978   1.3226807827e+02   1.6957172359e+01    0.2600728    0.1763625  53.76 0.0008960875    1.203    0.169
       331  -9.2064    240.2802     12.3116   5.2757544231e+01   2.4298454529e+01    0.1039624   0.09259234  49.27 0.0002358824    1.566    0.361
       332  -9.9496     79.9121    231.3559   1.3087566723e+02   1.6439966574e+01    0.1842494    0.1341396  48.29 0.0004805143    1.151    0.131
       333  -9.7670     58.4754    230.4454   1.3524169242e+02   1.9584125785e+01    0.1243721   0.09868181  63.06 0.0001401547    1.015    0.015
       334 -10.2856    190.5160    226.8537   1.0697762699e+02  -6.3172593876e-01    0.2913942    0.1263799 -41.38   0.00097683    2.572    0.611
       335  -9.5423    249.3078    227.3150   9.6140918834e+01  -9.3893542349e+00    0.1223863   0.07461854   0.90  0.000418335    1.628    0.386
       336  -9.3717     44.0247     14.9807   9.2307733686e+01   6.8636081394e+01    0.1404931    0.1129012   3.97 0.0009322457    1.013    0.012
       337 -10.1959    129.9414    226.9333   1.1964385291e+02   9.4547913674e+00    0.3266239    0.1480083  54.29  0.001311267    2.662    0.624
       338 -10.1869     88.0055    227.3029   1.2873764873e+02   1.6058884388e+01    0.1896278    0.1496905  50.86  0.001161994    1.070    0.066
       339 -10.4376     66.5291    226.4871   1.3321900621e+02   1.9308154603e+01    0.2891014    0.1645197  46.77 0.0008196947    1.458    0.314
       340 -10.5742      5.4754    226.4988   1.4539218801e+02   2.6411837000e+01    0.3254884   0.05122424  53.86  0.001198822    4.423    0.774
       341  -9.6559    144.3128    226.6513   1.1651984192e+02   7.0988040593e+00     0.135142   0.09758793  65.52 0.0007046331    1.719    0.418
       342  -9.3198     37.9750      9.0000   9.2119294227e+01   7.0267418302e+01    0.1849266   0.05989028  39.99 0.0006092153    2.926    0.658
       343 -10.7111    115.9826    225.7816   1.2251084223e+02   1.1973414374e+01    0.1910323    0.1387131  77.40 0.0006164031    1.640    0.390
       344 -10.7033    153.4867    233.9797   1.1564895525e+02   4.2850711660e+00    0.2510468    0.1967731  -7.57  0.001465442    1.578    0.366
       345 -10.8560    123.0647    221.4495   1.2038672106e+02   1.1645703858e+01    0.3492285    0.2325331  49.67  0.001509466    1.349    0.259
       346  -9.8291     13.2134    221.7853   1.4368617877e+02   2.6611223989e+01    0.1415362    0.1169188 -84.15 0.0005684729    1.304    0.233
       347 -10.5963    141.6388    220.9632   1.1625860591e+02   8.5954759786e+00    0.3042232    0.1810139  25.35  0.001434294    1.878    0.468
       348  -9.5591    250.4771    219.4500   9.4574662497e+01  -8.5247158907e+00    0.1214251   0.09287849  -0.10 0.0006386617    1.034    0.033
       349 -10.4294     10.6138    226.7786   1.4444330822e+02   2.5854854532e+01    0.1596777    0.0817457  82.02 0.0004614541    1.659    0.397
       350 -10.0674    191.5536    217.2653   1.0515992248e+02   7.2605333138e-01    0.2174297    0.1690986 -37.09  0.001260094    1.420    0.296
