#   1 NUMBER                 Running object number                                     
#   2 MAG_AUTO               Kron-like elliptical aperture magnitude                    [mag]
#   3 X_IMAGE                Object position along x                                    [pixel]
#   4 Y_IMAGE                Object position along y                                    [pixel]
#   5 X_WORLD                Barycenter position along world x axis                     [deg]
#   6 Y_WORLD                Barycenter position along world y axis                     [deg]
#   7 A_WORLD                Profile RMS along major axis (world units)                 [deg]
#   8 B_WORLD                Profile RMS along minor axis (world units)                 [deg]
#   9 THETA_WORLD            Position angle (CCW/world-x)                               [deg]
#  10 FWHM_WORLD             FWHM assuming a gaussian core                              [deg]
#  11 ELONGATION             A_IMAGE/B_IMAGE                                           
#  12 ELLIPTICITY            1 - B_IMAGE/A_IMAGE                                       
         1 -10.9222     21.9627     53.5857   1.1689495674e+02   6.1948955549e+01     0.871777    0.4259809  87.20  0.002904509    4.154    0.759
         2  -9.7686     28.3951     22.7190   1.0546903327e+02   6.7738484483e+01     1.312173    0.6078257 -18.43  0.004827829    5.151    0.806
         3 -10.7695     23.3243     34.1051   1.1141766926e+02   6.5913199590e+01    0.6837636    0.5538362 -15.20  0.002590703    1.406    0.289
         4 -10.2318     50.4917     15.9853   9.3086726968e+01   6.6487844717e+01     1.344725     0.648456 -17.71  0.004748011    4.539    0.780
         5 -10.1946     46.3061     29.8549   1.0052534918e+02   6.4507253760e+01    0.5127265    0.2713245 -55.38  0.001183009    1.866    0.464
         6  -9.1658    190.7001     28.9582   6.1821402323e+01   3.3792312343e+01    0.5303611    0.2865891 -69.86  0.001845717    3.133    0.681
         7  -9.7829     63.9494      3.0864   8.1362266052e+01   6.6453208670e+01    0.4155137    0.2637467 -38.52  0.002034141    1.590    0.371
         8  -9.6711     62.9588     20.9348   9.0328589798e+01   6.3883935531e+01    0.5136961     0.234676 -49.53   0.00158373    2.515    0.602
         9 -10.3998     64.6254     13.0810   8.6102155129e+01   6.4893088495e+01    0.4573825    0.3743228 -39.26  0.001546147    1.279    0.218
        10  -9.5963    103.0508     21.1390   7.7122683135e+01   5.6561952703e+01     0.554087    0.2270831 -26.46  0.001978212    2.489    0.598
        11  -9.6267    198.8011     20.5378   5.7989043279e+01   3.2591938044e+01    0.7641458    0.3562726 -64.16  0.002314995    3.814    0.738
        12  -9.7046      9.3824     19.5193   1.1311908258e+02   6.9811878519e+01    0.4545923    0.1945623 -21.13  0.002053105    3.874    0.742
        13  -9.0422    133.0748     17.9896   6.8303148204e+01   5.0086930599e+01    0.4188221    0.1745225 -36.16  0.001157659    2.383    0.580
        14  -9.0575     96.0265     17.0131   7.7356442142e+01   5.8599543369e+01    0.4356964    0.1705347 -32.57  0.001530799    2.357    0.576
        15  -8.7988     96.8652     12.2471   7.4955554718e+01   5.9068688256e+01    0.4562609    0.2492051   4.90  0.001788603    2.852    0.649
        16  -8.4323     76.7033      6.3179   7.8441715035e+01   6.3793738725e+01    0.2518197    0.1772465 -39.63 0.0008587636    1.521    0.342
        17  -8.8809     78.5194      3.0404   7.6181362328e+01   6.3876818308e+01    0.2948993    0.2160156 -38.14 0.0008196587    1.477    0.323
        18  -9.2724     73.6499     19.5601   8.5785803116e+01   6.2400724140e+01    0.3317972    0.2313369 -53.72 0.0008122641    1.834    0.455
        19  -9.1586     73.8073     13.0436   8.2723124276e+01   6.3370526217e+01     0.595965    0.2687021 -15.79  0.002006917    4.140    0.758
        20 -11.1680    248.5727     11.0090   4.9918874449e+01   2.0900051217e+01    0.8439453    0.4712609 -12.40  0.003661867    1.927    0.481
        21 -10.7778     37.1644      9.4621   9.5907605437e+01   6.9244996311e+01    0.8116961    0.2767692 -49.76  0.002516877    3.054    0.673
        22 -10.2758     23.9321     11.2997   1.0302610312e+02   7.0276690531e+01    0.5470169    0.2575864  27.30  0.003024506    2.557    0.609
        23  -8.6532     19.8077      8.8012   1.0399837467e+02   7.1089685191e+01    0.2657721     0.194086 -15.19  0.001262374    1.407    0.289
        24  -9.6957     18.2590      4.0908   1.0269361743e+02   7.2062702638e+01    0.4052893    0.3453959  59.06  0.001867591    1.852    0.460
        25 -10.2581      6.3079      4.7585   1.0935942873e+02   7.2826038679e+01    0.4356353    0.3409352  -1.96   0.00148467    1.468    0.319
        26  -9.0573      2.6168      3.2361   1.1076645272e+02   7.3330686510e+01    0.2599316    0.1178291 -57.89  0.001502194    1.756    0.431
        27  -9.3016    124.9336     13.6788   6.8356936064e+01   5.2581332960e+01    0.4193192    0.3402556  35.70  0.001252119    1.179    0.152
        28  -8.4970    126.8224      9.2060   6.6061454631e+01   5.2633702994e+01    0.2472602    0.1535998  28.40 0.0005858074    1.728    0.421
        29  -9.5499     85.2426     12.9444   7.8824800908e+01   6.1296584958e+01    0.4078009    0.2608001 -56.60    0.0014748    2.465    0.594
        30  -8.2325     80.8398     12.7314   8.0163923860e+01   6.2154378951e+01    0.2831232    0.1529917 -43.36  0.001091774    2.040    0.510
        31  -9.4480    132.3376     10.4621   6.5407524676e+01   5.1140405620e+01     0.628477    0.2871553 -54.66  0.001988817    4.144    0.759
        32  -9.2220    132.4138      5.1585   6.3201679546e+01   5.1679322103e+01    0.3534669    0.1332528  45.90  0.001300554    2.491    0.599
        33  -9.2645    114.0966     10.1191   6.9396551331e+01   5.5548346002e+01    0.3083112     0.200758  29.53 0.0003203718    1.591    0.371
        34  -8.9846    101.9573      8.5138   7.1810778572e+01   5.8453673327e+01    0.2574587     0.185478 -31.62 0.0006010669    1.384    0.277
        35  -8.3614     68.0797      9.4630   8.3057315739e+01   6.4870279290e+01    0.1750989    0.1248426  40.03 0.0004444172    1.523    0.344
        36  -8.2057     71.8481      8.3784   8.1156050807e+01   6.4381081184e+01    0.1693155    0.1127025  29.99 0.0004638651    1.567    0.362
        37  -9.5188    124.7727      5.7311   6.5031677201e+01   5.3503954709e+01    0.5045882     0.240634  42.69   0.00209936    2.036    0.509
        38  -7.6976    110.2945      7.6818   6.9256876688e+01   5.6699383953e+01    0.1364222    0.1066273 -53.98 0.0002816631    1.607    0.378
        39  -9.2204     89.0001      2.5408   7.2643866908e+01   6.1882641372e+01    0.5406407    0.3119041 -44.87  0.002555986    2.165    0.538
        40  -8.8549     97.7036      5.6949   7.1665317751e+01   5.9702121433e+01    0.3853861    0.1661189  45.57  0.001063915    2.227    0.551
        41  -8.3671     95.9904      3.2498   7.0975884124e+01   6.0348013172e+01    0.4168346    0.2281272  17.42  0.001787681    2.351    0.575
        42  -9.5593    114.4261      4.2670   6.6722155657e+01   5.6123097230e+01    0.3964593    0.2323461  59.75  0.001864021    1.753    0.429
        43  -8.6622    209.4955      3.5274   5.1458794359e+01   3.1444565984e+01    0.1401342    0.1351572 -69.20 0.0001540997    1.024    0.023
        44  -8.7305    104.9239      2.0364   6.8021800322e+01   5.8532085533e+01    0.2136541    0.1913433  19.20 0.0006296419    1.033    0.032
        45  -9.5381      2.3651     14.3791   1.1488055221e+02   7.1219631898e+01    0.4855471    0.2065408 -71.19  0.002409541    2.656    0.624
        46  -8.1530    136.0528      1.5002   6.0983942824e+01   5.1118296540e+01    0.2175305    0.1369723  62.55 0.0007392206    1.555    0.357
        47 -10.1599     78.0478    113.0124   1.1172682597e+02   4.3022342625e+01     0.456809    0.2638143 -81.84  0.001870881    2.213    0.548
        48 -12.7149     34.1010    246.6642   1.3248998322e+02   2.4343260340e+01     2.445267    0.3849395  39.47   0.01141198    4.648    0.785
        49  -8.4143    158.8272    112.0110   9.2237522016e+01   2.8625967119e+01    0.2159333    0.1922748 -79.48 0.0005323435    1.296    0.228
        50  -9.9365     65.8592    110.8420   1.1447494739e+02   4.5108866784e+01    0.3741308    0.2362812 -85.55  0.001139065    1.742    0.426
        51  -9.7473     59.5338    109.8377   1.1594790306e+02   4.6102585916e+01     0.475347    0.2318435  63.65  0.001596634    2.909    0.656
        52 -10.2378     65.6581    104.5717   1.1344303450e+02   4.6481518402e+01    0.5861692     0.371217   5.06  0.002686802    3.304    0.697
        53  -9.2870     64.5287    101.7598   1.1323946083e+02   4.7230869734e+01    0.2850506    0.2444789  -8.10  0.001768373    1.602    0.376
        54 -10.4239     63.0138     95.8866   1.1255964372e+02   4.8691676574e+01    0.5508012    0.3197061  83.33  0.001672348    2.603    0.616
        55  -9.0741     21.4892     91.5232   1.2352819903e+02   5.3797808116e+01    0.2334274    0.1130426 -49.38 0.0007247867    2.129    0.530
        56  -8.2614    244.3188    108.3310   7.5640536138e+01   1.0492370344e+01    0.1466904   0.09550576  16.41 0.0004430217    1.690    0.408
        57 -10.7670     20.8285    101.1891   1.2492237847e+02   5.1774256315e+01      0.91979    0.3694677  77.11  0.003416304    4.181    0.761
        58 -11.0140     44.9796    102.6744   1.1866748300e+02   4.9270177805e+01    0.7547398    0.3518143  72.18  0.003012276    3.844    0.740
        59  -8.8229     40.1940    107.1689   1.2059203752e+02   4.8784244662e+01     0.164039    0.1172121  80.49 0.0004735063    1.345    0.256
        60 -10.8384    139.5805    103.2180   9.4414889540e+01   3.4296577964e+01    0.8599535     0.365985 -46.08  0.001915512    2.403    0.584
        61 -10.2492    139.4124     93.1364   9.1887786145e+01   3.6247991404e+01    0.5664324    0.4211422  88.74  0.001664935    1.911    0.477
        62 -10.7592    140.3643     82.0031   8.8614119165e+01   3.8132212394e+01     1.381116    0.2947255 -37.65  0.003480114    5.238    0.809
        63 -10.0547    139.9785     75.9271   8.6945935557e+01   3.9336118124e+01    0.5934933     0.326201 -51.34  0.001186717    2.093    0.522
        64  -8.7605    166.0067    104.2328   8.8798083991e+01   2.8440451836e+01    0.3092562    0.1917008 -46.64 0.0005172757    1.738    0.424
        65  -9.9414    149.4729    103.2730   9.2166195299e+01   3.2211888062e+01    0.3798354    0.2680372 -56.72  0.001000892    1.620    0.383
        66  -9.2135      6.4357    103.7865   1.2893497701e+02   5.2253235183e+01    0.2675258    0.1436688  69.30  0.001124762    1.839    0.456
        67  -8.8077     95.1416    102.6509   1.0527667239e+02   4.2639622241e+01    0.4431672    0.1777617  29.09  0.001374947    5.052    0.802
        68  -8.0729    202.7671    111.4092   8.3336457434e+01   1.9061761739e+01    0.2064585    0.1258055  40.42 0.0008624209    1.588    0.370
        69  -9.5260     81.5682    100.3980   1.0838646648e+02   4.5207218160e+01    0.3480152    0.2299702 -88.37  0.001077244    1.955    0.489
        70  -8.4473    159.0076    101.0510   8.9494726429e+01   3.0549192483e+01    0.2182993    0.2082029 -79.21 0.0004508799    1.138    0.121
        71  -7.6264    167.4924    114.4658   9.0984146434e+01   2.6334400277e+01    0.1426646    0.1363847  40.03 8.530832e-05    1.025    0.024
        72  -9.2887     94.3611     97.2773   1.0429562174e+02   4.3895338432e+01    0.2735573    0.2114634 -77.73 0.0006115861    1.402    0.287
        73 -10.4810    243.4791     95.5800   7.2681895488e+01   1.2284575030e+01    0.3740944    0.1861971 -30.71  0.001663909    1.880    0.468
        74 -10.2522     36.8701     81.1151   1.1740892661e+02   5.4755288775e+01    0.5155088    0.2862574 -26.99  0.002468712    3.130    0.681
        75  -8.4616     32.9793     95.4896   1.2087170291e+02   5.1984181194e+01    0.1574651    0.1348688 -87.48 0.0004745491    1.083    0.077
        76 -10.3205     34.5368     90.7312   1.1971211410e+02   5.2876120639e+01    0.4916412    0.2316267 -83.22  0.001741571    2.435    0.589
        77  -8.8369    164.5269     94.3551   8.6558414933e+01   3.0498741712e+01    0.2546477    0.2057907 -59.44 0.0005152745    1.433    0.302
        78  -8.0624     82.4879     93.9825   1.0677181469e+02   4.6442007828e+01    0.2517116    0.1627492 -10.39  0.001025172    3.470    0.712
        79 -10.7291    149.9547     88.2491   8.8124275485e+01   3.4867668272e+01    0.5195597      0.40999 -71.63  0.001809352    1.597    0.374
        80 -10.7413    150.0083     81.5162   8.6225840021e+01   3.6073632349e+01    0.6518899    0.3393821 -42.85  0.001968826    1.938    0.484
        81 -10.2232      4.5403     89.7528   1.2804169403e+02   5.5332393508e+01    0.5247203    0.2302319  81.09  0.001884396    2.536    0.606
        82  -9.5212    157.7176     90.9289   8.7116277506e+01   3.2645037490e+01    0.4095123    0.1926833 -28.59  0.001482939    2.649    0.623
        83  -8.5865     96.0786     90.9622   1.0236162235e+02   4.4937958391e+01    0.3781677    0.2504877  -5.42  0.001547127    3.191    0.687
        84  -9.3259    112.4854     89.4018   9.7606065657e+01   4.2360354510e+01    0.4464007    0.2771173  31.67  0.002050368    1.967    0.492
        85  -9.2196    177.1034     86.2343   8.1739194751e+01   2.8958895058e+01    0.3291875    0.2537473  25.31 0.0004167022    1.412    0.292
        86  -8.6761    163.5565     87.3375   8.4863336925e+01   3.1942966674e+01    0.2743857    0.1406397 -41.24 0.0006586646    1.976    0.494
        87 -10.1036     85.3195     86.5945   1.0428678463e+02   4.7585273474e+01    0.3804567    0.2724136  87.89  0.000874216    1.842    0.457
        88  -9.2637    243.2974     86.8384   7.0528972635e+01   1.3434326324e+01    0.2901398    0.1025551 -33.23   0.00108146    2.566    0.610
        89  -8.9091     64.0623     86.4660   1.1036179737e+02   5.0602618819e+01    0.3637313    0.2211213 -11.29  0.001455643    4.044    0.753
        90  -9.0344     59.1526     77.9860   1.0997141973e+02   5.3048881279e+01    0.2304418    0.1726009  68.87  0.001349718    1.585    0.369
        91 -10.6346     48.0147     84.6126   1.1471305164e+02   5.2879729974e+01    0.4972606    0.2958478  85.92  0.001622374    2.239    0.553
        92  -9.9682     51.0379     76.6382   1.1217366461e+02   5.4285577501e+01     0.929145    0.3904604  18.68  0.003382544    5.086    0.803
        93 -10.4585     85.1439     48.0839   9.3167130841e+01   5.5453664111e+01    0.6702555    0.4477305 -78.76  0.000960752    2.924    0.658
        94 -10.1015     72.9217     58.7692   1.0057969401e+02   5.5271660269e+01     0.530273    0.2482406 -54.67  0.001570538    2.061    0.515
        95  -9.9872     78.5445     48.9022   9.5587694929e+01   5.6381034533e+01    0.6527607    0.4718673  -1.72  0.003380712    1.872    0.466
        96 -10.7096     54.8783     70.8483   1.0965659392e+02   5.5098977341e+01    0.5705644    0.4053207  70.97  0.001124776    1.815    0.449
        97  -9.7296     54.9687     63.2968   1.0775593593e+02   5.6703162804e+01    0.4320292    0.2999862   4.46  0.001584146    2.108    0.526
        98 -10.4156     62.9377     60.8990   1.0446972036e+02   5.6214727560e+01    0.8370741     0.243618  34.58  0.002125679    4.083    0.755
        99 -11.3255    121.2920    111.5544   1.0069097458e+02   3.6256305651e+01     0.922736    0.5837874 -57.34  0.003669523    1.667    0.400
       100 -10.3358    103.9120     82.5584   9.8098968335e+01   4.5322055096e+01    0.5225464    0.2738764 -56.08 0.0009268132    2.038    0.509
       101 -10.2002     20.8729     83.4918   1.2258761898e+02   5.5579387355e+01    0.4364166    0.1724469 -66.72  0.001754893    1.930    0.482
       102 -10.5765     25.7218     78.0965   1.2029082708e+02   5.6374496012e+01    0.6830676    0.3468623  75.02  0.001908731    2.919    0.657
       103  -8.6652    170.5002     83.9367   8.2449134311e+01   3.0902141707e+01    0.2251298    0.1469059 -35.25 0.0005422493    1.536    0.349
       104 -10.2154    169.2481     72.0930   7.9282606307e+01   3.3167834291e+01    0.6508032       0.1891 -36.88  0.002002401    3.267    0.694
       105 -11.2378    162.5868     71.1760   8.0404784560e+01   3.4928060975e+01     0.809073    0.4796212 -23.97  0.003383643    1.879    0.468
       106 -10.4279    156.9657     75.2664   8.2845023290e+01   3.5569312638e+01    0.6678001    0.3364617 -41.63  0.002293345    2.002    0.501
       107 -10.4690    156.9423     69.0552   8.0982038237e+01   3.6634951538e+01     0.601654    0.3665806 -10.24  0.002335836    2.408    0.585
       108  -8.9388    157.5302     63.4754   7.9124517265e+01   3.7423841832e+01    0.2641003    0.2182231 -23.43 0.0006675522    1.217    0.179
       109  -9.5453    166.2304     79.2696   8.2015263990e+01   3.2698907510e+01     0.424984    0.2106085 -31.35  0.001397259    2.098    0.523
       110  -8.7511    119.0036     80.5180   9.3517373869e+01   4.2878956497e+01    0.2708877    0.1908525 -59.77 0.0005978004    1.591    0.372
       111  -9.6655     88.5268     78.5419   1.0135227631e+02   4.8774683012e+01    0.6877894    0.3325544  29.55  0.002658824    2.968    0.663
       112  -9.2078     74.1004     79.9007   1.0591735430e+02   5.0670384250e+01    0.4272229    0.2085458 -62.88  0.001246156    2.165    0.538
       113  -7.9759     63.4972     81.5306   1.0945345793e+02   5.1742397695e+01     0.128374     0.111859 -70.87 0.0001153406    1.051    0.048
       114  -9.7500      5.7671     78.8590   1.2644082540e+02   5.7580942635e+01    0.5267407    0.2445044 -31.02  0.002628285    3.589    0.721
       115 -10.0167    233.3540     76.7072   6.9369649594e+01   1.6979500302e+01    0.3379322      0.24193 -21.63 0.0002524483    1.327    0.246
       116 -10.5213    237.8653     72.9662   6.7734244678e+01   1.6421327780e+01    0.4679379    0.2823935   3.85  0.001388933    2.135    0.532
       117  -8.0543     68.6600     80.3171   1.0763436209e+02   5.1330401497e+01    0.1317454   0.09639458  82.23 0.0002431622    1.708    0.414
       118  -8.9594    184.3705     77.9290   7.7973896510e+01   2.8553779482e+01    0.2756982    0.2138276  41.38 0.0005163233    1.274    0.215
       119  -9.4400    127.4525     75.2690   8.9837057104e+01   4.2166296954e+01    0.3449342    0.2577161 -67.71 0.0008510476    1.684    0.406
       120  -9.2886    131.0723     66.8112   8.6355710064e+01   4.2962129441e+01    0.6503161    0.5088106 -11.20   0.00322953    1.485    0.326
       121  -8.4008    119.8934     75.9450   9.1979828080e+01   4.3593386785e+01     0.218248    0.1930744  -2.01 0.0005595104    1.265    0.210
       122  -9.4254    115.1708     72.4455   9.2201289698e+01   4.5215962060e+01    0.5275633     0.240572 -40.31  0.001608505    2.150    0.535
       123  -8.4601    104.3406     72.9669   9.5316032175e+01   4.7183525420e+01     0.327429    0.1907008 -27.86  0.001072159    2.285    0.562
       124  -8.6719    105.4919     68.9993   9.3824551044e+01   4.7756861446e+01     0.427151    0.2890252 -88.02  0.001788345    2.691    0.628
       125  -9.9506     81.3240     72.6801   1.0191353003e+02   5.1133093496e+01    0.3904898    0.3674484 -50.72  0.001216106    1.044    0.043
       126  -9.3441     84.2453     64.3513   9.8671691042e+01   5.2393969174e+01      0.65768     0.396668  17.03   0.00282089    2.810    0.644
       127 -10.0112     16.0333     70.7180   1.2212390191e+02   5.8685969729e+01    0.4000612    0.1751113 -66.28  0.001295706    1.721    0.419
       128 -10.3279     17.0526     61.0739   1.2012719939e+02   6.0694215884e+01    0.6168214    0.2434526 -63.40  0.003206141    1.872    0.466
       129 -10.3550    199.8471    248.5475   1.0771183554e+02   2.3799402622e+00    0.3318541    0.1653176  55.89  0.001893628    2.617    0.618
       130  -9.9295      8.9459    238.4792   1.3573322002e+02   2.7913268403e+01    0.5001585    0.1815144 -62.33  0.002678047    4.064    0.754
       131  -8.3631    229.4894    248.4967   1.0331476753e+02  -1.8916295934e+00     0.104591   0.07086314  31.44 -5.779059e-06    1.005    0.005
       132 -10.2393      5.0866     42.1146   1.2079803318e+02   6.5439618109e+01    0.5702173    0.2852101 -77.54  0.002519114    1.880    0.468
       133  -9.9067      8.7083     47.3130   1.2046771781e+02   6.4148150472e+01    0.5762876    0.1596712  28.34  0.002703186    4.022    0.751
       134 -10.1065     14.6905     44.7494   1.1764350095e+02   6.4324660642e+01    0.5010438    0.2480787 -31.40  0.001392545    2.527    0.604
       135  -9.8633      6.9454     32.5171   1.1787426420e+02   6.7333207351e+01    0.2901405    0.2185827   4.41  0.001268433    1.701    0.412
       136 -10.3516      7.3310     28.4353   1.1665997280e+02   6.8146358694e+01    0.4656233    0.2853794  43.49  0.002573932    2.213    0.548
       137  -9.6058    147.0662     69.4183   8.3316363500e+01   3.8893553371e+01    0.4007075    0.2732044 -57.25 0.0009840901    1.795    0.443
       138  -9.7716     94.8449     68.4724   9.6715174706e+01   4.9786164872e+01    0.3891339    0.2398332 -56.62 0.0007474265    1.701    0.412
       139  -9.2534     97.0930     58.7134   9.3045560128e+01   5.1317364288e+01    0.7721534    0.4634139 -37.48  0.003670068    1.608    0.378
       140 -10.5843     31.7263     64.7971   1.1588808194e+02   5.8759590848e+01    0.8149402    0.3068168 -39.89  0.003312967    3.622    0.724
       141  -7.9470     23.3698     69.1892   1.1950054290e+02   5.8488949381e+01    0.1622792   0.09230204 -77.47 0.0004085922    1.606    0.377
       142  -9.3214    121.3033     66.3916   8.8729817634e+01   4.5125379820e+01    0.3366553    0.2482559 -50.24 0.0008357289    1.394    0.282
       143  -9.7365    109.8161     64.0357   9.1092437761e+01   4.7892480848e+01    0.5464912    0.2573389 -49.52  0.001314758    2.224    0.550
       144  -9.0752    110.7060     58.3022   8.8999585712e+01   4.8799348564e+01    0.4794225    0.2838451  24.61  0.001673362    2.504    0.601
       145  -9.3975    118.2592     54.9775   8.5825450493e+01   4.7855042970e+01    0.4957446    0.2760285 -36.64  0.001587872    1.731    0.422
       146  -9.2403    121.0622     47.0356   8.2320972319e+01   4.8635169702e+01    0.4451486    0.1969509 -37.43 0.0005054639    2.156    0.536
       147  -9.6860    141.3759     49.5265   7.8168971766e+01   4.3578023702e+01    0.5772859    0.3951599   4.42    0.0015775    1.950    0.487
       148  -8.9466    142.8448     43.7378   7.5815606571e+01   4.4134259689e+01    0.3909638    0.2268578  32.09  0.001078893    2.085    0.520
       149  -9.2925    139.2267     40.2546   7.5400414880e+01   4.5537893084e+01     0.482727    0.3452929 -38.16  0.001565553    1.402    0.287
       150  -9.4774    138.0528     65.4280   8.4203969115e+01   4.1658186735e+01    0.6157676    0.2655449 -38.07  0.001501584    2.259    0.557
       151  -9.4937    139.1393     57.2600   8.1304514499e+01   4.2825885539e+01     0.524069    0.2763241 -47.86  0.001414157    2.134    0.531
       152  -8.8560    132.8191     36.0681   7.5364151165e+01   4.7696698690e+01    0.4066023    0.2137938 -42.47  0.001036166    2.007    0.502
       153 -10.6895    134.0071     30.9946   7.3174867781e+01   4.8148274442e+01    0.3737855    0.2812705  -0.76  0.001829224    1.454    0.312
       154  -9.6561    235.2821     65.5208   6.6119166758e+01   1.7966292075e+01    0.3979139    0.1823968  32.57  0.001407467    3.089    0.676
       155  -9.9882    157.8707     83.1022   8.4914344170e+01   3.3994648133e+01     0.482047    0.3271426 -21.48  0.002131597    1.694    0.410
       156  -9.2562    149.8384     47.9567   7.5718747869e+01   4.1780205320e+01    0.3473217    0.1989657 -33.91 0.0006990586    1.706    0.414
       157  -9.3092    146.6347     58.5772   7.9984581445e+01   4.0846825428e+01    0.6320845    0.2588704 -43.92  0.002218645    2.613    0.617
       158  -8.6907    147.6856     53.8472   7.8186305565e+01   4.1372065395e+01     0.448292    0.1763808 -31.88  0.001565138    2.543    0.607
       159  -8.3197    122.2363     60.8841   8.6729878589e+01   4.5946359452e+01    0.2734229     0.186627  19.54 0.0007924492    1.980    0.495
       160  -9.1584      8.3483     60.7413   1.2303446397e+02   6.1311866483e+01    0.3224716    0.2210063   0.39  0.002187297    2.047    0.511
       161 -10.3169    154.8522     56.2808   7.7402498805e+01   3.9242879988e+01    0.7392802    0.4652607 -82.48   0.00263825    3.158    0.683
       162  -9.4166    130.0436     57.9065   8.3747206599e+01   4.4780697470e+01    0.4795053    0.1994715 -44.21 0.0008014506    2.482    0.597
       163  -8.8763    131.8979     53.1023   8.1670221846e+01   4.5192164740e+01    0.5374377    0.2070842  38.56  0.001703774    3.449    0.710
       164  -8.7342     87.5390     58.5512   9.5882903135e+01   5.3018098902e+01    0.2779503    0.2002733 -65.38 0.0007339359    1.657    0.397
       165  -9.1193     44.2236     53.7757   1.0893186288e+02   5.9918696416e+01     0.326497    0.1543208 -38.15   0.00116888    2.377    0.579
       166 -10.1961     49.9130     53.8995   1.0695200404e+02   5.9270337741e+01    0.6020007    0.2979128 -68.03  0.002485483    2.525    0.604
       167  -9.5702     56.3573     43.2188   1.0137199856e+02   6.0676685948e+01    0.7012579    0.3771922 -15.48  0.002512323    4.612    0.783
       168 -10.0415    173.9556     52.5331   7.2296206119e+01   3.5039959105e+01    0.9608487    0.4307139  66.23  0.003314569    2.789    0.642
       169 -10.3470    168.0338     54.9757   7.4234262288e+01   3.6174771573e+01    0.4019254    0.3300053  41.41   0.00201959    1.209    0.173
       170  -9.9087    167.5275     49.4278   7.2535847485e+01   3.7132686052e+01    0.3333953    0.2837266  39.74  0.001638453    1.163    0.140
       171  -9.7736    163.5215     50.0098   7.3525728830e+01   3.8060694456e+01    0.4402717     0.175403 -31.94  0.001332987    2.427    0.588
       172  -9.0414    105.5335     53.3786   8.8811791908e+01   5.0734533310e+01    0.3640454    0.2188426 -53.62 0.0006539806    1.910    0.476
       173  -8.5534    106.2128     48.8863   8.7058835873e+01   5.1417329715e+01    0.3744782    0.2027212  31.01  0.001525603    2.432    0.589
       174  -8.8517    157.0995     49.2926   7.4611154034e+01   3.9779475795e+01    0.2180272    0.2001843  51.91  0.001152855    1.106    0.096
       175  -9.1144    111.8965     46.8941   8.4746439722e+01   5.0613445185e+01    0.4215038    0.1908778 -38.43 0.0004809024    2.090    0.521
       176  -8.4054     53.4181     39.2024   1.0110470121e+02   6.1840088444e+01    0.2100683       0.1447 -62.22  0.001178495    1.586    0.369
       177  -9.1511     49.7069     36.9173   1.0172664128e+02   6.2740523164e+01    0.2960982    0.2577302  69.50  0.001929745    1.534    0.348
       178 -11.9852    244.6337    239.6211   9.9938687513e+01  -3.3378564704e+00    0.2073382     0.153114  28.84  0.001082083    1.131    0.116
       179  -9.2114     31.7205     42.9677   1.1059842212e+02   6.3389379034e+01    0.4015735    0.2277955  38.14   0.00230847    2.164    0.538
       180  -8.9836     40.3091     34.8657   1.0471338753e+02   6.4199822162e+01    0.3571133    0.1995491  25.05  0.001959696    2.210    0.548
       181  -9.4654     14.4328    111.6181   1.2767560283e+02   5.0054689849e+01    0.3334839    0.1536905  78.65  0.001624348    2.319    0.569
       182  -8.7033     42.3692     27.8837   1.0139338740e+02   6.5333245600e+01    0.2422056    0.1089636 -38.42 0.0001131056    2.047    0.511
       183 -10.0997     37.7998     41.9873   1.0796317124e+02   6.3020150451e+01    0.4785332     0.285246 -80.34   0.00197239    2.671    0.626
       184 -10.2175     35.9012     37.9757   1.0747972329e+02   6.4022353980e+01    0.2592077    0.1867655 -47.42 0.0003754201    1.120    0.107
       185  -8.3476    209.9511     44.9485   6.3920795379e+01   2.6809471536e+01    0.2232445    0.2055232  24.84 0.0004834646    1.088    0.081
       186  -9.3973     72.1738     26.2197   8.9201915691e+01   6.1549955978e+01    0.6259958    0.3569173 -20.63  0.002900706    2.135    0.532
       187  -9.8452     69.5235     42.7321   9.6506591965e+01   5.8958878466e+01    0.5427386    0.2719975 -59.71    0.0021872    2.778    0.640
       188  -9.1068     71.8799     35.3969   9.2988241452e+01   5.9976669006e+01    0.4816464    0.2315945  31.54  0.002116808    2.617    0.618
       189  -9.9509     76.0792     31.9449   9.0175286187e+01   5.9922430678e+01    0.4490301      0.35669  49.55  0.001924661    1.505    0.336
       190  -9.6951     79.5912     24.0714   8.5704044255e+01   6.0655975947e+01    0.5041758    0.2920528  18.31  0.002107458    2.576    0.612
       191  -9.1171     84.8857     22.0869   8.3077499021e+01   6.0018228973e+01    0.2861229    0.2423534 -58.75 0.0009320612    1.506    0.336
       192  -8.7644    191.1332     41.7472   6.5833771184e+01   3.2090753970e+01    0.2672772    0.2122694  -7.20 0.0004852938    1.320    0.243
       193  -9.6843    153.2767     41.0390   7.2591580410e+01   4.1963099716e+01    0.4105863    0.2341057 -41.58  0.001151504    1.823    0.452
       194  -9.5822    130.4842     46.4441   7.9706485902e+01   4.6622236885e+01    0.8641907    0.3364256 -23.57  0.001967411    3.874    0.742
       195  -9.2962    104.7613     40.8511   8.4553642972e+01   5.3114360793e+01    0.3845304    0.2200457 -47.88 0.0009334278    1.897    0.473
       196  -8.5989    106.7731     36.2122   8.2209028974e+01   5.3477565920e+01    0.3029326     0.188571  43.78  0.001361669    1.661    0.398
       197  -9.2371    110.1858     33.5774   8.0223599819e+01   5.3183480432e+01    0.4752256    0.2115018 -40.09  0.001349023    2.202    0.546
       198  -7.7624    114.3277     41.3129   8.2039903425e+01   5.1049083329e+01    0.1501177    0.1097385  10.87 0.0004954138    1.668    0.401
       199 -10.5917     89.1612     38.0496   8.8224871102e+01   5.6587196283e+01    0.7191685    0.3268592  35.78  0.002926698    2.658    0.624
       200  -8.8471    144.0512     36.5502   7.2974065246e+01   4.4907845768e+01    0.2751368    0.1950104 -44.22 0.0005789071    1.505    0.336
       201  -8.9137    219.2134     37.5063   6.0450454094e+01   2.5353001777e+01    0.2784135    0.2235811  35.05 0.0007439324    1.301    0.231
       202  -8.6381    118.9153     34.7997   7.8349603373e+01   5.1089864568e+01    0.3035572    0.1865052 -34.91 0.0006426727    1.566    0.361
       203  -9.3724    100.7516     33.0951   8.2732650607e+01   5.5212340125e+01    0.5916926    0.2215226 -30.91  0.001722233    2.778    0.640
       204  -8.6392    153.0528     34.5297   7.0338891609e+01   4.2938525664e+01    0.2298247    0.1466863  57.29  0.001021111    1.561    0.359
       205  -9.4406     60.0019     33.8662   9.6713289318e+01   6.2003515572e+01    0.3231891     0.247078 -58.96  0.001054953    1.463    0.316
       206  -8.1231    173.8068     32.3867   6.5682384931e+01   3.7842955143e+01    0.2688726    0.2035874  30.57  0.001289538    1.390    0.280
       207  -8.7418    177.6535     30.0550   6.4242940040e+01   3.7118822024e+01    0.2897378    0.2177898  89.27  0.000871579    1.593    0.372
       208  -9.4815    172.9747     26.6246   6.3860440623e+01   3.8774221727e+01    0.4513605    0.3082809 -73.20  0.001270138    1.952    0.488
       209  -9.7892    188.1521    233.6090   1.0771540275e+02   5.6033757924e+00    0.1935801    0.1629384 -59.00  0.001443756    1.783    0.439
       210  -9.0580    227.0278     28.1198   5.6777985119e+01   2.4441428147e+01    0.3497932     0.207356 -22.10 0.0009433344    1.640    0.390
       211  -8.4297    148.1987     29.2142   6.9405652070e+01   4.4884756631e+01    0.2079138    0.1750003 -58.84 0.0008907212    1.370    0.270
       212 -11.7655     51.0462    225.6923   1.2894375590e+02   2.5573990034e+01     1.061722    0.3866679  58.61   0.00641622    2.220    0.550
       213  -9.1409     63.8956     26.5578   9.2368728007e+01   6.2776159261e+01    0.4386865    0.2716725  28.23  0.001862821    1.879    0.468
       214 -10.0453    157.1780    217.6074   1.1078759220e+02   1.2276638374e+01    0.1811417    0.1575443  45.73 0.0003258228    1.136    0.120
       215  -8.7889     10.1747    207.3645   1.3445844214e+02   3.2525048665e+01    0.2654544    0.1523603  20.36   0.00170827    3.556    0.719
       216  -8.5635     92.0696     21.0087   8.0320764360e+01   5.8815311288e+01    0.2756177    0.1882402  12.66  0.001044663    1.738    0.425
       217  -8.5812    144.1762     25.8485   6.8985686070e+01   4.6339168870e+01    0.2277299    0.2004809 -54.36 0.0009926583    1.274    0.215
       218  -8.8192    128.1904     25.7105   7.2488233315e+01   5.0272406127e+01    0.2552432    0.1839421 -37.87 0.0006237091    1.419    0.295
       219  -9.6166     66.3122    203.5038   1.2496162898e+02   2.7286368186e+01    0.1808295     0.145555 -24.58  0.001262192    2.547    0.607
       220  -7.9684    140.0302     22.9914   6.8769933250e+01   4.7743100942e+01    0.1782809     0.167778  11.81 0.0005307154    1.008    0.008
       221  -9.6476    119.2217     21.9039   7.3135079557e+01   5.2885926235e+01    0.3123085    0.2560222 -31.56 0.0008017171    1.220    0.180
       222  -8.7894     22.1239    203.6080   1.3238611800e+02   3.2036121353e+01    0.1768546    0.1529525 -29.39  0.001342499    2.273    0.560
       223  -8.9592    189.9658     15.6660   5.7606183931e+01   3.5464958690e+01    0.3277989    0.2576496 -80.86  0.001015901    1.427    0.299
       224  -9.0903    111.6624     21.4714   7.4901245470e+01   5.4652611590e+01    0.3596233    0.1595238 -30.26  0.001453935    2.137    0.532
       225  -9.2580     40.9235     20.6587   9.9166420292e+01   6.6843371519e+01     0.221388    0.1496993 -45.83 0.0003324684    1.259    0.206
       226  -7.9699    158.8231    202.9213   1.0864620016e+02   1.3954038131e+01    0.1522561    0.1164806  59.60 0.0003181072    1.301    0.231
       227 -10.0627    192.3295    194.7528   1.0166925942e+02   9.3821904130e+00    0.7071863    0.3815512 -61.29  0.002823622    5.228    0.809
       228  -9.0912    249.1975    161.6540   8.6409028575e+01   3.2352784501e+00    0.2211403    0.1787709  12.93 0.0003223993    1.031    0.030
       229  -9.0802    105.9171    159.9757   1.1278985418e+02   2.9471037551e+01    0.1761662    0.1527299  68.09            0    1.006    0.006
       230  -9.0587    250.0644    156.8581   8.5330722547e+01   3.6062909585e+00    0.1929669    0.1568284  -0.86 0.0003223791    1.126    0.112
       231  -8.5759    171.8917    155.0924   9.8658362083e+01   1.8680767370e+01     0.196441    0.1724448  35.42 0.0003772898    1.041    0.039
       232  -8.5782    250.0892    151.9099   8.4334542683e+01   4.1509880091e+00    0.1889367    0.1529218  16.00  0.000354113    1.011    0.011
       233 -10.3118    218.3360    150.2123   8.9193551334e+01   1.0330113813e+01    0.2309301    0.1974706  33.79 0.0002541603    1.102    0.092
       234  -9.2244    133.6534    146.7158   1.0486363101e+02   2.7260004127e+01    0.5968937    0.1600303 -54.11  0.001866811    4.955    0.798
       235  -9.1202    112.1589     15.5036   7.2229335879e+01   5.5332870061e+01    0.2642742    0.1891198 -33.61 0.0007898189    1.399    0.285
       236  -9.6913     66.7679    144.2331   1.1907668078e+02   3.8046223257e+01    0.4334821    0.2304956  64.15  0.002292417    2.040    0.510
       237  -8.4487    104.2986    144.9292   1.1088961427e+02   3.2572470062e+01    0.1638803    0.1472552 -79.94 0.0002013528    1.110    0.099
       238  -7.9651     60.6568    136.3011   1.1945646314e+02   4.0404577350e+01    0.1254018   0.07705247  70.43 0.0006687847    1.677    0.404
       239  -9.8421    134.9127    131.5247   1.0174470032e+02   2.9836206417e+01      0.63086    0.3803756 -43.21  0.003105937    1.801    0.445
       240 -10.1557    117.1082    125.5812   1.0459415054e+02   3.4226461645e+01    0.7054698    0.4228478 -74.70  0.002263163    2.417    0.586
       241 -10.2243    128.0295    101.3984   9.6708320839e+01   3.6978026692e+01    0.8655238    0.4260964 -32.64  0.002468549    2.798    0.643
       242 -10.6342    132.2011    119.9968   9.9976253396e+01   3.2542682530e+01    0.7894331    0.4941022  79.52  0.003065796    2.854    0.650
       243 -11.1916    133.6702    109.3482   9.7259237803e+01   3.4313117885e+01    0.8517675    0.3931486 -45.49  0.002939897    2.202    0.546
       244 -10.7388    108.6144    101.0176   1.0144060563e+02   4.0694461724e+01    0.8939394    0.6027682 -75.05  0.004291696    1.913    0.477
       245 -10.5691    123.2375     92.5314   9.5666038327e+01   3.9671432227e+01    0.7380859    0.5076335 -41.51  0.002042028    1.456    0.313
       246  -7.7646     45.4742     15.4943   9.4987356333e+01   6.7218645162e+01    0.1254286    0.1002731 -27.54 0.0008099169    1.030    0.029
       247  -9.2131    152.0278     29.1255   6.8595252614e+01   4.3923296713e+01    0.4499883    0.2052161  -9.81  0.001438388    3.415    0.707
       248  -7.8527    141.6868     12.3235   6.4267926166e+01   4.8586541135e+01    0.1493823    0.1104719 -58.10 0.0007040586    1.659    0.397
       249 -10.0571    120.3259    104.1013   9.9230092213e+01   3.7926139838e+01    0.5113987    0.4068157  -2.57  0.002643544    1.749    0.428
       250  -8.4629    112.4825    134.0272   1.0723237268e+02   3.3360298657e+01     0.268053    0.1659946  61.90  0.001338676    1.800    0.444
       251  -9.2442    237.2029    132.1411   8.2208529676e+01   8.9390710267e+00    0.2170933     0.191125  28.84 -0.000430966    1.127    0.113
       252  -8.3522    222.7075    131.0073   8.4363867692e+01   1.2007043898e+01    0.1883633    0.1674101   4.22 0.0004912735    1.059    0.056
       253  -9.8367     98.4991    128.6865   1.0950785191e+02   3.6712517066e+01    0.5202252    0.3064009  76.38  0.002211015    2.572    0.611
       254 -10.2224     70.6297    126.4128   1.1575678914e+02   4.1201213744e+01    0.4933767    0.4178963  52.01  0.001624092    1.226    0.184
       255 -10.1038     58.5219    124.7901   1.1843554277e+02   4.3045984276e+01    0.7090617    0.3262939  68.85  0.002616832    3.460    0.711
       256  -8.8384    161.0640    128.6679   9.5538432949e+01   2.5213671054e+01    0.3890964    0.2325083 -63.86   0.00162528    2.642    0.621
       257  -9.0000     91.5326     26.3243   8.2767538093e+01   5.8104839325e+01    0.3208887    0.2263474 -49.83 0.0008747303    1.641    0.391
       258  -9.5906     27.4438    123.1637   1.2568139244e+02   4.6587335585e+01    0.4409479    0.1911674  69.23  0.002131853    2.817    0.645
       259  -9.2554     41.3199    121.9705   1.2222754593e+02   4.5524247930e+01     0.391772     0.176917 -85.25  0.001858888    2.487    0.598
       260 -10.2150    140.5697    118.7713   9.7814029045e+01   3.1145505056e+01    0.5450234    0.3038276 -52.78  0.001396563    1.970    0.492
       261  -8.6384    186.1954    120.6411   8.8663220990e+01   2.1259619524e+01    0.2603875    0.1085558 -38.76 0.0008954431    2.497    0.600
       262  -9.9937    108.5873    114.5701   1.0440773390e+02   3.7923646543e+01     0.481928    0.3053161 -80.44  0.001429561    2.273    0.560
       263  -7.3845      1.0000    116.0134   1.3128292163e+02   5.0073925260e+01    0.1732891   0.04649796 -77.66 0.0007905965    2.861    0.650
       264 -10.0048     91.8711    112.9581   1.0822175950e+02   4.0994891845e+01    0.4804125    0.3067274 -87.77  0.001561038    2.129    0.530
