#   1 NUMBER                 Running object number                                     
#   2 MAG_AUTO               Kron-like elliptical aperture magnitude                    [mag]
#   3 X_IMAGE                Object position along x                                    [pixel]
#   4 Y_IMAGE                Object position along y                                    [pixel]
#   5 X_WORLD                Barycenter position along world x axis                     [deg]
#   6 Y_WORLD                Barycenter position along world y axis                     [deg]
#   7 A_WORLD                Profile RMS along major axis (world units)                 [deg]
#   8 B_WORLD                Profile RMS along minor axis (world units)                 [deg]
#   9 THETA_WORLD            Position angle (CCW/world-x)                               [deg]
#  10 FWHM_WORLD             FWHM assuming a gaussian core                              [deg]
#  11 ELONGATION             A_IMAGE/B_IMAGE                                           
#  12 ELLIPTICITY            1 - B_IMAGE/A_IMAGE                                       
         1 -16.0291    241.5462     76.2120   4.0122493092e+01   1.5788368312e+01     9.305504     1.583439 -31.05   0.02575628    5.163    0.806
         2 -10.1444     99.2078     16.3833   4.5180092459e+01   5.7648116339e+01    0.1922103    0.1298237  71.26 0.0009550395    1.700    0.412
         3  -9.4721    104.3203      9.6750   4.1071251325e+01   5.7171738053e+01    0.1367675    0.1014673 -61.95 0.0005819093    1.679    0.404
         4  -9.4396    187.7157    134.5884   6.2394074163e+01   1.7745956548e+01    0.2590715     0.121382 -38.71  0.001068532    2.090    0.521
         5 -11.2231     22.6150    248.7428   1.1123120417e+02   2.2137517053e+01    0.2346316    0.1815612  69.88 0.0008648611    1.157    0.136
         6 -11.9560    249.0789    239.4952   7.1126437412e+01  -6.2681246376e+00    0.3908536    0.2069361 -34.55  0.002564388    2.227    0.551
         7  -9.5482    167.5029    242.4867   8.4953365214e+01   4.3908112556e+00    0.1136815     0.089077  30.97 -2.429104e-05    1.004    0.004
         8  -9.7044     97.6782    242.6442   9.7574446660e+01   1.4211241966e+01    0.1020171   0.08440167   3.98 0.0007045938    1.761    0.432
         9 -10.9419    235.6227    240.0243   7.3268294314e+01  -4.6427223066e+00    0.3410744    0.1117779  35.95  0.001750095    2.537    0.606
        10 -11.0974    108.0059    238.0073   9.5231957352e+01   1.3527968345e+01    0.2950118    0.1735709 -65.02  0.001825341    2.112    0.526
        11 -11.5093    237.2460    230.9200   7.1654772186e+01  -3.9100754248e+00    0.3044841    0.1993039  19.33  0.001539141    1.225    0.183
        12 -11.4553    163.2151    225.9484   8.3554164080e+01   7.2657928703e+00    0.4307334    0.2478015  32.72  0.002138357    1.502    0.334
        13  -9.9755    116.5237    227.4929   9.2517443742e+01   1.3994408972e+01    0.1184136   0.09603367  47.48 8.151712e-05    1.013    0.013
        14 -11.4908     98.9897    225.4996   9.5671734623e+01   1.6825402709e+01    0.3603562    0.2162759  39.84  0.001567875    1.404    0.288
        15  -9.6124    191.5399    226.0389   7.8494036049e+01   3.0219247130e+00     0.152735    0.1102367 -29.71 0.0007161454    1.554    0.357
        16  -9.6809    171.1392    225.6987   8.2075559435e+01   6.1063495357e+00    0.1597689    0.1547842  25.30 0.0002984811    1.243    0.196
        17 -10.2975     88.5423    224.4437   9.7587181713e+01   1.8448864892e+01    0.3258261    0.1114485 -62.82  0.001505618    3.345    0.701
        18 -10.4008    123.4429    224.7728   9.0881038219e+01   1.3420552963e+01    0.2462644    0.1858462 -77.23  0.001006027    1.679    0.404
        19 -11.0615    125.9831    220.6467   8.9896286391e+01   1.3710629069e+01     0.270332    0.1908201  49.97 0.0007451498    1.252    0.201
        20  -9.6617    148.5987    221.6570   8.5695641742e+01   1.0119215786e+01    0.2622333    0.1191417 -51.18  0.001317271    2.712    0.631
        21  -9.9971    114.6489    221.7815   9.2231532735e+01   1.5205210791e+01    0.2520237    0.1457366 -53.99  0.001056799    2.048    0.512
        22  -9.9710    128.0176    226.2489   9.0181842388e+01   1.2508357160e+01     0.216602    0.1416266 -23.74  0.001179872    2.573    0.611
        23  -9.6751    143.7286    216.6413   8.5952001170e+01   1.1645789776e+01    0.2015559    0.1433498 -36.03  0.001234728    1.722    0.419
        24 -10.1903    108.6673    222.7541   9.3504194178e+01   1.5912590477e+01    0.2030818    0.1771546 -10.16  0.001400932    1.566    0.362
        25  -9.6267    152.4501    216.0106   8.4195491218e+01   1.0389204587e+01    0.2639243    0.1371127  24.32  0.001238345    2.454    0.592
        26  -9.7038    131.4091    214.3686   8.8045445807e+01   1.3916160186e+01    0.2017973    0.1159906 -46.37  0.001109663    2.075    0.518
        27  -9.8595    185.6063    213.0320   7.7594082219e+01   5.6558944827e+00    0.2441667    0.1147088 -40.44  0.001250683    2.415    0.586
        28  -9.4229    116.3964    210.2262   9.0501550448e+01   1.6916598172e+01    0.1596331    0.1151567 -79.05 0.0009486482    1.721    0.419
        29  -9.3067     78.0041    211.0000   9.8365862607e+01   2.2290351393e+01    0.2018564   0.05871939  36.56 0.0008144102    3.026    0.670
        30 -10.2052     11.4924    206.9893   1.1130460722e+02   3.0665793037e+01    0.1718891    0.1213726  50.69  0.001259918    1.239    0.193
        31  -9.9186    124.0150    205.9838   8.8415849677e+01   1.6486159028e+01     0.178114    0.1490617  51.52  0.001156601    1.073    0.068
        32 -10.6295    185.7476    204.1299   7.6163027216e+01   6.8952379140e+00    0.2412613    0.1470366 -43.46  0.001091275    1.903    0.475
        33  -9.1463    198.3355    204.6613   7.3981287249e+01   4.8330944461e+00    0.1113938   0.09635703  70.45  0.000705146    1.752    0.429
        34 -11.3278    164.7677    200.3651   7.9505708440e+01   1.0863181411e+01    0.5413684    0.2715475 -37.92  0.002671659    2.318    0.569
        35  -9.8791    130.5668    201.6736   8.6495717096e+01   1.6205886260e+01    0.2279005    0.1207897 -47.42  0.001154851    2.172    0.540
        36 -10.3489    250.4401    199.3925   6.4481319341e+01  -2.2069874466e+00     0.324928   0.09894881 -30.10  0.001438119    3.210    0.688
        37  -9.5128    148.9992    198.3076   8.2281706160e+01   1.3791835621e+01    0.2387692    0.1621522 -84.61  0.001160074    2.680    0.627
        38 -10.4049    125.6338    197.2349   8.6882182155e+01   1.7782234106e+01    0.3086671     0.187399  32.10  0.001626342    1.649    0.393
        39 -11.6114    173.0281    191.2086   7.6416394802e+01   1.0941812434e+01     0.352132    0.2779599 -76.29   0.00178354    1.947    0.486
        40 -11.6664    172.6536    195.6027   7.7221582533e+01   1.0310824709e+01     0.377893    0.2898175  28.15  0.001166207    1.182    0.154
        41 -10.1750    162.0941    193.3058   7.8893294334e+01   1.2443586532e+01    0.3030574    0.2100911 -64.23  0.001518221    2.058    0.514
        42 -10.1267    203.9969    184.2561   6.9448425849e+01   6.8060235522e+00    0.2750399    0.1808868 -33.74  0.001019388    1.561    0.359
        43  -9.7358    205.7589    189.7826   7.0127575210e+01   5.7263194760e+00    0.3275063    0.1268532 -42.40  0.001427315    2.926    0.658
        44 -10.2747    202.5171    187.4975   7.0295584168e+01   6.5811381952e+00    0.2155268    0.1126457  39.96 0.0002121921    1.781    0.439
        45 -10.0245    179.4652    190.5319   7.5071156304e+01   9.9645072821e+00    0.2454887    0.1246151 -41.35  0.001202516    2.147    0.534
        46 -10.3051    138.9761    188.2117   8.2755737273e+01   1.7215492974e+01    0.4533129    0.1805427 -48.61  0.001927558    2.773    0.639
        47  -9.0801    192.3245    187.6598   7.2169432276e+01   8.2465641045e+00    0.1182957    0.1023635  80.71 0.0007051132    1.727    0.421
        48 -10.1122    165.0392    185.8348   7.7062259354e+01   1.3178706866e+01    0.3402299    0.1756919 -53.53  0.001558973    2.504    0.601
        49 -10.6410     13.8535    185.7261   1.0967176574e+02   3.4680695993e+01    0.1523431    0.1477505  24.54  0.001199326    1.464    0.317
        50  -9.9263    183.1021    183.0667   7.3073392253e+01   1.0516881388e+01    0.3323757    0.1668426 -44.12  0.001585561    2.203    0.546
        51 -11.5554    174.3996    182.6496   7.4669878231e+01   1.2086550643e+01    0.3882001    0.2364465 -44.87  0.001832692    1.814    0.449
        52  -9.8987    211.6464    182.8064   6.7839393105e+01   5.7546566217e+00     0.252535    0.1731702  14.10  0.001444708    1.509    0.337
        53  -9.9404    197.2464    182.4802   7.0339753845e+01   8.1963666217e+00    0.2223257     0.172065 -30.80 0.0007835819    1.331    0.249
        54  -8.7679     92.5433    182.5288   9.1991073855e+01   2.5779762142e+01    0.1266171    0.1157461  60.83 0.0003380047    1.066    0.062
        55 -10.7588    147.5901    179.7944   7.9577612716e+01   1.7255911709e+01    0.2613706     0.194969 -60.83  0.001440981    1.596    0.373
        56 -10.3640    148.6550    175.6257   7.8634111293e+01   1.7824557850e+01    0.2718724    0.2311916  17.63   0.00160362    1.242    0.195
        57  -9.9746    137.9050    178.3858   8.1384741789e+01   1.9198229698e+01    0.3035607    0.1771643 -59.54  0.001455837    2.085    0.520
        58 -10.2753     14.1804    178.4800   1.0915089160e+02   3.6160863036e+01    0.1804358    0.1589892  67.60  0.001031128    1.205    0.170
        59 -10.4223    205.0159    176.8482   6.7899962901e+01   7.7210485953e+00    0.3000853    0.1841634 -39.12  0.001172156    1.713    0.416
        60 -10.4496    192.2246    176.4349   7.0148157368e+01   9.9799755900e+00    0.4882448    0.2085814 -31.98  0.002059743    2.695    0.629
        61 -10.6646    183.0937    174.9930   7.1599991953e+01   1.1809381890e+01    0.3622903    0.1971866 -34.03  0.001752306    1.975    0.494
        62  -9.4606    186.3166    193.6709   7.4322728722e+01   8.3427633385e+00    0.1169869    0.1001801  74.35 0.0002757652    1.680    0.405
        63 -11.3306    177.0762    169.7262   7.1773131288e+01   1.3754846664e+01     0.490747    0.2526549 -34.71  0.002248343    2.125    0.529
        64 -11.3084    206.4548    169.6405   6.6270155175e+01   8.5502255895e+00    0.2697467    0.2331093 -48.96  0.001211968    1.431    0.301
        65  -8.8179    199.2885    169.6484   6.7559664061e+01   9.7990904509e+00    0.1212863    0.1056514 -76.26 0.0007024992    1.668    0.400
        66 -10.0391    167.9871    167.9716   7.3247577825e+01   1.5708786907e+01     0.404989    0.1826048 -43.58  0.001738352    2.343    0.573
        67 -10.3065    149.5583    168.7762   7.7216521571e+01   1.8921923550e+01    0.2528363    0.1325801 -43.25  0.001147875    2.047    0.512
        68 -10.9967    192.3615    164.0329   6.7739480886e+01   1.1922449006e+01    0.5712045    0.1630379 -39.63  0.001998127    3.561    0.719
        69  -9.9462    185.1240    166.2511   6.9544509106e+01   1.2874295173e+01    0.3027092    0.1686224 -49.25  0.001410489    2.142    0.533
        70 -12.0234    213.2864    163.5434   6.3877040644e+01   8.2769332330e+00    0.3761716    0.2191973 -42.11  0.001338513    1.842    0.457
        71  -9.8287    138.7505    163.7761   7.8636968871e+01   2.1831104379e+01    0.4486605    0.1929876 -55.44  0.001744566    2.821    0.646
        72  -9.6932    159.3971    163.3025   7.4117399819e+01   1.8124039376e+01    0.3086959    0.1756119 -43.66  0.001456342    1.848    0.459
        73 -11.0664    205.5538    161.4416   6.4815001100e+01   9.9574969308e+00    0.3574488    0.2152219 -35.52  0.001846958    1.642    0.391
        74  -9.4688     10.6384    162.3277   1.0886533601e+02   3.9945265659e+01     0.130276   0.06597657  63.43 0.0001563107    1.794    0.443
        75 -10.3550    177.5455    159.4008   6.9663520583e+01   1.5427711627e+01    0.4346361     0.213089 -44.68  0.001910877    2.163    0.538
        76 -10.1881    151.8272    160.7295   7.5220845710e+01   2.0007615874e+01     0.270172    0.1958923 -62.19 0.0009782286    1.677    0.404
        77 -10.7803    196.7113    157.0792   6.5534245183e+01   1.2248958262e+01    0.3527435    0.2399859 -50.27  0.001573749    1.760    0.432
        78 -10.1687    188.1619    156.7440   6.7066837634e+01   1.3890880818e+01    0.2367149    0.1795656 -45.02  0.001034928    1.425    0.298
        79 -10.0143    167.5437    156.0572   7.1002032554e+01   1.7905778447e+01    0.4057291    0.1931116 -44.61  0.001729976    2.194    0.544
        80  -9.7815    165.5257    249.4722   8.6160176182e+01   3.7787446932e+00    0.1113954   0.08611774  34.01 0.0005994032    1.037    0.035
        81  -9.7332    179.3410    132.4993   6.3543241644e+01   1.9811324314e+01    0.2966997    0.1693689 -41.16  0.001335165    1.737    0.424
        82 -11.7255    221.0083    129.4884   5.5394004063e+01   1.2035210002e+01    0.3531782    0.1812852 -24.26  0.001554849    2.105    0.525
        83  -9.0335     83.2931    131.6860   8.6201826344e+01   3.8343140017e+01    0.1428383    0.1037889  77.66 0.0003862356    1.596    0.373
        84  -9.7265    204.4687    129.8248   5.8254169308e+01   1.5194882789e+01    0.2713901    0.1843055 -53.39  0.001280882    1.784    0.440
        85  -9.6842    192.6699    129.3520   6.0272561822e+01   1.7641991086e+01    0.3010398    0.1667224 -30.88  0.001130129    1.849    0.459
        86  -9.8084     14.1712    130.4299   1.0529101868e+02   4.6880313598e+01    0.1707852   0.09597303  46.26  0.000948764    1.788    0.441
        87  -9.6520    211.9409    128.9831   5.6778621676e+01   1.3860108970e+01    0.2120444    0.1641114 -60.64 0.0009992553    1.670    0.401
        88  -9.1342    168.4844    129.0013   6.4931926819e+01   2.2686000222e+01    0.2099435    0.1229478 -61.58 0.0008102423    2.610    0.617
        89  -8.9505    186.4763    128.5326   6.1247647301e+01   1.9048107215e+01    0.1420675    0.1334038  -3.79 0.0002228624    1.028    0.027
        90  -9.3825    182.0156    150.2679   6.6909882325e+01   1.6156113330e+01    0.1907509    0.1816691   2.05 0.0008708143    1.031    0.030
        91 -10.0258     30.2495    124.6650   1.0007766137e+02   4.6802515848e+01    0.3200123    0.1315238  65.30  0.001140519    3.965    0.748
        92  -9.6579    179.6217    123.3338   6.1354658479e+01   2.1389855161e+01    0.3571211     0.176549 -30.38  0.001408784    2.276    0.561
        93  -9.4204    188.4733    123.0329   5.9584466778e+01   1.9589641429e+01    0.2233225    0.1357198 -37.68 0.0007907456    1.590    0.371
        94  -9.4085    194.8481    121.5809   5.8064261509e+01   1.8513308648e+01    0.2896706    0.1691052 -49.95  0.001281013    1.947    0.486
        95  -9.9255      4.0290    118.9655   1.0702378338e+02   5.0308826319e+01    0.2003721    0.1167545  67.26 0.0009355675    1.707    0.414
        96  -9.8386     45.1369    124.2797   9.5698593172e+01   4.5311062885e+01    0.4153922     0.143721  56.00  0.001245605    5.258    0.810
        97  -9.5519    192.6138    114.2688   5.6719929289e+01   2.0221989675e+01    0.2859639     0.127391 -40.30  0.001131799    2.144    0.534
        98  -9.3454    185.5995    114.7860   5.8143969121e+01   2.1629882928e+01    0.2805759    0.1371539 -33.37  0.001129522    2.066    0.516
        99  -9.0637     92.6675    112.3750   7.9533722430e+01   4.1221300271e+01    0.1550145    0.1112819  83.73 0.0007023161    1.848    0.459
       100 -10.6501     14.9398    111.0677   1.0289765977e+02   5.1372421457e+01    0.3404455    0.2002402  65.23   0.00166739    1.838    0.456
       101 -10.6212    218.8701    155.8443   6.1373200755e+01   8.4445410161e+00    0.1980556    0.1614475   2.93 0.0004864138    1.166    0.142
       102  -8.7734    189.0000    107.0030   5.5586753088e+01   2.2239112589e+01    0.2425196   0.07949635 -36.34 0.0007991868    2.920    0.658
       103 -10.9349     23.8877    103.5908   9.9031954141e+01   5.2408196740e+01    0.6072917    0.2791505  63.72  0.002488692    3.201    0.688
       104 -10.4732     46.5337    103.1497   9.1604568793e+01   5.0185972930e+01    0.6750023    0.2949918  62.39   0.00206689    5.250    0.810
       105  -9.5258    206.0000    147.9713   6.1960720998e+01   1.1982688462e+01    0.2206335   0.07295731 -36.78 0.0008014971    2.936    0.659
       106  -9.0820    108.4789     98.5180   7.1624161465e+01   4.1349966119e+01     0.150447    0.1396195 -81.53 0.0005375263    1.117    0.105
       107  -9.8676     64.5984     96.8740   8.4402305251e+01   4.9296508366e+01    0.3822682    0.1972715  64.38  0.001327378    3.773    0.735
       108  -8.8791     57.7342     92.3072   8.5580833992e+01   5.1321662945e+01    0.1335557    0.1027156  85.21 0.0002119586    1.532    0.347
       109 -10.1008     35.9259     91.0688   9.2765577630e+01   5.4230369249e+01    0.3778608    0.2013277  73.94  0.001496412    3.299    0.697
       110  -9.5550      6.0177     92.5227   1.0337205650e+02   5.6381480180e+01    0.1711125   0.07704916  49.83 0.0008102335    2.608    0.617
       111  -8.9733     86.3475     86.6839   7.4838455569e+01   4.8095736866e+01    0.1483702    0.1138722  84.95 0.0007047887    1.724    0.420
       112 -10.4990     49.9263     85.6036   8.6653120774e+01   5.3900570223e+01    0.4226583     0.198551  56.59  0.001554881    3.602    0.722
       113 -10.5434     25.9652     82.0244   9.4498439987e+01   5.7324054949e+01    0.4350909    0.2151874  54.35  0.001945881    2.788    0.641
       114  -9.5558    157.5958    155.0900   7.2880943233e+01   1.9977596500e+01    0.3091754     0.135088 -44.22  0.001246213    2.376    0.579
       115  -9.4609     14.0255    147.0000   1.0686007901e+02   4.3078194633e+01    0.1714918   0.06676086  26.47 0.0007982796    2.914    0.657
       116 -10.5155     52.6489     71.3212   8.1901601638e+01   5.6785599773e+01     0.319653    0.2167941  71.37  0.001160298    2.270    0.559
       117  -9.5755    148.6443    144.6228   7.2665445896e+01   2.3708586574e+01    0.2797324    0.1708095 -66.32  0.001151821    2.461    0.594
       118  -9.6537      8.8002     82.0042   1.0082451106e+02   5.8664755414e+01    0.2949224    0.1287387 -55.30  0.001470381    1.861    0.463
       119 -10.7152    204.7114    153.9427   6.3438731276e+01   1.1278202298e+01    0.3490844    0.1669853 -36.55  0.001233987    2.047    0.511
       120  -9.1514    175.5009    145.5123   6.7188733742e+01   1.8257951443e+01    0.1377803    0.1338106  11.65 9.604173e-05    1.043    0.042
       121 -10.2118     38.6714     65.4093   8.5597290894e+01   5.9831098393e+01    0.3155976     0.179709  54.79  0.001458784    2.547    0.607
       122 -10.0396     79.1410     61.5718   6.9340712707e+01   5.4653701345e+01    0.3385381    0.1320591  34.07  0.001150526    3.439    0.709
       123  -9.6707     73.6896     60.3685   7.0793070780e+01   5.5858671556e+01    0.2101273    0.1697402 -89.07  0.001091046    1.703    0.413
       124  -9.6259     25.3313     59.6857   8.9502127071e+01   6.2475731425e+01    0.1226056   0.09450193  75.88 0.0005418663    1.680    0.405
       125  -9.9095      7.9778     58.0081   9.6566512827e+01   6.4211584353e+01    0.1872972    0.1353342  72.15   0.00106542    1.733    0.423
       126 -10.7980     46.2347     56.9684   7.9986906893e+01   6.0735040874e+01    0.3550998    0.1555732  41.84  0.001535046    2.647    0.622
       127 -10.8686     64.6998     55.7918   7.2419701996e+01   5.8278695528e+01    0.4353715    0.2178979  46.34  0.001910249    2.291    0.563
       128 -10.7688     56.1091     55.8574   7.5699038714e+01   5.9594473472e+01    0.3684641    0.2112665  49.69  0.001726774    2.202    0.546
       129 -10.7772     32.9296     52.8154   8.4220576173e+01   6.3201065455e+01    0.3798051    0.2091394  45.05  0.001886468    2.309    0.567
       130  -9.4910     20.4961     53.0069   8.9758647221e+01   6.4372425442e+01    0.1666609    0.1033282 -87.75 0.0006717608    2.418    0.586
       131 -10.1834     45.1001     49.0012   7.7728703592e+01   6.2526111237e+01    0.2010398    0.1840147   3.46 0.0003961955    1.151    0.131
       132  -9.6421    182.0476    140.7138   6.4850571214e+01   1.7813227891e+01     0.252317    0.1883539 -46.67  0.001313561    1.416    0.294
       133 -10.7642    200.2021    148.4246   6.3095782334e+01   1.2996744371e+01     0.597193    0.2020368 -38.66   0.00223167    2.888    0.654
       134 -10.4303     59.7340     43.9705   6.9887287169e+01   6.1356510607e+01    0.3515934    0.2200694  56.90  0.001669008    2.284    0.562
       135 -10.6320     74.0094     44.0000   6.4600645768e+01   5.8890761150e+01    0.3160358     0.179973  36.67  0.001473604    1.884    0.469
       136  -9.7787      5.4287     42.2077   9.3799067155e+01   6.7822325610e+01    0.2683057    0.1095031 -73.48  0.001131558    3.051    0.672
       137  -9.0193    113.5633     41.4419   5.1718003524e+01   5.0998327389e+01    0.1413836    0.1374758  11.93 0.0001079107    1.005    0.005
       138 -10.1696     37.6035     41.2752   7.8138581413e+01   6.5020993673e+01     0.214253    0.1548011  41.52 0.0008223171    1.641    0.391
       139  -9.6335     17.1599     45.4180   8.9060867165e+01   6.6282050949e+01    0.1541402    0.1112809  38.02 0.0009417928    1.680    0.405
       140  -9.5158     83.3856     38.6979   5.9280969191e+01   5.7988413428e+01    0.2147734    0.1717048 -71.72  0.001121077    1.721    0.419
       141 -11.6041    189.8908    148.0369   6.4924499454e+01   1.5022765480e+01    0.8179244    0.3146843 -34.50  0.003095966    2.777    0.640
       142 -10.1289     26.6105     36.7551   8.1558143544e+01   6.7166913400e+01    0.2205934     0.148385 -57.30  0.001274937    1.480    0.324
       143  -9.5459    217.4909     34.4725   3.2442317981e+01   2.6454155488e+01    0.1348163    0.1190192 -55.73 0.0002969083    1.013    0.012
       144 -11.0982     62.7572     33.6149   6.4413393345e+01   6.2680122103e+01    0.4524471    0.1552409  47.28  0.001692587    3.283    0.695
       145 -10.5131     50.7456     33.8403   6.9355997294e+01   6.4595915828e+01    0.2290554    0.1762683  69.82  0.001234916    2.089    0.521
       146 -10.4491     74.7198     32.4709   5.9551734460e+01   6.0680725148e+01    0.4065378    0.1350166  50.31  0.001462588    3.266    0.694
       147  -9.0319     12.7255     31.3403   8.6580292241e+01   6.9538236198e+01     0.108791   0.09053186 -87.48 0.0005614051    1.614    0.380
       148  -9.4481     24.6060    139.2186   1.0336981174e+02   4.3924185011e+01    0.2735191   0.08146276  54.02 0.0009500593    4.252    0.765
       149 -10.7662     82.9533     28.6179   5.5144152481e+01   5.9622490460e+01    0.4013688    0.2529262  83.41  0.001560283    3.520    0.716
       150  -9.6272     92.9991     27.6759   5.1716205210e+01   5.7624170877e+01    0.2141872    0.1192253  80.21 0.0007047502    4.273    0.766
       151 -10.4875    197.8126    136.2089   6.0877945627e+01   1.5460739213e+01    0.5087115    0.1849921 -38.65  0.001914701    2.649    0.623
       152  -9.3860    172.1383    137.4820   6.6111756061e+01   2.0376494011e+01    0.2645883    0.1629163 -59.47   0.00112981    2.243    0.554
       153 -11.4083     65.2219     21.8153   5.8082777209e+01   6.4069230268e+01    0.3590793    0.2916802 -89.99  0.001998603    1.941    0.485
       154 -10.2607     48.9579     21.9715   6.4666084824e+01   6.6846446592e+01    0.1845675     0.161446 -73.06  0.001053108    1.678    0.404
       155 -11.3115     76.0411     20.4862   5.3687665246e+01   6.2158503578e+01    0.4738469    0.2205654  60.18  0.001946592    2.777    0.640
       156 -10.4348     40.8507     20.8915   6.7776094057e+01   6.8247729686e+01    0.2134795    0.1929442 -56.54 0.0008708367    1.443    0.307
       157  -8.8724     12.6663     21.2994   8.2624688037e+01   7.1477509703e+01    0.1040367   0.09252749  79.90 0.0007032734    1.651    0.394
       158 -10.2016     89.9844     18.2391   4.8432396680e+01   5.9503293657e+01    0.1844658    0.1099887  55.36 0.0007434778    1.655    0.396
       159 -10.5855    195.8834    143.3432   6.2797846459e+01   1.4653074404e+01    0.4204638    0.2791673 -22.01  0.001925959    1.632    0.387
       160 -12.1248    225.9822    133.0211   5.5376319354e+01   1.0568066371e+01     0.405819    0.2457026 -15.38  0.001962739    1.896    0.473
       161  -9.5073    107.6240    249.1415   9.6373854988e+01   1.1878781735e+01    0.1287918    0.1022128 -47.28 0.0009454187    1.686    0.407
       162 -11.0842    247.9838    247.5343   7.2466514994e+01  -6.9003070605e+00     0.261173    0.1635721  18.91 0.0007963117    1.211    0.174
       163 -10.0689     40.9286     13.9773   6.4199846920e+01   6.9302594074e+01    0.1847569    0.1558799  -8.24            0    1.012    0.012
