#   1 NUMBER                 Running object number                                     
#   2 MAG_AUTO               Kron-like elliptical aperture magnitude                    [mag]
#   3 X_IMAGE                Object position along x                                    [pixel]
#   4 Y_IMAGE                Object position along y                                    [pixel]
#   5 X_WORLD                Barycenter position along world x axis                     [deg]
#   6 Y_WORLD                Barycenter position along world y axis                     [deg]
#   7 A_WORLD                Profile RMS along major axis (world units)                 [deg]
#   8 B_WORLD                Profile RMS along minor axis (world units)                 [deg]
#   9 THETA_WORLD            Position angle (CCW/world-x)                               [deg]
#  10 FWHM_WORLD             FWHM assuming a gaussian core                              [deg]
#  11 ELONGATION             A_IMAGE/B_IMAGE                                           
#  12 ELLIPTICITY            1 - B_IMAGE/A_IMAGE                                       
         1 -14.8126     20.5837    171.4201   1.4214474091e+02   3.7392897672e+01     6.134823     1.830211  84.49   0.02359251    5.269    0.810
         2 -14.5178      3.8795    178.2071   1.4552093547e+02   3.7567000698e+01     5.380214    0.6673448 -76.19   0.02136371    5.587    0.821
         3 -13.4763      5.4828     14.3450   1.2460647352e+02   7.1420408335e+01     2.546548    0.4505762 -56.72   0.01020036    3.152    0.683
         4 -13.2963    190.5175     28.2598   7.1799756725e+01   3.3884166278e+01     1.385776     1.251269   7.21  0.005963061    1.082    0.076
         5 -13.7198    204.1941      9.7085   6.4006719147e+01   3.2176980584e+01     1.793092     1.190904  32.79  0.008513055    1.629    0.386
         6 -10.5821    198.2544    245.1751   1.1854760723e+02   3.5629234727e+00    0.2046169    0.1189606 -48.18  0.001376083    2.883    0.653
         7 -11.2007    140.2912    249.7959   1.2791077611e+02   1.1166787058e+01    0.3140677    0.1199365  44.04  0.001863973    1.850    0.459
         8 -11.1063    122.5353    250.2434   1.3066354737e+02   1.3470067906e+01    0.2898991    0.1140748  37.63  0.001708019    2.182    0.542
         9 -10.4980     98.6305    249.2092   1.3421460041e+02   1.6629125907e+01    0.1733152    0.1571887  38.03  0.001629081    1.466    0.318
        10 -10.9626    102.1930    247.5163   1.3355012830e+02   1.6400311185e+01    0.2529216    0.1317221  54.51 0.0007083033    1.500    0.333
        11  -9.0880     67.1270    250.4989   1.3899150055e+02   2.0156224119e+01    0.1348133     0.065645  45.09 0.0005990386    1.495    0.331
        12 -11.2122     28.2186    248.8692   1.4450122352e+02   2.4389864409e+01    0.4746617    0.1167845  44.56  0.003005211    2.448    0.592
        13 -10.1125     33.4089    247.8080   1.4372907141e+02   2.4033732206e+01    0.1730011    0.1249401  75.71  0.001505555    1.225    0.184
        14 -10.8856     35.8124    243.7563   1.4322031665e+02   2.4352555480e+01    0.2728776    0.1696215  34.69  0.001872012    1.878    0.467
        15 -10.9325      7.4501    249.1255   1.4737143828e+02   2.6243369379e+01    0.4288228   0.09329458  42.31  0.002748779    2.711    0.631
        16 -10.5720      2.2604    248.7148   1.4806072072e+02   2.6743234642e+01    0.3233193    0.1560476  87.96  0.002580808    1.802    0.445
        17 -11.2369      4.2200    241.1191   1.4759690202e+02   2.7621512082e+01    0.3163882    0.1743428  54.60  0.001671303    1.226    0.184
        18 -10.1185     81.6620    242.2341   1.3631339607e+02   1.9583214732e+01    0.2544163    0.1137172  57.74  0.001690423    1.877    0.467
        19 -10.9381     12.8456    241.4322   1.4640432181e+02   2.6827896635e+01    0.2151108    0.1169583  81.08  0.001753034    1.507    0.336
        20  -9.3204     72.5742    241.7140   1.3766505877e+02   2.0711505248e+01     0.140122    0.1345216  43.28  0.001180273    1.592    0.372
        21  -9.8746    183.7081    238.4358   1.1998696459e+02   6.3016178184e+00    0.1561075    0.0739073  35.52 0.0009536552    1.655    0.396
        22  -9.8207    194.5780    237.2311   1.1815064125e+02   4.8473054825e+00    0.1252864   0.09182516  -3.17 0.0009466736    1.659    0.397
        23 -12.4052     22.8852    201.3349   1.4332145390e+02   3.1998172824e+01     0.713662     0.100745  50.26  0.002624581    3.889    0.743
        24 -13.8089      7.5578    208.2685   1.4608176538e+02   3.2232995588e+01     1.479964    0.5781572 -74.63  0.007798128    2.399    0.583
        25 -10.2414    249.5628    248.8250   1.1145497539e+02  -3.8009071156e+00    0.1733086    0.1129522  18.15  0.001395054    1.175    0.149
        26 -14.3568     55.3894    212.1485   1.3853093832e+02   2.6967573877e+01       7.1026          nan  45.22   0.02058867    8.963    0.888
        27 -11.2032    173.4864    222.2199   1.1965323176e+02   9.5752694726e+00    0.3513783     0.254389  58.50   0.00247818    1.583    0.368
        28 -13.8148     47.6983    225.9841   1.4058761663e+02   2.5685030418e+01    0.7882966     0.480083  81.35  0.004840273    1.473    0.321
        29  -9.6179     19.9537    229.1288   1.4495816624e+02   2.7949028466e+01    0.1767795   0.09223011  86.92  0.001410177    1.678    0.404
        30  -8.6328    152.4621    212.9900   1.2203113604e+02   1.3897997654e+01    0.1274874    0.1120746 -48.98 0.0004212924    1.456    0.313
        31 -10.2642     81.0289    248.4508   1.3681126449e+02   1.8839036650e+01    0.1684326    0.1250733  82.64   0.00121508    1.384    0.277
        32 -10.2550    229.6719    230.3418   1.1186053682e+02   3.9151588975e-01    0.1807688    0.1621713 -64.01  0.001410099    2.206    0.547
        33  -9.9292    192.3273    193.8546   1.1249536073e+02   9.9599161581e+00    0.4311942    0.2377127 -60.31   0.00172239    5.361    0.813
        34 -11.3428     66.4097    198.6070   1.3567125839e+02   2.7893256430e+01    0.2645022    0.2028874 -51.80  0.001392797    1.820    0.451
        35  -9.0366     51.3782    197.1468   1.3821415586e+02   2.9835096501e+01    0.1404918   0.09908498  73.47 0.0006286419    1.146    0.127
        36 -11.5556     71.8614    190.7974   1.3403697130e+02   2.8548446733e+01    0.2080635    0.1855562 -75.62 0.0006463942    1.342    0.255
        37 -12.4625     41.3334    233.3477   1.4193949071e+02   2.5266957693e+01    0.2242965    0.1882568  89.37 0.0007616451    1.423    0.297
        38  -8.5894    103.9583    179.9878   1.2684387336e+02   2.6136179079e+01    0.1321844    0.1129888  63.39            0    1.024    0.024
        39 -10.6847     81.0916    178.1130   1.3107585660e+02   2.9590896334e+01    0.1966641    0.1736231  73.77 0.0003620691    1.113    0.101
        40 -13.0933     68.4474    175.8695   1.3331199792e+02   3.1577401364e+01    0.3964146    0.2438821 -46.35  0.001889318    2.337    0.572
        41  -8.7262    171.3256    173.0707   1.1288962983e+02   1.6327817412e+01    0.1613599    0.1487622  27.83 0.0003642433    1.090    0.082
        42 -11.6939     88.4641    168.4463   1.2853372637e+02   3.0350010647e+01    0.5721312    0.4493727  46.03  0.003928007    1.222    0.182
        43  -8.9587     32.9365    228.3360   1.4297758750e+02   2.6835003473e+01    0.1286267   0.08487938  57.63 0.0006107289    1.096    0.088
        44  -9.7028    184.1042    147.4486   1.0572706591e+02   1.7768541190e+01    0.2826269    0.2233091 -79.40  0.001023714    2.041    0.510
        45  -9.6647    100.1249    152.4060   1.2397245795e+02   3.1677790285e+01    0.2227985    0.1964617 -70.58 0.0007108102    1.167    0.143
        46 -11.9475     88.8365    151.8531   1.2633826632e+02   3.3417766614e+01    0.2262799    0.2199957 -56.54 0.0005415957    1.256    0.204
        47 -12.4644     67.0541    144.0850   1.3012765010e+02   3.7823387916e+01    0.7182138    0.4381765  75.42  0.004073316    1.795    0.443
        48  -9.0642    102.9343    148.0475   1.2270770422e+02   3.2086356140e+01    0.1815099    0.1523511 -17.24 0.0006725074    1.671    0.402
        49 -10.6801    190.1643    153.6304   1.0581456627e+02   1.5700260505e+01    0.3894623    0.2939459 -83.40  0.001446086    2.498    0.600
        50  -8.4208    192.0046    143.9786   1.0351575052e+02   1.6748472979e+01    0.1596141    0.1414327  18.53 0.0003869745    1.020    0.020
        51  -9.1996    180.3101    143.1013   1.0557167794e+02   1.9168310795e+01    0.2185451    0.1824296  69.56 0.0005189684    1.526    0.345
        52  -9.5350    110.7084    137.1473   1.1918045772e+02   3.2971884071e+01    0.2909338    0.2043158 -22.43  0.001129984    2.252    0.556
        53  -8.5023     87.4446    137.1467   1.2451609443e+02   3.6523821736e+01    0.1589548    0.1112738 -80.90 0.0009044229    1.505    0.335
        54 -11.4997     56.2541    127.7789   1.3054697964e+02   4.2464354833e+01    0.9369844    0.3147192 -78.65  0.002829817    6.031    0.834
        55 -10.6146    162.5550    127.0213   1.0572144442e+02   2.5322045818e+01     0.855799    0.5278978  84.83  0.002594119    5.605    0.822
        56  -9.3669    107.6534    124.0637   1.1748804574e+02   3.6072691633e+01    0.1902937    0.1678048  65.50 0.0002824202    1.120    0.107
        57  -8.6904     69.6231    124.1732   1.2677377139e+02   4.1616673988e+01    0.1621922    0.1034352 -56.65 0.0001522971    1.509    0.337
        58  -9.7083     35.4232    224.9036   1.4243893112e+02   2.7099460210e+01    0.1352895    0.1173007  49.54  0.000360817    1.481    0.325
        59 -10.4229    167.9675    113.1789   1.0136201355e+02   2.6579584557e+01    0.3157606     0.285181 -85.07 0.0008473617    1.369    0.270
        60  -8.7392    203.4462    111.5048   9.3970260599e+01   1.9187960917e+01    0.1468239    0.1282308  10.73  0.000154637    1.046    0.044
        61 -10.4425     98.3566    134.6201   1.2158184490e+02   3.5422303212e+01    0.2275346      0.20342 -30.81 0.0002977408    1.366    0.268
        62 -10.1213     33.6486     92.5398   1.3150564358e+02   5.2421984066e+01    0.3576019    0.1706147  48.09  0.001857518    2.365    0.577
        63  -8.3138    184.3628     77.3003   8.8349519841e+01   2.8761766414e+01    0.1640181    0.1114062  21.14 0.0007035154    1.723    0.420
        64  -9.1251    156.3109     76.6220   9.3969542812e+01   3.5517564131e+01    0.1578608    0.1191224 -66.48 0.0007027729    1.792    0.442
        65  -9.6450     16.9533     66.2911   1.3246345668e+02   5.9563492619e+01    0.1985489     0.143485  48.19 0.0007860909    1.654    0.395
        66 -11.3355      3.0089     61.4478   1.3645313767e+02   6.1446111445e+01     0.372734    0.2344469  75.95  0.002359711    1.727    0.421
        67  -8.7209     32.0057     61.7444   1.2635393555e+02   5.9427412012e+01    0.1586867     0.143148 -59.61 0.0004117194    1.125    0.112
        68  -8.8002     23.4735     58.5363   1.2870132866e+02   6.0824396355e+01    0.1888397    0.0975056  41.44  0.001022007    2.373    0.579
        69 -10.5456     12.9824     55.2182   1.3185047389e+02   6.2269800592e+01    0.1951658    0.1489613  58.67 0.0008443286    1.586    0.370
        70 -11.0846      9.0927     53.8693   1.3302887605e+02   6.2794761963e+01    0.2290255     0.183778  16.81 0.0007812423    1.638    0.390
        71  -9.8581     46.7293    248.8283   1.4187005774e+02   2.2561344642e+01    0.2032412   0.09125783  57.88   0.00111141    1.596    0.374
        72 -10.0935    152.2269    248.4018   1.2594695497e+02   9.6962590791e+00     0.146165   0.06905656  47.84 0.0004227904    1.617    0.382
