#   1 NUMBER                 Running object number                                     
#   2 MAG_AUTO               Kron-like elliptical aperture magnitude                    [mag]
#   3 X_IMAGE                Object position along x                                    [pixel]
#   4 Y_IMAGE                Object position along y                                    [pixel]
#   5 X_WORLD                Barycenter position along world x axis                     [deg]
#   6 Y_WORLD                Barycenter position along world y axis                     [deg]
#   7 A_WORLD                Profile RMS along major axis (world units)                 [deg]
#   8 B_WORLD                Profile RMS along minor axis (world units)                 [deg]
#   9 THETA_WORLD            Position angle (CCW/world-x)                               [deg]
#  10 FWHM_WORLD             FWHM assuming a gaussian core                              [deg]
#  11 ELONGATION             A_IMAGE/B_IMAGE                                           
#  12 ELLIPTICITY            1 - B_IMAGE/A_IMAGE                                       
         1 -13.4627     54.1967    146.6884   1.0907106981e+02   3.8618495113e+01     5.328551      1.29805 -61.67   0.01639911    3.551    0.718
         2 -14.9736     68.6460    144.2372   1.0403718770e+02   3.7387655145e+01     5.452314     2.551636  59.41   0.00931842    4.133    0.758
         3 -14.4183    200.1835     39.7003   4.4889609871e+01   3.0292123158e+01     1.490285     1.258669  11.20  0.004803145    1.599    0.375
         4 -14.4897    211.2155     28.7247   4.1210936678e+01   2.9207298798e+01     1.231258    0.9196928  -9.37  0.002884356    1.847    0.458
         5 -12.4250      2.2139     19.5502   1.0127149855e+02   7.3346809675e+01    0.7208496     0.204862 -56.84  0.002839075    3.635    0.725
         6 -12.2593      1.9969      3.2042   9.3145021310e+01   7.6179303757e+01    0.5037305    0.3479658   6.70  0.003367218    1.246    0.198
         7 -12.8357    238.7579      3.9428   3.4038675280e+01   2.6280984628e+01    0.4915036    0.4468771  84.07   0.00313949    1.329    0.247
         8 -12.5955    233.1457      4.7101   3.4498917536e+01   2.7280006254e+01    0.4828582    0.2545259 -57.31  0.002969126    1.566    0.362
         9 -11.0922    107.6871    204.2890   1.0273005816e+02   1.7413538828e+01    0.2580455    0.2031466  54.00 0.0005583349    1.389    0.280
        10 -12.0666    140.0223    248.3803   1.0128962045e+02   4.6195677186e+00    0.4454437    0.3027012 -56.91  0.002621371    2.020    0.505
        11 -13.1795     70.0508    172.7417   1.0820862544e+02   3.0023396386e+01     1.325898     0.543574 -35.72  0.003877408    4.774    0.791
        12 -13.1792     27.8394    215.0954   1.2348866514e+02   2.4933691163e+01     1.089175    0.4306602  72.86   0.00436612    3.406    0.706
        13 -13.0396     12.6783    189.4016   1.2543845869e+02   3.2058709540e+01     0.399206    0.3252386 -65.06 0.0005274178    1.284    0.221
        14 -14.4916     43.2517    199.6928   1.1856726065e+02   2.6796196822e+01     2.212347     1.120738  77.20  0.009093756    2.528    0.604
        15 -14.8248     24.9288    226.9031   1.2487820377e+02   2.2723065906e+01     1.926286    0.7972659  53.53  0.006339554    2.151    0.535
        16  -9.4821    134.1023    196.1869   9.4897053569e+01   1.5039932669e+01    0.1904068    0.1634493  49.65 0.0004252283    1.332    0.249
        17 -10.0346     23.3331    194.2335   1.2311799812e+02   3.0025080111e+01    0.3409911    0.1989976 -43.07  0.001239501    2.175    0.540
        18 -15.0529     10.3499    206.4174   1.2699629154e+02   2.8396863594e+01    0.9166787    0.8368616 -37.95  0.003274458    1.387    0.279
        19  -9.5152    119.9751    194.0401   9.8050195809e+01   1.7719403267e+01    0.2106085    0.1944573  19.15 0.0003767375    1.032    0.031
        20  -8.7704    156.6920    190.2627   8.8453936677e+01   1.2578404059e+01    0.1306302    0.1106522  54.59 0.0001932909    1.529    0.346
        21  -9.2519     72.1768    188.2238   1.0974020015e+02   2.6019526849e+01    0.1895483    0.1496042  61.86 0.0004545162    1.321    0.243
        22 -14.7030     57.0926    239.4886   1.1866542864e+02   1.6807257299e+01    0.9878412    0.7649251  85.22  0.003991844    1.395    0.283
        23  -9.4189     70.0008    184.0529   1.0978395449e+02   2.7292277689e+01    0.2191083    0.1544914  62.37 0.0004640217    1.566    0.361
        24  -9.1231     91.0592    182.7122   1.0383611234e+02   2.4678453323e+01    0.1934644    0.1787994  29.31 0.0004421761    1.023    0.022
        25 -10.2964     99.4244    180.8023   1.0126061963e+02   2.3863757198e+01    0.2668798    0.2187044  10.95 0.0005367473    1.271    0.213
        26 -16.1198      2.5947    196.7587   1.2829295027e+02   3.1157664036e+01     10.88023    0.6432106 -72.95   0.02253396    6.740    0.852
        27 -10.4963    143.6827    178.7507   8.9394069023e+01   1.7060019542e+01    0.2663999     0.214776  -5.23 0.0007376989    1.267    0.211
        28  -9.9984    188.9121    178.1325   7.9022431542e+01   9.5896024159e+00    0.2006884    0.1936997   4.62 0.0008394084    1.289    0.224
        29 -10.1153    187.0000    171.9786   7.8183814515e+01   1.1014656744e+01    0.2038587     0.155707 -50.91  0.001068921    1.607    0.378
        30  -9.3973    149.4876    176.9955   8.7641194772e+01   1.6430159455e+01    0.2061532    0.1432605 -43.94 0.0003639501    1.491    0.329
        31 -16.7086      6.5538    246.4984   1.2961480155e+02   2.0535073098e+01       1.8986     1.632753  57.37   0.01504051    1.146    0.127
        32 -13.1370     81.4798    160.7030   1.0298096564e+02   3.1398781303e+01     1.502124    0.6041884  51.26 0.0005011585    3.672    0.728
        33 -13.8040     69.8208    155.8114   1.0566463883e+02   3.4279154692e+01    0.7133152    0.5879081 -12.13  0.001794456    1.383    0.277
        34  -9.7433     30.9180    202.4638   1.2186008588e+02   2.7427435670e+01    0.1836288    0.1130701  32.17  0.000683972    1.526    0.345
        35 -10.8221     65.7066    194.6379   1.1225498554e+02   2.5353179782e+01    0.2925557    0.2309154  26.86 0.0006408748    1.243    0.195
        36 -10.6825    137.5279    168.1344   8.8850632753e+01   2.0379465303e+01    0.3480308    0.2589186  47.63   0.00136114    1.485    0.326
        37 -10.2110    230.5775    167.3609   6.9063442944e+01   4.9649737716e+00    0.2533953   0.09980056 -47.38 0.0009603375    3.435    0.709
        38 -10.1795    146.4370    172.2080   8.7439696275e+01   1.7949153688e+01    0.2027358    0.1451603 -57.90 0.0009504874    1.721    0.419
        39 -11.3154     62.0131    200.0990   1.1383254821e+02   2.4554965068e+01    0.2646333    0.2226009 -85.14 0.0004906345    1.239    0.193
        40 -10.2035    156.2762    158.2674   8.2165712709e+01   1.9082758033e+01    0.4019496    0.2795206 -77.58  0.001590627    2.854    0.650
        41 -12.3605     88.4691    153.8583   9.9668441365e+01   3.2035150556e+01    0.7013912    0.4730298 -21.77  0.002276791    1.927    0.481
        42 -10.2239    187.1519    151.8117   7.3906846351e+01   1.4709952626e+01    0.2062378    0.1587084  -8.43   0.00088354    1.331    0.248
        43 -11.4178    133.7079    144.6234   8.4826096165e+01   2.6258367268e+01     1.190043    0.3271736 -53.48  0.002829487    5.682    0.824
        44  -9.3556    111.8213    149.9987   9.2043382156e+01   2.9064666294e+01    0.3598231    0.1951042  57.77  0.001228262    2.986    0.665
        45 -10.8403    174.3746    148.5726   7.5897986574e+01   1.7668322281e+01    0.3725875    0.2666519 -54.79    0.0014554    1.697    0.411
        46 -10.7049     38.9903    146.2195   1.1385381749e+02   4.0414063392e+01    0.3108283    0.2591738  75.26 0.0007996175    1.239    0.193
        47 -11.5868     32.3550    157.0090   1.1724394475e+02   3.8284064317e+01    0.5416169    0.3959216   7.73  0.002899718    1.602    0.376
        48 -10.9393     82.8842    142.6184   9.9213130398e+01   3.5710282437e+01    0.2872804    0.2526787  58.69 0.0004480002    1.236    0.191
        49 -10.9760    102.2312    139.3548   9.2561667839e+01   3.3307439012e+01    0.6001893    0.3752515 -16.76  0.002263417    2.451    0.592
        50 -12.3668     89.7036    139.1439   9.6363411306e+01   3.5490535150e+01    0.3076832    0.2690096 -29.76 0.0004184444    1.163    0.140
        51 -10.7130    105.9743    130.8405   8.9491642009e+01   3.4680707982e+01    0.3643186    0.3355618 -63.67   0.00119421    1.187    0.157
        52 -12.0847     44.0932    129.8522   1.0969503661e+02   4.4143416724e+01    0.4143728    0.3050222  86.70   0.00149654    1.559    0.358
        53 -10.4199    111.5743    129.8566   8.7582159756e+01   3.3868841713e+01    0.3523624    0.2682438  -1.16 0.0008931143    1.587    0.370
        54 -10.2224    160.7760    127.7012   7.4086055435e+01   2.4476930593e+01    0.3163061    0.2098226 -49.84  0.001417416    1.618    0.382
        55 -10.9912     98.9074    125.8761   9.0489315300e+01   3.7159081865e+01    0.3485141     0.270169  -1.53   0.00149703    1.518    0.341
        56  -9.8300     91.7762    124.5583   9.2445334779e+01   3.8741081328e+01    0.2751513    0.2165429  60.91 0.0006036034    1.540    0.351
        57 -10.6161    117.3187    124.3317   8.4544796804e+01   3.4043380072e+01    0.2545438    0.2190748  -6.96 0.0007712186    1.228    0.186
        58 -11.2134    120.4938    121.9895   8.3039615027e+01   3.3947022001e+01    0.4256337    0.2504146 -25.75  0.001591228    2.284    0.562
        59 -11.0035    135.4904    125.4957   7.9793040899e+01   3.0129878121e+01    0.4390374    0.1516798 -43.72  0.001390709    2.883    0.653
        60 -12.0126     33.9717    118.5774   1.1139688446e+02   4.8098046268e+01    0.3768478    0.2666799 -40.11  0.001184593    1.392    0.281
        61 -10.0845    107.9133    118.9702   8.5991265208e+01   3.7114878812e+01    0.2288601    0.2162163   3.58 0.0003338081    1.025    0.024
        62 -11.2622     45.0516    117.9751   1.0724140270e+02   4.7127557483e+01    0.2248993    0.2051325 -48.72 0.0003954011    1.020    0.020
        63  -9.3202    168.0252    112.9958   6.8818087862e+01   2.5854096558e+01    0.2388179    0.1882314 -76.65  0.001131616    1.743    0.426
        64 -11.0215    135.0000    112.0046   7.6439294505e+01   3.3129000563e+01     0.911405    0.1564499 -43.47  0.002044079    5.814    0.828
        65 -11.6201    117.4281    109.2500   8.0580303463e+01   3.7419456675e+01    0.5901157    0.5488015 -50.49  0.003055768    1.142    0.124
        66 -10.2486    205.5018    110.2474   6.1051950915e+01   1.8693692446e+01     0.271008    0.2191747  35.24 0.0009051462    1.371    0.270
        67 -11.6383     33.4912    109.2014   1.0992774538e+02   5.0570322089e+01    0.3447112    0.2252325  79.40  0.001571237    2.049    0.512
        68  -8.8330    140.5130    107.4523   7.3791706124e+01   3.2887783601e+01    0.1547629    0.1489875   2.01 0.0001159988    1.005    0.005
        69 -12.3408     42.6127    104.3033   1.0541873551e+02   5.0905410704e+01    0.6237279    0.2777592  39.80   0.00245314    2.492    0.599
        70  -9.8409     65.2830    103.8056   9.6591368078e+01   4.8125888462e+01    0.2954597    0.1906321  51.86   0.00104752    1.941    0.485
        71 -10.0971    128.0923     95.3936   7.3680501742e+01   3.8069473886e+01    0.2708969    0.2340798  69.51  0.001063757    1.350    0.259
        72 -10.0294     52.6333     90.8171   9.8190530300e+01   5.3056851760e+01    0.2049031    0.1383463 -65.66 0.0003835004    1.674    0.403
        73  -9.9692    156.5435     88.5586   6.4826036562e+01   3.2937221342e+01    0.3185017     0.217951 -75.03 0.0009568069    2.269    0.559
        74 -16.4496     30.3861    249.5605   1.2499745110e+02   1.7733813360e+01     12.67302     3.657568  18.57   0.02610607   14.616    0.932
        75  -9.4665    116.2307     85.2102   7.3969499765e+01   4.2731049016e+01    0.2084415    0.1839688  73.35 0.0006713199    1.340    0.254
        76 -10.1410    158.6464     81.9900   6.2552695707e+01   3.3611865686e+01    0.2109126    0.1910259 -33.63 0.0006782477    1.102    0.092
        77  -8.8352     70.2561     81.7226   8.8495841239e+01   5.2543907456e+01    0.1346383    0.1202958  79.06 0.0006844078    1.465    0.317
        78  -9.2514     55.8505     66.1709   8.9386865004e+01   5.8213749329e+01    0.1963336    0.1540301  -9.59 0.0002677991    1.265    0.209
        79 -10.9073     13.2382     59.7179   1.0808422496e+02   6.4283571173e+01    0.2532007    0.2232014   7.42 0.0005334725    1.243    0.196
        80 -10.5922     59.4869    220.6089   1.1651157499e+02   2.0356562676e+01    0.3206761    0.2399357  10.43   0.00139496    1.557    0.358
        81 -15.3139     53.9290    188.9260   1.1471960141e+02   2.8115669141e+01     6.770015     2.899729  61.37   0.02388658    3.542    0.718
        82 -13.7026    190.2976     46.9331   4.7854464407e+01   3.1580548134e+01     1.082344    0.6984807  45.24  0.000915233    1.817    0.450
        83  -8.7995     66.5149     51.4906   7.9403760331e+01   5.9318197888e+01    0.1445673    0.1287047   7.11 0.0004653052    1.018    0.017
        84 -11.3387    142.0634     47.2372   5.5619979773e+01   4.3004840070e+01    0.5104544     0.307436 -81.06  0.001198204    2.739    0.635
        85 -10.9201    143.2586     40.5604   5.3298371701e+01   4.3596830083e+01    0.4622503    0.2861652 -79.58  0.001990534    2.333    0.571
        86 -11.4219     13.0270     31.5395   9.8982153615e+01   7.0271937377e+01    0.3911101    0.1576819  29.35  0.001798051    2.592    0.614
        87 -11.0478    188.1555     31.0777   4.4098373879e+01   3.4009387047e+01    0.2371397    0.1784781 -83.29 0.0007712986    1.280    0.219
        88 -10.5596    198.0634     23.7344   4.1266274435e+01   3.2606355671e+01      0.24797    0.1845564 -15.81 0.0009471421    1.700    0.412
        89 -12.1022    109.8279    201.0955   1.0172053747e+02   1.7772487175e+01    0.5515981    0.3262799 -37.13  0.001803508    1.983    0.496
        90 -12.5974    193.9813    198.0510   8.1791916767e+01   5.3551804743e+00     1.284019     0.620401 -48.34  0.005622255    2.649    0.622
        91  -9.4918    189.5112     14.9960   3.9950128645e+01   3.5431455668e+01    0.1749759    0.1161124 -34.03  0.000569607    1.544    0.353
        92 -10.1255    113.1780    206.1891   1.0164306024e+02   1.6202173908e+01     0.196037    0.1556897  49.49  0.001071657    1.333    0.250
