#   1 NUMBER                 Running object number                                     
#   2 MAG_AUTO               Kron-like elliptical aperture magnitude                    [mag]
#   3 X_IMAGE                Object position along x                                    [pixel]
#   4 Y_IMAGE                Object position along y                                    [pixel]
#   5 X_WORLD                Barycenter position along world x axis                     [deg]
#   6 Y_WORLD                Barycenter position along world y axis                     [deg]
#   7 A_WORLD                Profile RMS along major axis (world units)                 [deg]
#   8 B_WORLD                Profile RMS along minor axis (world units)                 [deg]
#   9 THETA_WORLD            Position angle (CCW/world-x)                               [deg]
#  10 FWHM_WORLD             FWHM assuming a gaussian core                              [deg]
#  11 ELONGATION             A_IMAGE/B_IMAGE                                           
#  12 ELLIPTICITY            1 - B_IMAGE/A_IMAGE                                       
         1 -13.0169    234.4922    149.4805   5.8878198259e+01   5.9731426719e+00     3.063816     1.103462 -50.10    0.0104701    3.672    0.728
         2 -10.4700    250.0777     43.7892   3.4954904815e+01   1.9943033721e+01    0.7839032     0.198256 -33.91  0.002831178    4.260    0.765
         3 -12.1623    238.0014     95.0760   4.6839508626e+01   1.4670780614e+01     2.156039     1.113541 -38.45   0.01053997    1.696    0.410
         4 -12.2124    245.9290     55.1429   3.7599766633e+01   1.9200391308e+01     1.336458    0.7695421 -43.52  0.007635989    1.470    0.320
         5 -12.0149    218.3273     26.9558   3.4358594645e+01   2.8466846115e+01    0.8558798    0.5557131 -48.55  0.003860992    1.384    0.278
         6 -11.9433    243.3046     29.6959   3.2754243856e+01   2.3036723946e+01    0.8520153    0.6716817  12.62  0.005283936    2.331    0.571
         7 -13.5588    246.9833     12.3084   2.9146663629e+01   2.4349713863e+01     2.327135     1.553601 -89.40   0.01343413    1.332    0.249
         8 -11.2752    147.2891     16.1305   4.0124366787e+01   4.5923731566e+01    0.3653862    0.3178767  51.76  0.002332943    1.155    0.134
         9  -9.8994     92.6416     15.4036   5.0905239769e+01   5.8552062051e+01    0.3304371    0.2901382  16.44  0.002153562    1.137    0.121
        10 -10.8109    221.5428     12.7414   3.1072877211e+01   2.9404059213e+01    0.4836254    0.2325008  71.11  0.002643278    1.919    0.479
        11  -8.8460    139.3205     13.6554   4.0633775966e+01   4.8050721732e+01    0.2432126    0.1483716  15.84  0.001171384    2.480    0.597
        12  -9.0497    113.2542     13.5132   4.5364267904e+01   5.4148869179e+01    0.2581725    0.1407479 -39.60  0.001294363    2.134    0.531
        13  -9.1962     94.5262      9.4870   4.8133354129e+01   5.8692886777e+01    0.2078631    0.1059186 -36.99  0.001026703    2.328    0.571
        14  -9.5582     81.0722      9.0682   5.1538967557e+01   6.1578666491e+01    0.3197369    0.2093822 -32.41   0.00142462    1.779    0.438
        15 -10.0095     75.2860      9.1090   5.3267235162e+01   6.2748626737e+01    0.3961191    0.1850294  32.28  0.001866823    2.196    0.545
        16  -9.1901     13.3321      9.6530   8.0757174838e+01   7.2325139215e+01    0.1489739     0.138701  26.02  0.001117151    1.738    0.425
        17  -8.2921     33.0046      7.5066   6.9068774793e+01   7.0217871638e+01    0.1395983    0.1005862  54.42 0.0008088567    2.415    0.586
        18  -8.8856    184.3188      5.1855   3.2666718501e+01   3.8320470634e+01    0.2162916    0.2083555 -54.91  0.001499235    1.261    0.207
        19  -8.2388    183.6864      1.3520   3.1810766526e+01   3.8818357113e+01    0.1784149    0.1035437 -85.54 0.0007716113    1.634    0.388
        20  -8.9509    100.8370      6.0592   4.5355217128e+01   5.7596564838e+01    0.1875071    0.1661613 -84.73  0.001227506    1.349    0.259
        21  -9.7106     46.8905      2.3005   6.0173782804e+01   6.8618523239e+01    0.3221259    0.2166662  55.55  0.001932515    1.921    0.479
        22  -8.4523    144.5060      1.5063   3.6260235512e+01   4.7887736144e+01      0.12567    0.1052902  73.64 0.0008106307    1.004    0.004
        23  -8.3932     17.5578    215.5061   1.1914371398e+02   2.5967851526e+01    0.1201895   0.09777843  77.34 6.818886e-05    1.026    0.025
        24 -12.2674    226.3885    241.9154   7.7703108647e+01  -7.8423144956e+00      1.17105     0.987439  -0.57  0.008325747    1.205    0.170
        25 -12.6204    227.0180    220.0528   7.3856564877e+01  -4.7155667978e+00     1.673581     0.895337 -51.13  0.007803698    2.929    0.659
        26 -12.0072    187.6931    244.7229   8.5612517597e+01  -3.1002833442e+00     1.393736    0.8387377 -22.23  0.007564572    1.844    0.458
        27  -9.8736    142.2359    249.9260   9.5751842374e+01   2.6215103558e+00    0.3108164    0.1500242  25.24  0.001423127    2.139    0.533
        28 -11.4963    135.2199    230.2467   9.4529517334e+01   7.2448880805e+00    0.6142412    0.3675663 -10.08   0.00248719    3.199    0.687
        29 -10.8905    126.3153    225.5004   9.5837933429e+01   9.5518708177e+00    0.9439207    0.3436123 -64.29  0.002886698    5.368    0.814
        30 -11.4547    133.2729    247.1517   9.7279375710e+01   4.4229953365e+00    0.7041115    0.4586408 -68.78  0.003770939    2.176    0.540
        31 -10.1534    176.1728    196.9981   7.9859790636e+01   7.0297827206e+00    0.3239565    0.1965164 -42.95  0.001030627    1.666    0.400
        32  -9.4208    158.5967    193.6214   8.3159219649e+01   1.0718215177e+01    0.2772141    0.1886986  33.39  0.001351508    1.413    0.292
        33 -11.8230    211.8131    171.4993   6.7476746065e+01   5.8188986380e+00     1.248137    0.6896461 -59.61  0.004768215    3.292    0.696
        34 -11.0746    204.0871    164.6747   6.7559641663e+01   8.4315162113e+00     0.527055     0.356555 -51.26  0.002589994    1.632    0.387
        35 -10.4407    249.6049    168.4110   6.0227640341e+01   3.9269365208e-01    0.4510732    0.2744085 -34.26   0.00249927    1.363    0.266
        36 -11.4296    194.4918    160.6583   6.8629590950e+01   1.0940985771e+01    0.7692146     0.624364  62.85  0.004005112    1.607    0.378
        37  -9.5067    152.4842    157.7370   7.7368109333e+01   1.9580644465e+01    0.3882591    0.2379791  66.78  0.001392896    2.934    0.659
        38  -8.9246    141.8241    157.1797   7.9876542563e+01   2.1771293424e+01      0.21577    0.1817689  -7.23 0.0004603905    1.329    0.247
        39  -8.5957     23.0238    157.7782   1.1287991614e+02   3.9166524577e+01    0.1594944    0.1089398  26.69 0.0008578853    1.668    0.401
        40  -7.9456     72.9656    156.2383   9.8524181686e+01   3.3860637482e+01      0.17991    0.1233667  33.60 0.0003469456    1.516    0.340
        41  -8.8257    152.4859    148.4825   7.5311655335e+01   2.1641656835e+01    0.2770972    0.1477701 -56.81 0.0008155477    2.265    0.559
        42  -8.8518     58.8492    146.3215   1.0096989457e+02   3.8290769875e+01    0.2627527    0.1936124 -78.32  0.001142452    1.386    0.279
        43  -7.9515    127.7112    146.3170   8.1135277471e+01   2.7024682454e+01    0.1548913    0.1253562  84.31  0.000342772    1.593    0.372
        44 -10.0337    192.3549    139.6078   6.4417969771e+01   1.5519662916e+01    0.5935865     0.374465  62.28  0.002546591    2.226    0.551
        45 -12.2583    245.1568    128.3878   5.2845582021e+01   7.8228326853e+00     1.571231    0.8127366 -50.24   0.00746508    1.939    0.484
        46 -10.8021    243.0290    113.7747   5.0108853301e+01   1.0655977315e+01    0.5384021    0.2968193 -38.43  0.002721354    1.546    0.353
        47 -10.4348    216.6152    138.8054   5.9664203309e+01   1.1032986260e+01     0.364403     0.296427 -64.86  0.001510178    1.476    0.322
        48 -10.0546    216.2370    135.0211   5.8902927391e+01   1.1802299442e+01    0.3151652    0.2774337 -54.77  0.001646629    1.195    0.163
        49  -9.9372    166.4222    137.4491   6.9472690534e+01   2.1215991329e+01     0.635945    0.3383065 -55.35   0.00241024    2.259    0.557
        50  -8.5952    112.9595    139.2937   8.3593047144e+01   3.1506733305e+01    0.2189634    0.2070782  25.30 0.0008986788    1.077    0.071
        51 -10.6363    231.9250    190.1773   6.7454676050e+01  -6.2159658315e-01     1.120605    0.3800875 -42.43  0.004464886    2.788    0.641
        52  -8.4628    154.5670    124.7640   6.9173177774e+01   2.6424653374e+01    0.3077733    0.1487806 -40.65  0.001144089    2.059    0.514
        53  -9.5590    171.3708    117.0195   6.3423210314e+01   2.4423460367e+01    0.6836828    0.2645169 -41.93  0.002374943    2.486    0.598
        54 -10.6270    229.6800    116.4958   5.2642748550e+01   1.2618955633e+01    0.5063251    0.2927646  55.62  0.002483347    2.048    0.512
        55 -10.6015    222.3245    113.2299   5.3069070359e+01   1.4586906369e+01     0.509498    0.4183204 -37.43  0.001701319    1.103    0.093
        56  -8.8874    221.7045    106.4773   5.1662220094e+01   1.5890851663e+01    0.2842403    0.1148829 -43.33  0.001143655    2.177    0.541
        57  -8.8785     25.2079    118.0271   1.0688728290e+02   4.9001625049e+01    0.3077387    0.1541324  42.95  0.001401742    2.344    0.573
        58 -10.8837    196.6045    107.1724   5.6016692420e+01   2.0902637520e+01     1.184301    0.5070314 -52.21  0.004231368    2.777    0.640
        59 -10.2740    197.2821     95.2790   5.3035452121e+01   2.2913756129e+01     0.761315    0.2706725 -44.25  0.002736455    2.630    0.620
        60 -10.1997    121.8258    109.2767   7.3636881488e+01   3.6755014995e+01    0.5677207    0.3428588 -51.17  0.001902367    1.718    0.418
        61  -9.3366    160.3875    109.0679   6.3835204909e+01   2.8442620199e+01    0.3784892    0.2654462  60.71  0.001582294    1.619    0.382
        62  -8.8489     97.3966    109.6072   8.0953627823e+01   4.1469558752e+01    0.2206372    0.1849108  82.46  0.001067515    1.524    0.344
        63 -11.0073    187.2016    231.1822   8.3542923357e+01  -8.5987130967e-01    0.6946301    0.4919732 -55.16  0.003841971    1.974    0.493
        64 -11.3461    129.6853    235.0851   9.6434411175e+01   7.1733516009e+00    0.6303568    0.2342108 -48.11  0.002580983    2.996    0.666
        65 -11.2742    248.1526     84.6986   4.3399564039e+01   1.4428839275e+01     1.268153    0.4172976 -40.16  0.005272986    2.490    0.598
        66 -11.3481    233.5044     58.1231   3.9498509896e+01   2.1221025736e+01    0.8718354    0.4867365 -63.62  0.004357952    1.887    0.470
        67 -11.6415    248.1932     65.8538   3.9541420685e+01   1.7249100611e+01     1.038735    0.4971268 -33.20  0.005072106    2.142    0.533
        68  -8.8840    250.5408    244.4271   7.3821436432e+01  -1.1042920829e+01    0.2203089   0.09373217 -33.47   0.00118802    2.111    0.526
        69  -9.3687    139.7502    103.0867   6.7185142786e+01   3.4241498273e+01    0.5254717    0.1313071 -39.11  0.001333904    4.582    0.782
        70 -11.3018    215.4244     95.2229   5.0081613022e+01   1.9094618550e+01     1.031399    0.4174126 -37.23  0.004116892    2.318    0.569
        71 -10.1398    124.6206     96.2018   6.9250734752e+01   3.8967677838e+01    0.3458762    0.2885094  27.45   0.00172095    1.257    0.204
        72  -8.0659     67.3093    102.6468   8.9089078462e+01   4.8066003607e+01    0.1463257     0.116148  79.35 0.0007043683    1.722    0.419
        73 -10.0520     57.3125     99.7390   9.1899556500e+01   5.0129484586e+01    0.5178256    0.2696859 -65.45  0.002009134    2.283    0.562
        74  -9.3525    106.2173     98.1845   7.5117349753e+01   4.2356842102e+01    0.4601043    0.2743865 -19.99  0.001688606    2.642    0.621
        75 -10.6714    234.2301     44.8867   3.6638144403e+01   2.2899551617e+01    0.7951279     0.668613  29.73  0.005103453    1.785    0.440
        76 -10.2348    147.0098     70.4430   5.6225302812e+01   3.8748898967e+01    0.5104159    0.4538634 -60.19  0.002788178    1.178    0.151
        77  -9.4185     84.0912     83.6480   7.7958359684e+01   4.9626237574e+01     0.265128    0.2011872 -52.84  0.001323187    1.420    0.296
        78  -8.9342    211.2635     82.6651   4.7808315442e+01   2.2068208009e+01    0.2475386    0.1977613 -67.10   0.00117559    1.246    0.198
        79 -10.8515    216.6088     73.5672   4.4956408907e+01   2.2396144597e+01    0.8933911    0.3538286 -50.33  0.003562659    2.554    0.608
        80  -9.8822    214.9138     63.8217   4.2954713257e+01   2.4245829952e+01     0.435708    0.2263828 -38.83  0.001671419    1.788    0.441
        81  -9.0249    142.1445     81.1537   6.0441853292e+01   3.7994761441e+01    0.2083777    0.1782888 -73.28 0.0005141495    1.332    0.249
        82  -9.7497    180.3126     79.2087   5.2001782350e+01   2.9497508335e+01    0.4503074    0.2471285 -53.46  0.001877993    2.002    0.500
        83 -10.7100    153.2480     79.2245   5.7367545614e+01   3.5771807925e+01    0.7802976    0.3452944 -50.12  0.002809856    2.653    0.623
        84 -10.0262    105.8435     71.4896   6.7160327112e+01   4.7806383802e+01    0.6507348    0.4598652 -79.21  0.002733969    2.535    0.606
        85  -8.9734      5.0001     70.7512   1.0569447973e+02   6.1540798150e+01    0.1464476    0.1020541   3.97 0.0008884153    1.592    0.372
        86 -10.6850    200.8759     60.4803   4.4050092986e+01   2.7809781979e+01    0.7928436    0.3236423 -45.03  0.003313191    2.280    0.561
        87  -8.4309     47.4687     64.5163   8.5763390909e+01   5.9147024243e+01    0.1365777    0.1166087 -19.28 0.0004495085    1.008    0.008
        88  -8.7899    108.6199     55.7750   6.1180153931e+01   4.9905503221e+01    0.1991267    0.1314533 -45.21 0.0004821459    1.687    0.407
        89  -8.5781     17.6564     55.3080   9.6109879979e+01   6.4035810802e+01    0.1122703   0.09712194  60.97 0.0007043721    1.694    0.410
        90 -10.8917    223.3473     44.8039   3.7725525896e+01   2.5148488295e+01    0.7147287    0.4860663  -4.76  0.003542575    2.804    0.643
        91  -9.8596    158.7437     46.2829   4.6935849115e+01   3.9645871597e+01    0.7277585    0.3198738 -61.11  0.002191107    4.889    0.795
        92  -8.5978     97.4897     48.4973   6.1893321250e+01   5.3408334132e+01    0.1397644    0.1276971  24.99 -2.269256e-05    1.017    0.016
        93 -10.2351    201.1723     43.1325   3.9867817249e+01   3.0182090162e+01     0.657473    0.3250819 -57.18  0.003002326    2.176    0.540
        94  -8.1078     57.6715     45.3272   7.4742068749e+01   6.1243684855e+01    0.1197935    0.1092085  80.69 0.0007050717    1.704    0.413
        95  -9.3385    174.5023     43.0165   4.3469715164e+01   3.6342073160e+01    0.2011238    0.1321252 -34.89  0.001036242    1.600    0.375
        96  -8.6610     85.1515     42.6964   6.3641570547e+01   5.6780046314e+01    0.2104105    0.1736696  59.27  0.001188023    1.447    0.309
        97 -10.2163    127.8345     38.9194   5.0777478708e+01   4.7962928814e+01    0.5075047    0.3716919 -51.65  0.002696145    1.574    0.365
        98  -8.7040    102.7597     41.6222   5.7918362383e+01   5.3279018405e+01     0.193488    0.1259087  58.95  0.000780104    1.622    0.384
        99  -8.0688     52.4947    244.4622   1.1402225062e+02   1.6037746540e+01    0.1212128    0.0988763  60.26 -7.195895e-06    1.006    0.006
       100  -9.7508    155.1278    241.6375   9.1871074700e+01   2.1410754467e+00    0.2315407    0.1800676 -25.99 0.0007275234    1.407    0.289
       101  -8.3803      9.3572    240.7799   1.2223121621e+02   2.1447204512e+01    0.1428733   0.08891679 -75.55  0.000490213    1.559    0.359
       102  -9.8936    152.0944     19.7855   4.0454441287e+01   4.4413004345e+01    0.2040207    0.1633845 -85.68 0.0007808494    1.242    0.195
       103 -11.0352    149.0037    235.7950   9.2324002334e+01   4.0958761967e+00    0.4686293    0.2326851 -34.04   0.00206676    2.625    0.619
       104  -8.7562    184.6500     25.5657   3.7612329545e+01   3.6120292909e+01    0.2453972    0.1508679 -39.23  0.001332447    1.647    0.393
       105 -10.1933    243.8110    236.6811   7.3701310793e+01  -9.2405266345e+00    0.2708646    0.1953633  18.24  0.001674909    1.293    0.227
       106 -11.5857    142.5724    235.1420   9.3622993477e+01   5.1966193683e+00     0.546836    0.2273631  36.59  0.002372671    2.086    0.521
       107  -9.0244     42.5252     31.6200   7.5752324987e+01   6.5646517079e+01    0.3297707    0.1921459   7.02  0.001668801    2.009    0.502
       108  -8.4455    150.5017    250.4838   9.4096535983e+01   1.3189596440e+00    0.1282198    0.1067941  23.28 0.0008104309    1.014    0.014
       109 -10.2956    243.2843    247.6458   7.5606277429e+01  -1.0639269131e+01    0.3023729    0.1877815 -33.04  0.001679051    1.602    0.376
       110 -10.9428    225.2297    179.3279   6.6550162588e+01   2.2369911811e+00    0.8462012    0.6496693  71.37   0.00437079    2.386    0.581
       111 -11.4685    246.8063    179.9623   6.2925324140e+01  -1.0920875671e+00      1.04715    0.2821028 -38.47  0.003880746    3.172    0.685
       112 -11.6860    248.6369    220.0413   7.0003204231e+01  -7.4916298272e+00     1.029313    0.4924256 -29.86  0.005505651    1.822    0.451
       113 -12.7816    247.0934    204.2751   6.7441807239e+01  -4.9633409991e+00     1.928074    0.7961874 -37.94  0.009281072    2.127    0.530
       114  -9.4695    156.6516    225.4133   8.9072258693e+01   4.8092099549e+00       0.2437    0.2072895   4.28 0.0004520287    1.137    0.120
       115 -10.8879    183.3671    202.7076   7.9374041256e+01   4.7491519353e+00    0.5860718    0.3278822  41.71  0.002738159    1.858    0.462
       116  -8.1825     95.0229    222.5323   1.0257116032e+02   1.4905281017e+01    0.1895643    0.0933071  53.57 0.0003608117    2.244    0.554
       117  -9.8930    130.4341    220.2266   9.4129079386e+01   9.9608762756e+00    0.1807083    0.1362078 -70.58 0.0008880266    1.660    0.398
       118 -10.9036    197.5596    246.2747   8.3897041921e+01  -4.7008285160e+00    0.5637628    0.2089891 -35.02  0.002470595    2.949    0.661
