#   1 NUMBER                 Running object number                                     
#   2 MAG_AUTO               Kron-like elliptical aperture magnitude                    [mag]
#   3 X_IMAGE                Object position along x                                    [pixel]
#   4 Y_IMAGE                Object position along y                                    [pixel]
#   5 X_WORLD                Barycenter position along world x axis                     [deg]
#   6 Y_WORLD                Barycenter position along world y axis                     [deg]
#   7 A_WORLD                Profile RMS along major axis (world units)                 [deg]
#   8 B_WORLD                Profile RMS along minor axis (world units)                 [deg]
#   9 THETA_WORLD            Position angle (CCW/world-x)                               [deg]
#  10 FWHM_WORLD             FWHM assuming a gaussian core                              [deg]
#  11 ELONGATION             A_IMAGE/B_IMAGE                                           
#  12 ELLIPTICITY            1 - B_IMAGE/A_IMAGE                                       
         1 -13.2015     57.1922    128.2395   1.2815950568e+02   4.2886518136e+01     2.186739    0.6777762 -72.21  0.005334105    6.991    0.857
         2 -13.1842    212.0758      2.5376   5.8674204329e+01   3.1470789710e+01     1.230279    0.6542677  66.25  0.002823412    1.746    0.427
         3 -13.9906    188.7463     26.3260   6.7542507579e+01   3.4676909110e+01      1.68701     1.285617 -22.63    0.0054727    1.447    0.309
         4 -13.7645    196.0604     20.5836   6.5027525581e+01   3.3503071211e+01     1.194577    0.8448436 -74.52  0.004276762    1.460    0.315
         5 -13.1098    202.3684     12.2815   6.2094457231e+01   3.2841149715e+01    0.7294698    0.5980645  54.52  0.001231415    1.300    0.231
         6 -11.5514     32.8579      3.0036   9.7934802255e+01   7.0742884056e+01    0.2795743    0.1643626 -30.33   0.00172543    1.541    0.351
         7 -11.0323    192.8742    194.4371   1.0857572680e+02   5.4045789206e+00     0.767576    0.3910228 -62.59  0.002116438    7.552    0.868
         8 -11.3803    247.7208    249.6658   1.0813970104e+02  -1.0443668172e+01    0.4714319    0.1116763  36.27  0.001981754    3.522    0.716
         9 -13.1333     94.3886    249.5798   1.3507781169e+02   1.2407161411e+01    0.7588864    0.4265212  55.26  0.001349717    1.465    0.317
        10 -13.0950    106.8986    245.1306   1.3241350546e+02   1.1329950298e+01     0.752852    0.3694178  61.76  0.003816232    2.318    0.569
        11 -15.4243      3.1075     24.1095   1.2258828740e+02   7.0298497974e+01     20.66723      1.71227 -56.96   0.03579914   19.845    0.950
        12 -16.1201     57.0515    211.0663   1.3851740039e+02   2.4469929343e+01     7.393129     2.838734  49.11   0.03650082    2.204    0.546
        13 -11.8609     72.1147    191.3273   1.3343673095e+02   2.6531168621e+01    0.3822988     0.253323 -42.74  0.001893135    2.127    0.530
        14 -11.7916     76.5788    184.7482   1.3167811137e+02   2.7311283141e+01    0.2823878    0.2328784 -55.17 0.0009237536    1.391    0.281
        15 -13.9382     48.6047    231.0442   1.4169079905e+02   2.1692343717e+01     1.216013    0.8069448 -47.31  0.007131048    2.430    0.589
        16 -11.9819    184.1734    249.5731   1.1897448768e+02  -1.2214581380e+00    0.5030689    0.1674662  33.91  0.002120565    2.929    0.659
        17 -13.7788     68.3529    145.3502   1.2804041632e+02   3.7386233376e+01     1.518707    0.7820298  86.47  0.005436986    3.504    0.715
        18 -11.5084     84.4866    172.8905   1.2830262663e+02   2.8751089744e+01    0.3789428    0.2592321  77.98 0.0005717455    1.589    0.371
        19 -13.3673     72.6631    170.3610   1.3068703590e+02   3.1032660390e+01    0.4719089    0.2767028 -45.20   0.00162309    2.146    0.534
        20 -13.1899     48.6883    223.9773   1.4115375364e+02   2.3000566816e+01    0.5172764     0.431605 -24.87 0.0008346925    2.190    0.543
        21 -10.3069    164.0461    156.7862   1.0709296557e+02   1.7788277456e+01    0.2721332    0.2123095 -73.53   0.00132703    1.655    0.396
        22 -12.2228     46.9850    148.2821   1.3389511802e+02   3.9377979211e+01    0.4182181    0.2353705 -67.53  0.002193878    1.540    0.351
        23 -10.3017    134.0149    145.5865   1.1157507277e+02   2.6185188640e+01     0.899265    0.1932455 -54.30  0.001722722    9.175    0.891
        24 -10.5412    102.9672    148.6962   1.1982804156e+02   3.1249621397e+01    0.2929021    0.2624166  45.38 0.0008225823    1.156    0.135
        25  -9.8744    105.4645    144.9900   1.1848592075e+02   3.1663423854e+01    0.3728786    0.2258622 -33.46  0.001005664    2.315    0.568
        26 -12.2225     91.7534    148.1389   1.2254537186e+02   3.3245596920e+01    0.2780198    0.2609259 -36.40 0.0004471122    1.231    0.188
        27 -13.3507     90.1166    165.3348   1.2584619461e+02   2.9576979792e+01     2.781591    0.7084204  49.56  0.001244165    5.131    0.805
        28 -10.0848    112.7428    134.9617   1.1456286204e+02   3.2640948707e+01    0.3231475    0.2508419  -3.28  0.000936261    1.860    0.462
        29 -11.3756    130.4464    173.7057   1.1789659700e+02   2.0855432374e+01    0.4085993    0.1379016  40.91  0.001437676    2.840    0.648
        30 -10.7894    100.2775    131.9100   1.1715800314e+02   3.5581791241e+01     0.305919     0.230879 -33.51 0.0005992247    1.557    0.358
        31 -12.3833     35.3918    132.8612   1.3478847045e+02   4.4227651367e+01    0.3661257    0.2082915  29.74  0.001961456    2.075    0.518
        32 -11.5505     45.3167    129.9927   1.3170204473e+02   4.3862354194e+01    0.2299382    0.1806336 -31.15  0.001349867    1.608    0.378
        33  -9.7398    161.0000    128.0450   1.0123233562e+02   2.4258209555e+01    0.2599261   0.08670674 -42.69  0.000808622    2.985    0.665
        34  -9.7498    169.8343    215.8710   1.1670204486e+02   5.9914753293e+00    0.1714165    0.1471299  63.39 0.0005577871    1.344    0.256
        35  -9.6429    108.9364    122.5142   1.1276399066e+02   3.6185270676e+01    0.2105134    0.1927528 -57.31 0.0003615087    1.050    0.048
        36 -14.5783     11.8459    206.8877   1.4672339258e+02   3.0304998763e+01      1.17043    0.8090159  46.18  0.003392164    1.458    0.314
        37 -10.9968    168.2929    113.0799   9.5841358667e+01   2.5638082473e+01    0.3739101    0.3043801 -75.18 0.0009270004    1.500    0.333
        38 -10.5518     20.1558    111.1938   1.3594862607e+02   5.0653705829e+01    0.1686639    0.1286986  78.18 0.0006353984    1.358    0.264
        39  -9.6903     16.1395     91.8800   1.3413217894e+02   5.5398208275e+01    0.1799151    0.1475784  88.25 0.0005497757    1.275    0.216
        40  -9.4347    154.5551     76.5260   8.8640285369e+01   3.5846372518e+01    0.1516205    0.1489236 -56.31 0.0001225073    1.026    0.025
        41 -16.3562      7.4596    240.5919   1.4915142298e+02   2.4449866029e+01     6.423373      1.69657 -71.07   0.03338268    3.371    0.703
        42 -10.7592    125.2990     52.4752   8.7785569214e+01   4.6877420434e+01    0.3279127    0.2613461  85.24 0.0007781584    1.631    0.387
        43 -12.8408    100.8164    248.2331   1.3381117038e+02   1.1709371647e+01    0.6193922    0.4067398  77.30  0.003951052    1.675    0.403
        44 -12.1044    198.2107    246.2815   1.1602994466e+02  -2.9511027098e+00    0.3051904    0.2131578  41.23   0.00198161    1.296    0.228
        45 -13.8653    142.1739    248.6637   1.2640454611e+02   5.4254077847e+00     1.167986    0.6453398  48.70  0.006780789    1.525    0.344
        46 -10.4430    226.7122    202.0528   1.0369579050e+02  -1.5818200834e+00    0.2410843    0.2086398 -53.41 0.0008522355    1.662    0.398
