#   1 NUMBER                 Running object number                                     
#   2 MAG_AUTO               Kron-like elliptical aperture magnitude                    [mag]
#   3 X_IMAGE                Object position along x                                    [pixel]
#   4 Y_IMAGE                Object position along y                                    [pixel]
#   5 X_WORLD                Barycenter position along world x axis                     [deg]
#   6 Y_WORLD                Barycenter position along world y axis                     [deg]
#   7 A_WORLD                Profile RMS along major axis (world units)                 [deg]
#   8 B_WORLD                Profile RMS along minor axis (world units)                 [deg]
#   9 THETA_WORLD            Position angle (CCW/world-x)                               [deg]
#  10 FWHM_WORLD             FWHM assuming a gaussian core                              [deg]
#  11 ELONGATION             A_IMAGE/B_IMAGE                                           
#  12 ELLIPTICITY            1 - B_IMAGE/A_IMAGE                                       
         1 -14.4620     68.5605    144.5579   9.8563008204e+01   3.7429913297e+01     5.015158     2.657858  73.41  0.004741205    3.766    0.734
         2 -13.8973    226.9277     23.4189   3.4390358150e+01   2.6969466941e+01     1.461255     1.145717  32.52  0.007081716    2.043    0.511
         3 -13.9029    201.4408     44.5648   4.1782975104e+01   2.9832844168e+01     1.465115     1.101004 -36.46  0.003409137    1.413    0.292
         4 -13.5881    210.1578     38.8444   3.9418190150e+01   2.8649669071e+01     0.901203    0.7485704 -52.10  0.004125933    1.170    0.145
         5 -12.4712    247.9515      3.8888   2.9005988981e+01   2.4944084177e+01    0.4987137    0.3168812 -71.27  0.003375459    1.248    0.199
         6 -10.6841    111.4976    204.3949   9.6951290602e+01   1.6363623531e+01    0.3777293    0.2316903 -85.86   0.00113205    2.509    0.601
         7 -10.6111    139.9964    249.5256   9.6899803027e+01   3.0779410564e+00    0.1807191    0.1756378  10.50  0.001258683    1.169    0.145
         8 -13.5810     44.9838    217.2676   1.1380690096e+02   2.2904408184e+01     1.279423     1.087104  29.03  0.008339697    1.393    0.282
         9 -13.4754      6.1734    186.0126   1.2002598562e+02   3.3964314895e+01     1.235923    0.6497783  77.63  0.002099538    1.768    0.434
        10 -13.0350     84.2502    218.6911   1.0518103088e+02   1.7416435985e+01     1.092985    0.6239275  83.05  0.001925526    2.450    0.592
        11 -16.2755     40.2008    192.4694   1.1261629132e+02   2.9120733206e+01      11.4952     4.838871  70.04   0.04223284    3.511    0.715
        12 -11.1353    194.3156    197.1759   7.7197894823e+01   3.8190032788e+00    0.4262747    0.2618663 -60.70  0.001892867    2.571    0.611
        13 -10.1258    191.5266    192.0444   7.6806574790e+01   5.2263148766e+00    0.3990358    0.2279455 -62.80  0.001550185    3.268    0.694
        14  -9.6124     81.2132    182.8128   1.0123800649e+02   2.6082512786e+01    0.2891584    0.2076495  24.18  0.001448948    1.591    0.372
        15  -9.4988     99.3305    180.9243   9.6305173099e+01   2.3714768874e+01    0.1998008     0.182808 -63.98 0.0005438701    1.113    0.102
        16 -12.0820     59.9627    175.3411   1.0570170610e+02   3.0868469427e+01     0.446917    0.3083414 -29.49  0.001554057    2.051    0.512
        17 -12.0445     65.1122    170.2906   1.0364394667e+02   3.1436090253e+01    0.3355725    0.2809807 -31.11 0.0007766875    1.454    0.312
        18  -8.9481     86.4947    176.4305   9.8907452415e+01   2.6829687037e+01    0.1436689    0.1346431  72.93 0.0001328254    1.010    0.010
        19  -9.9155     89.3295    173.9863   9.7774934636e+01   2.6984152116e+01    0.2198115    0.1990147 -35.13 0.0004537064    1.246    0.198
        20 -13.5766     62.2380    156.7922   1.0242033962e+02   3.5200420946e+01    0.5609331     0.395489 -40.90  0.001576229    1.606    0.377
        21 -12.8324     82.5941    154.6181   9.6315937043e+01   3.2825281852e+01     1.242294    0.7481693 -52.36  0.001732781    1.620    0.383
        22 -11.9998     75.0499    161.1385   9.9537606005e+01   3.2325178419e+01    0.4268388    0.3620308  25.86 0.0003711724    1.303    0.232
        23 -13.2537     56.8533    238.8130   1.1311780473e+02   1.6893942762e+01    0.4398263    0.3426857 -89.25 0.0004971066    1.255    0.203
        24 -13.1501     31.5228    201.6367   1.1546736699e+02   2.7940485092e+01    0.4883843    0.4012544 -34.57  0.001464088    1.680    0.405
        25 -11.3405     32.7293    156.6110   1.1062521477e+02   3.8669265524e+01    0.4599031    0.2736084 -80.60  0.001498403    1.581    0.368
        26  -9.6421    174.8662    149.0924   7.1569230939e+01   1.6847515317e+01    0.2304218    0.2074174 -80.42 0.0007174993    1.287    0.223
        27 -10.5621    133.8820    145.1811   8.0430830193e+01   2.5953517580e+01    0.9258041    0.2255611 -54.23  0.002115309    5.843    0.829
        28 -10.4437     29.6823    143.1132   1.0978759961e+02   4.2343443181e+01    0.3691516    0.2763376  16.11  0.002029808    1.617    0.382
        29  -8.8544    200.0227    143.0723   6.5078371771e+01   1.3094621141e+01    0.1739627    0.1521647 -36.33  0.000362938    1.065    0.061
        30 -10.2343     97.3106    141.3302   8.9552347263e+01   3.3722503554e+01    0.3160003    0.2865297  33.13 0.0008574195    1.145    0.127
        31  -9.8893    100.2426    138.1505   8.8038678971e+01   3.3990692272e+01    0.3920437    0.2895378  -7.67   0.00173171    1.920    0.479
        32 -12.3630     85.2090    139.6329   9.2718806237e+01   3.6162454573e+01    0.3065675    0.2706021 -44.97 0.0003821834    1.143    0.125
        33 -10.8830    107.2293    130.6561   8.4371896585e+01   3.4540127471e+01    0.5291255    0.3405555  31.26  0.001829782    1.693    0.409
        34  -9.6711     21.5253    132.0459   1.1074741919e+02   4.5825049946e+01    0.1825074    0.1493319 -71.40 0.0001117998    1.043    0.041
        35 -10.8124     17.4516    130.0478   1.1172099114e+02   4.6643783510e+01    0.2894437     0.199617  47.07 0.0008346608    1.601    0.375
        36  -9.9068    135.6991    128.5293   7.6118998787e+01   2.9405568463e+01    0.2912118    0.1400556 -47.53  0.001080383    2.061    0.515
        37 -11.2893     66.6869    127.4447   9.5895781965e+01   4.1998755583e+01    0.5615096    0.4300169 -48.82  0.002904451    1.248    0.199
        38  -9.5666     96.3644    125.9516   8.6459309432e+01   3.7648959025e+01    0.2681512    0.2099643  -9.30   0.00125484    1.636    0.389
        39  -9.3789    115.7217    124.4448   8.0505237993e+01   3.4388139018e+01    0.2145159    0.1508516  26.38 0.0009378935    1.641    0.390
        40 -10.8194    240.6094    122.1725   5.3710577343e+01   9.3206275954e+00      0.19759    0.1122696 -31.25 0.0006012984    1.761    0.432
        41 -15.5571      9.9793    208.5352   1.2066747061e+02   2.8528513471e+01     2.375773     1.296783 -82.18   0.01369882    1.588    0.370
        42  -9.7871    106.0340    119.0522   8.1964225650e+01   3.7522494254e+01    0.2161092    0.2126137 -17.93     0.001167    1.029    0.028
        43  -8.5943     78.4529    113.4621   8.9088377610e+01   4.3678170080e+01    0.1467741      0.14042 -73.69 0.0001969792    1.077    0.072
        44 -11.2405    247.1059    111.0117   5.0485229544e+01   1.0044692087e+01    0.3125136    0.1591682  38.62  0.001413086    2.848    0.649
        45  -9.2168    134.5883    105.7863   7.0661968578e+01   3.4656257863e+01    0.2286904    0.1451683 -55.24 0.0009584601    1.722    0.419
        46 -10.1857    205.2185    110.4279   5.6773607346e+01   1.8251165272e+01    0.3148921    0.2593524  32.23  0.001084792    1.432    0.302
        47 -11.0901     52.9374     91.7996   9.2554974731e+01   5.2426175888e+01    0.3712947     0.191255 -51.57  0.001511207    1.743    0.426
        48  -9.8433    161.0062     83.2295   5.8396727372e+01   3.3123551518e+01    0.2086474    0.1953024  69.10  0.000491507    1.052    0.049
        49 -11.0230    243.3067     78.0298   4.4130215106e+01   1.6060994077e+01    0.1852497    0.1464692 -51.56 0.0005067172    1.065    0.061
        50  -8.8154    184.5031     77.4479   5.2405815987e+01   2.8683533498e+01    0.1408283    0.1352919 -79.79 0.0001047622    1.057    0.054
        51  -9.5560     36.9508     63.6565   9.1143302323e+01   6.0414931049e+01    0.1748074     0.152326   6.93  0.000561342    1.173    0.147
        52 -11.5560     13.1816     59.7168   1.0040616091e+02   6.3314794852e+01    0.2957816    0.2461157  79.62 0.0005413708    1.679    0.405
        53  -9.5255    172.4414    239.4322   8.8800293569e+01  -8.9170426101e-02    0.2657219    0.1279225 -53.00   0.00122255    2.751    0.636
        54 -12.7768    218.6187     31.1778   3.6816080539e+01   2.7786298373e+01    0.6345201    0.4239554  56.75   0.00111555    1.685    0.407
        55 -16.2856     20.1783    247.5219   1.2090706698e+02   1.9392378098e+01     8.984707      2.49279  25.73   0.02894082    7.013    0.857
        56  -9.2786     89.7093    212.0699   1.0312462389e+02   1.8059804497e+01    0.1838422    0.1620448 -84.66 0.0004846398    1.155    0.134
        57 -10.4643     40.1350     58.3252   8.8145117325e+01   6.1127321049e+01    0.2660155    0.2030837  42.12  0.001527025    1.609    0.378
        58 -10.8486     20.0987     55.7840   9.6213371492e+01   6.3606702062e+01    0.4407995    0.1752136  38.96  0.001896759    3.393    0.705
        59 -10.4748      6.0240     50.0094   1.0113522545e+02   6.5748396551e+01    0.1584102    0.1403237  62.60  0.000508865    1.586    0.369
        60 -10.4344    132.3896     39.3336   5.1655572829e+01   4.6857370131e+01    0.2583941    0.2155354 -81.10 0.0003189673    1.346    0.257
        61  -9.8067    132.1830     31.3243   4.9170224579e+01   4.7922187323e+01    0.1914279     0.180488  17.22 0.0003904103    1.172    0.147
        62  -9.4602    189.4968     15.0125   3.6109479572e+01   3.6191234768e+01    0.1744007    0.1203144 -36.63 0.0006897955    1.558    0.358
