#   1 NUMBER                 Running object number                                     
#   2 MAG_AUTO               Kron-like elliptical aperture magnitude                    [mag]
#   3 X_IMAGE                Object position along x                                    [pixel]
#   4 Y_IMAGE                Object position along y                                    [pixel]
#   5 X_WORLD                Barycenter position along world x axis                     [deg]
#   6 Y_WORLD                Barycenter position along world y axis                     [deg]
#   7 A_WORLD                Profile RMS along major axis (world units)                 [deg]
#   8 B_WORLD                Profile RMS along minor axis (world units)                 [deg]
#   9 THETA_WORLD            Position angle (CCW/world-x)                               [deg]
#  10 FWHM_WORLD             FWHM assuming a gaussian core                              [deg]
#  11 ELONGATION             A_IMAGE/B_IMAGE                                           
#  12 ELLIPTICITY            1 - B_IMAGE/A_IMAGE                                       
         1 -10.5105    215.8142      4.0623   5.2671124712e+01   3.0324265572e+01     1.164971    0.3228978 -33.31  0.004399283    3.311    0.698
         2 -13.8693    210.7508     63.7332   6.8784652339e+01   2.3936922723e+01      7.25105     3.204234 -51.26   0.02569246    2.801    0.643
         3 -12.3795    249.4465     26.5887   5.4462923102e+01   1.9636380493e+01    0.7726078    0.4315372 -30.83 0.0007258372    1.868    0.465
         4 -14.3323    243.5306     18.1336   5.3137859563e+01   2.2049757493e+01     3.616321    0.8996547  57.31   0.01060315    3.638    0.725
         5 -11.2257    197.9454     52.0551   6.7751096009e+01   2.8930712822e+01     1.680101    0.9771281 -19.95  0.007060957    2.154    0.536
         6 -11.8323    234.0277      3.8199   5.0781678861e+01   2.5913503525e+01     1.199695    0.8165548  55.06  0.005796634    1.543    0.352
         7 -11.4131    212.9677     20.6930   5.7185560503e+01   2.9218968062e+01    0.7191082    0.4757255 -27.96  0.002027361    1.667    0.400
         8 -11.7528    161.9698     50.8247   7.4078593796e+01   3.8197529322e+01     1.463594    0.7431448 -55.18  0.005278483    2.969    0.663
         9 -12.7904    145.4551     43.3263   7.5269613365e+01   4.3279500406e+01     2.056937     1.248233  75.54  0.008496452    2.414    0.586
        10 -14.2491    242.7526    112.8997   7.5795516685e+01   8.3615876000e+00     11.68381     1.441566 -35.21   0.02474781    7.677    0.870
        11 -13.3122    225.8714     47.9132   6.2418081479e+01   2.2490694352e+01     1.968867      1.68985  29.33    0.0109074    1.386    0.279
        12 -12.0717    249.4007      2.9867   4.9216272308e+01   2.2390970011e+01    0.7175165     0.551016  67.97  0.003061572    1.296    0.228
        13 -11.0653    130.1084     20.6863   7.1146606520e+01   4.9722807751e+01    0.5632886    0.3020769 -20.27  0.002612338    2.059    0.514
        14  -9.9375    142.2349     10.0280   6.5013830937e+01   4.8027502822e+01    0.6421682    0.3183297 -11.91  0.002792159    2.554    0.608
        15 -10.2156    124.7176     13.9642   6.9998361953e+01   5.1660399976e+01     0.323493    0.2812901 -22.48  0.001049216    1.250    0.200
        16 -11.1827    119.3945     10.0460   6.9797645829e+01   5.3228494005e+01    0.6842823    0.4064739  40.48  0.003469765    1.503    0.335
        17  -8.4953    180.6528      1.4310   5.6187267139e+01   3.9383344471e+01     0.342487    0.1652045  87.54  0.001347708    2.756    0.637
        18  -8.3840    185.1520      2.3278   5.5842770381e+01   3.8170196647e+01    0.4239758    0.2126634  33.08  0.001761987    2.767    0.639
        19  -8.4702    183.5416      7.0212   5.7369084362e+01   3.8127482314e+01    0.2693556    0.1691356 -80.19 0.0008386615    1.924    0.480
        20  -8.3524    150.9670      6.7461   6.2343778394e+01   4.6247803729e+01      0.20982    0.1839336 -14.30 0.0004148763    1.266    0.210
        21  -8.4396    207.3057      5.2994   5.3923163581e+01   3.2314638975e+01    0.2437363    0.1842559 -67.88  0.001086358    1.335    0.251
        22  -9.1357    209.2847      1.4353   5.2722973692e+01   3.2206048581e+01    0.2469148    0.1449624  67.54 0.0004050097    1.485    0.326
        23  -7.9443    171.6182      2.7973   5.7839328463e+01   4.1521210605e+01    0.1786567     0.118623 -40.21 0.0004673426    1.669    0.401
        24  -8.4567    199.8590      7.1010   5.5272864950e+01   3.4001179502e+01    0.1967603    0.1628261 -62.95  0.001148166    1.235    0.190
        25  -8.2904    164.9505    133.2957   9.5833065917e+01   2.2389180556e+01    0.2184796    0.1861005  48.26 0.0006435458    1.140    0.123
        26  -9.8795    185.3770    121.0563   8.8495698866e+01   2.0129167826e+01    0.4148611    0.2842161 -35.19  0.001880552    1.520    0.342
        27 -10.4619    226.5189    115.7784   7.9249202526e+01   1.1512587287e+01    0.3987972     0.270475 -15.42  0.001289576    1.807    0.447
        28  -8.7166      7.6710    115.7287   1.3098435862e+02   4.9645914622e+01    0.1729974    0.1124361  60.07 0.0007674527    1.764    0.433
        29  -9.4747    168.0714    114.0029   9.0470694703e+01   2.5522353288e+01    0.3514909    0.3082127 -83.50 0.0005276385    1.294    0.227
        30 -10.3532    206.9356    110.3454   8.1521856309e+01   1.7023150894e+01    0.4865846    0.2678357  59.22  0.001938083    2.000    0.500
        31  -8.8983    215.6668    116.6811   8.1436677535e+01   1.3850381519e+01    0.2133463    0.1459265  60.98 0.0009650276    1.606    0.377
        32 -10.9628    187.0957    102.1072   8.3347809486e+01   2.3282516382e+01    0.9147308    0.3364634 -44.51   0.00299559    2.859    0.650
        33  -9.9774    185.1586     91.1790   8.0856314441e+01   2.5745513816e+01    0.5163018    0.3021789 -42.67   0.00216134    1.736    0.424
        34  -8.4029    148.0717     99.7965   9.1381575262e+01   3.2891989233e+01    0.2565696    0.2200855 -35.56 0.0005608945    1.185    0.156
        35  -9.4730     30.1258    213.3959   1.3561048527e+02   2.7927162086e+01    0.2336482    0.1334957 -58.47   0.00151911    2.141    0.533
        36  -8.1222    197.3391     97.3047   8.0052156646e+01   2.1666325319e+01    0.1592041    0.1197862  19.54 0.0005342096    1.676    0.403
        37  -7.7950    134.2114     96.3738   9.3841945005e+01   3.6596231142e+01     0.198652    0.1408904  57.31 0.0001479844    1.540    0.350
        38  -9.4692    193.9468     94.2555   7.9917809328e+01   2.3039281582e+01    0.3398521    0.2218717 -25.83  0.001463511    1.735    0.424
        39  -9.2176    158.4157     93.3535   8.7225186196e+01   3.1775450220e+01    0.4676083    0.3237723  31.26  0.002072353    1.668    0.401
        40  -7.4868    157.5879    203.5598   1.1101063349e+02   1.0454200091e+01    0.1326019    0.1150955  53.67 0.0001429056    1.012    0.012
        41  -9.1360    141.2254     89.0452   9.0098857856e+01   3.6515161806e+01    0.4554929    0.3356378 -83.87  0.002010189    2.008    0.502
        42  -8.7637    176.4607     86.8182   8.1470101460e+01   2.8661046201e+01    0.2639457    0.2065916  53.06 0.0003102128    1.254    0.203
        43 -10.3833    175.0417     81.9467   8.0421334028e+01   2.9876685250e+01    0.5740061    0.4361256  37.72 0.0004967116    1.376    0.273
        44 -12.6076      9.5035    192.6854   1.3760270594e+02   3.3886710433e+01    0.7742237    0.5285897  87.35  0.004144887    1.059    0.055
        45 -10.3680    156.3682     83.1168   8.4842981708e+01   3.4167392542e+01    0.3384989    0.2886848 -27.92 0.0007401622    1.215    0.177
        46 -10.4946    181.6227     77.8322   7.7925963407e+01   2.8965197968e+01    0.5525528    0.4464854 -87.45 0.0006093704    1.481    0.325
        47 -11.5906    172.7995     67.6601   7.6836549448e+01   3.2871422330e+01    0.5761729    0.5122864 -31.04  0.001514921    1.163    0.140
        48 -10.2795    160.0712     38.8375   7.0783293366e+01   4.0362513976e+01    0.7415414    0.4206285  41.12   0.00325319    1.806    0.446
        49 -12.2149     42.6660    171.0564   1.2965180347e+02   3.4875958070e+01    0.7888709    0.7244287  -9.21  0.002891014    1.699    0.411
        50 -11.3145     53.2622    162.9301   1.2655475617e+02   3.5364988045e+01    0.6552707    0.4824702 -86.89  0.002459845    1.164    0.141
        51 -10.0385    195.6358     68.2897   7.2612371378e+01   2.7030634107e+01    0.4558318    0.3443375  20.58  0.001014038    1.675    0.403
        52  -8.5204    119.0185     70.0804   9.0239887462e+01   4.4784888574e+01    0.2078744    0.1946615  -7.29 0.0002879227    1.029    0.028
        53  -8.1461    148.5192     60.5110   7.9969901674e+01   3.9937383203e+01    0.2720112    0.1282859 -45.60   0.00102618    2.387    0.581
        54  -8.0610      1.5236     76.4481   1.2699425052e+02   5.8062724467e+01    0.1090298   0.08084211 -59.90 7.322185e-05    1.004    0.004
        55  -8.5331      5.9839     60.0000   1.2253748945e+02   6.1052511682e+01    0.1454198   0.06194212  17.53 0.0008122006    3.011    0.668
        56 -10.5784    131.1402     47.6684   8.0016615377e+01   4.5931891340e+01    0.2986421    0.2547705 -14.61 0.0001523111    1.189    0.159
        57  -7.4668    213.4730    167.5098   9.3360175429e+01   5.4997374997e+00    0.1402213    0.1321471  32.16 2.078171e-05    1.068    0.063
        58  -9.5799    248.4542    162.5063   8.5926436105e+01  -7.0392941280e-01    0.2691883    0.2424162  31.23 0.0009485153    1.138    0.121
        59  -9.8775    190.6122     71.2968   7.4366172010e+01   2.7809854527e+01    0.4259057    0.2822022  39.40  0.001063736    1.642    0.391
        60  -9.0671    104.7284    160.1559   1.1492634180e+02   2.8588032514e+01    0.2111737    0.1820054  50.93 0.0002959001    1.181    0.153
        61  -8.2828    170.6592    156.0427   9.9608480358e+01   1.6647477604e+01    0.2352878     0.187003  56.48 0.0002806408    1.246    0.198
        62 -10.6899    145.2871     30.0870   7.1019658908e+01   4.5081650316e+01    0.5850365    0.3755619 -44.34   0.00283167    1.784    0.440
        63  -9.3050     69.6864    160.1725   1.2267605921e+02   3.3877716646e+01    0.2167282    0.1595849  26.89  0.001055782    1.818    0.450
        64  -8.2507    104.5022    248.4722   1.2629954726e+02   1.1938630286e+01    0.1157313   0.08604556  62.60 0.0008100107    1.010    0.010
        65 -12.0066    243.4085    240.3244   1.0133575721e+02  -1.0050066025e+01    0.2418315    0.1907379  30.10 0.0001953676    1.124    0.110
        66  -8.4508      8.3899    235.7995   1.4028649314e+02   2.6208792765e+01    0.1513842    0.1130453 -85.33  0.001309393    1.369    0.269
        67  -9.9869    155.9693    218.2231   1.1354573667e+02   8.2687648794e+00    0.1983649    0.1808237  68.99 0.0002462591    1.131    0.116
        68 -10.3265    217.2127    151.0214   8.9113671585e+01   7.5040771004e+00    0.2679687    0.2497401  25.81 0.0003212676    1.022    0.021
        69 -10.3376     68.3351    144.9059   1.2073519694e+02   3.7372661041e+01    0.5902466    0.3787464  77.03  0.002526758    1.833    0.454
        70  -8.3241    103.1014    145.0816   1.1263484556e+02   3.2120057358e+01     0.192402    0.1759111 -89.28  0.001145556    1.010    0.009
        71 -10.7985    198.5912    133.8674   8.8855051233e+01   1.4676936465e+01    0.6149905    0.4173079  20.67  0.002650179    1.964    0.491
        72  -9.8450    221.7640    133.1943   8.4224598082e+01   9.5835674530e+00    0.4320273    0.2525716 -36.89  0.001904213    1.706    0.414
        73  -7.3270    169.3142    128.6605   9.3783080246e+01   2.2338735272e+01    0.1570682    0.1217274 -85.00 0.0003089909    1.699    0.412
