#   1 NUMBER                 Running object number                                     
#   2 MAG_AUTO               Kron-like elliptical aperture magnitude                    [mag]
#   3 X_IMAGE                Object position along x                                    [pixel]
#   4 Y_IMAGE                Object position along y                                    [pixel]
#   5 X_WORLD                Barycenter position along world x axis                     [deg]
#   6 Y_WORLD                Barycenter position along world y axis                     [deg]
#   7 A_WORLD                Profile RMS along major axis (world units)                 [deg]
#   8 B_WORLD                Profile RMS along minor axis (world units)                 [deg]
#   9 THETA_WORLD            Position angle (CCW/world-x)                               [deg]
#  10 FWHM_WORLD             FWHM assuming a gaussian core                              [deg]
#  11 ELONGATION             A_IMAGE/B_IMAGE                                           
#  12 ELLIPTICITY            1 - B_IMAGE/A_IMAGE                                       
         1  -9.9847     32.7822     19.7695   1.0250039359e+02   6.7025955600e+01    0.7189842   0.08715109 -38.07  0.002091639    7.491    0.867
         2 -11.5098    192.3532     28.7698   6.5643911419e+01   3.3970806682e+01    0.6117866    0.5603594  31.11  0.003487872    1.379    0.275
         3 -11.5060    200.8188     21.8745   6.2935644173e+01   3.2791943417e+01    0.8516983    0.5891193 -82.68  0.004835476    1.378    0.274
         4 -11.4260    206.0757     14.3666   6.0618908546e+01   3.2422721160e+01    0.5619084    0.4641051  45.09  0.001561424    1.523    0.343
         5  -9.1799     83.0000     13.9492   8.2421768877e+01   6.0054364005e+01    0.4322239   0.06650835 -27.07  0.001254134    6.952    0.856
         6  -9.9259     33.0000     40.3783   1.1026452859e+02   6.3986329743e+01    0.8849815    0.1333131 -48.27  0.002245396    8.865    0.887
         7  -9.7031     33.0000      3.4345   9.5316927935e+01   6.8927311727e+01    0.2985565    0.1058726 -30.20  0.001543782    2.664    0.625
         8 -10.6026     21.8738      9.1602   1.0270858443e+02   6.9555429392e+01    0.4279634    0.1453903 -36.01  0.002210256    2.651    0.623
         9 -10.9103    217.3975      2.5891   5.6954037497e+01   3.1109862667e+01     0.629214     0.260807  74.40  0.002669611    2.078    0.519
        10  -8.7084    163.8166    241.2310   1.1901927314e+02   1.3937398809e-01    0.2610698    0.1023768 -55.52  0.001011578    3.551    0.718
        11  -9.4647    162.6815    249.3762   1.2044744077e+02  -1.0431808326e+00    0.2779854    0.1823957  48.33  0.001555518    1.392    0.282
        12  -9.5281    101.4924    248.9401   1.3231978973e+02   9.1262575452e+00     0.302238    0.1213088 -61.94  0.001374346    2.775    0.640
        13  -9.8498     83.0000    244.5099   1.3536844223e+02   1.2810540821e+01     0.310844    0.1376896 -69.88  0.001482692    2.467    0.595
        14 -10.5767     82.7142    238.2555   1.3477008617e+02   1.4091429063e+01    0.4417994    0.2531388  88.40  0.002257551    2.032    0.508
        15 -11.3393     43.9563    222.8969   1.4073096802e+02   2.2628220089e+01    0.4250499    0.4203311 -22.31 0.0009500984    1.555    0.357
        16 -14.5061     53.0043    210.7226   1.3777781626e+02   2.4118562873e+01     5.774714     4.018909 -71.71    0.0347726    1.330    0.248
        17 -11.3930    108.0607    229.3927   1.2867201749e+02   1.1892380480e+01    0.5730492    0.4237931  44.02  0.003298611    1.268    0.211
        18 -11.4066    122.1404    230.4664   1.2592445248e+02   9.3177302065e+00    0.6626039    0.2712696  41.03  0.002806957    2.194    0.544
        19  -9.8016     68.6220    190.9251   1.3211406700e+02   2.6510601676e+01    0.3609558    0.2449036 -42.38   0.00135841    1.942    0.485
        20 -10.0991     73.4928    184.2450   1.3008811919e+02   2.7383780010e+01    0.3383698    0.2442803 -53.20 0.0008831083    1.465    0.317
        21 -15.0348      2.4951    234.0571   1.4891981022e+02   2.4939887832e+01     22.86673          nan -74.23   0.04882459   14.649    0.932
        22  -9.8049     82.5431    172.5417   1.2616092854e+02   2.8828178085e+01    0.3818165    0.2395862 -55.98 0.0005908337    1.526    0.345
        23 -11.0641     87.1558    164.8790   1.2373561775e+02   2.9962058702e+01    0.7293965    0.5293268  53.70  0.002812812    1.410    0.291
        24 -11.5039     69.9612    169.8388   1.2880219085e+02   3.1350113892e+01    0.5651228    0.3241566 -42.90  0.001501491    2.161    0.537
        25  -8.9549     78.4501    160.0875   1.2510161629e+02   3.2481667500e+01    0.3717274    0.2168879  71.14  0.001530663    2.418    0.586
        26 -10.2297     73.6095    156.2929   1.2568520074e+02   3.4126159065e+01    0.6528377    0.2121796 -63.02  0.002207468    3.051    0.672
        27  -9.2355    101.8138    147.7807   1.1671957453e+02   3.1663497763e+01    0.5080017     0.281326 -34.69   0.00192661    2.544    0.607
        28 -10.3832     90.0113    147.8891   1.1984939374e+02   3.3646157025e+01    0.3024726    0.2696487 -37.39 0.0004720387    1.236    0.191
        29 -11.4137     67.5654    144.3656   1.2516369596e+02   3.7898961396e+01     0.702894     0.491069  71.78  0.002532638    1.712    0.416
        30  -8.8124    112.4397    134.7460   1.1106757887e+02   3.2847675465e+01    0.5058322    0.2780251  26.62  0.001880018    2.591    0.614
        31 -10.5026     58.3718    131.5572   1.2531099214e+02   4.2219865416e+01    0.4050247    0.2429796 -67.37  0.001571713    1.578    0.366
        32  -8.9204     98.8788    131.9665   1.1409673968e+02   3.5991341489e+01    0.2672617    0.2323032  -8.60 0.0005739692    1.386    0.279
        33  -8.0067    108.0498    122.6361   1.0939293195e+02   3.6522673685e+01    0.2022547    0.1939584  44.30 0.0005274438    1.092    0.084
        34 -10.9829     21.8391    119.4446   1.3352933242e+02   4.8857077451e+01    0.3846478    0.2453621  83.96  0.002081004    1.911    0.477
        35  -9.9598     41.6970    110.1079   1.2598030448e+02   4.9188676780e+01    0.3922881    0.2064063 -40.89  0.001889477    1.895    0.472
        36  -9.0415    167.9195    113.0734   9.1963310350e+01   2.5793204858e+01     0.352399     0.271119 -66.85 0.0009526916    1.466    0.318
        37 -12.9096      9.4880    207.1245   1.4596896659e+02   2.9830160831e+01     1.225673    0.9399525 -82.23  0.004485397    1.183    0.155
        38 -10.3246     98.4607    235.9936   1.3142576732e+02   1.2115113235e+01    0.4584911    0.1982959  60.93  0.001819558    2.966    0.663
        39 -11.5050     96.9807    227.3699   1.3068276502e+02   1.4104548236e+01    0.9156143    0.3484851  50.55  0.003768585    2.469    0.595
        40  -9.2690     32.8078     65.1085   1.1816247074e+02   5.9626085066e+01    0.4135423   0.07597341 -52.36  0.001353772    4.389    0.772
        41 -11.0633    127.1500    243.2315   1.2662045544e+02   6.0258610472e+00    0.3661921    0.3300325 -51.15  0.002382444    1.331    0.249
        42  -8.1590     83.0000     52.9552   9.6672248310e+01   5.5034072312e+01    0.2133064   0.07193416 -38.48 0.0008003109    2.928    0.658
        43  -8.3483    114.6787     51.3233   8.6973546201e+01   4.9156438316e+01    0.1349006    0.1104443 -78.93  0.000487883    1.677    0.404
        44 -11.1364    133.4675    231.0554   1.2367569285e+02   7.2563949997e+00    0.3891661    0.3295135  85.44  0.002338103    1.264    0.209
        45  -7.8416    134.6610     41.3200   7.9008661260e+01   4.6137182717e+01    0.1388608    0.1060311 -77.75 0.0004296262    1.713    0.416
        46  -9.0966     92.0944    248.4411   1.3405476857e+02   1.0677622228e+01    0.2705548    0.1551202  68.65  0.001282587    1.842    0.457
        47  -9.7500     94.8178    240.9201   1.3271071918e+02   1.1712120136e+01    0.2730467    0.1658844 -77.38  0.001472441    1.814    0.449
        48  -8.3011    195.6661    247.6691   1.1377571076e+02  -6.2247510779e+00    0.1306307    0.0895149   7.49 0.0007052161    1.727    0.421
        49 -10.3595    107.1694    242.8975   1.3052455677e+02   9.3719075851e+00    0.3328708    0.1945813 -74.14 0.0009877633    2.022    0.506
        50  -9.5471     96.3254    246.8542   1.3307810867e+02   1.0328388127e+01    0.2332709     0.144472  53.61 0.0009297396    1.359    0.264
        51 -10.8596    114.6093    230.0968   1.2742182828e+02   1.0662684274e+01    0.6105371    0.2515392 -59.15  0.002603233    2.662    0.624
        52 -10.2721    114.6130    241.2077   1.2885067039e+02   8.4859075679e+00    0.5140299    0.1621754 -61.64  0.001886631    3.981    0.749
