#   1 NUMBER                 Running object number                                     
#   2 MAG_AUTO               Kron-like elliptical aperture magnitude                    [mag]
#   3 X_IMAGE                Object position along x                                    [pixel]
#   4 Y_IMAGE                Object position along y                                    [pixel]
#   5 X_WORLD                Barycenter position along world x axis                     [deg]
#   6 Y_WORLD                Barycenter position along world y axis                     [deg]
#   7 A_WORLD                Profile RMS along major axis (world units)                 [deg]
#   8 B_WORLD                Profile RMS along minor axis (world units)                 [deg]
#   9 THETA_WORLD            Position angle (CCW/world-x)                               [deg]
#  10 FWHM_WORLD             FWHM assuming a gaussian core                              [deg]
#  11 ELONGATION             A_IMAGE/B_IMAGE                                           
#  12 ELLIPTICITY            1 - B_IMAGE/A_IMAGE                                       
         1 -12.0682    104.7441     12.9817   8.3946100688e+00   5.7008158154e+01    0.8782957    0.4686272   1.11  0.003184431    2.848    0.649
         2 -12.6138    105.8435     19.9753   1.1087754196e+01   5.6027290446e+01    0.4292001    0.3377965 -66.64 0.0004294092    1.413    0.292
         3 -12.3377     58.2676     29.5356   3.0498613664e+01   6.5891526388e+01    0.6304013    0.3427041 -21.69  0.001432832    2.219    0.549
         4 -11.7995     20.2465     21.6667   4.7433412580e+01   7.3410117361e+01    0.5583018    0.3061413 -34.78  0.001701918    1.697    0.411
         5 -11.4944     35.4940     17.5303   3.5172124881e+01   7.1852593765e+01     0.574396    0.3533165 -17.64   0.00254088    1.765    0.433
         6 -11.3925      5.6774      8.9856   5.1102511092e+01   7.7207002970e+01    0.4407069    0.3381319 -32.83  0.002944103    1.201    0.168
         7 -12.1390     22.5135     11.0871   3.9247222786e+01   7.4819780490e+01    0.6466287    0.4362164  -9.18  0.003759533    1.486    0.327
         8 -11.0483     12.9040      8.5955   4.4740378758e+01   7.6477115398e+01    0.4114363    0.3130618 -30.02  0.001752691    1.250    0.200
         9 -10.9772     17.0141     10.4709   4.2822303763e+01   7.5668784508e+01    0.2766531    0.1911814 -25.96 0.0009624109    1.316    0.240
        10 -11.3203    247.5497     19.4065   3.5559273966e+02   2.2760293047e+01    0.3997485    0.1801168 -29.88  0.002106687    2.161    0.537
        11 -10.8810     68.7939     19.4672   2.1073484564e+01   6.5014403990e+01     0.372173    0.3236182  64.04  0.001721684    1.242    0.195
        12 -11.2085     86.0950     14.1633   1.3148206997e+01   6.1540930993e+01    0.4935586    0.2944164  -2.36  0.002051824    2.176    0.540
        13 -10.6558     89.0708      8.4435   9.7191958321e+00   6.1343144264e+01    0.3456681    0.2623818 -19.09  0.001127049    1.466    0.318
        14 -10.7755    127.7309     11.8233   4.0529198502e+00   5.1214127785e+01    0.3745955    0.2053504 -59.17  0.001560694    2.051    0.512
        15 -11.5165    134.7969     14.8591   4.1262739872e+00   4.9100355233e+01    0.7288601    0.2425021  63.81  0.002794123    2.511    0.602
        16 -11.7345    227.8159     15.0116   3.5575981502e+02   2.7112036611e+01    0.4207525    0.1998442 -70.38  0.001300969    2.010    0.502
        17 -10.4375    218.8106     12.9296   3.5582704900e+02   2.9206644934e+01    0.2714433    0.1907838 -27.86  0.001279909    1.569    0.363
        18 -12.2364     49.0552     12.9079   2.5316261979e+01   6.9967223944e+01    0.6287816    0.2589684  50.25  0.002743818    2.252    0.556
        19 -10.8948    191.0000     11.9817   3.5747461921e+02   3.5472500218e+01    0.3678401     0.156709 -34.83  0.001740603    2.085    0.520
        20 -11.1191    192.8431      7.3427   3.5615557796e+02   3.5520401900e+01    0.3583537    0.2384204   5.96   0.00185126    2.579    0.612
        21 -11.8922    212.2192      9.6260   3.5546352517e+02   3.0965236654e+01    0.4630595    0.3004146 -19.41  0.001942518    1.944    0.486
        22  -9.5977    182.9949     12.0004   3.5810577092e+02   3.7349204158e+01    0.1576069    0.1292952 -74.35 0.0003253896    1.025    0.024
        23 -10.7996    120.6123     11.5478   5.0256520560e+00   5.3075348856e+01    0.2987315    0.1723616  68.93 0.0008746149    1.534    0.348
        24 -11.2382    168.8418      9.7086   3.5867693318e+02   4.0997028191e+01     0.349797     0.241786  61.41  0.001274061    1.496    0.332
        25 -10.3178    164.7892      4.4659   3.5751846843e+02   4.2487697451e+01    0.3312331    0.1794949  31.59  0.001427634    3.153    0.683
        26 -10.6783     64.3039     10.0513   1.7558981191e+01   6.7043952231e+01    0.2854056    0.2297421  65.93 0.0002169199    1.321    0.243
        27 -10.0817     63.3995      6.5317   1.5882826470e+01   6.7581543207e+01    0.3547249    0.1496975  61.49  0.001521446    2.271    0.560
        28 -11.0640    156.5148      7.5048   3.5917866377e+02   4.4265252554e+01    0.2420298     0.210701 -36.83  0.001504982    1.258    0.205
        29 -11.4536    184.9387      6.3841   3.5646558724e+02   3.7452907209e+01    0.3661934    0.1908099 -59.70  0.001543871    1.714    0.416
        30  -9.7036     77.8533      7.2175   1.1907078178e+01   6.4170779637e+01    0.1952171    0.1729454 -86.83 0.0006727383    1.276    0.216
        31 -11.0874    233.7114      2.1322   3.5268361440e+02   2.7289994887e+01    0.2912909    0.1829288 -64.07   0.00110346    1.235    0.190
        32 -10.0638    175.9745      5.8285   3.5699101725e+02   3.9638213543e+01    0.1914249    0.1591023  73.14 0.0005964996    1.245    0.197
        33 -10.9464    243.9467      3.9811   3.5261885527e+02   2.5113602688e+01    0.2912969    0.1135173 -63.28   0.00151229    2.179    0.541
        34  -9.3856    245.6871      1.2521   3.5199665678e+02   2.5064287119e+01    0.1358368   0.09163841  81.54 0.0001978664    1.575    0.365
        35 -11.6747    137.8397      4.0944   4.7596271355e-02   4.9297763358e+01    0.5853662    0.2130202  67.29 0.0003595567    2.292    0.564
        36 -11.8809    133.1539      2.5356   5.1095739686e-02   5.0623332570e+01     0.461594    0.2918998  58.04  0.002448036    1.495    0.331
        37  -9.6840    122.2274      4.9937   2.3230962089e+00   5.3227535585e+01    0.1596528    0.1127595 -23.01 0.0004720837    1.598    0.374
        38 -10.4927     41.8843      3.6128   2.2710793326e+01   7.2403284190e+01    0.3446593    0.1755775  28.11  0.001636068    2.128    0.530
        39 -10.5206    218.5312      3.5229   3.5371359693e+02   3.0248120783e+01    0.2152575    0.1788384 -79.48 0.0007371382    1.175    0.149
        40 -10.6385    223.6845      2.6754   3.5326736063e+02   2.9261147989e+01     0.265145     0.172912 -82.76 0.0002981168    1.364    0.267
        41 -11.0746    114.0247      2.6317   2.5931227793e+00   5.5517179324e+01    0.4536638    0.2559043 -85.42  0.001779251    1.936    0.484
        42 -10.2887      2.0574      2.0362   4.9572034380e+01   7.8702783791e+01    0.2385888    0.1482381 -20.85 0.0009366132    1.440    0.305
        43 -11.1492    206.2458      1.9520   3.5400798006e+02   3.3042227971e+01    0.4662327    0.1511842  89.93  0.001864896    3.356    0.702
        44 -10.4687    105.5454      1.8574   3.5968628066e+00   5.7736748176e+01     0.267685    0.1781102  84.44 0.0009631134    1.454    0.312
        45  -9.2924     33.7806      1.9589   2.5710383650e+01   7.4113742911e+01    0.1527709   0.09540787 -20.16 0.0005140261    1.624    0.384
        46 -11.0854     15.4697     15.3741   4.7180435032e+01   7.5069298538e+01     0.322062    0.2288905  -1.05 0.0009803461    1.324    0.245
        47  -9.4972    152.2454      1.3644   3.5769675950e+02   4.5876932241e+01    0.1817202    0.1079103 -89.20 0.0004975586    1.534    0.348
        48  -9.8011    232.1488      6.1829   3.5361452652e+02   2.7184280201e+01    0.1660029    0.1405503 -67.09 0.0006164748    1.178    0.151
        49  -9.6857     33.3935    125.7693   7.1576037720e+01   4.6782326505e+01    0.2123678    0.1204613 -60.59 0.0008422541    1.579    0.367
        50  -9.4600     23.1732    126.6179   7.5343818647e+01   4.7522255663e+01    0.1748236    0.1372863  -7.24 0.0003476974    1.579    0.367
        51  -9.6821      2.2640    125.7093   8.2579383157e+01   4.9289721286e+01    0.2692581    0.1423471  86.57  0.001247526    1.754    0.430
        52 -12.3187    246.2121    120.7604   1.7161289834e+01   8.9491097491e+00    0.6774917    0.3069751 -49.78  0.003090094    2.393    0.582
        53 -10.7750    104.5486    122.4749   4.6687494225e+01   3.6650882059e+01    0.3381862    0.3297821  70.10 0.0008613071    1.035    0.034
        54  -9.2851     26.8302    123.6052   7.3626142711e+01   4.8020293344e+01    0.1926653    0.1252054  40.97 0.0004764547    1.602    0.376
        55  -9.6984     49.6114    122.6167   6.5195866785e+01   4.5776566781e+01     0.273154    0.1457873   5.17 0.0009456577    3.190    0.687
        56  -9.5553     13.2604    122.5382   7.8391179188e+01   4.9432328735e+01    0.1707507    0.1356214 -14.44 0.0008779365    1.539    0.350
        57 -10.0066     44.5205    120.0023   6.6567536368e+01   4.7127345845e+01    0.2692375    0.1991557  53.31 0.0004846701    1.435    0.303
        58  -9.7052     43.4113    116.2325   6.6280010283e+01   4.8294189342e+01    0.2929377     0.210222 -70.83 0.0007632174    1.307    0.235
        59 -10.4431      7.5204    114.9130   7.9638455137e+01   5.1892313347e+01    0.3288862    0.1891968 -57.13 0.0004550533    1.559    0.358
        60 -12.1193      2.5989    111.4633   8.1116882348e+01   5.3109608218e+01     0.504895    0.3419786 -89.65  0.001493658    1.326    0.246
        61 -11.3396      4.3043    105.5137   7.9809076590e+01   5.4619464692e+01    0.4429928    0.3763272  58.25  0.002653346    1.258    0.205
        62  -9.5547     79.1227    114.8245   5.3006439821e+01   4.3385738386e+01    0.2156559    0.1883769 -13.29 0.0008029405    1.321    0.243
        63  -9.9593     35.5730    102.7300   6.6714393587e+01   5.2862634569e+01    0.6537206    0.3213088  -0.77  0.002219632    3.664    0.727
        64 -11.6257     25.8937    106.9590   7.1412706659e+01   5.2670749587e+01    0.7534349    0.3490769 -31.17   0.00273917    3.094    0.677
        65 -10.9254     24.5109    102.5047   7.1206792325e+01   5.4004740022e+01    0.4263125    0.2892574  79.78  0.001888985    1.656    0.396
        66 -11.4991     22.1247    114.2108   7.4027555408e+01   5.1017130128e+01    0.5307192    0.3161199  -0.25  0.001996108    2.231    0.552
        67 -11.2988     28.3412    112.8934   7.1436717655e+01   5.0822246216e+01    0.4069582    0.2960281  45.30  0.001066965    1.465    0.318
        68  -8.8243     67.3784    114.6744   5.7106333739e+01   4.5384315182e+01    0.1694946    0.1172607  68.95 0.0007022948    1.837    0.456
        69 -10.6327     12.8969    111.9107   7.7246334671e+01   5.2355012607e+01    0.4050171    0.1729398 -73.69  0.001228551    2.012    0.503
        70 -10.8334     16.4680    109.5157   7.5540656801e+01   5.2750038943e+01    0.3250801     0.259755  46.24 0.0007114415    1.351    0.260
        71  -9.9808     49.1358    111.9808   6.3270167429e+01   4.8741551460e+01    0.2609964    0.2190091  36.13 0.0007649061    1.263    0.208
        72  -8.8880    120.3091    109.3194   3.8608379010e+01   3.6525262948e+01    0.1625404    0.1295796  -6.18 0.0005132779    1.641    0.390
        73 -12.0603     79.9498    107.9534   5.0973230519e+01   4.5019082187e+01     0.493225    0.3542362  28.16 0.0009456446    1.529    0.346
        74  -9.3495    174.1794    108.3781   2.5659775341e+01   2.4732797002e+01    0.2146377    0.1448569  66.13 0.0009556854    1.834    0.455
        75 -10.0821     85.7777    103.3959   4.7718053249e+01   4.5095547137e+01    0.2770013    0.2181709 -51.20 0.0005593376    1.232    0.188
        76 -11.2926     50.5611    100.6482   6.0179331378e+01   5.1598784684e+01    0.6362344    0.3581668 -34.66   0.00235936    2.173    0.540
        77 -10.6780     17.1428    100.6376   7.3938338214e+01   5.5109079563e+01    0.2672702    0.2180069 -85.16 0.0003926463    1.165    0.141
        78 -11.4576      9.2598     97.0597   7.6693186058e+01   5.6606005189e+01     0.444488    0.3995418  59.87  0.001106135    1.216    0.178
        79 -11.5645    247.8023     96.3926   1.1844647158e+01   1.2402576386e+01    0.2557501    0.1601886 -25.55  0.001419057    1.603    0.376
        80 -11.3396     79.2421     92.9195   4.7016097476e+01   4.8925744633e+01    0.7973475    0.5518471 -51.83  0.003576539    1.405    0.288
        81 -12.3412     76.1411     79.5221   4.3941755738e+01   5.2700929595e+01    0.9021935    0.6216139  69.92  0.001106314    2.156    0.536
        82 -11.7351     67.5351     94.9762   5.2004436590e+01   5.0496633771e+01    0.4821606    0.3994309  15.70   0.00202059    1.348    0.258
        83 -11.2300    125.7793     94.4237   3.2824513093e+01   3.8630397109e+01    0.2789795    0.2630125 -36.51 0.0003405331    1.074    0.069
        84  -9.8957     43.3298     90.8437   6.0770309235e+01   5.5123790823e+01    0.2282329    0.1990226 -41.96 0.0006099672    1.100    0.091
        85 -11.0846     27.6279     85.2816   6.6398143848e+01   5.8312905871e+01    0.6248099    0.4991288  30.85  0.001386073    1.376    0.273
        86 -11.3941     22.6506     93.9845   7.0438112090e+01   5.6459429480e+01    0.5231809    0.3355107  52.47  0.001120081    1.812    0.448
        87 -10.4805     18.5498     86.2896   7.0773016900e+01   5.8832879256e+01    0.4901952    0.3180186 -36.75  0.002454248    1.561    0.359
        88 -10.2797     42.8018     94.3983   6.1870428720e+01   5.4256881483e+01    0.2952086    0.2869793  37.40  0.001206892    1.112    0.101
        89 -10.2208     35.5452     92.2205   6.4462385498e+01   5.5676804663e+01     0.296074    0.2072194  89.58  0.001367424    1.696    0.410
        90  -9.5001     38.9524     90.5057   6.2577739397e+01   5.5742220485e+01    0.3361796    0.2087596 -19.89   0.00101983    2.136    0.532
        91 -10.4988     30.7745     97.4466   6.7636972759e+01   5.4783352468e+01    0.4360207     0.408538  13.41  0.002525514    1.182    0.154
        92 -10.4563     52.0829     87.0502   5.6017261049e+01   5.4922239605e+01    0.2579151    0.2031393 -53.91 0.0003758779    1.188    0.158
        93 -10.2648     50.2917     91.4310   5.7969313533e+01   5.4052621531e+01    0.3462406    0.2468548  27.28  0.001062854    1.504    0.335
        94 -10.0508     98.2576     90.8160   3.9823934574e+01   4.5598163599e+01    0.2594489    0.2118542  57.50 0.0005174071    1.305    0.234
        95 -11.4671      6.7922     88.1660   7.6436631373e+01   5.9115045766e+01    0.6978073    0.4119497   7.03  0.003474174    2.002    0.500
        96 -10.0874     66.8408     88.3129   5.0339030825e+01   5.2282398185e+01    0.3108254    0.2306262  -6.32 0.0007850241    1.769    0.435
        97 -10.1110     90.6138     85.9922   4.0842645519e+01   4.8317691023e+01    0.3867319     0.305273 -73.89  0.001778536    1.527    0.345
        98 -11.3739     45.0456     84.2462   5.8279634317e+01   5.6603637528e+01    0.4570645    0.4029389 -62.49  0.001801748    1.109    0.098
        99  -9.8313     37.3568     85.5484   6.2049478250e+01   5.7217852819e+01    0.2736598     0.146103  24.20  0.001170483    2.046    0.511
       100  -9.9648    143.2195     84.1929   2.5448979350e+01   3.6598444995e+01    0.2189963    0.2078302 -29.56 0.0005161362    1.108    0.097
       101 -10.0176    113.1703     83.1974   3.2835697569e+01   4.3952208496e+01    0.4475937    0.2689468  65.22  0.001704688    2.187    0.543
       102 -10.1757     67.4010     81.3346   4.7949328063e+01   5.3881008939e+01    0.3513742     0.248029 -32.24  0.001598152    1.540    0.351
       103 -10.1177     60.2521     83.1581   5.1439067420e+01   5.4645604972e+01    0.3057851    0.2128231  39.88 0.0008754537    1.506    0.336
       104 -10.6354      3.1688     82.1634   7.7158913675e+01   6.0876416046e+01    0.3060646    0.2209154  74.82 0.0009234821    1.522    0.343
       105 -12.1247    247.6068     75.8432   7.4875199235e+00   1.5452829573e+01    0.4390918    0.2764402 -50.09  0.002600787    1.311    0.237
       106  -9.5649    103.4524     79.9546   3.4675890932e+01   4.6865110836e+01    0.2376053    0.1539287 -43.85 0.0003808591    1.531    0.347
       107  -9.3591     92.4581     71.5336   3.5322675461e+01   5.1089763133e+01     0.260693    0.2088278 -36.01  0.001259536    1.265    0.210
       108 -10.9225     89.2769     77.4549   3.8472935866e+01   5.0512582795e+01    0.4770392    0.3381397  49.65  0.001494357    1.459    0.315
       109 -10.4741     94.3296     76.1690   3.6319590560e+01   4.9702564803e+01    0.3313605    0.3091435  -4.92 0.0008486034    1.137    0.120
       110 -10.7323     53.5441     76.4954   5.2214287918e+01   5.7319516857e+01    0.4426435    0.2994419 -53.31  0.002089161    1.411    0.291
       111  -9.3031    118.8215     78.2264   2.9637116234e+01   4.3649213017e+01    0.2031417    0.1817069  -5.91 0.0002038224    1.282    0.220
       112 -10.0016     58.1406     77.6050   5.0578656950e+01   5.6332297939e+01    0.2508925    0.2023421 -62.45 0.0005579983    1.298    0.230
       113  -9.6363     38.8968     78.1153   5.9346980853e+01   5.8929383227e+01    0.2393828    0.1536256  55.39 0.0008981452    2.041    0.510
       114 -10.8452      1.9128     72.3803   7.6144877629e+01   6.3455935070e+01    0.6814795    0.1966204 -71.88  0.002481843    2.916    0.657
       115  -9.6991     46.5619     75.6637   5.5081836363e+01   5.8538789233e+01    0.3219762     0.176047 -39.09  0.001348849    1.892    0.472
       116 -11.0504     13.9843     74.5286   7.0511915835e+01   6.2218253777e+01    0.3608264    0.2700394 -84.46  0.001967319    1.411    0.291
       117  -9.8650    103.4522     74.6375   3.2877467241e+01   4.7978225519e+01    0.3164127    0.1944548  47.23   0.00132875    1.629    0.386
       118 -10.4823     27.1032     73.1985   6.3651627429e+01   6.1457890424e+01    0.5002882    0.2825466 -20.84  0.002153176    2.266    0.559
       119 -10.4817     80.9609     72.2062   3.9611346199e+01   5.3384526935e+01    0.5020817    0.2818557 -54.02  0.001565358    1.973    0.493
       120  -9.2113     77.6543     67.3274   3.9077518315e+01   5.5099276737e+01    0.1552281     0.123139  87.34 0.0007050292    1.749    0.428
       121 -10.5056     34.5863     71.3905   5.9448771748e+01   6.1108108670e+01    0.4002614    0.2126529  34.12  0.001778385    2.000    0.500
       122 -10.4534     39.9839     73.0126   5.7331828441e+01   6.0058566245e+01    0.4765635    0.2707826  16.39   0.00161953    2.098    0.523
       123 -11.1469     40.6204     68.8969   5.5730959471e+01   6.0971977849e+01    0.3517397    0.2687459  27.05 0.0006428819    1.380    0.276
       124  -9.1130    154.0130     72.2278   1.9566744938e+01   3.6186522660e+01    0.1992116    0.1251729  59.10 0.0006586387    1.628    0.386
       125 -10.6156    122.6435     68.6081   2.5430070954e+01   4.4586725076e+01    0.4629149    0.2667477  48.70   0.00189066    1.741    0.426
       126  -9.5525     86.5905     69.1877   3.6495652760e+01   5.2849414603e+01     0.224098    0.1444905 -31.87 0.0009510933    1.708    0.415
       127  -9.8880     13.7686     67.3343   6.8968725721e+01   6.4049043477e+01    0.4499961    0.1586223  12.42  0.001675412    3.420    0.708
       128  -9.7629     96.5655     65.5242   3.1802553466e+01   5.1382086598e+01    0.2690101    0.2400087 -49.20 0.0005058445    1.144    0.126
       129 -11.1615     92.8028     62.6206   3.1946110008e+01   5.2799910755e+01    0.4253383    0.2940214  59.53 0.0009791768    1.594    0.373
       130  -9.0850     26.5119     65.9914   6.1919374627e+01   6.3295990213e+01    0.1931964    0.1206012  87.89  0.000810033    2.551    0.608
       131 -10.1984     13.8762     56.3663   6.5995885947e+01   6.6715646732e+01    0.3107058    0.1738538 -24.01 0.0008927661    1.950    0.487
       132 -12.3212      6.1912     62.2221   7.1843413046e+01   6.5791504062e+01    0.5840667    0.4266144 -17.45  0.003358842    1.426    0.299
       133 -10.6942      9.6167     56.7784   6.8561419839e+01   6.6913022888e+01    0.3424115    0.2460214  69.81  0.001642265    1.865    0.464
       134  -9.6233    201.7499     64.5901   9.9245039302e+00   2.6222386361e+01    0.1815543    0.1269398  88.02 0.0004630254    1.603    0.376
       135 -10.0379    158.7965     62.8516   1.5854384722e+01   3.6597441742e+01    0.2426074    0.1901538  52.30 0.0002946043    1.356    0.263
       136 -10.1071    105.2646     63.1009   2.8248024426e+01   4.9817276278e+01    0.3364239    0.2188468  47.26  0.001111517    1.521    0.343
       137  -9.9851     84.7206     62.0349   3.4487907041e+01   5.4700870541e+01    0.2687019    0.2590262 -43.07  0.001099572    1.064    0.060
       138  -9.8549     57.9477     62.2914   4.5295201486e+01   5.9868533703e+01    0.2705809    0.2159381 -77.06  0.001335063    1.675    0.403
       139  -9.2378     50.7470     56.4496   4.6347273333e+01   6.2319839650e+01    0.3461554    0.2312033  16.07 0.0009587336    1.748    0.428
       140 -10.4180     50.3614     60.7205   4.8183007376e+01   6.1456164077e+01    0.2870931    0.2511324  54.32  0.001172636    1.346    0.257
       141 -10.8290     40.4248     56.7314   5.1565588735e+01   6.3802289335e+01    0.3714632    0.2276128  38.81 0.0008585271    1.768    0.434
       142 -11.3558     43.3749     60.7088   5.1559736291e+01   6.2501235834e+01    0.4218485    0.2474082 -52.73 0.0005980413    1.647    0.393
       143 -10.7494     46.4774     59.4439   4.9565709012e+01   6.2332437698e+01     0.302925    0.2529619 -69.88 0.0007521024    1.438    0.305
       144  -9.9218    113.9396     60.8621   2.5008657858e+01   4.8130702720e+01    0.2756351    0.2265842 -39.67   0.00137379    1.232    0.188
       145  -9.0546    150.7094     60.7184   1.6680417436e+01   3.8958638872e+01     0.142457    0.1175049  25.25 0.0003128394    1.529    0.346
       146 -10.5799     31.5551     52.8971   5.4828341092e+01   6.5797353829e+01    0.4862859    0.2205747  20.97  0.001997493    2.533    0.605
       147 -10.1697     29.7163     59.5893   5.8207338674e+01   6.4484435083e+01    0.3252605    0.2274853 -73.26  0.001626505    1.729    0.422
       148 -10.2126     25.9938     59.4791   6.0177372521e+01   6.4906685153e+01      0.35485    0.2241936  27.22  0.001794859    1.686    0.407
       149 -10.8238     25.7908     55.4660   5.8949451049e+01   6.5861867184e+01     0.351277    0.2109337 -39.74 0.0006917195    1.528    0.346
       150 -11.3560     76.4609     53.2309   3.4014733010e+01   5.8153309886e+01    0.5449503     0.333194 -21.37   0.00226947    2.144    0.534
       151 -11.5785     72.9395     47.6413   3.3001750323e+01   5.9911842847e+01     1.146692    0.3754799 -49.22  0.003288619    4.558    0.781
       152 -10.6522     88.3583     55.0080   3.0482667972e+01   5.5230179456e+01    0.7000628    0.2680923 -28.47  0.001996707    4.308    0.768
       153  -9.4800    106.5398     58.4734   2.6179532946e+01   5.0354625045e+01    0.1517267    0.1463356  89.96 9.034508e-05    1.055    0.052
       154 -10.3694    157.3221     55.0683   1.3751663051e+01   3.8199307976e+01     0.491628    0.3076394 -53.63  0.002248524    1.609    0.379
       155 -11.2844    154.9881     48.7287   1.2188226119e+01   3.9738769338e+01    0.3015212    0.2110568 -28.06 0.0009642235    1.548    0.354
       156 -10.1728    124.5106     56.4115   2.0776361959e+01   4.6270697556e+01    0.2927175    0.1503178 -34.63 0.0008291652    2.000    0.500
       157 -10.8058    117.9461     55.7563   2.2138362372e+01   4.8023852796e+01     1.497331    0.7974236 -78.23  0.003399982    7.599    0.868
       158 -10.4684    110.5955     39.3690   1.7815714272e+01   5.2410072199e+01    0.9041725    0.5808803  28.64   0.00395889    2.039    0.510
       159 -10.1225    122.9289     44.5126   1.6894234373e+01   4.8538539063e+01    0.3281179    0.2538925  80.38   0.00095898    1.354    0.262
       160 -11.7920    117.1272     45.8337   1.8708169853e+01   4.9814033219e+01    0.7221187    0.5570735 -18.43  0.002851418    1.496    0.331
       161 -11.0328    120.1758     40.6094   1.6069181978e+01   4.9804503920e+01    0.3857931     0.228412  45.70 0.0005813832    1.755    0.430
       162 -11.5519    119.2887     36.9953   1.4914289270e+01   5.0531471529e+01    0.3920555    0.3335041 -54.92  0.001253623    1.215    0.177
       163  -9.5415     91.6425     57.2875   3.0286712673e+01   5.4068729126e+01    0.1527805    0.1207573 -88.22 0.0003445898    1.679    0.405
       164  -8.8018     21.0000     55.9635   6.1807511923e+01   6.6216630991e+01    0.2304369   0.07055125 -60.44 0.0006048866    2.980    0.664
       165 -10.5319     60.5569     51.7546   3.9907055186e+01   6.1584151527e+01    0.4717614    0.2181447 -48.74  0.001858059    2.322    0.569
       166 -10.5166     61.1776     46.4992   3.7355200896e+01   6.2470033923e+01    0.4699133    0.3090213   2.47  0.002036744    2.223    0.550
       167  -9.9599     55.2617     50.3602   4.1710027234e+01   6.2811731325e+01    0.2310664    0.1846335  18.88 0.0004647407    1.275    0.216
       168  -9.7570     52.2808     48.3301   4.2237588253e+01   6.3728249615e+01    0.2345132    0.1867752 -24.74 0.0004407499    1.233    0.189
       169  -8.9365     93.6914     52.2929   2.7659419594e+01   5.4490432474e+01    0.1477491    0.1188387 -80.81 0.0004867613    1.584    0.369
       170 -10.4833     43.8417     50.0696   4.7159747930e+01   6.4737489290e+01    0.4514299    0.2075431 -57.20  0.001723715    2.777    0.640
       171 -10.3414     46.6926     48.9639   4.5247479971e+01   6.4522675720e+01    0.2556323    0.1874683  -1.95 0.0005242525    1.561    0.359
       172  -9.8295    239.8270     50.6324   2.7396965330e+00   2.0377635284e+01    0.1583886    0.1051969 -83.35 0.0008098249    1.629    0.386
       173  -9.5427    144.9894     50.0662   1.4356745775e+01   4.2075421567e+01    0.2227709    0.1764241  24.88 0.0006049761    1.629    0.386
       174  -9.1833    189.1673     49.4194   7.5341311542e+00   3.1304862176e+01    0.1776799    0.1242646 -88.31 0.0003398765    1.489    0.328
       175 -11.1335     20.4772     45.9302   5.8605741445e+01   6.8545534927e+01    0.4912112    0.4264985  63.91  0.001192071    1.535    0.349
       176 -10.1777     13.3041     46.4215   6.3201503595e+01   6.9068715205e+01    0.3801757    0.1777921 -37.26  0.001733899    2.008    0.502
       177 -10.6502     31.9466     44.5323   5.1259668118e+01   6.7549689826e+01    0.4846134    0.3016132  15.82  0.002410594    1.753    0.430
       178 -10.2873     26.1709     42.8729   5.3943184597e+01   6.8598901646e+01    0.3229919    0.2682718  81.12   0.00162436    1.790    0.441
       179  -9.7597     24.0369     37.4439   5.2897280266e+01   6.9966203887e+01     0.560769    0.2442434  39.77  0.002387768    2.752    0.637
       180  -9.5722      1.8826     48.3952   7.0941358421e+01   6.9340289838e+01    0.1788144    0.1538307 -65.90  0.001139131    1.174    0.149
       181  -9.9749     83.4990     46.1460   2.8494406951e+01   5.7875604281e+01    0.3774979    0.2266921   9.43   0.00133168    3.296    0.697
       182 -10.5063    234.6218     45.0748   1.9432175114e+00   2.2116428397e+01    0.2106764    0.1477982 -72.82 0.0008059725    1.366    0.268
       183 -11.4287     43.9243     44.0264   4.4494280601e+01   6.5942948452e+01    0.4055436    0.3401993  36.24  0.001257624    1.274    0.215
       184 -10.4179     39.4717     43.5804   4.6654129769e+01   6.6707840801e+01    0.2709394    0.2077063 -16.75  0.000781211    1.306    0.234
       185 -10.0283    156.2682     41.9585   9.8792880276e+00   4.0376278670e+01    0.2343732    0.2026726  74.23 0.0007452773    1.127    0.113
       186  -9.5571     99.1280     41.6376   2.1726600870e+01   5.4921393702e+01       0.2327    0.1831233  80.55  0.001017338    1.460    0.315
       187  -9.9756     57.2292     41.8435   3.7003182135e+01   6.4061385885e+01    0.2538305    0.1828275  47.50  0.001296666    1.481    0.325
       188 -11.5608     78.8050     35.4727   2.5400261446e+01   6.0623654856e+01    0.7217199    0.4466043 -26.96  0.003394483    1.741    0.426
       189 -10.1653     10.8514     30.2616   5.8520328401e+01   7.2750147549e+01    0.5536084    0.2454738  13.21  0.002522031    2.522    0.603
       190 -11.1435      3.9825     35.8009   6.5636391596e+01   7.2081280986e+01     0.386031    0.3098718 -40.18  0.002046587    1.034    0.033
       191 -10.5446     61.1192     36.3029   3.2644027573e+01   6.4260606265e+01    0.4502454    0.2727293 -22.10  0.001487778    1.919    0.479
       192  -9.8797    231.5506     37.4806   4.9562584141e-01   2.3699250107e+01    0.1255706   0.09815485 -54.72 9.271399e-05    1.016    0.016
       193 -10.4527    153.2556     35.8688   8.4259452524e+00   4.1953333955e+01    0.2559971    0.1938739  66.70 0.0006532046    1.276    0.216
       194 -10.0914    175.0896     33.9377   4.9558614859e+00   3.6747040842e+01    0.2405045    0.1790665 -47.95 0.0004420093    1.231    0.188
       195 -10.8903    173.2715     30.8426   4.2851615889e+00   3.7577285752e+01    0.3948139     0.174831  63.41  0.001706387    2.165    0.538
       196 -10.5353     50.7888    249.4163   7.8918693812e+01   1.4988706384e+01    0.1658224    0.1024129  23.29 0.0009564334    1.714    0.417
       197 -10.4888    131.5240    240.9232   6.0764491662e+01   6.1086038903e+00    0.2041347    0.1428086  29.54 0.0008715593    1.177    0.150
       198 -11.6234    103.0917     32.8538   1.7060662299e+01   5.5184114502e+01    0.3080999    0.2659454 -76.60 0.0002664046    1.275    0.215
       199 -11.6693    106.9888     31.7324   1.5649768602e+01   5.4352705714e+01    0.5018709      0.31733  20.09  0.001783963    2.283    0.562
       200 -10.0241     68.2940     32.5290   2.7864216517e+01   6.3371409158e+01    0.4410502    0.2776788  55.91  0.002114648    1.683    0.406
       201  -9.9549    217.0098     31.9903   3.7423274355e-01   2.7383571190e+01    0.1912759    0.1540143 -58.21  0.001225174    1.020    0.020
       202 -10.8869     67.7557    240.6304   7.4635717591e+01   1.4628746904e+01    0.2411749      0.19373   8.54   0.00104259    1.545    0.353
       203 -11.4797     49.0934     30.1181   3.5065166079e+01   6.7552434290e+01    0.6476577    0.3250055  34.72  0.002769701    2.014    0.503
       204  -9.6401    241.4584     31.5178   3.5849074673e+02   2.2496351833e+01    0.1234705    0.0907371 -54.95 0.0003041276    1.027    0.026
       205 -11.4747    159.9831     29.4622   5.5007745682e+00   4.1050579447e+01    0.4549437    0.2569842  76.47  0.001519418    1.726    0.421
       206 -11.7727    164.3460     27.5807   4.3867130667e+00   4.0181011318e+01    0.4085935    0.2802292 -57.17 0.0005306654    1.372    0.271
       207 -10.8000    188.9216     27.5837   1.7363888309e+00   3.4213501441e+01    0.3723095    0.3042046   4.57  0.001996489    1.745    0.427
       208 -12.3424    126.6482     27.9911   1.0118268654e+01   4.9781607633e+01    0.8410442    0.4263595  80.76  0.003368422    2.329    0.571
       209 -11.7559     26.3581     27.7111   4.6655053264e+01   7.1553061636e+01    0.4451194    0.3581584 -49.81  0.001840194    1.442    0.306
       210 -10.6509     72.4695    238.1687   7.3389228457e+01   1.4513165475e+01    0.3170529    0.2161502  21.25  0.001834396    1.558    0.358
       211 -10.5936    230.6792     26.8567   3.5819670427e+02   2.5174943502e+01    0.2053009    0.1835285 -85.58 0.0009069904    1.269    0.212
       212 -11.2446    183.3703     25.6445   1.7560187471e+00   3.5757446634e+01    0.3614916    0.2112168 -59.22  0.001469679    1.589    0.371
       213 -11.9187    144.3065     25.5266   6.3941989563e+00   4.5509630046e+01    0.5997199     0.255681  68.70  0.002447699    2.168    0.539
       214 -11.3680    155.5308     24.5391   4.5521174083e+00   4.2755079446e+01    0.4280958    0.1881513  89.83  0.001558987    3.020    0.669
       215 -10.4267    155.2478     20.9987   3.4832245483e+00   4.3222994899e+01    0.3220901    0.2076323  31.87  0.001430427    2.212    0.548
       216  -9.9241    169.9089     23.2774   2.4834005411e+00   3.9299443910e+01    0.3379746    0.1341991  66.41  0.001305146    2.321    0.569
       217 -10.8771    133.9034     21.8349   6.6958113182e+00   4.8606914230e+01    0.4016092    0.2533334  62.53  0.001994126    1.456    0.313
       218 -11.3688     38.9518     22.0118   3.5890799001e+01   7.0602879412e+01    0.2588214    0.2124307 -13.79 0.0003409956    1.140    0.123
       219  -9.3596     15.5194    233.5008   8.5505467126e+01   2.1903169818e+01     0.191395   0.09142624 -66.84  0.001026542    2.320    0.569
       220  -9.8659     13.8458     22.7990   5.2678845645e+01   7.3928223589e+01    0.1862803    0.1437026 -15.92 0.0003589135    1.124    0.110
       221 -10.5536      5.0829     22.1967   5.9107911123e+01   7.4834309092e+01    0.3756907    0.2005493  30.56   0.00200449    2.084    0.520
       222 -10.5419    147.3995    239.1537   5.7192188264e+01   4.2330512104e+00    0.2175286    0.1805902  44.46 0.0009932597    1.365    0.267
       223  -9.2382     44.5145    215.4631   7.7934483082e+01   2.2651342983e+01    0.1285621     0.109542  56.83 0.0002384099    1.044    0.043
       224  -9.2586    164.4820    211.5109   4.9490291292e+01   6.4508140425e+00    0.1315723    0.1142182  11.36 0.0007387914    1.037    0.036
       225 -10.6314      9.1169    211.1365   8.5933435906e+01   2.7288186497e+01    0.1758764    0.1615603  84.06  0.001109005    1.251    0.201
       226 -10.2051    224.0696     22.0195   3.5755703664e+02   2.7090964832e+01    0.1852435    0.1428743 -60.53 0.0003852575    1.014    0.014
       227 -10.9448    178.5671     20.9499   9.3730747976e-01   3.7448595035e+01    0.4268318    0.2214315  44.76  0.001876701    2.693    0.629
       228  -9.3712    171.4924    208.5362   4.7533357382e+01   5.9267304080e+00    0.1330112    0.1121006   4.99 0.0001394573    1.024    0.023
       229  -9.1640     39.9977    207.4973   7.8409205119e+01   2.4959122835e+01    0.2004356   0.07047989  48.86 0.0008094168    2.445    0.591
       230 -10.1241    216.4205     19.9071   3.5758856771e+02   2.8940069739e+01    0.2079837     0.142422 -72.81 0.0005623158    1.275    0.216
       231 -10.9643    163.3380     19.2855   2.0261159870e+00   4.1373974772e+01    0.2569535    0.2175126  84.68 0.0004477583    1.098    0.089
       232 -11.4316    165.9981     16.5109   9.2315969673e-01   4.1008213117e+01    0.4132133    0.2204896  67.82  0.001002326    1.747    0.428
       233  -9.7418     74.7212     19.5608   1.9109563217e+01   6.3659524974e+01    0.2255103     0.163677  -1.62 0.0006537924    1.574    0.365
       234  -9.6562     46.6741     20.0545   3.0701206898e+01   6.9508352192e+01    0.1841331    0.1589265  -4.29 0.0005068646    1.095    0.087
       235  -8.7206     79.6940    206.3257   6.8485860520e+01   2.0185332346e+01    0.1449088   0.09299242  60.81 0.0007035295    1.648    0.393
       236 -11.4483      5.6809    200.6478   8.6261793624e+01   2.9974486481e+01    0.6791527    0.1208197 -65.78  0.002274122    4.818    0.792
       237  -9.2829    199.2048     17.5934   3.5827642526e+02   3.2987839873e+01    0.1681427    0.1085638  68.38  0.000941435    1.606    0.377
       238  -9.4398    240.6517    195.3018   3.2519082079e+01  -1.4732805209e+00    0.1009649   0.09226543 -43.28 0.0007039087    1.691    0.409
       239 -10.1718    127.1804     16.4792   5.8278555009e+00   5.0906174144e+01    0.2724773     0.196421  56.15 0.0006737751    1.326    0.246
       240  -9.5721     15.4881    189.4928   8.3268435743e+01   3.1737862307e+01    0.1332298    0.1066921  68.10 5.063972e-05    1.026    0.025
       241 -12.6104      4.9248    183.5257   8.5624982119e+01   3.4105188736e+01    0.6381032      0.44453  79.53  0.003784803    1.204    0.169
       242 -10.0278    211.0398     16.0029   3.5703811560e+02   3.0535381078e+01    0.1850327    0.1478703 -60.17  0.001208115    1.035    0.034
       243 -10.1768    242.6065     14.9538   3.5493454275e+02   2.4195319580e+01    0.1638318    0.1312684 -30.78 0.0004823194    1.440    0.306
       244  -9.9259    186.8517     14.8843   3.5855817312e+02   3.6135854851e+01    0.1833068    0.1718794  73.34  0.001079747    1.269    0.212
       245 -12.2308    113.9692     25.2669   1.1528655995e+01   5.3366304966e+01     1.037261    0.2784969  54.88  0.002599761    3.071    0.674
       246  -9.5309     28.0068    175.9846   7.8977017689e+01   3.3881773949e+01    0.1707084    0.1422109  81.77 0.0005740059    1.056    0.053
       247 -10.7626     15.9129    173.6427   8.2120932930e+01   3.5628952332e+01    0.2800027    0.1747011  83.72    0.0014576    1.441    0.306
       248  -9.7949    190.9682    171.4728   3.6740182373e+01   9.4387108670e+00    0.1817448    0.1214576  62.10 0.0008100335    2.636    0.621
       249 -12.0780      9.1701    166.9043   8.3526846953e+01   3.7919274163e+01    0.4701428    0.3048121  25.14   0.00214876    1.691    0.409
       250 -12.5802     12.7380    160.4940   8.2061467146e+01   3.9285898247e+01     1.242454    0.6136727 -20.64 0.0007897184    4.072    0.754
       251  -8.9599    152.3585    166.6831   4.4003551144e+01   1.7083749633e+01    0.1475266    0.1188022  76.83 0.0007044063    1.755    0.430
       252 -10.4433     18.2014    165.0535   8.0837171450e+01   3.7629543319e+01    0.2605945    0.2103074 -66.59  0.001517285    1.263    0.208
       253 -10.9185    205.1415    163.3724   3.2431304625e+01   8.5563885234e+00    0.2713757    0.1996153 -29.74 0.0008714721    1.192    0.161
       254  -9.9353    214.8131    161.5834   3.0360559347e+01   7.3180441516e+00    0.1571763    0.1283221  48.25 0.0003140977    1.571    0.364
       255 -10.0848     28.3777    160.9627   7.7504701283e+01   3.7738852446e+01    0.2399035    0.1945697  17.78   0.00133605    1.447    0.309
       256  -9.1486    169.2962    159.6806   3.8754031166e+01   1.5439159996e+01    0.1381841    0.1180062 -83.53 0.0003413834    1.613    0.380
       257 -10.9854      9.5485     19.5014   5.4179704858e+01   7.4966804512e+01    0.4908069    0.2290886   4.37  0.001094122    2.892    0.654
       258  -9.8396     31.7570    157.1647   7.6102125774e+01   3.8403078395e+01    0.2642492    0.1127528  62.21 0.0009541451    2.838    0.648
       259 -10.9747      9.4622    155.1176   8.2622859003e+01   4.0954865841e+01    0.2602172    0.1798736 -89.39  0.001420634    1.249    0.199
       260  -9.5971    104.2931    154.4403   5.3883905843e+01   2.8689172214e+01    0.2781169     0.197211 -82.93  0.001198558    1.824    0.452
       261 -11.2250     47.2675    147.7285   7.0090514425e+01   3.9199139307e+01    0.8588253    0.4013806 -52.38  0.003426102    2.154    0.536
       262 -12.0125     16.6626    148.8561   7.9921407551e+01   4.2036254784e+01    0.9018661    0.2872742 -89.20  0.002797838    3.933    0.746
       263 -11.5679     23.7598    147.9982   7.7614634517e+01   4.1642574992e+01     0.368549    0.2640293 -83.36 0.0008723252    1.248    0.199
       264 -10.9444      4.4759    153.1785   8.3964475924e+01   4.1833268852e+01    0.2718343    0.1617562  32.51  0.001234665    1.726    0.421
       265  -9.3950     55.5032    152.5211   6.8181813375e+01   3.6861012012e+01    0.1485848    0.1384712  88.45 0.0003128768    1.026    0.025
       266 -12.2366      4.4184    142.9088   8.3252014937e+01   4.4548358813e+01    0.8248917    0.3799978  56.89   0.00280167    2.158    0.537
       267 -11.9649     12.4146    135.7739   8.0064741009e+01   4.5895922028e+01    0.7153713    0.3338594 -58.35  0.003158503    1.961    0.490
       268 -11.8589     21.0138    150.6791   7.8740910443e+01   4.1171706697e+01    0.3036914    0.2413796 -64.13 0.0003454646    1.242    0.195
       269 -10.6265     33.1092    144.2524   7.4195746094e+01   4.1742515917e+01     0.302153    0.2434004 -86.46 0.0008978439    1.127    0.113
       270  -9.2152     40.3211    141.3301   7.1448651130e+01   4.1758318873e+01    0.1550618    0.1372933  82.94 0.0008210271    1.048    0.046
       271 -10.3094     40.7582    137.9771   7.0825806150e+01   4.2626470309e+01    0.3302322     0.259427  53.57  0.001622722    1.277    0.217
       272 -10.9453     80.3659    138.2130   5.7810541468e+01   3.7000685052e+01    0.2682515    0.2519739  47.57 0.0004420624    1.079    0.073
       273 -11.9535     22.4558    135.7592   7.6704843901e+01   4.5081906368e+01     0.705566    0.4458266  40.96   0.00350177    1.607    0.378
       274 -10.4990     30.4520    132.4852   7.3568445630e+01   4.5231098617e+01    0.3292168    0.2464485 -29.16   0.00114941    1.622    0.383
       275  -9.7502     25.9850    131.3200   7.4960650714e+01   4.5978462678e+01    0.1900234     0.178716  70.78 0.0003382803    1.100    0.091
       276  -9.1152     26.5388    127.4590   7.4260862053e+01   4.6987605912e+01    0.1450492    0.1283804 -84.22  7.31392e-05    1.010    0.010
       277 -10.8950     10.3332    126.5562   7.9860141079e+01   4.8546044253e+01    0.2679242    0.2174602 -64.77 0.0008379755    1.153    0.133
