#   1 NUMBER                 Running object number                                     
#   2 MAG_AUTO               Kron-like elliptical aperture magnitude                    [mag]
#   3 X_IMAGE                Object position along x                                    [pixel]
#   4 Y_IMAGE                Object position along y                                    [pixel]
#   5 X_WORLD                Barycenter position along world x axis                     [deg]
#   6 Y_WORLD                Barycenter position along world y axis                     [deg]
#   7 A_WORLD                Profile RMS along major axis (world units)                 [deg]
#   8 B_WORLD                Profile RMS along minor axis (world units)                 [deg]
#   9 THETA_WORLD            Position angle (CCW/world-x)                               [deg]
#  10 FWHM_WORLD             FWHM assuming a gaussian core                              [deg]
#  11 ELONGATION             A_IMAGE/B_IMAGE                                           
#  12 ELLIPTICITY            1 - B_IMAGE/A_IMAGE                                       
         1 -14.2266     69.7677    148.4162   4.9791439636e+01   3.5944771705e+01     3.841297     1.938107  87.92  0.001928517    3.853    0.740
         2 -13.3972    215.3329     56.3340   3.5639645419e+02   2.6823697638e+01     1.109059    0.9559969 -24.06  0.004127112    1.415    0.293
         3 -13.6250    229.6359     47.3479   3.5324215303e+02   2.5434110927e+01    0.8877555    0.8155541  73.13  0.004245672    1.423    0.297
         4 -11.0544      2.7616      9.0459   4.5415506755e+01   7.8400820712e+01    0.6187458    0.1600503 -49.78   0.00246325    3.282    0.695
         5  -9.6707    227.3411      9.7234   3.4550917725e+02   3.0203443507e+01    0.1960203    0.1521731 -56.41 0.0007040376    1.102    0.092
         6  -8.9868    103.0068      9.2497   3.5666272832e+02   5.7982502304e+01    0.1764087    0.1019566  71.40 0.0004405862    1.536    0.349
         7  -9.6546    193.9883      5.4650   3.4627985368e+02   3.7114750099e+01     0.171512   0.06920075 -68.61 -4.09611e-05    2.389    0.581
         8  -9.2242    108.6833      5.3340   3.5417597927e+02   5.6936332027e+01    0.1406963   0.08661662 -64.65 0.0007047669    1.692    0.409
         9  -9.6021     53.6444    237.9288   6.4066851093e+01   1.6659136028e+01    0.2457769     0.150162  42.70 0.0003931913    1.369    0.269
        10  -9.4989    150.7103    249.6217   4.3724960677e+01   4.0566468001e+00     0.199376    0.1225924 -30.42  0.001162506    1.670    0.401
        11  -9.2514     74.8935    248.9722   5.9981930004e+01   1.2333787450e+01    0.2671369    0.1460381 -52.78  0.001483567    2.168    0.539
        12 -12.4283     53.6005    218.6174   6.2642169692e+01   2.0695761592e+01     1.599476     1.141016 -78.95  0.003013343    1.562    0.360
        13 -14.6699     10.7910    189.5688   7.2147722206e+01   3.1543376955e+01     8.577517          nan  29.76   0.02311144    5.655    0.823
        14 -14.4269      9.9639    206.8564   7.3136906685e+01   2.7469688156e+01     1.324564    0.6516469  21.14  0.003958795    1.957    0.489
        15  -9.1996     63.5175    237.1796   6.1679649615e+01   1.5782514192e+01    0.1715462     0.142603  34.27 0.0004120194    1.005    0.005
        16 -12.8248    119.7313    230.2178   4.7921870893e+01   1.0743890928e+01    0.8757837    0.3968085  30.89  0.004280732    1.871    0.466
        17 -12.1940    132.8073    230.0846   4.5020955470e+01   9.2298687222e+00    0.4486313    0.3805283 -55.77  0.002983612    1.466    0.318
        18  -9.6938     72.8046    233.2821   5.9153946492e+01   1.5554786634e+01     0.246247    0.2095944  73.78  0.001011814    1.324    0.244
        19  -9.1643     58.8975    233.1775   6.2471406072e+01   1.7071125313e+01    0.2210784    0.1659281 -38.56   0.00132967    1.643    0.391
        20 -11.1741     54.8775    232.4668   6.3384059005e+01   1.7635574881e+01    0.2574939    0.2011763 -87.89 0.0005011476    1.454    0.312
        21 -10.5705     75.5208    220.2434   5.7286838043e+01   1.7913873820e+01    0.5230084    0.3211739  61.81  0.002655052    1.941    0.485
        22 -11.7723    107.2229    229.2090   5.0646291167e+01   1.2406185898e+01    0.5763664    0.2340538  32.09  0.002640784    2.042    0.510
        23 -11.8241     97.6986    225.3622   5.2438816609e+01   1.4272954129e+01    0.6843836    0.5205141  35.94  0.003306337    1.188    0.158
        24 -10.8360     87.8561    222.2560   5.4462972711e+01   1.6058598251e+01    0.4964941    0.4388385  77.96  0.003174117    1.314    0.239
        25 -10.6818     81.2128    221.3287   5.5989589436e+01   1.7028119181e+01    0.4766637    0.3918837  44.45  0.001910428    1.151    0.131
        26  -9.5547     47.0733    229.3912   6.5055140414e+01   1.9070682474e+01    0.2086828    0.1591787  62.71 0.0006970724    1.287    0.223
        27  -8.0508    194.6954    229.3157   3.2668828843e+01   2.4757447037e+00   0.09418441   0.08856287  27.16 0.0004915079    1.623    0.384
        28  -9.3095     72.5199    225.7441   5.8547532861e+01   1.7111072085e+01    0.2312515    0.1540583  26.99 0.0005112324    1.298    0.230
        29  -9.9451    174.9280    223.5223   3.5481342758e+01   5.4644494013e+00      0.17807    0.1391426 -21.99  0.000517477    1.162    0.139
        30  -9.0144    164.2954    218.3466   3.6812625619e+01   7.5204770706e+00    0.1281184   0.08110227 -13.25 0.0007032619    1.672    0.402
        31  -9.5084    161.4751    222.4826   3.7978192134e+01   7.1665043581e+00    0.1228922    0.0999822  -1.44 0.0001275746    1.024    0.024
        32 -14.2338     35.2437    173.0505   6.3865289044e+01   3.3573854736e+01     3.998241     1.538422  37.42   0.01583614    2.228    0.551
        33  -8.2649    132.2298    211.7097   4.2684511639e+01   1.2644217912e+01    0.1118645   0.09857369  59.89 0.0006780848    1.452    0.311
        34  -9.7344     95.5325    209.7589   5.1152599698e+01   1.7712999465e+01    0.3010572    0.1400699 -66.13  0.001292239    2.641    0.621
        35  -8.2569     85.4375    210.5115   5.3774282290e+01   1.8805073235e+01     0.133462    0.1195969  30.88 0.0001312296    1.010    0.010
        36 -10.4299     72.4022    208.1040   5.6852506454e+01   2.0902521544e+01    0.3570782    0.2953873 -33.26  0.001363902    1.389    0.280
        37 -10.5739    103.6546    203.0795   4.8279546316e+01   1.8084942064e+01    0.2630312    0.2386809 -52.23 0.0005779749    1.206    0.171
        38  -9.3961    210.8759    199.1123   2.5244348078e+01   5.1900638211e+00    0.2080566    0.1442862 -13.84 0.0008430587    1.255    0.203
        39 -11.0768    114.1090    195.1513   4.4576494627e+01   1.8367360278e+01    0.4516314    0.2433931 -21.91  0.001736979    3.107    0.678
        40 -12.1493    107.9820    189.3849   4.5262506792e+01   2.0462170833e+01    0.8850105    0.3412699 -45.82   0.00337553    2.775    0.640
        41 -11.7139     96.4092    195.3017   4.9078046790e+01   2.0732565291e+01    0.5421447    0.3526841  34.73  0.002749267    1.406    0.289
        42 -10.6471    101.9632    192.7428   4.7290900412e+01   2.0551523974e+01    0.3060336    0.2467615  26.25  0.001332811    1.155    0.134
        43  -8.7862    192.1929    193.7848   2.7608321291e+01   8.2105531866e+00    0.1727346    0.1375026  88.95 0.0009430816    2.770    0.639
        44 -12.9372      2.0873    242.5090   7.6169052987e+01   2.0408672452e+01    0.7947981    0.2574743 -87.32   0.00359995    3.325    0.699
        45 -10.8716    119.9963    188.4935   4.2117548732e+01   1.8962214609e+01    0.3890477     0.174419  21.33  0.001485419    2.691    0.628
        46 -11.2442     65.5538    186.5165   5.6339519741e+01   2.6761395208e+01    0.2922134    0.2397105  88.19 0.0006111321    1.300    0.231
        47 -10.8329    116.3643    181.6223   4.1931623376e+01   2.0973051380e+01    0.2884228    0.2059047 -34.99 0.0009530752    1.492    0.330
        48  -9.3819     75.5124    180.7565   5.2805438341e+01   2.6904220501e+01    0.2642147    0.2042551  47.44 0.0006344977    1.250    0.200
        49 -14.3713      5.4610    232.6721   7.5137605051e+01   2.2146480393e+01     2.549914    0.8677396  51.35   0.01199161    2.270    0.559
        50 -11.2795    125.2219    246.4544   4.8615749985e+01   7.3028658302e+00    0.4170367    0.1925909 -50.52   0.00219315    2.433    0.589
        51  -9.4150    110.5964    167.4857   4.1059344652e+01   2.5034070564e+01     0.254896    0.2388344  85.49 0.0005576505    1.179    0.152
        52 -11.4558     60.0974    156.9177   5.4201069012e+01   3.4998196779e+01    0.4449817     0.409887 -21.41 0.0007316227    1.206    0.171
        53  -9.7010    180.7017    167.1692   2.5053895387e+01   1.4320527831e+01    0.3185763     0.159614 -44.72  0.001407516    1.849    0.459
        54 -10.6749     38.6745    149.4560   6.0305102629e+01   3.9540142490e+01    0.4416323    0.3038685 -50.01  0.000651753    1.533    0.348
        55  -8.5521    112.2107    150.3625   3.7465291771e+01   2.8788829375e+01    0.1986708    0.1343444  44.67 0.0002277274    1.519    0.342
        56  -9.4676    134.4323    148.6950   3.1397000229e+01   2.5389097907e+01    0.2759665    0.1401986 -54.36  0.001121323    2.061    0.515
        57 -10.1373    108.8810    145.4968   3.7418838804e+01   3.0510375169e+01    0.2690534    0.2657249 -26.89 0.0006123133    1.009    0.009
        58 -10.2826    236.0167    145.2785   1.2078821412e+01   1.0329838243e+01    0.1619366    0.1337459 -26.33  0.001173475    1.092    0.084
        59 -10.1942     36.7519    142.5660   6.0133740115e+01   4.1640113138e+01    0.3520415    0.2470197 -87.89  0.000743687    1.438    0.305
        60 -11.1962     38.2417    137.3709   5.8932914781e+01   4.2922497970e+01    0.2844552    0.2618266  88.72 0.0003272922    1.033    0.032
        61 -11.0950     38.5937    129.2945   5.7674149955e+01   4.5133488643e+01    0.5366459    0.3108019  81.62  0.002178248    2.080    0.519
        62 -10.6859     34.8115    124.1604   5.8366373552e+01   4.6973125234e+01    0.3307758    0.2554519  26.58 0.0005618207    1.337    0.252
        63  -8.7876     27.9167    144.5068   6.3464240998e+01   4.1975874084e+01    0.2110519    0.1427174  23.58 0.0005257961    1.520    0.342
        64 -10.1533     47.2709    147.3305   5.7107095802e+01   3.9160594001e+01    0.3111778    0.2034827 -86.12  0.001392474    1.631    0.387
        65 -10.2734     95.7417    133.7769   3.8833843909e+01   3.5638997470e+01    0.5303413    0.3892558 -12.48  0.002338728    1.871    0.466
        66 -11.9249     43.1762    134.1898   5.6695992009e+01   4.3256676573e+01    0.5692159    0.5446026  77.54  0.001425902    1.013    0.013
        67 -11.6392     82.3744    131.9669   4.2665832948e+01   3.8344939704e+01    0.2978852    0.2831385 -50.08 0.0004039368    1.068    0.064
        68  -9.1197    235.9857    132.2288   9.6605990813e+00   1.2297185555e+01    0.1290302   0.09945029  43.20 0.0008851002    1.675    0.403
        69  -9.7376    105.6223    130.7411   3.5240634958e+01   3.4646037607e+01    0.3782587    0.2791815 -60.45  0.001122633    1.387    0.279
        70  -9.2417    107.3180    126.2993   3.3752626134e+01   3.5410364464e+01    0.2916398    0.2373456   0.29 0.0009636687    1.534    0.348
        71  -9.4751     23.6690    130.1315   6.3424839158e+01   4.6364537032e+01    0.2978019    0.1935447 -45.32 0.0007871152    1.640    0.390
        72  -8.5809    100.9560    127.3506   3.5861813204e+01   3.6314323771e+01    0.2041794    0.1900843  38.39 0.0002714653    1.091    0.083
        73 -10.7110     93.2661    121.9475   3.6999152997e+01   3.9036192112e+01    0.5122837    0.3463534 -30.69  0.001659237    1.857    0.461
        74 -14.9192      4.6775    214.7630   7.4765514637e+01   2.6081550079e+01     3.031152     1.101901  19.64   0.01318438    2.658    0.624
        75  -8.9508    114.2160    121.5459   3.0690133162e+01   3.5244603185e+01    0.2836352    0.1971602 -16.99  0.001015093    2.137    0.532
        76 -12.8998     57.2096    144.7345   5.3356887984e+01   3.8638531425e+01    0.7024254    0.5175923 -44.54 0.0008100987    1.459    0.315
        77  -8.3199     76.3083    120.6755   4.2317802128e+01   4.2281354583e+01    0.1624542    0.1189425  71.09 0.0007036795    1.650    0.394
        78 -10.8787     26.2838    117.5724   6.0810352546e+01   4.9656793420e+01    0.3552126    0.2437627  50.00 0.0006999307    1.492    0.330
        79 -11.4127    243.8967    115.3211   5.5137131953e+00   1.3719616658e+01    0.3597382    0.1300742 -39.98  0.001772969    2.052    0.513
        80  -9.6627     42.5260    115.0924   5.3844343309e+01   4.8636744102e+01    0.2991132    0.1938254  46.54  0.001034019    1.587    0.370
        81  -9.6875    104.9011    116.1435   3.2063717560e+01   3.8300878171e+01    0.2440116    0.2148853 -57.05 0.0003022136    1.115    0.103
        82 -11.1409     24.5087    105.7392   5.9817086110e+01   5.3127038255e+01    0.5056936    0.3447085  53.91  0.001696311    1.559    0.359
        83 -10.6197    248.4389     91.1117   4.0874345735e-01   1.6522397747e+01    0.2074897    0.1422647 -79.14  0.001351091    1.971    0.493
        84  -9.1610     20.4945     90.1538   5.9066155811e+01   5.7771943999e+01    0.2021738    0.1969954   1.67 0.0006314583    1.084    0.077
        85  -8.6192    120.2132     89.4067   2.0668732139e+01   4.1180205914e+01    0.1972436    0.1428161  63.84 0.0003480257    1.515    0.340
        86 -11.1956     53.6827     88.6174   4.3330659743e+01   5.4241741479e+01    0.6295568    0.3605001 -68.95  0.002563332    1.979    0.495
        87  -9.1654     38.2833     86.4196   4.9737979454e+01   5.6933506466e+01    0.3232337    0.1933376  67.92 0.0009533014    2.388    0.581
        88 -11.6640     78.3205    144.9972   4.6462002427e+01   3.5589044294e+01    0.7406709    0.5428073  -4.64  0.001617967    1.796    0.443
        89  -8.3652     98.6477     86.3437   2.5913839474e+01   4.6460941391e+01    0.1638709    0.1206754  87.65 0.0007040588    1.814    0.449
        90 -10.3741    241.1838     81.9501   3.5931221050e+02   1.8890025151e+01    0.1828666    0.1216199 -18.41  0.001090806    1.976    0.494
        91  -9.3219     45.1796     80.4034   4.4934868248e+01   5.7581942124e+01    0.2145816    0.1317967  41.66 0.0007972808    1.674    0.402
        92 -11.5752     54.5986    160.6991   5.6465769639e+01   3.4683902521e+01    0.5097284    0.4273184  14.95  0.001608319    1.281    0.219
        93 -12.3144    205.4958     62.5291   3.5877921954e+02   2.7802615755e+01      0.51987    0.4399066 -80.83  0.001143672    1.208    0.172
        94  -9.6321    101.5594    248.1991   5.3941586494e+01   9.6038342024e+00    0.2616808    0.1128067 -56.15  0.001308619    2.677    0.626
        95 -11.1268     42.7435    246.0833   6.7115005804e+01   1.6135394807e+01    0.2302015    0.1796569  68.16 0.0006003638    1.317    0.240
        96  -9.8873     13.4030     72.6745   5.9431567172e+01   6.3000493219e+01    0.2950426    0.2020539  54.00 0.0007362539    1.669    0.401
        97  -8.2013     21.3157     67.3082   5.3764851062e+01   6.3732286332e+01    0.1510989   0.09735736 -32.88 0.0003821626    1.631    0.387
        98  -8.1118     78.7075     55.7040   2.2291685246e+01   5.7097929868e+01     0.143013    0.1167836   8.44 0.0002590493    1.559    0.359
        99 -10.1560     21.4329     35.7690   4.3155401815e+01   7.1116208547e+01    0.1977809    0.1126681 -42.59 0.0009576119    1.708    0.415
       100  -9.0144     91.0241     32.2919   8.9136322492e+00   5.8196695827e+01    0.2026455    0.1695399  68.79 0.0004739898    1.124    0.111
       101 -10.4925      3.6103     31.7687   5.5230701182e+01   7.3645296885e+01    0.3404146    0.1969004  38.15  0.001737915    1.963    0.491
       102 -10.6774     22.5672     28.2363   3.8820364995e+01   7.2507846242e+01    0.2506703    0.2201705  14.38 0.0006167641    1.075    0.070
       103 -10.3724      7.5102     25.9932   4.9673626679e+01   7.4607279445e+01    0.2557008    0.1622059  36.57  0.001380169    1.729    0.422
       104 -10.7670      2.4985     23.0458   5.2836173492e+01   7.5620566753e+01    0.3342368      0.20712 -62.66  0.001508339    1.660    0.397
       105  -9.7724     60.7909     21.5902   1.3930856667e+01   6.6666566137e+01    0.2721333    0.2135552  63.65  0.001306494    1.287    0.223
       106  -8.2300    113.6984     16.3280   3.5759703191e+02   5.4605314375e+01    0.1421572   0.09122518 -65.73 0.0005755841    1.643    0.391
       107  -9.4423    189.4077     15.2870   3.4896097689e+02   3.7048457104e+01    0.1687621   0.08962575 -44.74 0.0006590713    1.526    0.345
       108  -8.4532     57.5660    242.9774   6.3501357849e+01   1.5265833992e+01    0.1531017    0.1204902 -79.73 0.0003738694    1.498    0.332
       109  -8.5769    198.4744    241.4423   3.3711394303e+01   4.1237494012e-01     0.110235   0.08212518  -4.43 0.0001023669    1.008    0.008
       110 -10.5480    103.7261    238.6182   5.2479870946e+01   1.1069044165e+01      0.30033    0.2202776 -65.30  0.001855955    1.708    0.415
       111 -15.2150     23.9193    179.5932   6.7792922015e+01   3.2954191911e+01     12.61852     3.281915  89.21   0.02998148    7.304    0.863
