#   1 NUMBER                 Running object number                                     
#   2 MAG_AUTO               Kron-like elliptical aperture magnitude                    [mag]
#   3 X_IMAGE                Object position along x                                    [pixel]
#   4 Y_IMAGE                Object position along y                                    [pixel]
#   5 X_WORLD                Barycenter position along world x axis                     [deg]
#   6 Y_WORLD                Barycenter position along world y axis                     [deg]
#   7 A_WORLD                Profile RMS along major axis (world units)                 [deg]
#   8 B_WORLD                Profile RMS along minor axis (world units)                 [deg]
#   9 THETA_WORLD            Position angle (CCW/world-x)                               [deg]
#  10 FWHM_WORLD             FWHM assuming a gaussian core                              [deg]
#  11 ELONGATION             A_IMAGE/B_IMAGE                                           
#  12 ELLIPTICITY            1 - B_IMAGE/A_IMAGE                                       
         1 -11.3302      2.1762     21.8539   9.4433037683e+01   7.1302526156e+01    0.3985157    0.1821105 -49.11  0.001990441    1.881    0.468
         2 -10.5918    113.8860     26.0849   5.1955645956e+01   5.2773865980e+01    0.2666114    0.1843677 -37.13  0.001139687    1.599    0.375
         3 -10.5959    229.5108     21.5023   3.4317392602e+01   2.6312681416e+01    0.3008413    0.1330016 -64.45     0.001369    2.460    0.594
         4 -11.1198     36.9568     18.6104   7.4668631180e+01   6.8257532450e+01    0.3345043    0.2427857  39.53  0.001314893    1.654    0.396
         5 -11.2486     34.4764     12.5118   7.2876776548e+01   6.9395768420e+01    0.3402592    0.2556967 -12.29  0.001317979    1.149    0.130
         6 -11.8632     30.5643      7.4300   7.2184856315e+01   7.0553168199e+01    0.4877097    0.2812893  37.64  0.002928986    1.779    0.438
         7 -10.2242     28.0000      1.9215   7.0523403584e+01   7.1536519919e+01    0.1662384    0.1366759 -12.86 0.0006426908    1.302    0.232
         8 -10.1742     40.6513      7.7060   6.7603751600e+01   6.9073902510e+01    0.2667052    0.1416965  18.92 0.0006282236    1.989    0.497
         9 -10.5672     37.5427      6.0535   6.8155077045e+01   6.9724148152e+01     0.260292    0.1770651 -24.96  0.001115865    1.470    0.320
        10 -11.0753     13.3345     15.6596   8.5421693634e+01   7.1409866879e+01    0.3261444    0.2457324 -11.37  0.001805742    1.029    0.028
        11 -11.5933    234.8277     15.0812   3.2549636206e+01   2.5937302747e+01     0.227499    0.1718318 -68.97 0.0002800724    1.070    0.066
        12 -10.5766     84.3947     14.2308   5.4943004066e+01   6.0469490229e+01    0.5326843    0.2030632  40.13   0.00153815    2.461    0.594
        13 -10.2467     66.0280     14.1003   6.0689109254e+01   6.4088987230e+01    0.2069109    0.1670776  -0.31 0.0007000056    1.163    0.140
        14 -11.0219    208.0415     13.1567   3.4336935941e+01   3.1915083070e+01    0.2027588    0.1627495 -50.62 0.0005775709    1.211    0.174
        15 -10.9184     14.3390      7.4507   8.0814156829e+01   7.2490639777e+01    0.3244722    0.2770823   9.16  0.001345264    1.391    0.281
        16 -11.5078    134.5374     10.6857   4.2642922297e+01   4.9473212561e+01    0.4206267    0.2030438  53.92  0.002017365    1.772    0.436
        17 -10.5020    119.7324      3.5596   4.2805758450e+01   5.3560822269e+01    0.2747557    0.2006951  83.79 0.0007753595    1.456    0.313
        18 -10.6697    126.0813     11.1153   4.4243183840e+01   5.1438521271e+01    0.1946959    0.1686922  55.63  0.001223128    1.019    0.018
        19 -10.0804    123.4785      7.9525   4.3641488875e+01   5.2326548594e+01    0.2354564    0.1291151 -21.26  0.001155526    2.095    0.523
        20 -10.0504      3.9080     10.7182   8.8555195647e+01   7.2974187142e+01    0.1439799     0.108627  -4.39  0.000335518    1.152    0.132
        21 -10.1238     45.7311     10.0983   6.6599679310e+01   6.8018365977e+01    0.1830204    0.1484601  31.04 0.0003306333    1.268    0.212
        22 -10.3759     22.4662      9.5304   7.7417733301e+01   7.1312167441e+01    0.3262337    0.1628787  13.99  0.001711342    2.237    0.553
        23 -10.3235     56.9873      8.4924   6.1331908199e+01   6.6305318305e+01    0.2369957    0.1662551 -28.29 0.0004831515    1.568    0.362
        24 -11.1625     57.7569      2.5952   5.8200201402e+01   6.6730759479e+01    0.3742094    0.2624051  10.07 0.0002829214    1.318    0.241
        25 -10.4194    217.4825      5.9848   3.1953494602e+01   3.0589791607e+01    0.1846534   0.06396707 -51.84 0.0008104078    2.642    0.622
        26 -10.9784    151.0232      6.0412   3.8755621294e+01   4.5942948139e+01    0.1949501    0.1692845  75.67 0.0003750424    1.009    0.008
        27 -10.0800      2.5040      6.4981   8.7356904536e+01   7.3715297594e+01    0.1961399   0.09447861  19.51 0.0006171438    2.021    0.505
        28  -9.9046    236.8149      3.3856   3.0040867908e+01   2.6794618019e+01    0.2768438    0.1259202  42.50  0.001036978    5.795    0.827
        29 -10.3818    135.4996      4.0398   4.0366894453e+01   4.9813384258e+01    0.1687623    0.1283849 -21.04 0.0003713122    1.530    0.346
        30  -9.2230    104.6306      4.3118   4.6002459685e+01   5.6960937252e+01    0.1697351     0.123053 -40.74 0.0009934541    1.648    0.393
        31 -10.4786    101.9957      1.8493   4.5626916774e+01   5.7742225808e+01      0.38019    0.1545073  61.00  0.001148338    2.069    0.517
        32  -9.7445     83.6838      4.2805   5.0957949713e+01   6.1517683742e+01    0.3185076    0.1751389  67.67   0.00158338    2.139    0.533
        33 -11.6340     80.4479      1.5232   5.0647684447e+01   6.2410591798e+01    0.2844921    0.1399946  55.50 0.0005954891    1.753    0.430
        34  -9.6172     49.7020      2.9818   6.1410089795e+01   6.8106089488e+01    0.1590958    0.1261035   7.55 0.0002847514    1.091    0.083
        35 -10.6255     20.8556      2.2419   7.4416077587e+01   7.2419382467e+01    0.3001687    0.1574838  18.85  0.001371923    1.819    0.450
        36  -9.7922    176.5805      2.2222   3.4703733223e+01   4.0213005913e+01    0.1536241     0.122797  -1.29  0.000948927    1.687    0.407
        37  -9.5675    162.6510      2.3091   3.6243765956e+01   4.3492418359e+01    0.1336316   0.08379097 -69.90  0.000704436    1.710    0.415
        38 -11.4471    188.3080      6.9156   3.4708757445e+01   3.7043860784e+01     0.402677    0.1882805  41.95  0.001732858    3.211    0.689
        39 -10.7319     11.6814      1.8954   7.9395818090e+01   7.3500568607e+01    0.1787117    0.1366376  14.20  0.000487547    1.298    0.230
        40  -9.4830      1.1933      2.0342   8.5888788259e+01   7.4460541503e+01    0.1431102   0.06884733 -38.47 0.0008223914    1.784    0.439
        41  -9.2941     71.5996      1.5248   5.3165042857e+01   6.4199283100e+01    0.1211418    0.1005261  29.38 0.0001363791    1.033    0.032
        42  -9.6495    226.4545    164.0208   6.6409551049e+01   4.2182411053e+00    0.2095968     0.120751 -36.11 0.0007049842    1.544    0.353
        43 -11.0761     29.5049    250.5119   1.2087594845e+02   1.7910031708e+01    0.3784666    0.0796291  35.49   0.00128178    3.713    0.731
        44 -11.9318     18.1884    248.7930   1.2281835657e+02   1.9443019828e+01    0.2958108    0.2435834 -23.58  0.002089298    2.168    0.539
        45 -10.9057      1.9185    247.8229   1.2562130118e+02   2.1236271371e+01    0.3626723    0.1459097 -87.53  0.002036687    2.240    0.554
        46  -9.7116     14.3385    164.2984   1.1771902396e+02   3.8328882995e+01    0.1251456   0.08505758 -47.24 0.0004452048    1.660    0.398
        47  -9.2116    247.3320    155.3015   6.1083316515e+01   2.2673025356e+00    0.1333188   0.09329108  -5.94 0.0006506938    1.652    0.395
        48 -11.0061      4.7578    153.7465   1.1917062281e+02   4.1621131606e+01    0.4410403    0.1473717  16.97  0.001778021    4.167    0.760
        49 -11.0244     22.3910    146.7510   1.1375258145e+02   4.1963865461e+01    0.2552022     0.209104 -23.16 0.0007890832    1.535    0.348
        50  -9.4185    236.3403    139.3101   5.9484428149e+01   6.8340852619e+00    0.1381274    0.1005909  -3.84 0.0006212844    1.691    0.409
        51  -9.5862     24.5423    138.9635   1.1217207357e+02   4.3721966048e+01    0.1972808   0.07648358 -50.40 0.0008076262    2.427    0.588
        52 -10.0707    212.5285    133.9560   6.2359809752e+01   1.2218848166e+01    0.2422248    0.2059653  77.12 0.0006509668    1.502    0.334
        53  -9.4063     95.9858    133.9907   9.0090085810e+01   3.5710913340e+01    0.1860632    0.1764523 -54.66 0.0005562559    1.011    0.011
        54 -10.2492      3.3164    133.3045   1.1756065142e+02   4.6695208582e+01    0.2734464    0.1471922  66.04  0.001370861    2.141    0.533
        55 -10.5170     12.0104    129.6992   1.1464019338e+02   4.7006845234e+01     0.239328    0.1620701  57.65  0.001356898    1.650    0.394
        56 -10.1239     28.5109    128.1350   1.0946900242e+02   4.6086371998e+01    0.1991752    0.1152342 -67.61 0.0003986905    1.468    0.319
        57 -10.8503     24.3280    121.9699   1.0982617352e+02   4.7985022398e+01    0.2177682    0.2031432  21.19 0.0004072361    1.272    0.214
        58 -10.3625     17.9913    121.7376   1.1177084630e+02   4.8542619676e+01    0.2302886    0.1437836 -49.78            0    1.455    0.313
        59 -11.2638     10.0866    119.8360   1.1395818880e+02   4.9565759820e+01    0.2872886    0.1973188 -69.91  0.001187466    1.182    0.154
        60  -9.7259     69.1410    116.8290   9.4433854579e+01   4.4220747676e+01    0.2019063    0.1624033 -32.46 0.0002772898    1.285    0.222
        61 -11.8912      2.3597    111.8539   1.1532844806e+02   5.1972563409e+01    0.6138964    0.1473368 -65.80   0.00144362    2.785    0.641
        62  -9.3650    127.5636    112.5413   7.5858588023e+01   3.4680860645e+01    0.1555294    0.1514599 -46.93 8.039686e-05    1.030    0.029
        63 -10.4881     65.0536    110.0665   9.4208079081e+01   4.6454741091e+01     0.245538     0.206052 -69.89 0.0003857019    1.240    0.194
        64 -10.6297     13.3335    108.9298   1.1135892152e+02   5.2018668089e+01    0.1940763     0.175017  55.79 0.0005699662    1.301    0.231
        65 -11.0635     57.6504    107.8777   9.6176684275e+01   4.7980022713e+01    0.2360211     0.195162   3.15   0.00067135    1.369    0.270
        66 -10.8899     27.1679    107.3563   1.0645153394e+02   5.1356429569e+01    0.2624465    0.1722768 -69.09  0.001400229    1.374    0.272
        67 -10.3077     17.2070    104.6611   1.0936951706e+02   5.2788857997e+01    0.1605069    0.1177901  -9.57 0.0002678473    1.632    0.387
        68  -9.1189    139.2425    112.0281   7.2665366525e+01   3.2289223352e+01    0.1987397    0.1310306 -42.67 0.0001889476    1.485    0.327
        69  -9.3401    186.7390    102.9897   5.9717131015e+01   2.3479397288e+01     0.193476    0.1246049 -39.40 0.0006376886    1.473    0.321
        70  -9.5576    246.6566    101.6830   4.9830034295e+01   1.1338549864e+01    0.1281063    0.1009248  -1.15 0.0004621829    1.716    0.417
        71 -10.6630      3.2732     95.3977   1.1267446628e+02   5.5863106587e+01    0.2178738    0.1712487 -69.69 0.0002423545    1.106    0.096
        72  -9.3904     19.3500     87.1037   1.0530235752e+02   5.6815252064e+01    0.2499457    0.1024944 -63.75   0.00109681    2.092    0.522
        73 -12.2486     20.7190     92.9083   1.0597520914e+02   5.5350561820e+01    0.4004391    0.2563612 -40.69  0.000494279    1.420    0.296
        74 -10.7327     24.4411     87.8615   1.0354371334e+02   5.6246567070e+01    0.3506553     0.184125 -51.16  0.001762487    1.536    0.349
        75 -10.8195      6.9537     91.1690   1.1066659085e+02   5.6661684107e+01    0.2205963    0.1543877 -53.47            0    1.144    0.126
        76 -11.7020     10.7294     90.9982   1.0926329334e+02   5.6480984197e+01    0.5203045    0.2180766 -79.97  0.002044988    3.154    0.683
        77 -11.7113     10.2580     86.3817   1.0858069955e+02   5.7588973392e+01    0.3614444    0.2598715 -89.30 0.0003602661    1.616    0.381
        78 -11.9671    125.2566     93.3207   7.1122043688e+01   3.9303658748e+01    0.2782113    0.2699371  61.29 0.0001986386    1.082    0.076
        79  -9.2640     78.9317     93.9734   8.5404193003e+01   4.8136088579e+01    0.1721289    0.1619619   3.16 0.0003697648    1.080    0.074
        80 -11.7201     58.0220     91.6899   9.2048598014e+01   5.1770856387e+01    0.3147866    0.2432331 -35.12 0.0003366879    1.211    0.174
        81 -10.2006     66.8489     92.1235   8.9035526875e+01   5.0436392957e+01     0.270287    0.1913792  46.33  0.001334641    1.646    0.392
        82 -10.3908     64.5825     87.7424   8.8619099855e+01   5.1757720355e+01    0.3624882    0.1350844 -53.79  0.001307063    2.635    0.621
        83  -9.7094     29.1683     92.1276   1.0270891563e+02   5.4847606997e+01    0.1698153    0.1528475  59.42 0.0008006282    1.347    0.258
        84 -10.3544     44.3061     89.8737   9.6580986969e+01   5.3869000150e+01    0.3493524    0.2360999  62.81  0.001652341    2.245    0.555
        85  -9.0396     85.0037     88.1980   8.1710382581e+01   4.8384668436e+01     0.180947    0.1164337  36.28            0    1.612    0.380
        86  -9.2890    124.3262     86.3210   6.9306460352e+01   4.0923387957e+01    0.1583085    0.1208629   5.50 0.0006210535    1.683    0.406
        87 -11.7110     55.3987     85.7705   9.1401695125e+01   5.3465261674e+01    0.2463289    0.2370217  22.86 0.0002471121    1.175    0.149
        88  -9.8107    146.0245     83.3314   6.2971818264e+01   3.6571515079e+01     0.210754    0.1875765  56.09 0.0003548716    1.135    0.119
        89 -10.6157    139.1364     82.9423   6.4500142025e+01   3.8239402383e+01    0.2436843    0.2147821  49.53            0    1.135    0.119
        90 -10.3215      3.1746     81.4343   1.1033686248e+02   5.9120830871e+01    0.3829557    0.1533943 -68.34  0.001771968    2.121    0.529
        91  -9.8395     88.8456     80.0806   7.7967057933e+01   4.9410575246e+01    0.3870848    0.2617644  88.47  0.001409542    3.488    0.713
        92  -9.2575    250.3352     80.7043   4.4882768404e+01   1.3975233138e+01    0.1330224   0.08592691 -64.21 0.0006669503    1.646    0.393
        93  -9.2710    124.4636     79.4367   6.7180581124e+01   4.2230116154e+01    0.1478637    0.1472479  58.39 0.0001195723    1.051    0.049
        94  -9.4685     47.8899     79.1521   9.2380404405e+01   5.5883002419e+01    0.1861682    0.1398401 -27.97 0.0003580019    1.266    0.210
        95  -9.4618     24.6655     78.6869   1.0135647699e+02   5.8335532086e+01    0.1407747   0.08083612 -33.52 0.0004602964    1.685    0.406
        96 -11.0264      7.5507     76.7482   1.0772042077e+02   5.9955296075e+01    0.3027789     0.193928  59.96 0.0008562033    2.310    0.567
        97 -10.0080    176.4531     76.8175   5.4794609742e+01   3.0561382244e+01    0.2430729    0.1767056  52.72  0.001191968    1.400    0.286
        98 -10.2340    159.8268     77.0814   5.8128942931e+01   3.4453838239e+01    0.2428031    0.2090465  55.90 0.0003210148    1.161    0.139
        99  -9.2047     90.7467     77.6691   7.6584292360e+01   4.9547895891e+01    0.1477672    0.1100504 -12.37 0.0003126015    1.557    0.358
       100 -11.4741     54.7158     75.2867   8.8633528745e+01   5.5857912529e+01    0.3878185    0.2757384 -15.59 0.0004914596    1.533    0.348
       101  -9.5750     28.1236     77.1244   9.9596048276e+01   5.8392607618e+01    0.1895842    0.1449642 -33.50 0.0003288633    1.167    0.143
       102 -11.2060     15.8310     75.4179   1.0411872021e+02   5.9738361221e+01    0.3284285    0.2269952  17.25  0.001958877    1.663    0.399
       103 -11.4688     35.3833     73.9342   9.5843006040e+01   5.8413655160e+01    0.4823661    0.3496626  31.78  0.002759864    1.579    0.367
       104  -9.1647    217.0000     72.0457   4.7125854993e+01   2.2103218069e+01     0.212708   0.07192303 -36.35 0.0003205056    2.731    0.634
       105 -12.6682    105.9755     70.8310   6.9637372268e+01   4.7844403487e+01    0.3279639    0.3088383 -80.31 0.0005018936    1.248    0.199
       106  -9.8689     99.9473     70.5865   7.1374217728e+01   4.9130156288e+01    0.2289866    0.1886359 -23.45  0.001195516    1.217    0.178
       107 -11.1285     10.2863     69.7211   1.0507635917e+02   6.1364663026e+01    0.3551254    0.1757148 -54.80  0.001222266    1.560    0.359
       108 -10.8166     45.6374     69.4439   9.0412671573e+01   5.8245742850e+01    0.2504212    0.2456979 -23.61 0.0006941297    1.222    0.182
       109 -10.3611     80.6022     67.1968   7.6547511533e+01   5.3459604926e+01    0.3250099    0.2476798 -23.37 0.0009317571    1.307    0.235
       110 -10.1768     77.5833     67.2127   7.7603506403e+01   5.3987414099e+01     0.399892    0.1766586 -34.39  0.001531101    2.460    0.594
       111 -11.3069      4.8423     68.0211   1.0696132709e+02   6.2047669247e+01    0.2760455    0.1836926 -86.80  0.001559363    1.938    0.484
       112  -9.8647      1.4423     66.4530   1.0804338594e+02   6.2562021737e+01    0.1229623   0.09504399 -48.82 0.0001107361    1.005    0.005
       113 -10.1937     51.6861     66.1710   8.6968384580e+01   5.8160964845e+01    0.2620574    0.1862512 -14.25 0.0005910646    1.484    0.326
       114 -11.1705     15.1055     63.6847   1.0154707814e+02   6.2362395577e+01    0.3426658    0.2503422 -29.28   0.00129025    1.218    0.179
       115 -10.7228     96.8060     64.0396   7.0151230517e+01   5.0963762309e+01    0.2536803    0.1986963  30.66  0.001319493    1.262    0.207
       116 -10.5594     62.7172     62.5231   8.1450172274e+01   5.7316019258e+01    0.2739766    0.1699432 -42.50  0.001364925    1.526    0.345
       117  -9.8175     38.8819     61.5002   9.0705273231e+01   6.0669539045e+01    0.1851669    0.1253456  19.71  0.001022412    1.560    0.359
       118 -13.0673     20.5392     57.7722   9.7518126127e+01   6.3196884543e+01    0.4094993    0.2491164 -57.67  0.001215963    1.573    0.364
       119 -11.0909     83.5195     56.5157   7.1824361996e+01   5.4872235909e+01    0.4337855    0.2954192 -56.27  0.001806141    1.993    0.498
       120 -11.7164     86.7055     54.2011   6.9927157556e+01   5.4660893324e+01    0.4588077    0.3037006  19.45  0.001102949    1.754    0.430
       121 -10.8267      9.4493     59.1583   1.0284280924e+02   6.3695329423e+01    0.2210891    0.1505459  36.91  0.001287557    1.904    0.475
       122  -9.3438    109.0596     58.4410   6.4603986680e+01   4.9361207988e+01    0.2198785    0.1359477  45.85  0.001010924    1.559    0.359
       123 -10.1517     49.1431     58.2764   8.5364121794e+01   6.0062945016e+01    0.2401147    0.1572879  21.67  0.001277016    1.586    0.369
       124  -9.5101     41.4952     58.4874   8.8619852230e+01   6.0973875621e+01    0.1352726    0.1100384 -22.78 0.0008099066    1.056    0.053
       125 -11.0355      4.5116     57.6754   1.0466438697e+02   6.4292568976e+01    0.2355669    0.1564433 -16.19  0.001459896    1.516    0.340
       126 -10.0300     71.6224     56.7486   7.6088032990e+01   5.6956890456e+01    0.1834038    0.1259846 -46.67 0.0005815761    1.579    0.367
       127 -10.1284     32.4266     56.3854   9.1828973411e+01   6.2389726395e+01    0.3073705    0.1362382 -29.75  0.001292246    2.608    0.617
       128  -9.0939    104.3785     56.2559   6.5190193896e+01   5.0727217881e+01    0.1499444    0.1045177  21.50 0.0006967658    1.659    0.397
       129 -10.4497     96.3441     55.9146   6.7471811264e+01   5.2460378765e+01     0.253982    0.1954179  33.13 0.0004148128    1.257    0.205
       130 -10.9329    114.3503     54.0475   6.1655022867e+01   4.8904241575e+01     0.299118    0.2571119 -10.41 0.0006298167    1.218    0.179
       131 -11.6171     66.0070     52.7391   7.6711347040e+01   5.8602861414e+01    0.4229811    0.2066074  37.68  0.001699715    2.060    0.515
       132 -10.1484    149.2236     51.9995   5.2917519197e+01   4.1045452705e+01    0.2535352    0.2011094  60.42 0.0006485641    1.209    0.173
       133 -10.9900    106.0783     50.5225   6.2698071587e+01   5.1272208222e+01    0.3165683    0.2201711 -19.77  0.001268341    1.584    0.369
       134 -10.3165      4.1236     51.0782   1.0311484950e+02   6.5683544144e+01    0.2000844    0.1215248 -38.31 0.0006324913    1.303    0.233
       135 -10.1233     76.6993     49.5594   7.1619889386e+01   5.7304131033e+01    0.2268758    0.2139651 -73.44 0.0006617429    1.419    0.295
       136 -10.3093     78.9827     45.7556   6.9385007804e+01   5.7497316686e+01    0.2114999    0.1832467 -20.13 0.0003256471    1.136    0.120
       137  -9.7149     37.4652     48.8701   8.7032299830e+01   6.3291265224e+01    0.2524478    0.1503017   6.23  0.001287075    1.944    0.486
       138 -10.2047    101.9620     48.2925   6.3077050107e+01   5.2498318841e+01    0.1968522    0.1661532  39.16  0.000374819    1.119    0.107
       139  -9.5493     52.6499     48.1799   8.0279527192e+01   6.1450565183e+01    0.2431898   0.09422539  36.88  0.001008059    2.653    0.623
       140 -10.9646     10.1803     47.6696   9.9269105129e+01   6.6003930229e+01    0.3964299    0.2584255  13.07  0.002459076    1.662    0.398
       141 -10.5239    152.8545     45.4037   5.0225460377e+01   4.1102737144e+01    0.4141781    0.2455182 -68.95  0.001375035    2.507    0.601
       142  -9.9347    136.3286     46.5079   5.3874778996e+01   4.4929117847e+01    0.2875842    0.1345818  58.23  0.001173885    2.042    0.510
       143  -9.4778     30.9998     46.0184   8.8920575356e+01   6.4536270694e+01    0.1538155    0.1245018 -21.84 0.0004221925    1.000    0.000
       144 -10.4522     25.6256     43.9263   9.0669843382e+01   6.5468163864e+01     0.253795    0.1947049 -71.35  0.001147339    2.021    0.505
       145 -11.0950     17.4277     44.3717   9.4734072321e+01   6.6112678008e+01    0.3843395    0.2345222  29.31  0.002246131    1.897    0.473
       146 -10.5857     35.8244     41.6527   8.5085853412e+01   6.4791063392e+01     0.237162    0.1876095  -7.59  0.000776944    1.103    0.094
       147  -9.7730     69.2572     42.0081   7.1390838061e+01   5.9836763401e+01    0.1834826    0.1601025 -11.32  0.001117107    1.084    0.078
       148 -10.0227    139.7034     40.7063   5.1321419218e+01   4.4911238114e+01    0.3209285    0.1620662  69.96  0.001296634    2.325    0.570
       149  -9.8341     58.6343     41.5314   7.5271434874e+01   6.1673866874e+01    0.2211757    0.1196725  47.64  0.001025203    2.321    0.569
       150 -10.7289    128.1883     38.8299   5.3136327756e+01   4.7899607375e+01    0.2674241    0.1910826 -51.05 0.0008772954    1.614    0.381
       151  -9.8175     43.0033     40.5376   8.1430890292e+01   6.4094202517e+01    0.1824344    0.1170714  26.14 0.0007893487    1.550    0.355
       152  -9.5535    168.4397     38.9593   4.5688675865e+01   3.8179446643e+01    0.1913168    0.1332337 -34.99 0.0003575601    1.498    0.332
       153  -9.7774    152.3322     39.0263   4.8402843260e+01   4.2078405273e+01    0.1872294    0.1797897 -49.55 0.0005170053    1.103    0.094
       154 -11.9357    121.1767     37.3969   5.4236379689e+01   4.9726245371e+01    0.3956956    0.3602585  19.62  0.001085879    1.113    0.102
       155 -10.4703     22.0798     38.2724   9.0304225594e+01   6.6840403461e+01    0.2070782    0.1481683 -37.37 0.0006653412    1.199    0.166
       156 -10.7368     97.0064     37.6408   6.0592000897e+01   5.5082156761e+01    0.2431546    0.1983496 -19.78 0.0003648745    1.262    0.208
       157 -12.8983     39.8154     32.5286   7.9582588209e+01   6.5826240027e+01    0.3822238    0.2622596 -21.19 0.0005311015    1.298    0.229
       158  -9.3744     35.2761     28.7361   8.0060078570e+01   6.7002298768e+01    0.1691881    0.1172438  -8.90  0.001018618    1.317    0.240
       159 -11.1382     91.0029     33.6655   6.0836193202e+01   5.6868878743e+01    0.4074063    0.2809536   0.82  0.001745009    1.687    0.407
       160 -10.2650      1.4286     34.9885   9.9620466863e+01   6.8992387824e+01    0.1721887   0.09295583 -52.31 0.0003018321    1.551    0.355
       161 -10.7138     47.7396     33.1045   7.6318466321e+01   6.4645889233e+01    0.3528267      0.23942  32.63   0.00206017    1.475    0.322
       162  -9.6871    241.7989     33.1874   3.5732427270e+01   2.2350148493e+01    0.1426969    0.1361556 -63.72 0.0003539404    1.286    0.222
       163  -8.9812     55.3710     33.2807   7.3199591457e+01   6.3467635285e+01    0.1358333   0.08802351   6.81 0.0006558272    1.696    0.410
       164 -10.4221     17.7128     32.5566   9.0303043998e+01   6.8252522041e+01    0.3431951     0.166982   1.75  0.001348449    2.631    0.620
       165 -10.5420     27.0587     34.7358   8.6505799309e+01   6.6967920856e+01    0.3017643    0.1995108 -14.94  0.001226619    1.396    0.283
       166  -9.5043    166.4968     31.0705   4.3763949798e+01   3.9628673101e+01    0.1834825     0.132625 -33.85 0.0003631393    1.472    0.321
       167  -9.2564    162.6223     31.6932   4.4530117314e+01   4.0492195778e+01    0.1438025   0.09572522  37.86 0.0007027735    1.779    0.438
       168  -9.6511    127.9275     30.8290   5.0516793947e+01   4.8955406703e+01    0.3178702    0.1857904  70.46  0.001470788    1.873    0.466
       169 -11.4939      9.8475     29.4839   9.3210827124e+01   6.9438420259e+01    0.4261239    0.2485519  42.80  0.002313447    2.831    0.647
       170 -10.9714      9.1851    237.6275   1.2386320227e+02   2.2512926279e+01    0.1674951    0.1566473  47.28 0.0008980391    1.446    0.308
       171 -10.0001      6.7438     20.9383   9.1473300855e+01   7.1131760091e+01     0.183241    0.1395251  42.83  0.001205496    2.116    0.527
       172  -9.7262    151.0816     29.6702   4.5798339733e+01   4.3530204210e+01    0.1876153    0.1560262  62.26 0.0004787989    1.101    0.092
       173 -10.2851      7.5527     34.3222   9.6201893098e+01   6.8734044355e+01    0.1933477    0.1808321 -39.30 0.0008916294    1.373    0.272
       174  -9.7051    139.9994     27.0000   4.6910824642e+01   4.6514164709e+01     0.225434    0.1155621  77.38  0.000890151    2.429    0.588
       175 -12.4167      9.7273    245.1042   1.2413550832e+02   2.1002533920e+01    0.4874512    0.2827653  64.94  0.003264625    1.337    0.252
       176 -10.9532     69.6752     27.5396   6.5303838271e+01   6.1829469271e+01    0.3814546    0.2476719 -49.36  0.001951655    2.230    0.551
       177  -9.7348    102.0795     25.5132   5.4623300348e+01   5.5493385477e+01    0.2123671    0.1219497  55.65  0.001039836    1.618    0.382
       178 -11.2477     14.6633     21.9439   8.7529137190e+01   7.0306558877e+01    0.3831005    0.2528096  22.70  0.002493302    1.588    0.370
       179  -9.9856     35.7591     22.9690   7.7262386995e+01   6.7806191038e+01    0.2669959    0.1431147  24.71  0.001445232    1.818    0.450
       180 -12.0100      4.8842    240.6308   1.2478155090e+02   2.2336363055e+01    0.4646417    0.1723185  43.57   0.00260471    2.105    0.525
       181  -9.6438     54.5120     22.0146   6.8615069078e+01   6.5170362619e+01    0.1725121    0.1127104 -22.75 0.0003474963    1.476    0.322
       182 -10.5812     30.5904     21.0201   7.8858410548e+01   6.8743934674e+01     0.263317    0.1851467   7.92  0.001112307    1.261    0.207
       183 -10.2665    181.5187     20.9930   3.9014005927e+01   3.7181583331e+01     0.179966    0.1283358 -30.22 0.0005287205    1.550    0.355
       184 -11.0417     45.8052     26.7381   7.4396463589e+01   6.5874009232e+01     0.337038    0.1944166  32.09  0.001078693    1.654    0.396
       185 -11.0550     74.1839     18.2979   5.9797511791e+01   6.2089364973e+01    0.3334078    0.2553076  43.61  0.002036077    1.232    0.189
       186  -9.4352    214.4733     20.4192   3.5401347862e+01   2.9684363182e+01    0.1245247     0.103725 -76.94 0.0001712109    1.013    0.013
       187  -9.3820    165.4253     20.5082   4.0948085802e+01   4.1080975241e+01    0.1303258    0.1172599  76.46 0.0008055456    1.038    0.037
       188  -9.9334    229.7098    247.9663   8.1389269032e+01  -9.2724561169e+00    0.1581878    0.1239367  -5.47 0.0004858177    1.114    0.102
       189 -10.4346    225.0397    247.5060   8.2157205430e+01  -8.6162180079e+00    0.2271886    0.1564521 -23.55  0.001486418    1.384    0.277
       190  -9.4225    170.8086    247.1516   9.2472654668e+01  -9.9124619914e-01    0.1722533    0.1302407   6.80 0.0005973878    1.321    0.243
       191  -9.5529    116.1472    246.7596   1.0354898705e+02   7.2653208706e+00     0.157951    0.1406137   9.38  0.001040344    1.290    0.225
       192 -10.5257      5.9793    250.2884   1.2503056942e+02   2.0382767029e+01    0.2047928    0.1400859  44.68  0.001109967    1.381    0.276
       193  -9.4557    202.4488    240.4660   8.5237138316e+01  -4.5801282763e+00    0.1255549   0.09986432   8.23 0.0001325842    1.033    0.032
       194  -9.2543     58.6575     19.3252   6.5762815607e+01   6.4811015600e+01    0.1112035    0.1028118 -78.41 0.0007050954    1.735    0.424
       195  -9.7091     20.2164     17.4690   8.2514461581e+01   7.0451596057e+01    0.2710561    0.1392084 -25.87  0.001337025    1.781    0.439
       196 -10.9082    209.0277     18.2849   3.5422480818e+01   3.1134740621e+01     0.178719    0.1404866 -87.14   0.00049295    1.113    0.101
       197 -10.5901    140.7328     18.0843   4.3966170120e+01   4.7286940644e+01    0.2369666    0.1726068  62.42  0.000658953    1.212    0.175
       198  -9.9216     97.1220     21.9208   5.4539840611e+01   5.6975804884e+01    0.1804969    0.1689838  56.04  0.001149301    1.172    0.147
       199  -9.4677    145.6494     17.1800   4.2885458091e+01   4.6194789794e+01    0.1635118    0.1258331  -3.44 0.0003055697    1.612    0.380
       200 -10.0702    125.1662     17.1901   4.6466877525e+01   5.1083614685e+01    0.1960393    0.1588346  42.42 0.0003652705    1.167    0.143
       201  -9.7812     35.9777    240.4716   1.1903329798e+02   1.9135747028e+01    0.1700051   0.09794678  40.38 0.0006082664    1.563    0.360
       202 -11.1366     14.5115    239.5053   1.2299029125e+02   2.1616959348e+01    0.2153001    0.1060712  63.76 0.0009351787    1.691    0.409
       203 -10.2622    202.4706     16.4367   3.5618951273e+01   3.2815242958e+01    0.1267548    0.1050202 -78.83 8.226962e-05    1.025    0.025
       204 -10.0992     91.0756    237.2917   1.0766900973e+02   1.2690614301e+01    0.1882802    0.1664254 -55.10 0.0004914267    1.339    0.253
       205  -9.8767     89.4142     13.6242   5.3298757946e+01   5.9478476610e+01    0.1927367    0.1670751  42.62 0.0005411916    1.082    0.075
       206  -9.0531     26.6993     16.7211   7.8780502848e+01   6.9830401786e+01    0.1198208   0.07482199  -4.67 0.0003452596    1.543    0.352
       207 -10.6122    156.7765     15.1711   4.0627391049e+01   4.3713174781e+01    0.3579871    0.1425938  63.37  0.001425229    2.123    0.529
       208 -11.4846     25.5860    236.0062   1.2072392420e+02   2.1167695006e+01    0.2443483    0.1666069  34.74  0.001011841    1.576    0.365
       209 -10.6812    222.2104     13.7639   3.3260174785e+01   2.8743975103e+01    0.1502127    0.1369334  65.69 0.0005097933    1.341    0.254
       210  -9.8072    249.3350    233.8900   7.5606562332e+01  -9.8781177624e+00    0.1619667    0.1180034  -8.93 0.0004657319    1.075    0.070
       211 -11.9476      4.0194    232.5318   1.2455109992e+02   2.4017833298e+01    0.2715867    0.1797062  84.95  0.001892025    1.221    0.181
       212 -11.0614      1.6784    224.8358   1.2460501321e+02   2.5792836299e+01    0.2727588    0.1452018  69.66  0.001276144    1.540    0.350
       213 -11.2720      2.6078    220.7066   1.2422066190e+02   2.6562664230e+01    0.3212983    0.1325345 -88.63  0.001676109    2.158    0.537
       214 -10.9648      9.5367    231.5172   1.2348320520e+02   2.3700024869e+01    0.1655175    0.1356131  50.85 0.0006224186    1.284    0.221
       215 -12.4518      9.3597    227.5008   1.2330162303e+02   2.4534175961e+01    0.3865572    0.3179782  78.19   0.00290711    1.135    0.119
       216  -9.1259    243.4649    230.4443   7.6029767059e+01  -8.6915374039e+00    0.1203557   0.09181909  -2.41 0.0001880949    1.004    0.004
       217  -9.3085     47.8074    229.8291   1.1590846974e+02   1.9912373891e+01    0.1699843      0.11202  62.52            0    1.314    0.239
       218  -9.7698    209.4833    229.5160   8.2079009924e+01  -3.9577745228e+00     0.127321    0.1036951   5.08 3.390928e-05    1.001    0.001
       219 -10.8355    140.5070    228.3252   9.5983439637e+01   6.8912824636e+00    0.2877887    0.2255324 -78.68  0.001626703    1.719    0.418
       220  -9.9683    223.1710    226.8435   7.9048733437e+01  -5.4953079800e+00    0.1751398    0.1220725  -0.66   0.00040582    1.320    0.242
       221  -9.1610    167.4742    221.5307   8.9182405330e+01   3.7967145286e+00    0.1344947    0.1176903  16.94 0.0008092979    1.010    0.010
       222 -10.4931      8.3120    218.0932   1.2298018512e+02   2.6590082146e+01    0.2438909    0.1798242  35.85  0.001641613    1.524    0.344
       223  -9.8480    205.4485    212.6860   7.9912862057e+01  -7.1073341974e-01     0.174998    0.1142219 -24.56  0.000785383    1.514    0.339
       224  -9.9744     15.8138    213.1925   1.2119034069e+02   2.6925739085e+01    0.1869713    0.1273419  65.71 0.0009332871    1.217    0.178
       225  -9.1116    249.3231    211.3380   7.1637876480e+01  -6.7851963524e+00    0.1299886   0.07868832  -5.35  0.000705088    1.718    0.418
       226  -9.6456    209.4756    211.5040   7.8915982032e+01  -1.1357079301e+00     0.132311    0.1112566  -0.04 0.0006133424    1.001    0.001
       227  -9.7987     20.2070    209.8598   1.2006445000e+02   2.7220141705e+01    0.1910561    0.1263627  66.25 0.0007072412    1.286    0.223
       228 -10.6487      3.6740    205.9185   1.2319912452e+02   2.9620241946e+01    0.1717349    0.1584796  51.55  0.000692652    1.346    0.257
       229  -9.3342    193.4790    202.4717   8.0427264763e+01   2.9345843800e+00    0.1358317    0.1216409   3.45 0.0001160054    1.045    0.043
       230 -10.1999     23.8486    196.6510   1.1829080208e+02   2.9816418928e+01    0.2869756     0.166176 -51.00  0.001540067    2.060    0.515
       231  -9.8763     13.9865    192.6254   1.2015139769e+02   3.1675401132e+01    0.1964529    0.1331979  78.62  0.000490279    1.251    0.201
       232 -10.4091      1.4230    191.5212   1.2279427522e+02   3.3004267585e+01     0.252772    0.1082106 -89.73  0.000642202    2.087    0.521
       233 -10.4678      5.7571    191.9747   1.2189493617e+02   3.2543765693e+01    0.2278096    0.1496596 -58.55  0.001399988    1.634    0.388
       234  -9.3293     22.0374    180.0007   1.1728746586e+02   3.3875994207e+01    0.1513945    0.1279508  81.27 0.0005339256    1.050    0.048
       235  -9.1193     13.3234    180.6668   1.1937900029e+02   3.4507567126e+01    0.1340321   0.07545245  67.16 0.0006718695    1.707    0.414
       236 -10.5051      4.5785    167.3026   1.2036333314e+02   3.8379197957e+01    0.1939934     0.143001  54.07 0.0008926319    1.366    0.268
