#   1 NUMBER                 Running object number                                     
#   2 MAG_AUTO               Kron-like elliptical aperture magnitude                    [mag]
#   3 X_IMAGE                Object position along x                                    [pixel]
#   4 Y_IMAGE                Object position along y                                    [pixel]
#   5 X_WORLD                Barycenter position along world x axis                     [deg]
#   6 Y_WORLD                Barycenter position along world y axis                     [deg]
#   7 A_WORLD                Profile RMS along major axis (world units)                 [deg]
#   8 B_WORLD                Profile RMS along minor axis (world units)                 [deg]
#   9 THETA_WORLD            Position angle (CCW/world-x)                               [deg]
#  10 FWHM_WORLD             FWHM assuming a gaussian core                              [deg]
#  11 ELONGATION             A_IMAGE/B_IMAGE                                           
#  12 ELLIPTICITY            1 - B_IMAGE/A_IMAGE                                       
         1 -13.3082    204.1828      2.9170   6.2504371746e+01   3.2562285025e+01       1.0001    0.6507135  78.31  0.002775302    1.496    0.331
         2 -14.0964    183.0693     26.1320   7.1729332490e+01   3.5745828196e+01     1.696954     1.066144  -1.23  0.005431764    2.059    0.514
         3 -14.1249    190.7606     19.0834   6.8583410717e+01   3.4475197366e+01     2.069419     1.112989 -18.69  0.007325619    2.002    0.501
         4 -12.6808    197.0723     11.1005   6.5510267011e+01   3.3628060723e+01     0.556143      0.47844  44.12  0.001227372    1.275    0.216
         5 -11.8789     40.5846      5.0084   1.0488754498e+02   7.3510886739e+01    0.4535688      0.17244 -35.11  0.001841001    2.597    0.615
         6 -11.8228    162.4794    248.6081   1.2476219051e+02   6.2114417199e+00    0.3161393    0.1941523  15.32  0.002066335    1.635    0.388
         7 -11.9038    249.4984    246.4885   1.0963653545e+02  -4.5393925669e+00    0.8528749     0.217447  25.47  0.003331281    4.801    0.792
         8 -13.4099    141.0896    248.4849   1.2872743572e+02   9.0728948345e+00    0.8432143     0.379905  37.12  0.004971336    1.546    0.353
         9 -12.0243    142.9978    241.2533   1.2761767894e+02   9.7362464325e+00    0.3061436    0.1451129  42.29 0.0007578576    1.677    0.404
        10 -15.5981     74.1996    149.0449   1.3253483618e+02   3.5981746639e+01     13.44145     5.874697  69.69   0.03905635    5.575    0.821
        11 -18.6260      4.6402    136.8732   1.5122965631e+02   4.5596660031e+01     17.22037     1.949125 -84.77    0.0416287    9.151    0.891
        12 -11.7656     48.5802    173.2180   1.4184263382e+02   3.3825317885e+01    0.3761236    0.2795225  85.38  0.002399319    1.309    0.236
        13 -11.0669    125.8713    174.1149   1.2273125636e+02   2.2841146301e+01    0.3081457    0.1551482  39.61  0.001337752    1.668    0.401
        14 -11.5188     88.3679    173.5219   1.3186749259e+02   2.8757840436e+01    0.2472032    0.2113156  40.80 0.0003593799    1.070    0.065
        15 -10.7116    138.1577    171.6931   1.1944075533e+02   2.1217049622e+01    0.2274408    0.1551247  47.68 0.0009462076    1.411    0.291
        16 -10.4277    105.0169    148.7038   1.2396108325e+02   3.1390501120e+01    0.2864667    0.2524337 -25.44 0.0007234494    1.338    0.253
        17 -10.1685    107.3208    144.9997   1.2270177624e+02   3.1798256994e+01    0.2909873    0.2143129 -33.46  0.001265372    1.671    0.402
        18 -12.3306     94.1319    148.2683   1.2686516300e+02   3.3237651958e+01    0.2779737    0.2480812  21.44 0.0005051228    1.199    0.166
        19 -10.2411    134.0023    145.7963   1.1582556441e+02   2.6863206097e+01    0.6110523    0.1364042 -53.02  0.001453911    7.173    0.861
        20 -11.1738    192.9531    194.6471   1.1157754607e+02   8.5223976449e+00     0.678293    0.3678975 -57.35  0.002433922    6.249    0.840
        21 -10.1666    113.9060    134.9455   1.1902522942e+02   3.2812764103e+01    0.3086786     0.230591 -26.74  0.001140237    1.676    0.403
        22 -10.9971    102.1223    131.8716   1.2176684706e+02   3.5567083322e+01    0.3911682    0.2754974  17.87 0.0007382774    1.714    0.417
        23 -16.3029     64.3864    215.5630   1.4128943016e+02   2.3896039704e+01     5.036449     2.164048  52.62   0.02618807    1.970    0.492
        24 -13.4774     76.5642    170.4096   1.3449429850e+02   3.1026693395e+01    0.4583664    0.3246601 -40.24  0.001836883    1.876    0.467
        25  -9.4917    119.3056    127.3715   1.1597368923e+02   3.3446213105e+01    0.1536371    0.1167966  -7.98 0.0007032818    1.759    0.432
        26  -9.9997    109.8661    122.5982   1.1764292892e+02   3.6260392662e+01    0.2194692    0.2032325 -30.32 0.0003978723    1.171    0.146
        27 -10.0065    160.6019    127.7853   1.0546601032e+02   2.5052526670e+01    0.2070801    0.1418055 -50.65 0.0009564896    1.738    0.425
        28 -11.9249     80.7564    185.0486   1.3502331197e+02   2.7505703524e+01    0.2789443    0.2449183 -53.55  0.000945761    1.401    0.286
        29 -10.8696    168.2726    113.0751   1.0015991012e+02   2.6086386438e+01    0.3405686    0.2995907 -86.78 0.0009776969    1.496    0.332
        30  -8.9745    205.6875    110.2953   9.1904730004e+01   1.8465791626e+01    0.1328453    0.1139089 -67.42 0.0004309404    1.597    0.374
        31 -10.2457     65.8554    193.4551   1.3931367411e+02   2.7765960372e+01    0.2051102    0.1927239 -50.70  0.001428701    1.385    0.278
        32 -10.5646     27.2925     94.4237   1.4061356723e+02   5.4294703754e+01    0.2803939   0.09375845  31.80   0.00114061    2.812    0.644
        33  -8.9391    181.5227    192.4317   1.1345683009e+02   1.0637927201e+01    0.1303526    0.1005372  21.69 4.206284e-05    1.030    0.029
        34 -11.9159    229.0541    248.3601   1.1313923121e+02  -2.3043435210e+00    0.3449988    0.1969576  46.62  0.002012249    3.113    0.679
        35 -10.5469    217.7866    249.5932   1.1515776575e+02  -1.0437079438e+00    0.1501094   0.07450049  36.48 0.0009553093    1.700    0.412
        36 -12.5724    197.5018    247.9442   1.1840439696e+02   1.6757314350e+00    0.5609709      0.19247  27.32  0.002727248    2.565    0.610
        37 -12.0982     76.8385    191.4087   1.3657738571e+02   2.6787027367e+01    0.3749369    0.2634208 -44.58  0.002235044    1.914    0.477
        38 -10.6365    227.9047    203.9801   1.0676595022e+02   2.2065613405e+00    0.2051368    0.1646399 -22.46 0.0005433004    1.545    0.353
