#   1 NUMBER                 Running object number                                     
#   2 MAG_AUTO               Kron-like elliptical aperture magnitude                    [mag]
#   3 X_IMAGE                Object position along x                                    [pixel]
#   4 Y_IMAGE                Object position along y                                    [pixel]
#   5 X_WORLD                Barycenter position along world x axis                     [deg]
#   6 Y_WORLD                Barycenter position along world y axis                     [deg]
#   7 A_WORLD                Profile RMS along major axis (world units)                 [deg]
#   8 B_WORLD                Profile RMS along minor axis (world units)                 [deg]
#   9 THETA_WORLD            Position angle (CCW/world-x)                               [deg]
#  10 FWHM_WORLD             FWHM assuming a gaussian core                              [deg]
#  11 ELONGATION             A_IMAGE/B_IMAGE                                           
#  12 ELLIPTICITY            1 - B_IMAGE/A_IMAGE                                       
         1 -13.8249    228.5854     28.4084   2.4138406581e+01   2.7334826587e+01     1.856572    0.9566991 -61.72   0.01034981    1.837    0.456
         2 -12.4733    248.0828     23.8560   2.1613071923e+01   2.4163157697e+01     1.133133    0.7311902 -43.20  0.007555561    1.531    0.347
         3 -12.7209    244.6602      7.6379   1.9017506466e+01   2.6686851077e+01     1.037671    0.8681538 -71.86  0.008298622    1.199    0.166
         4 -12.1889    245.8119     51.5137   2.6937560125e+01   2.0912895947e+01     1.071567    0.6409733 -48.51  0.006375227    1.413    0.292
         5 -13.1221    245.2775     62.9780   2.9212361008e+01   1.9319263428e+01     1.936855     1.016565 -80.06  0.009161713    2.542    0.607
         6 -14.1760    246.5106    115.5726   3.9700838080e+01   1.0150306050e+01     5.890512      1.28108 -49.07    0.0170636    4.449    0.775
         7 -12.3476    245.4519     42.1236   2.5190189033e+01   2.2294960263e+01     1.082547    0.6291782 -82.18  0.006256089    1.760    0.432
         8 -12.4143    134.5881     16.8573   3.2884220135e+01   4.7755213100e+01    0.4972148    0.3298413 -51.53  0.003060593    1.769    0.435
         9 -10.5837    162.2981     15.6519   2.8622024639e+01   4.2226909575e+01    0.3317555     0.171907 -58.01  0.001126316    2.381    0.580
        10 -11.5219    170.0585      4.0917   2.4984999919e+01   4.1700434530e+01    0.6367648    0.3169488 -77.98  0.003128091    2.840    0.648
        11 -11.4734    168.1870      9.3791   2.6413174329e+01   4.1608853821e+01    0.4930734    0.2442056 -63.07  0.002481103    2.662    0.624
        12 -12.1017    118.8016      3.8281   3.1802483846e+01   5.1938811764e+01    0.7186081    0.3284956  75.25  0.003467097    2.902    0.655
        13 -10.3625    155.5177      9.8324   2.8082707623e+01   4.4150348111e+01    0.3909847    0.2082055  81.91  0.002100914    2.116    0.527
        14 -11.1292    160.1789      9.0126   2.7294556440e+01   4.3274469281e+01    0.4585598    0.2528119 -64.19  0.002497799    2.299    0.565
        15 -11.3266    151.5140      3.0035   2.6921875964e+01   4.5538208629e+01    0.7525982    0.3409946  82.05  0.003615301    2.792    0.642
        16 -10.8948    148.8924      8.7125   2.8676672775e+01   4.5591616478e+01     0.389997    0.2496524 -78.95  0.001933681    1.918    0.479
        17 -10.6537    143.9815      4.5215   2.8278889980e+01   4.6927869798e+01    0.3716766    0.2299879 -64.64  0.002221755    2.038    0.509
        18 -10.5805    156.1861     16.9081   2.9736293894e+01   4.3361584090e+01    0.3866276    0.2485331 -68.39  0.001771553    1.866    0.464
        19 -13.1246    136.1193      7.0049   3.0019395994e+01   4.8297615925e+01      1.10335    0.6887158 -84.82  0.006405279    2.111    0.526
        20 -10.6264    159.5191      2.7336   2.5880318687e+01   4.3947260747e+01    0.5116211    0.2277316  78.86  0.002564479    2.456    0.593
        21 -12.3978    245.3040     89.3800   3.4483162525e+01   1.5042895959e+01     1.853093    0.9518404 -88.37  0.007031605    3.927    0.745
        22 -11.9380    125.7305     12.1827   3.3022011272e+01   4.9925768619e+01    0.4254671    0.2459649  86.52  0.002220199    2.552    0.608
        23  -9.8225     89.8598     11.5761   3.9536348515e+01   5.6722053446e+01    0.1898758    0.1377819 -62.78  0.001192669    2.191    0.544
        24 -11.4237    118.0642     10.2946   3.3765364045e+01   5.1577517286e+01    0.3522281    0.2201635 -67.66  0.001957974    2.521    0.603
        25 -12.7211    182.5077      3.3735   2.3501490127e+01   3.9247250476e+01     1.092983    0.4577585 -69.29  0.004531222    4.054    0.753
        26 -11.2547    178.7386      7.2746   2.4748041988e+01   3.9653699538e+01    0.4053815    0.2056149  84.37  0.002185051    2.100    0.524
        27  -9.3579    173.7219      1.5629   2.4018268034e+01   4.1178763444e+01    0.1542313   0.09232499  83.59 0.0009434761    1.580    0.367
        28  -9.3826     76.9706      9.5072   4.1718306205e+01   5.9121136402e+01    0.1374074   0.09603954  81.84 0.0008092964    2.549    0.608
        29 -11.0999    111.1720      7.9813   3.4287931122e+01   5.3082388691e+01    0.2036352    0.1455794  56.64  0.001017028    1.240    0.194
        30 -11.5509    210.1283      2.6840   2.0798404702e+01   3.3806708416e+01    0.5646155    0.2122008  79.74  0.002748366    2.704    0.630
        31 -10.1313     90.4757      3.3182   3.6752454449e+01   5.7242802462e+01    0.1906594   0.08621809  56.62 0.0009855917    1.956    0.489
        32 -11.0552    105.0826      7.0715   3.5113227678e+01   5.4299318996e+01    0.2010442    0.1423052  63.79  0.001356672    1.392    0.282
        33 -10.3152     98.6921      2.4248   3.4880710648e+01   5.5822055897e+01    0.2063574    0.0981065  64.23   0.00113363    2.138    0.532
        34 -10.2842    250.2215    150.7958   4.6431481995e+01   2.8351225127e+00    0.4855879    0.1578499 -44.07  0.001833389    2.455    0.593
        35 -10.6968    249.1702    248.6077   6.5547288296e+01  -1.4279016255e+01    0.5761812    0.1941625 -35.22  0.002540135    2.716    0.632
        36 -11.3650    248.8200    238.3710   6.3778840309e+01  -1.2666519666e+01    0.5228276    0.2432363 -30.30  0.002282638    2.030    0.507
        37 -11.6991    243.4174    245.5999   6.5996663118e+01  -1.3087024397e+01    0.6865119    0.2196389 -32.95  0.002696736    3.356    0.702
        38 -11.8426    227.8421    248.7890   6.9274091394e+01  -1.1505354014e+01    0.5587387    0.3567463  31.34  0.003306191    1.596    0.374
        39 -10.0602    232.9922    243.9922   6.7521026804e+01  -1.1448781084e+01    0.2453835    0.1392537 -18.08  0.001226905    2.083    0.520
        40  -9.6865    185.3175    249.9843   7.7242236911e+01  -5.5125883117e+00    0.3377942    0.1520418  24.75  0.001300995    3.435    0.709
        41 -10.6778     65.2035    249.1887   9.9766114162e+01   1.3006506100e+01    0.3475864    0.2174326  64.00  0.001993648    1.525    0.344
        42  -9.0321    242.2669    153.0551   4.8121270245e+01   3.7425628813e+00    0.2185103    0.1703088 -32.20  0.001025604    1.237    0.192
        43 -11.0544    244.6193    149.2087   4.6957230859e+01   4.0872934064e+00    0.4438962    0.1979026 -51.96  0.001844078    2.140    0.533
        44  -9.9298    235.3562    147.1643   4.7978166717e+01   6.1021162224e+00    0.3633816    0.2257422 -57.62  0.001663558    1.637    0.389
        45  -8.4409    229.3403    148.2886   4.9188034209e+01   6.9564217051e+00    0.1373005    0.1077515 -12.79 0.0003462342    1.643    0.391
        46 -11.3235    242.9572    134.3571   4.4114913038e+01   7.2455884268e+00    0.5933004    0.2119468 -51.50  0.002161521    2.747    0.636
        47 -11.3173    241.1375    126.4276   4.2721150394e+01   9.0905045723e+00    0.5668311    0.2558149 -50.68  0.002437542    1.938    0.484
        48 -10.8073    247.6776    144.1745   4.5451334945e+01   4.5347543296e+00     0.325477    0.1966053 -54.76  0.001622509    1.548    0.354
        49  -9.0741    230.4788    141.4713   4.7545698305e+01   8.1073499018e+00    0.2820075    0.1102236 -51.52  0.001034032    2.505    0.601
        50  -9.9618     90.0152    249.1173   9.5209923995e+01   9.4969905756e+00    0.2881953    0.1414307  54.94  0.001372354    2.097    0.523
        51  -9.0124    224.0000    119.0383   4.3707280399e+01   1.3729802381e+01    0.2435511   0.07036295 -42.68 0.0008018472    2.938    0.660
        52  -9.0024    217.8022    118.8545   4.4636822329e+01   1.4976803428e+01    0.2002815    0.1488165 -62.26 0.0004923484    1.298    0.230
        53  -8.7739    209.4558    118.4909   4.5906876676e+01   1.6708271067e+01    0.1480459     0.125238 -55.76  0.000120182    1.029    0.029
        54 -10.3827    230.9109    116.3355   4.2077628809e+01   1.2916534380e+01    0.2524341    0.1662726 -53.83 0.0008951964    1.316    0.240
        55  -9.5377    128.7977    248.5824   8.7791681053e+01   3.6524843555e+00    0.1830299    0.1127928  51.48 0.0006555603    1.627    0.385
        56  -9.1932    222.5147    105.0321   4.0863847310e+01   1.6670044590e+01     0.223294    0.1197857 -44.81  0.001031037    1.590    0.371
        57 -10.6522    230.2877    102.8885   3.9278897072e+01   1.5537164289e+01    0.2717648    0.2097697 -65.99  0.001047906    1.207    0.171
        58  -8.7004    221.5189     98.5353   3.9585300725e+01   1.8057441172e+01    0.1403126    0.1180214 -58.50 8.199825e-05    1.002    0.002
        59 -10.2427    193.6448    245.0219   7.4847538618e+01  -5.9204868457e+00    0.3184969    0.2079473 -25.38  0.001707987    1.689    0.408
        60  -8.5024    218.6562     90.3022   3.8187075613e+01   2.0099848595e+01    0.1435294   0.09453081 -71.42 0.0007039051    1.681    0.405
        61  -9.2973    226.5750     88.2884   3.6657068143e+01   1.8860692714e+01    0.2140529    0.1323883 -64.27  0.001070791    1.647    0.393
        62  -9.6680    218.8376    244.8722   7.0194142101e+01  -9.6187033241e+00    0.1995089    0.1535699  -8.52  0.001231935    1.267    0.211
        63  -8.8344    215.3115     80.6521   3.6529295736e+01   2.2435748778e+01    0.1445571   0.09103776 -67.85 0.0007045788    1.713    0.416
        64  -8.8920    211.8339     76.8358   3.6164316459e+01   2.3784334461e+01     0.190411    0.1406396 -71.13 0.0009443867    1.324    0.245
        65  -8.9597    222.3927     71.2592   3.3556505397e+01   2.2529541918e+01    0.1878305    0.1010345 -51.98  0.000590864    1.643    0.391
        66  -8.5570    214.6888     70.3396   3.4349227879e+01   2.4245691965e+01    0.1408169   0.08811551 -68.06 0.0006779774    1.692    0.409
        67  -8.9573    204.2032     67.4322   3.5110866204e+01   2.6876266261e+01    0.1802382    0.1188529  82.43 0.0009387915    1.684    0.406
        68 -10.8586    249.9383     54.4431   2.7091166009e+01   1.9708137483e+01    0.6444322    0.1445875 -44.67  0.002477606    3.343    0.701
        69  -9.5987    217.8866     63.5382   3.2468956663e+01   2.4648911339e+01    0.4035811    0.1989255 -88.93  0.001529046    3.696    0.729
        70  -9.7319    225.2769     61.7085   3.1188980449e+01   2.3430620752e+01    0.2105222    0.1483998  79.43 0.0007469504    1.435    0.303
        71  -9.0670    207.0099     59.9827   3.3073766177e+01   2.7425392238e+01    0.2125451    0.1361917 -69.57  0.000951705    1.647    0.393
        72  -9.4156     36.1589    247.6411   1.0472200040e+02   1.7073715882e+01    0.1751489    0.1216749  88.02 0.0007749305    1.159    0.137
        73  -8.4965    182.2799     47.6187   3.3575359108e+01   3.4375580489e+01    0.1347174   0.08626606 -65.51 0.0005286645    1.719    0.418
        74  -8.6328    169.6225     45.2970   3.4845651815e+01   3.7362420436e+01    0.1332686    0.0900853 -75.35 0.0007024295    1.752    0.429
        75  -8.5533    211.2920     44.7016   2.9234961201e+01   2.8706457382e+01    0.1269242   0.08090878 -69.25 0.0002475264    1.563    0.360
        76 -10.1731    234.7564    135.5665   4.5612021733e+01   8.4890745299e+00    0.3402879    0.2403805 -72.22  0.001727091    1.712    0.416
        77  -8.3215    222.2951    132.6684   4.6959672742e+01   1.1384892289e+01    0.1474847    0.1017818 -67.07 0.0003071201    1.637    0.389
        78  -8.9842    179.9748     38.0329   3.1629577516e+01   3.6092688108e+01    0.1991575    0.1316909 -71.32 0.0007273843    1.673    0.402
        79  -9.6506    134.5627     36.2127   3.8198647467e+01   4.5776195588e+01    0.2391361     0.190934 -80.49  0.001035699    1.501    0.334
        80  -9.0652    144.9840     36.5061   3.6479624251e+01   4.3606080769e+01    0.1676445     0.103104 -89.12 0.0008082393    2.405    0.584
        81 -10.5733     98.3105    244.7072   9.3088517986e+01   9.1741078997e+00    0.4556046    0.1330849  50.74   0.00153598    4.059    0.754
        82  -9.7881    234.0348    129.7690   4.4487274911e+01   9.7507142775e+00    0.2676467    0.1481807 -53.22 0.0006975651    1.638    0.390
        83  -9.4046    117.8028     33.8286   4.0666522038e+01   4.9384744666e+01    0.1616239    0.1427161 -75.78  0.001078358    1.362    0.266
        84  -9.4125    110.9984     32.9998   4.1793074479e+01   5.0790060395e+01    0.1824052    0.1458845 -74.10  0.001051557    1.704    0.413
        85  -9.2745    149.4321     32.2598   3.4636218246e+01   4.3167529089e+01    0.1586817    0.1087091 -45.28 0.0005550571    1.537    0.349
        86  -9.4583    144.7941     31.3800   3.5145504009e+01   4.4222533169e+01     0.178323   0.09770009  51.37 0.0009491615    1.704    0.413
        87 -10.0724    126.4551     31.1523   3.8244037256e+01   4.7967672370e+01    0.2738139    0.1655708  79.16   0.00138986    2.316    0.568
        88 -10.3299     84.2726    244.6842   9.5739308725e+01   1.1264902373e+01    0.2843747    0.1622119  48.59  0.001501807    1.692    0.409
        89  -9.5119    152.8715     29.8304   3.3474715743e+01   4.2722408852e+01    0.1659889    0.1336612 -77.89  0.000653665    1.334    0.250
        90  -8.6682    162.4692     29.4654   3.1974636987e+01   4.0765488459e+01    0.1195218     0.106247 -88.87 7.529726e-05    1.067    0.062
        91 -10.9244    137.1708     27.6900   3.5405510984e+01   4.6175876685e+01    0.2855417    0.1772795 -60.70  0.001541938    2.142    0.533
        92  -8.6762    197.3591     28.6697   2.7380173328e+01   3.3593974890e+01    0.1299067    0.0776509 -70.69 -5.844558e-05    1.794    0.443
        93  -9.1034    166.6748     27.9522   3.1018441939e+01   4.0054977141e+01     0.165692     0.142698 -59.36  0.001126435    1.168    0.144
        94  -9.7655    131.5248     27.9740   3.6444404384e+01   4.7287451283e+01    0.2278249    0.1623933  80.60  0.001023249    1.642    0.391
        95  -9.5165    157.8570     27.2641   3.2085563398e+01   4.1965270630e+01    0.1905294    0.1395551  86.45  0.001171384    1.431    0.301
        96  -9.9494    179.5467     25.5270   2.8775091816e+01   3.7640261112e+01     0.306384    0.1162786 -44.07  0.001432151    2.587    0.613
        97 -10.8036    146.0733     25.4130   3.3368906922e+01   4.4593595839e+01    0.2662949    0.1650266 -87.71  0.001404565    2.192    0.544
        98  -8.8103    109.6711     26.3321   4.0050923520e+01   5.1738869325e+01    0.1135212   0.08995622 -70.64 0.0007051784    1.717    0.418
        99  -8.5662    172.6476     25.3214   2.9596339463e+01   3.9097583620e+01    0.1261504   0.08155118 -72.02 0.0007047564    1.751    0.429
       100  -9.6926    151.1764     25.1327   3.2522887113e+01   4.3572688733e+01      0.16203     0.131506 -74.91 0.0007636439    1.321    0.243
       101 -10.1900    120.7754     21.5955   3.6539573735e+01   5.0054619091e+01       0.1944    0.1414174 -65.68  0.001167311    1.832    0.454
       102  -9.3892    155.7433     22.5808   3.1212228047e+01   4.2892330932e+01    0.1865349    0.1513331 -69.62 0.0008033465    1.296    0.228
       103 -10.5078    151.8734     20.1747   3.1155827699e+01   4.3929794690e+01    0.2203404    0.1537647  86.03  0.001057192    1.543    0.352
       104 -10.1426    237.6517    243.1397   6.6555141317e+01  -1.1942822504e+01    0.2400749    0.1019995 -46.49  0.001093581    2.540    0.606
       105  -9.3388    161.0276     22.0146   3.0338202043e+01   4.1857949617e+01    0.1896652    0.1292524 -72.50 0.0007497192    1.678    0.404
       106 -11.2698    140.8214     17.3035   3.2039457767e+01   4.6458271897e+01    0.3585254    0.1648606  72.15  0.001496118    2.443    0.591
       107  -8.9820    116.6542     22.2967   3.7498563721e+01   5.0791022619e+01    0.1123499   0.08828469 -76.54 0.0003525384    1.673    0.402
       108  -8.1041    172.3030     21.3043   2.8694846723e+01   3.9596112528e+01    0.1127828   0.08458034  39.25 0.0005331777    1.596    0.373
       109  -9.9738    103.9836     20.9981   3.9572457907e+01   5.3326200697e+01    0.1747927    0.1398247 -71.85  0.001140847    1.740    0.425
       110 -11.1530    127.2781     19.3669   3.4770629500e+01   4.8982134518e+01    0.2185697     0.171062  74.53 0.0007484682    1.331    0.249
       111 -11.4030    167.1993     18.4942   2.8675646840e+01   4.0938635954e+01    0.3382878    0.1686622  58.66  0.001653293    1.794    0.442
       112  -9.6873    210.1347    243.8621   7.1596341162e+01  -8.1917083457e+00    0.2319715    0.1806117  10.27  0.001419327    1.301    0.231
       113 -10.1566     55.9597    241.5082   1.0061185188e+02   1.5880955743e+01    0.3041777     0.156374  58.96  0.001553345    1.963    0.491
       114 -11.1052    148.8082     15.5779   3.0423321595e+01   4.4996065833e+01    0.3554402    0.1997514  75.46  0.001586974    1.852    0.460
       115  -9.7015    202.1314    240.1220   7.2414894112e+01  -6.3557589998e+00    0.2422434    0.1444627 -34.62  0.001261808    1.637    0.389
       116  -9.6630     71.9692    240.3134   9.7520199617e+01   1.3960041533e+01     0.213788   0.07003254  55.76 0.0007047014    4.304    0.768
       117  -8.8297     38.5062    240.5243   1.0364283224e+02   1.8307859820e+01    0.1246961   0.09495854  86.71 8.926632e-05    1.030    0.029
       118 -10.6243    226.1871    241.4016   6.8262621748e+01  -1.0090182506e+01    0.3033372      0.20459 -22.60  0.001762741    1.424    0.298
       119  -9.9865     81.8373    236.6695   9.5202857417e+01   1.3339878924e+01    0.2928008    0.1296865  60.60   0.00116167    3.013    0.668
       120  -9.5282     95.6429    236.3057   9.2484846624e+01   1.1363696596e+01    0.1400279   0.09221907  74.13 0.0007040635    1.722    0.419
       121  -8.9253     44.5148    236.5189   1.0216631385e+02   1.8437767104e+01    0.1263275   0.09870221  88.84 0.0008101862    1.010    0.010
       122  -9.3142    215.5965    231.7569   6.8430835933e+01  -6.9207197662e+00    0.1791565    0.1149917 -48.15 0.0009506406    1.616    0.381
       123  -9.5688     80.0167     17.8351   4.3820623663e+01   5.7898312230e+01    0.1668512    0.1326006  88.99  0.001083604    2.065    0.516
       124 -10.3037    235.8078    226.9633   6.3929196900e+01  -9.0386764971e+00    0.3725113     0.156902 -31.63   0.00159236    2.476    0.596
       125 -11.3520    246.7580    225.2005   6.1711366328e+01  -1.0263696478e+01     0.483088    0.2507945 -24.32  0.002328234    2.120    0.528
       126 -10.6631    121.5526     16.0281   3.4806575021e+01   5.0412580849e+01     0.292128    0.1662849  78.97   0.00152884    2.386    0.581
       127 -11.0532    114.3047     16.1323   3.6122692206e+01   5.1808816776e+01    0.2271817    0.1604767  64.94  0.001468939    1.414    0.293
       128  -9.7723    230.0687    234.3073   6.6292744813e+01  -9.4639789762e+00    0.2320762    0.1542278 -28.15  0.001328193    1.365    0.267
       129  -8.6340    179.2822     15.6791   2.6564037043e+01   3.8731807995e+01    0.1168802    0.0769352 -68.72 0.0002954602    1.588    0.370
       130 -10.2548    235.3445    122.5939   4.2761209020e+01   1.0888818493e+01    0.2846544    0.1494313 -41.96 0.0009838389    1.621    0.383
       131 -10.7218    240.3887    219.4650   6.1726272167e+01  -8.4043763841e+00    0.3954484    0.1881557 -32.70  0.001855776    1.967    0.492
       132  -8.9872    100.6850     13.3190   3.7863281607e+01   5.4616808173e+01    0.1041906    0.0858781 -70.73 0.0004106837    1.653    0.395
       133  -9.2200    175.0307     12.5131   2.6336139582e+01   3.9915385416e+01    0.1667312   0.09988385  74.93 0.0005509385    1.524    0.344
       134  -9.2568     13.2104    216.4109   1.0587849829e+02   2.6513725676e+01    0.1621326   0.09583537  56.06 0.0009533618    1.714    0.417
       135  -8.9549    233.0000    212.0191   6.1591542986e+01  -6.0110820765e+00    0.2277121    0.0658731 -42.70 0.0008104901    2.999    0.667
       136  -9.4052    239.9656    206.9628   5.9402952790e+01  -6.1355741463e+00    0.1976703    0.1573579 -64.15  0.001132283    1.684    0.406
       137 -11.2069    248.0091    215.0235   5.9582822832e+01  -8.7134011337e+00    0.5518632    0.2456244 -34.14  0.002548133    2.023    0.506
       138  -8.3606    224.3423    206.3298   6.2023622166e+01  -3.6368174171e+00    0.1414572   0.09760461 -11.91 0.0007051204    1.746    0.427
       139  -8.7158      1.4982    205.4841   1.0700905693e+02   3.0141359396e+01    0.1237103   0.08888422 -84.07 0.0002378996    1.015    0.015
       140  -9.4774    250.4425    199.9640   5.6274298802e+01  -6.4124851525e+00    0.3649517    0.1079636 -42.14  0.001368435    2.785    0.641
       141 -12.8271    245.5004     79.6891   3.2502372129e+01   1.6630231391e+01     1.277868    0.8615165 -69.75  0.007360981    1.418    0.295
       142  -9.4957    246.1659    191.5411   5.5325881349e+01  -4.2453725431e+00    0.2586772    0.1626875 -39.78  0.001135444    1.305    0.234
       143  -9.2428    240.6829    164.1313   5.0670169482e+01   1.8511707889e+00    0.2288531    0.1470545 -53.21  0.001078299    1.479    0.324
       144  -9.5777    247.0902    162.2451   4.9260316570e+01   1.1555273891e+00    0.3188009    0.1618761 -58.25  0.001313485    2.513    0.602
