#   1 NUMBER                 Running object number                                     
#   2 MAG_AUTO               Kron-like elliptical aperture magnitude                    [mag]
#   3 X_IMAGE                Object position along x                                    [pixel]
#   4 Y_IMAGE                Object position along y                                    [pixel]
#   5 X_WORLD                Barycenter position along world x axis                     [deg]
#   6 Y_WORLD                Barycenter position along world y axis                     [deg]
#   7 A_WORLD                Profile RMS along major axis (world units)                 [deg]
#   8 B_WORLD                Profile RMS along minor axis (world units)                 [deg]
#   9 THETA_WORLD            Position angle (CCW/world-x)                               [deg]
#  10 FWHM_WORLD             FWHM assuming a gaussian core                              [deg]
#  11 ELONGATION             A_IMAGE/B_IMAGE                                           
#  12 ELLIPTICITY            1 - B_IMAGE/A_IMAGE                                       
         1 -14.7030     68.5040    144.3122   1.0120080838e+02   3.7207663643e+01     4.728434     2.222766  67.23  0.003314862    3.640    0.725
         2 -14.4202    213.0869     28.3160   3.9054747672e+01   2.8934291043e+01     1.311223    0.9528902  -0.48  0.003962557    1.811    0.448
         3 -14.5003    201.5300     39.8710   4.3333202729e+01   3.0155515378e+01     1.948916      1.44601  26.03  0.006627818    1.811    0.448
         4 -13.2295    238.2752      4.1855   3.1303568887e+01   2.6096898518e+01    0.7750993    0.4817013  85.88  0.004681898    1.696    0.410
         5  -9.3706     59.3306      7.2744   5.9650918613e+01   6.9076870803e+01    0.1384398   0.09349641  23.69 0.0002920056    1.593    0.372
         6 -10.7800      2.0031      3.4386   9.5480157032e+01   7.8227627866e+01    0.3426919    0.1041957 -57.82  0.001440154    2.896    0.655
         7  -9.7975    149.6056    187.8540   8.7929182567e+01   1.5397969929e+01    0.2260828    0.1413733  39.15 0.0009330357    1.462    0.316
         8 -11.3266    139.3155    249.2324   9.8024631745e+01   7.3137442519e+00     0.276987    0.2329484   2.60  0.002150284    1.279    0.218
         9 -16.8658     44.8305    195.3281   1.1280035172e+02   2.8459908161e+01     11.74888     3.215548  46.90   0.03807821    2.878    0.653
        10 -16.1888      9.5002    208.1499   1.2132111856e+02   2.9284717753e+01     2.108372     1.132904 -79.70   0.01098597    1.848    0.459
        11 -14.4958     56.9287    239.0157   1.1311756330e+02   1.8839394641e+01     0.764724    0.5108113  78.28  0.002044057    1.565    0.361
        12 -15.7851     29.1030    249.6813   1.1896991716e+02   1.9930443830e+01      2.61877     0.731254  22.85  0.008413113    7.597    0.868
        13  -9.6058     69.3028    183.1223   1.0586269215e+02   2.8154900881e+01    0.1803869    0.1531388  77.23 0.0009544928    1.128    0.113
        14  -9.9313     99.3972    180.8877   9.8266657061e+01   2.4467405090e+01    0.2350421    0.1793543  29.61 0.0006058582    1.288    0.223
        15  -8.8024     90.4524    181.4787   1.0050513565e+02   2.5640270881e+01    0.1327113    0.1164714  54.18 7.522599e-05    1.027    0.027
        16  -9.7365    143.4459    179.0002   8.7811761714e+01   1.7962803294e+01    0.1882392    0.1306389 -46.43  0.000531936    1.563    0.360
        17 -10.2515    188.8837    177.4666   7.8263983870e+01   1.0923404111e+01     0.305701    0.2309618 -44.30   0.00182542    1.533    0.348
        18 -12.0436     71.7618    169.5751   1.0370376142e+02   3.0824966745e+01    0.3138486    0.2653089 -33.85  0.001640295    1.486    0.327
        19 -12.6895     54.1468    146.6297   1.0567652471e+02   3.8501843393e+01     1.146792    0.8159363  34.54  0.006202722    1.420    0.296
        20 -13.2036     80.0589    160.2437   1.0030008407e+02   3.1806902335e+01     1.713036    0.5444732  51.99   0.00149857    4.580    0.782
        21 -13.7293     68.8135    155.8501   1.0273941688e+02   3.4395011853e+01    0.6232655    0.5670883 -33.29  0.002403171    1.325    0.245
        22 -16.6291      6.4923    247.1738   1.2303345109e+02   2.2430106344e+01     1.554886     1.225104  32.86   0.01287715    1.402    0.287
        23 -10.0843    136.4850    166.6997   8.7265559246e+01   2.1450139608e+01    0.3249394    0.1792621  54.45  0.001397645    2.287    0.563
        24  -9.5806    132.9603    162.7656   8.7382298562e+01   2.2828399811e+01    0.2228573    0.1808925  62.15 0.0009835876    1.405    0.288
        25 -12.2706     67.2308    174.4341   1.0543309594e+02   3.0327873629e+01    0.4359996    0.2894156 -32.35  0.002176838    2.254    0.556
        26 -15.9399      5.4283    174.8391   1.2098688580e+02   3.6623544690e+01     7.393882     0.914205 -78.10    0.0215538    6.035    0.834
        27  -9.7075    154.2808    155.3618   8.1132489121e+01   2.0551665355e+01    0.2155881    0.1907284 -47.79 0.0005798468    1.216    0.178
        28 -12.2809     87.7023    153.9293   9.7309349996e+01   3.2138127244e+01    0.5885925    0.4543434  -9.64  0.002996325    1.820    0.451
        29 -11.2761    133.7287    144.5747   8.3715525979e+01   2.6424177860e+01     1.069562     0.298744 -55.09  0.002776498    5.592    0.821
        30 -10.5930    174.4658    148.9827   7.5566466759e+01   1.8101931899e+01    0.2579946    0.2345184  53.49 0.0008740387    1.280    0.219
        31 -11.3677     30.4140    143.8680   1.1229516003e+02   4.1769076805e+01    0.4982206    0.2583209  20.79  0.002358754    2.256    0.557
        32 -10.9042     81.5218    141.4296   9.6995511895e+01   3.6025872128e+01    0.2778244    0.2145913  65.97  0.001446673    1.340    0.254
        33 -11.7423    203.9964    196.0036   7.8732976107e+01   5.9705337327e+00    0.3385594    0.1704744  10.15  0.001450957    3.236    0.691
        34 -10.9297    101.7775    139.4058   9.0944350710e+01   3.3244871256e+01    0.5386926    0.3540694 -20.68  0.002240402    2.488    0.598
        35 -12.3288     89.0219    139.2097   9.4469367908e+01   3.5392318783e+01    0.2775478    0.2571025 -43.75 0.0004093604    1.174    0.148
        36 -11.3493     25.6823    137.7362   1.1312640123e+02   4.3733528078e+01    0.3848476     0.207403  40.16  0.001713357    1.761    0.432
        37 -11.5343     44.1163    130.2158   1.0658248449e+02   4.3779319063e+01    0.4658531    0.2218538 -62.97  0.002065907    1.914    0.478
        38 -10.2622    111.0639    130.1068   8.6518836066e+01   3.3752745833e+01    0.2969011     0.234482  21.85 0.0007207937    1.448    0.309
        39 -11.0596    135.6740    127.1972   7.9475179712e+01   2.9718207439e+01    0.5953861    0.1667296 -49.61  0.001742267    3.841    0.740
        40 -10.2166    160.7988    127.9279   7.3819655866e+01   2.4594726541e+01    0.3388218    0.1950887 -48.54  0.001485257    1.817    0.450
        41 -10.4832     28.6573    128.3548   1.1126329800e+02   4.5830520208e+01     0.219767    0.1328763  63.63  0.001077236    1.643    0.392
        42 -10.8606     98.3288    126.0036   8.9220329954e+01   3.6984807412e+01    0.3074352    0.2469727 -17.89 0.0007988014    1.595    0.373
        43 -10.3998    116.9750    124.2227   8.3618257971e+01   3.3990150682e+01    0.2421744    0.1882638 -10.96 0.0009576552    1.712    0.416
        44  -9.8020     87.7563    121.0731   9.1313963289e+01   3.9979950071e+01    0.4597949    0.2607548  70.02  0.001642358    3.009    0.668
        45 -10.0183    107.5350    118.9983   8.5032374001e+01   3.6966740766e+01    0.2350033      0.20482  21.40 0.0002149907    1.273    0.215
        46 -10.7246     32.9022    118.6621   1.0872386693e+02   4.7915871925e+01    0.2445934    0.1679222 -63.89 0.0006071193    1.346    0.257
        47 -10.5655    105.9732    130.8166   8.8068378594e+01   3.4506375068e+01    0.3605566    0.3232459  74.19  0.001143451    1.158    0.136
        48  -9.4199    167.9940    112.7953   6.8647352264e+01   2.6007534930e+01    0.2400986    0.1778888  89.03  0.001081108    2.090    0.521
        49 -10.2286    134.6804    112.0870   7.6074149504e+01   3.3127506122e+01    0.3650674    0.1374553 -45.77  0.001240631    2.618    0.618
        50 -11.7140     33.6334    109.7849   1.0725367731e+02   5.0146392301e+01    0.5142511    0.2300581 -73.11  0.002169291    2.043    0.511
        51 -10.2742    205.4938    110.1933   6.1094015370e+01   1.8862768713e+01    0.2714347    0.2253086  38.04 0.0008415581    1.311    0.237
        52 -10.8254    116.9872    108.9229   7.9929972107e+01   3.7439015737e+01    0.5872143    0.3447842  57.69  0.002364642    2.079    0.519
        53  -9.8197    134.5781    105.7573   7.4462754947e+01   3.4487932126e+01    0.3766835    0.1453653 -46.21  0.001284694    2.560    0.609
        54  -9.4065    139.1737    105.9489   7.3374170280e+01   3.3469862601e+01    0.2280432    0.2038236 -79.12 0.0005250433    1.247    0.198
        55 -11.2066     37.5086    102.0660   1.0463664595e+02   5.1765075561e+01    0.2479488    0.1892542  50.70   0.00134292    1.360    0.265
        56 -10.9972    242.3031    102.1501   5.3926101257e+01   1.3285017519e+01    0.2442083    0.1554557 -88.81  0.001102208    3.441    0.709
        57 -10.6335    146.4942    172.0028   8.5947002694e+01   1.8758505439e+01    0.2573676    0.2160589 -79.14  0.001465237    1.577    0.366
        58 -15.4484     23.0042    224.9527   1.1917302717e+02   2.4842111222e+01     2.119973    0.7310165  61.02  0.008857289    2.559    0.609
        59  -9.8228    125.9469     93.1689   7.3229401956e+01   3.9008189960e+01    0.2485362    0.2073699 -82.56  0.001205954    1.415    0.293
        60 -10.4708     52.9037     90.4353   9.6474555371e+01   5.2960785428e+01    0.3024879    0.1938004 -54.69 0.0008341743    1.436    0.304
        61  -9.7428    156.3826     88.4137   6.4598867859e+01   3.3123455686e+01    0.3406954    0.2212553 -71.70  0.001347161    2.407    0.585
        62  -9.4245     74.8915     85.0746   8.6832820958e+01   5.0973553162e+01    0.2263847    0.1937111  79.39 0.0005076766    1.305    0.234
        63  -9.9859    112.7682     82.3584   7.3656943038e+01   4.4180442295e+01    0.3409406    0.2543446  87.64  0.001077607    1.852    0.460
        64 -10.1073    159.0549     82.3248   6.2290079475e+01   3.3628982896e+01    0.2084553    0.2004052  66.70 0.0006137683    1.089    0.082
        65  -9.6380     69.5847     81.6341   8.7816478946e+01   5.2692259366e+01    0.2266796    0.1663649  59.41  0.001076647    1.584    0.369
        66  -8.9403    184.3629     77.2891   5.6159864220e+01   2.8673446579e+01    0.1469997    0.1115572  18.76  0.000702509    1.696    0.410
        67 -10.7859     13.4500     59.8575   1.0713156218e+02   6.4665416793e+01    0.2732598    0.2104983 -77.68 0.0004240775    1.204    0.169
        68  -9.3320    119.9335    194.0740   9.5318756285e+01   1.8819398023e+01    0.1853393    0.1542966  56.50 0.0003518579    1.241    0.194
        69 -13.2224    191.8210     46.7999   4.6442214431e+01   3.1506039242e+01    0.8430762    0.6237733  36.98  0.001031701    1.663    0.399
        70 -12.0966    193.3544    195.3119   8.0527629370e+01   7.5844032233e+00     0.827751    0.4964783 -62.26  0.003376996    4.767    0.790
        71 -11.3444    139.9930     45.5326   5.4423151454e+01   4.4505735249e+01    0.4108052    0.2869252 -69.07  0.000908716    1.730    0.422
        72  -9.9981    140.5449     38.3738   5.1764673513e+01   4.5422692619e+01    0.2468309    0.2313488 -67.96 0.0003328276    1.044    0.042
        73 -10.9069    187.8592     31.1226   4.2370811433e+01   3.4474793139e+01    0.2236269    0.1715879 -57.78 0.0005663075    1.222    0.182
        74  -9.1705      1.6382     29.2892   1.0660448817e+02   7.2678416157e+01    0.1194028   0.08919858  59.36  0.000702542    1.694    0.410
        75 -10.5852    198.0413     23.7480   3.9187236315e+01   3.2912422987e+01     0.285275     0.196671 -13.73  0.001050291    1.673    0.402
        76 -13.4734      9.9519    188.2508   1.2047194041e+02   3.3335384464e+01    0.4286166    0.3827037  53.00 0.0008372089    1.222    0.181
        77  -9.1652     37.4659     56.9292   9.4203265965e+01   6.3209191762e+01    0.2033359    0.1251026 -58.05 0.0003921765    1.467    0.318
        78  -9.3810    189.5213     15.0158   3.7473804120e+01   3.5901977509e+01    0.1999418    0.1249791 -28.05  0.000609833    1.541    0.351
        79 -10.7318    107.7345    204.0094   9.9304199500e+01   1.8739524188e+01    0.2274722    0.1970671  64.93 0.0004147675    1.211    0.174
        80 -10.8100    109.6146    200.8256   9.8499044837e+01   1.9063593094e+01    0.2752058    0.1945648 -86.95  0.001350207    1.903    0.474
