#   1 NUMBER                 Running object number                                     
#   2 MAG_AUTO               Kron-like elliptical aperture magnitude                    [mag]
#   3 X_IMAGE                Object position along x                                    [pixel]
#   4 Y_IMAGE                Object position along y                                    [pixel]
#   5 X_WORLD                Barycenter position along world x axis                     [deg]
#   6 Y_WORLD                Barycenter position along world y axis                     [deg]
#   7 A_WORLD                Profile RMS along major axis (world units)                 [deg]
#   8 B_WORLD                Profile RMS along minor axis (world units)                 [deg]
#   9 THETA_WORLD            Position angle (CCW/world-x)                               [deg]
#  10 FWHM_WORLD             FWHM assuming a gaussian core                              [deg]
#  11 ELONGATION             A_IMAGE/B_IMAGE                                           
#  12 ELLIPTICITY            1 - B_IMAGE/A_IMAGE                                       
         1 -11.0994    228.6829     20.3860   3.2099300778e+01   2.6800914998e+01    0.6625494    0.4836609 -59.93  0.003057573    1.149    0.129
         2  -7.6772     46.5116      7.4177   6.3218937241e+01   6.8332570586e+01    0.1220518   0.09488241  17.10 9.949137e-05    1.018    0.017
         3  -7.9530    165.8283      6.0739   3.4880371131e+01   4.2426098552e+01    0.1858902     0.145185 -78.87 0.0003695186    1.210    0.174
         4  -9.1103    248.6024      2.2334   2.7163645969e+01   2.4815124577e+01    0.3591885    0.1688056 -80.89   0.00202324    2.033    0.508
         5  -7.0434     74.4303    237.4292   1.0967639227e+02   1.4417374565e+01    0.1274476    0.1052049  57.63 0.0001867031    1.036    0.034
         6 -14.2735     37.4667    199.0449   1.1424464602e+02   2.7463397324e+01      4.65027     4.057398 -68.06   0.01970874    1.223    0.182
         7  -8.1108    249.8259    233.8358   7.2890274813e+01  -1.0142502217e+01    0.1513491    0.1281262 -15.05  0.001084088    1.362    0.266
         8  -8.1424     89.9635    234.2889   1.0598221924e+02   1.2908793990e+01    0.2217433   0.06199639  48.86  0.000701199    4.051    0.753
         9  -8.2921    193.4934    234.8308   8.3692795292e+01  -2.8428731400e+00    0.2491985    0.2110827 -68.65  0.001487627    1.967    0.492
        10  -8.2339     82.6214    232.7938   1.0742660736e+02   1.4248120729e+01     0.168131    0.1175622 -86.55 0.0009344433    1.603    0.376
        11  -8.6232    100.3066    231.3132   1.0334842653e+02   1.2015355821e+01    0.1255453     0.102209  -9.93 0.0002793195    1.622    0.383
        12  -8.3989    213.9829    229.1624   7.8671171370e+01  -4.8671653884e+00    0.1964553    0.1714041 -14.24 0.0004567415    1.237    0.191
        13  -7.9328     53.8162    228.8095   1.1328110112e+02   1.8870018308e+01    0.1766662    0.1226319  69.80 0.0005308065    1.334    0.251
        14 -10.0826    112.4248    224.5868   9.9752405540e+01   1.1563211486e+01    0.5160506    0.2377027  41.69  0.001309975    1.930    0.482
        15  -7.2682     66.3082    226.2624   1.1033163846e+02   1.7828375291e+01    0.1134006    0.1004273 -14.36  0.000225449    1.529    0.346
        16  -8.4413    183.0126    224.9380   8.4193534666e+01   3.6060744615e-01    0.2222619    0.1481144  -3.37  0.001124027    1.717    0.418
        17 -13.0982     28.6825    232.6562   1.1878844767e+02   2.0948702758e+01     1.740132    0.6654648  35.34  0.003098851    2.334    0.572
        18  -7.3661     93.3682    222.3025   1.0380797265e+02   1.4913087573e+01    0.1321487    0.1044633  -9.55 0.0007033763    1.743    0.426
        19  -7.5697    136.7982    220.1428   9.3547636739e+01   8.6093701674e+00     0.185103    0.1525047   7.95 0.0004477101    1.284    0.221
        20 -13.8551     30.0168    248.1400   1.1951256576e+02   1.7670012313e+01     1.227079    0.6849362  34.53   0.00144709    1.738    0.425
        21  -8.3779    184.2262    219.6274   8.3025649709e+01   1.0942647217e+00    0.1873701    0.1149399  23.85 0.0003356434    1.559    0.359
        22  -8.8117     83.1420    218.4539   1.0568803533e+02   1.7222662963e+01    0.2283982    0.1861571  76.76  0.000363537    1.229    0.186
        23  -8.7115     56.0296    217.0759   1.1171189982e+02   2.1151093603e+01    0.1950916    0.1585677  64.81            0    1.075    0.070
        24  -9.4667    150.6573    214.0573   8.9419374420e+01   7.5514831466e+00    0.3683487    0.2504028  27.87 0.0005270384    1.386    0.278
        25  -9.2519     74.9241    212.5562   1.0689984877e+02   1.9682913800e+01    0.4349622    0.3463902   2.80   0.00182187    1.697    0.411
        26  -7.3044     98.5481    214.4734   1.0159879965e+02   1.5830752492e+01    0.1341018    0.1274939  32.59 -3.303182e-06    1.103    0.093
        27  -7.3359    105.3300    213.7013   9.9897255315e+01   1.4959631565e+01    0.1443178   0.09936694  62.37  0.000702973    1.641    0.391
        28 -12.5983     18.4062    226.2827   1.2043999059e+02   2.3352500693e+01    0.5444431    0.2644751 -87.96  0.001746128    1.921    0.479
        29  -8.2744    189.0617    210.5293   8.0389634372e+01   1.9427073399e+00    0.2162586    0.1823504 -37.68  0.001264008    1.296    0.229
        30  -7.8853     95.7943    211.2412   1.0181471451e+02   1.6959004466e+01    0.1836472     0.162679 -12.48  0.001018513    1.369    0.270
        31  -8.1783     63.0104    209.1747   1.0930104225e+02   2.2046617392e+01    0.2289584    0.1775611 -44.82 0.0009584584    1.560    0.359
        32  -7.8776    128.3362    206.7802   9.3402760518e+01   1.2753979802e+01    0.2625115    0.1854249 -78.80  0.001240459    1.972    0.493
        33  -7.8012     73.9718    203.9899   1.0610095061e+02   2.1771998662e+01    0.2139693    0.1448677  67.04  0.001085199    1.566    0.362
        34  -7.5518    116.2521    203.3351   9.5749336061e+01   1.5495708477e+01    0.1388108     0.109061 -21.46 0.0002422042    1.563    0.360
        35  -9.7242    118.5621    208.1057   9.5936775184e+01   1.4073886656e+01    0.4396145    0.2807054 -41.52  0.001899136    1.772    0.436
        36 -13.1902      1.4965    208.1604   1.2280874541e+02   2.8837856975e+01     1.518134    0.2000307 -72.32  0.005108863    4.881    0.795
        37  -8.0758    193.6415    198.3098   7.7149104192e+01   3.4193948710e+00    0.3399704    0.2261952 -64.65   0.00149263    2.684    0.627
        38  -7.4697    173.4120    199.4553   8.1717526588e+01   6.5944796136e+00    0.1420466    0.1282069   1.48 5.127997e-05    1.012    0.012
        39  -8.7090    109.0180    198.0451   9.6686077077e+01   1.7862809626e+01    0.2074995    0.1965672  50.38            0    1.008    0.008
        40  -9.3260     88.6990    197.5249   1.0164335556e+02   2.1158519326e+01    0.3768223    0.2704151   2.39 0.0004218213    2.006    0.502
        41  -7.2572     97.7314    196.2970   9.9217256310e+01   2.0063080271e+01    0.1418552     0.105595  69.38 0.0001615293    1.518    0.341
        42 -13.9916     20.4342    249.1694   1.2136819793e+02   1.8488540406e+01     1.556506    0.5500625  30.55  0.002208902    2.928    0.658
        43 -15.4002     11.6988    242.9439   1.2265902769e+02   2.0594499358e+01     1.041349    0.6554425 -58.96  0.006718179    1.958    0.489
        44 -15.1203      3.2093    238.3421   1.2400253518e+02   2.2320838726e+01     1.010698    0.3790287 -78.50  0.005327148    2.377    0.579
        45  -9.8042     66.5431    190.0415   1.0618068871e+02   2.6094112150e+01    0.4069659    0.2859359  10.78  0.001170466    1.923    0.480
        46  -8.8416     75.6665    187.9728   1.0358666955e+02   2.5341881810e+01     0.434584    0.2037808 -47.01  0.001180041    2.436    0.589
        47  -7.9564     78.0724    182.4043   1.0216830275e+02   2.6360085743e+01    0.2114334      0.18156 -74.46 0.0003069656    1.134    0.118
        48  -9.8296     17.5175    189.0570   1.1802940950e+02   3.1819959266e+01    0.3904619    0.2822888  77.97  0.002393012    1.201    0.168
        49  -9.5392     80.7706    187.5838   1.0222406127e+02   2.4703258255e+01    0.2621381    0.2488181 -17.11 0.0003530117    1.215    0.177
        50  -9.8922     49.0096    181.9249   1.0963170474e+02   3.0286701321e+01     0.358425    0.2603256 -74.62  0.001665121    1.270    0.213
        51 -10.1250     37.3615    180.2641   1.1240218014e+02   3.1999337018e+01    0.4234409    0.2967299  38.05  0.001206295    1.475    0.322
        52  -7.0893    244.6478    181.3171   6.4118378704e+01  -1.5693331698e+00    0.1179352    0.1021937 -63.19 0.0007046937    1.739    0.425
        53 -10.0953     59.2326    178.8761   1.0660745976e+02   2.9793677718e+01    0.4730576    0.3342233 -50.06  0.001027193    1.491    0.330
        54  -9.6452     64.5955    173.4525   1.0444032766e+02   3.0456719914e+01    0.2982394    0.2568459 -22.43 0.0008074256    1.413    0.292
        55  -7.5954     86.9908    178.3250   9.9194198164e+01   2.6041654558e+01    0.1972908    0.1819984  41.33 0.0003704898    1.098    0.089
        56  -9.3264      2.5953    174.6869   1.2043886430e+02   3.6472677740e+01    0.4257312    0.1990373 -66.84  0.002189345    1.797    0.443
        57  -7.6045     76.5646    176.4715   1.0167949721e+02   2.8047012385e+01    0.1449902    0.1330077  81.81 7.917317e-05    1.045    0.043
        58  -9.7292     17.7232    171.7941   1.1650594297e+02   3.5971850489e+01    0.4934503    0.2780451  88.87  0.002381315    1.675    0.403
        59  -9.3873    175.4160    172.2362   7.5863167512e+01   1.1731862551e+01    0.3077515    0.2847569 -21.62 0.0007459651    1.047    0.045
        60  -7.2740    117.4702    173.4299   9.0278899315e+01   2.2201269853e+01    0.1494549     0.146538  31.27 0.0001874553    1.010    0.009
        61  -7.6061    137.5005    172.4866   8.4951365157e+01   1.8789584296e+01    0.1515351    0.1480472  14.43 -0.0001089866    1.020    0.019
        62 -14.7290      3.2057    221.6182   1.2318635326e+02   2.5774203350e+01     1.021066     0.482861 -71.15  0.004760252    1.933    0.483
        63  -8.8475     46.5637    171.0779   1.0895022865e+02   3.3277356522e+01    0.2652063    0.2081258  62.60  0.001484136    1.266    0.210
        64  -8.1541     43.0102    168.9795   1.0963751429e+02   3.4204683590e+01    0.2019448    0.1821747  88.15 0.0003866781    1.031    0.030
        65 -10.0961     11.6947    161.8918   1.1713271947e+02   3.8904449199e+01    0.3824768    0.2332527 -24.93  0.001945502    2.417    0.586
        66  -9.6489     16.2749    159.6012   1.1571502054e+02   3.9112601904e+01    0.4434399     0.135056 -62.33  0.001780963    2.552    0.608
        67 -10.0196     24.7347    169.8958   1.1454101909e+02   3.5818206671e+01     0.492943    0.3166684 -34.20  0.002543933    2.079    0.519
        68  -8.8560     24.7167    165.3883   1.1408112198e+02   3.6943368133e+01     0.218317    0.1757755  69.17 0.0006102818    1.199    0.166
        69 -13.7354     12.5883    231.6895   1.2189875388e+02   2.2790193863e+01    0.3237574    0.2799793  83.37  0.001873375    1.201    0.167
        70  -8.9458      6.9166    170.0634   1.1904097420e+02   3.7265530969e+01    0.2343107    0.1631818  46.19 0.0003656288    1.483    0.326
        71  -8.5118     10.8900    167.9070   1.1787445018e+02   3.7486088963e+01    0.2334055    0.1568645 -65.69 0.0008869219    1.325    0.245
        72  -9.0168      3.7445    166.0298   1.1950117410e+02   3.8478203496e+01    0.2554893    0.1482358  68.53  0.001243249    1.690    0.408
        73 -13.9981     10.3763    225.8751   1.2200874020e+02   2.4216981273e+01    0.5566875     0.279523 -61.61  0.003102843    2.135    0.532
        74  -7.1204    124.6504    164.7100   8.6682343303e+01   2.2991384817e+01    0.1588607    0.1217067  -7.74 0.0007026595    1.667    0.400
        75  -7.3809    106.8274    163.8060   9.1278076906e+01   2.6402042719e+01    0.2072091    0.1758451  78.89 0.0003742023    1.336    0.251
        76  -8.4757     92.1461    163.9083   9.5336835958e+01   2.8828645138e+01    0.2261848    0.1936314  75.68 0.0002788935    1.258    0.205
        77  -9.1156     74.8342    163.7253   1.0013305791e+02   3.1510328622e+01    0.2801721    0.2557788  12.83 0.0004212138    1.233    0.189
        78  -9.9038     60.1684    161.0419   1.0382676532e+02   3.4188158720e+01     0.425952    0.3488471  -8.68  0.001107649    1.540    0.350
        79  -7.8812     53.7227    162.7273   1.0588075699e+02   3.4558202675e+01    0.2886007    0.1621589  48.64  0.001151561    1.882    0.469
        80  -9.9798     81.8343    157.5611   9.7090154804e+01   3.2048675404e+01    0.5893684    0.3843467 -24.88  0.001507645    2.180    0.541
        81  -7.9660    172.0490    159.0775   7.3788503965e+01   1.5142076414e+01    0.2157003    0.1858763 -86.82 0.0003314894    1.531    0.347
        82  -8.3625     34.9998    158.5977   1.1052986655e+02   3.7679191880e+01    0.3191398    0.2046114 -32.74  0.001090167    2.016    0.504
        83  -8.1358     51.8427    156.8852   1.0556282639e+02   3.6281284972e+01    0.2091102    0.1732176 -50.63 0.0003745268    1.214    0.177
        84 -10.5165     20.8635    163.4092   1.1488879298e+02   3.7778983007e+01    0.4876392      0.33657  13.81 0.0008435973    1.854    0.461
        85  -9.9708    121.0322    233.7157   9.9049539913e+01   8.4180594477e+00    0.4046864    0.2593398   6.26  0.001698138    2.358    0.576
        86  -7.3841     31.6793    156.2945   1.1116642912e+02   3.8590120851e+01    0.1393327   0.09268153  67.08  0.000557374    1.612    0.380
        87  -9.3097      8.7313    154.9708   1.1726575789e+02   4.0839787539e+01     0.198734    0.1815431  53.37 0.0002213197    1.239    0.193
        88  -8.5579    128.3085    153.5688   8.3364768732e+01   2.4966198960e+01    0.2538732    0.2307415 -61.02 0.0003680247    1.144    0.126
        89  -7.1064    146.2641    152.7044   7.8530826017e+01   2.1654667452e+01    0.1488949    0.1256709 -89.97 0.0002308116    1.508    0.337
        90 -10.9749     68.9329    145.4924   9.8674189844e+01   3.7027147957e+01    0.8642297    0.5771448  79.61  0.002979478    2.004    0.501
        91  -9.5989     84.7218    142.7042   9.3397905020e+01   3.5397302866e+01    0.4585488    0.3720296 -70.70  0.001326235    1.268    0.212
        92  -7.8728     80.4566    151.5279   9.6380886192e+01   3.3800187148e+01    0.1505171    0.1411889 -48.50 3.389144e-05    1.066    0.062
        93  -7.6163    118.5740    145.4575   8.4209528776e+01   2.8779960574e+01    0.1558808    0.1519489 -36.66 -8.458007e-06    1.007    0.007
        94  -7.4824     30.6437    145.3284   1.1006095218e+02   4.1488008262e+01    0.1454944   0.09317948  66.67 0.0007044864    1.781    0.438
        95  -8.9850     14.8037    152.2402   1.1536085400e+02   4.1070246479e+01    0.3471265     0.210652 -35.60  0.001366667    2.044    0.511
        96  -8.9352     97.9481    142.6451   8.9468973995e+01   3.3222888137e+01    0.4354021    0.2909006 -31.84 0.0008767954    1.769    0.435
        97  -8.8842    241.2372    142.4928   5.6792972196e+01   5.5618100206e+00    0.1969186    0.1285458  32.48  0.001027508    1.845    0.458
        98  -8.5028     16.9295    142.1691   1.1365106166e+02   4.3445380475e+01    0.2034715    0.1787567  -1.62   0.00128312    1.405    0.288
        99  -8.4408     83.0408    137.8533   9.2903404122e+01   3.6899628728e+01    0.2285244    0.1998447  70.86  0.001172239    1.266    0.210
       100  -9.7937     12.3720    137.2237   1.1440020766e+02   4.5024809256e+01    0.3631403    0.2796172 -36.42  0.001752899    1.444    0.308
       101  -8.9936     63.2551    236.9076   1.1199908257e+02   1.5990134977e+01    0.3731751    0.1634718 -58.85  0.001476119    2.456    0.593
       102  -7.1637    164.6199    135.2567   6.9995326018e+01   2.1782231510e+01    0.1551275    0.1246893  80.41 0.0006969123    1.665    0.399
       103  -7.9470     86.4513    134.9085   9.1234940476e+01   3.7102848787e+01    0.2197223    0.2038889  20.75 0.0003630128    1.136    0.120
       104  -8.7477     28.9457    133.9747   1.0899269924e+02   4.4548152860e+01    0.1977089     0.191967 -65.56 0.0003842772    1.131    0.116
       105  -8.8234      9.6887    132.0813   1.1459491516e+02   4.6497515731e+01     0.288533    0.1896313  86.18  0.001580873    1.513    0.339
       106  -7.7200    108.9763    131.5317   8.3718434352e+01   3.3992162169e+01    0.3374052    0.1891701 -21.54  0.001043763    3.515    0.715
       107  -7.7310     72.4329    131.7674   9.4918085029e+01   4.0059596455e+01    0.2149645    0.1304476 -48.34 0.0004226994    1.552    0.356
       108  -7.2719     20.4889    132.5151   1.1138485146e+02   4.5619687722e+01    0.1346852    0.1143806 -76.81 7.418684e-06    1.053    0.050
       109  -8.3857    245.4709    130.4734   5.3617244644e+01   6.9218737838e+00    0.1348627    0.1122309 -33.28 8.493305e-05    1.031    0.030
       110  -7.7780     15.4862    129.0555   1.1246297711e+02   4.6865827906e+01    0.2136111    0.1087784 -67.95  0.001030651    1.600    0.375
       111  -8.7193      1.6172    123.8143   1.1607931310e+02   4.9036068299e+01    0.5296415   0.09969813 -73.14  0.001652444    4.216    0.763
       112  -8.3440     66.2048    125.0599   9.5501771837e+01   4.2651934757e+01    0.2307161    0.2114453  18.91 0.0003466937    1.176    0.150
       113  -6.9946     11.6833    125.3068   1.1315545647e+02   4.8067345192e+01    0.1304996   0.09001938  69.42 0.0003392926    1.630    0.386
       114  -7.3122     33.3379    124.7260   1.0617107461e+02   4.6515606722e+01    0.1360632   0.09966557  65.78  0.000224115    1.607    0.378
       115  -8.0919    244.3246    123.6877   5.2356765811e+01   8.2809197648e+00    0.1327146   0.09614739 -63.38 0.0003837652    1.660    0.397
       116  -7.0371     62.2671    123.6750   9.6494628712e+01   4.3536745201e+01    0.1443134    0.1128468  80.98 0.0002346175    1.569    0.362
       117  -6.8576     94.6497    121.2832   8.5551606473e+01   3.9113870282e+01    0.1565937    0.1227654  72.05 0.0003598252    1.653    0.395
       118  -7.6303     64.4551    120.5228   9.5100837809e+01   4.4041547828e+01    0.1480901    0.1368361 -53.25 8.288622e-05    1.023    0.023
       119  -7.5458      5.6389    119.7027   1.1434024197e+02   4.9834065497e+01      0.17089    0.1041484 -80.04 0.0003708752    1.463    0.316
       120  -7.6129    108.9025    119.5174   8.0772359477e+01   3.6905008639e+01    0.2163898    0.1566907  37.07 0.0002712131    1.415    0.293
       121  -8.0651    248.5156    116.5046   5.0244628906e+01   8.7671993800e+00    0.1331234    0.1108685 -37.44 -6.422921e-05    1.041    0.039
       122  -7.7629     26.2869    114.5785   1.0681108251e+02   4.9697275942e+01    0.1736846    0.1272702 -10.16 0.0009448859    1.620    0.383
       123  -8.8001     59.5243    110.2990   9.4478857473e+01   4.7257179613e+01    0.2606241    0.2334682 -52.81 0.0005570939    1.055    0.052
       124  -7.2603     50.5427    110.4982   9.7645437768e+01   4.8320078995e+01    0.1461223    0.1272182 -44.26 -1.344067e-05    1.039    0.037
       125  -9.2268    249.6814    107.9551   4.8293704345e+01   9.9858463580e+00    0.3685785     0.122938 -44.21  0.001460521    2.510    0.602
       126  -6.9480    196.3079    107.3231   5.6519513936e+01   2.0633570186e+01    0.1467208    0.1164572   1.22 0.0004959649    1.646    0.393
       127  -7.0107     58.2657    102.3373   9.3028347724e+01   4.9370425669e+01    0.1519958    0.1001813 -31.64 0.0001478908    1.591    0.371
       128  -7.5663     10.3741    100.8095   1.1005225118e+02   5.4214946948e+01    0.1886885   0.09257425 -57.89 0.0005504692    1.574    0.365
       129  -7.5546    186.3820     99.8567   5.6523404390e+01   2.4212443453e+01    0.2124923    0.1381212 -29.09 0.0006726825    1.680    0.405
       130  -7.6099     35.7059     98.3079   1.0032590386e+02   5.2893529500e+01    0.1303181    0.1048656  75.25 0.0002446407    1.585    0.369
       131  -8.1465    100.0449     96.8070   7.7314246799e+01   4.3851890903e+01    0.2158427    0.2054735  78.98 0.0002899676    1.206    0.171
       132  -8.7259     42.5211     92.4801   9.6422661918e+01   5.3602610911e+01    0.2297528     0.205432 -38.10 9.747831e-05    1.034    0.033
       133  -7.2914     75.5767     88.4451   8.3077213326e+01   5.0072391175e+01    0.1471164    0.1356604 -23.42 0.0001261436    1.018    0.018
       134  -6.5771    145.3301     84.6912   6.1162829262e+01   3.6534285947e+01    0.1558982    0.1216643 -81.52 0.0003496959    1.664    0.399
       135  -7.1200     55.9904     84.6903   8.9223506502e+01   5.3799368682e+01     0.154374    0.1273007  16.06 0.0003349993    1.259    0.206
       136  -7.9008     38.2069     82.8505   9.5684429786e+01   5.6297368470e+01    0.1890426    0.1764237 -50.99 0.0006053447    1.164    0.141
       137  -7.2769    102.0501     77.0065   7.0649844884e+01   4.7592455545e+01    0.1727348      0.16268   1.01 0.0009376472    1.006    0.006
       138  -7.6599     17.5811     73.5508   1.0183843461e+02   6.0171307194e+01    0.1298918     0.105154 -43.05 -2.864864e-06    1.015    0.015
       139  -7.2221     22.7044     69.7132   9.8683663500e+01   6.0645617516e+01    0.1354254   0.08005168 -31.96 0.0002125436    1.548    0.354
       140  -8.6498      7.0342     68.4672   1.0516475082e+02   6.1947930408e+01    0.2189846    0.1556349 -61.29 0.0004021602    1.267    0.211
       141  -8.2790     15.8618     59.1376   9.8865553957e+01   6.3428841567e+01    0.1826403    0.1175596 -33.14 0.0004172291    1.305    0.234
       142  -7.5140     46.2272     53.4157   8.3252247264e+01   6.1560465977e+01    0.1686485    0.1201419  35.08 0.0005057785    1.569    0.363
       143  -9.6009    195.4875     51.6479   4.2820532094e+01   3.0104589164e+01    0.3029171      0.17316 -54.01  0.001444743    1.766    0.434
       144 -10.6966    202.4697     42.5310   3.9689407521e+01   2.9762758353e+01    0.3918125    0.3499443  34.62  0.001518202    1.435    0.303
       145 -11.6052    210.2607     38.5845   3.7853618197e+01   2.8534996514e+01    0.8262168    0.6126208  45.44  0.004781767    1.699    0.412
       146 -11.0689    218.1408     30.0225   3.5102235625e+01   2.7889276145e+01     1.255175    0.3069448  55.94   0.00367399    4.320    0.769
       147  -8.3072    249.7515    248.7514   7.5410143454e+01  -1.2083955257e+01    0.1596271   0.08471719 -42.15 0.0007071239    2.437    0.590
       148  -7.0797    116.2812     23.2940   4.8289380412e+01   5.2559110075e+01    0.1351505    0.0915966  32.56  0.000234215    1.534    0.348
       149  -8.0651    233.5678    247.7079   7.8118934312e+01  -1.0061137019e+01    0.1429316    0.1027593 -32.67 0.0009363504    1.546    0.353
       150 -10.2938     97.1556    239.7141   1.0502792085e+02   1.0794809358e+01    0.3716776    0.2907368  40.01  0.002272529    1.118    0.105
