#   1 NUMBER                 Running object number                                     
#   2 MAG_AUTO               Kron-like elliptical aperture magnitude                    [mag]
#   3 X_IMAGE                Object position along x                                    [pixel]
#   4 Y_IMAGE                Object position along y                                    [pixel]
#   5 X_WORLD                Barycenter position along world x axis                     [deg]
#   6 Y_WORLD                Barycenter position along world y axis                     [deg]
#   7 A_WORLD                Profile RMS along major axis (world units)                 [deg]
#   8 B_WORLD                Profile RMS along minor axis (world units)                 [deg]
#   9 THETA_WORLD            Position angle (CCW/world-x)                               [deg]
#  10 FWHM_WORLD             FWHM assuming a gaussian core                              [deg]
#  11 ELONGATION             A_IMAGE/B_IMAGE                                           
#  12 ELLIPTICITY            1 - B_IMAGE/A_IMAGE                                       
         1 -11.6235    212.2634     31.5271   4.2810337759e+01   2.8514806790e+01    0.9251844    0.6450785 -49.49  0.005032978    1.351    0.260
         2 -11.1441    218.6893     25.1711   4.0518649110e+01   2.7769736131e+01    0.6531285    0.3878628  36.81  0.001973808    2.485    0.598
         3 -10.0907      2.0000     20.9931   1.0120363524e+02   7.1054108078e+01    0.4261147   0.07393491 -54.58  0.001568887    4.192    0.761
         4 -11.6423    232.4467     11.4312   3.6006877341e+01   2.6186088106e+01    0.7005133    0.5351515 -68.73   0.00276628    1.135    0.119
         5  -9.6096      1.8435      4.6207   9.4271678044e+01   7.3829354976e+01    0.3782141    0.1103958 -49.15  0.001736943    3.075    0.675
         6 -10.0282     94.6296    244.1604   1.1309890352e+02   1.2026711450e+01    0.2708445    0.1671582  48.97  0.001650705    1.312    0.238
         7 -10.3606    101.0388    250.1114   1.1247231338e+02   1.0095090337e+01    0.5042203    0.1523109  36.28  0.001487193    3.023    0.669
         8  -9.6406     75.4957    249.8385   1.1716079735e+02   1.3646567078e+01    0.2808175    0.1392012  35.84  0.001566407    1.916    0.478
         9 -10.5126     30.7864    248.0091   1.2487491604e+02   1.9353190147e+01    0.4012954    0.3920795 -68.59  0.003424747    1.617    0.382
        10 -11.8666      3.7388    182.6158   1.2606041967e+02   3.4992007398e+01     1.354651     0.459048 -85.25  0.006241578    2.632    0.620
        11 -13.8570      5.7871    142.0169   1.2255393716e+02   4.4036289201e+01     6.797858     1.468905 -80.39   0.02019913    5.471    0.817
        12  -8.9813     41.6846    237.2990   1.2233857890e+02   2.0090815040e+01    0.2066146    0.1710429 -78.96 0.0009128643    1.360    0.264
        13  -9.7050     38.9823    232.5381   1.2251128603e+02   2.1294290053e+01    0.2192222    0.1605891  60.31 0.0003582176    1.096    0.087
        14 -10.9502    127.8489    230.1431   1.0498757848e+02   9.5254818934e+00    0.5034665    0.3649186 -88.81  0.002887142    1.851    0.460
        15 -10.3722     24.7643    228.7563   1.2483204353e+02   2.3556432412e+01    0.2689998     0.249406  59.03  0.001582908    1.418    0.295
        16  -8.8308    110.3092    230.3364   1.0855353303e+02   1.2204774132e+01    0.1162318   0.09716519  -2.66 0.0003534372    1.680    0.405
        17 -10.1767     82.5783    225.7948   1.1362392433e+02   1.7100996871e+01    0.3017139     0.231881 -87.36  0.001462068    1.309    0.236
        18  -9.8172     87.1239    224.6745   1.1259670901e+02   1.6678845184e+01    0.3199463    0.1333204  51.28  0.001475497    2.218    0.549
        19  -8.8014     47.6575    223.7908   1.2027544964e+02   2.1988049840e+01    0.3584042    0.1396775  68.81  0.001490827    3.435    0.709
        20 -10.3242    115.4814    230.1640   1.0749074616e+02   1.1446983468e+01    0.2900474    0.2166633  89.47  0.001745223    1.603    0.376
        21  -8.2175     95.2216    222.7697   1.1074620833e+02   1.5878939080e+01    0.1806642    0.1436889 -13.43  0.001046797    1.998    0.500
        22  -8.6587    175.7705    221.0266   9.3918953443e+01   3.2528261771e+00    0.1623579    0.1089414 -41.51  0.000890315    1.690    0.408
        23  -7.8841     33.5080    227.5227   1.2317929888e+02   2.2863656496e+01    0.1132444   0.08609644  70.88 0.0004338366    1.011    0.011
        24  -8.5848     73.2497    219.4044   1.1486162817e+02   1.9632172270e+01    0.1840031   0.09259848  48.13 0.0009579257    1.704    0.413
        25 -10.3499     22.8593    207.8210   1.2389058053e+02   2.7920495687e+01    0.3747641    0.1547074 -79.61  0.001959992    2.156    0.536
        26  -8.1767    120.1987    240.6141   1.0778955671e+02   8.8893823301e+00    0.1787137    0.1025229  31.59 0.0009523084    1.722    0.419
        27  -9.1375     63.3377    238.4267   1.1847023311e+02   1.7268425768e+01    0.1994746    0.1259559 -83.30  0.000670106    1.600    0.375
        28  -9.8637     58.1502    181.8862   1.1414041629e+02   2.9646319651e+01    0.3706014    0.2530918 -37.95  0.001443171    2.064    0.515
        29  -9.9889     63.8056    176.0715   1.1212320295e+02   3.0267305618e+01    0.2838137    0.2337686 -39.51 0.0005240691    1.522    0.343
        30  -9.9159     32.2012    167.7078   1.1864022392e+02   3.5819660849e+01    0.3790502    0.2035467 -83.43   0.00197434    1.699    0.411
        31 -11.3344     19.6542    220.6827   1.2528319575e+02   2.5645994966e+01    0.6072221    0.2765506  62.86  0.002919496    1.876    0.467
        32 -11.0125     81.4624    159.5405   1.0538951879e+02   3.1738116165e+01    0.6134414    0.5307577 -77.42   0.00238838    1.083    0.076
        33  -9.4391     74.4293    156.7910   1.0676614994e+02   3.3407348727e+01    0.3274502    0.1360899 -69.29  0.001222423    2.681    0.627
        34 -11.4845     60.9506    162.3758   1.1102811866e+02   3.3856434013e+01    0.5026284    0.2784063 -45.79   0.00149876    2.105    0.525
        35  -9.6795     74.1146    165.8622   1.0822574091e+02   3.1281420517e+01    0.2678619    0.2462713 -71.11 0.0004554239    1.105    0.095
        36 -12.9077      5.6765    240.1908   1.2865657582e+02   2.3309529603e+01     1.649674    0.9538298 -85.99   0.01191855    1.481    0.325
        37 -10.3181     70.4940    145.4960   1.0596943732e+02   3.6696235847e+01    0.4463127     0.356648 -49.60  0.001499552    1.265    0.210
        38 -10.9004     67.5003    142.4858   1.0627895351e+02   3.7836700542e+01    0.5848311    0.4099035 -68.44  0.001204422    1.319    0.242
        39 -10.5006     84.2666    143.0967   1.0178495811e+02   3.5298486709e+01    0.3617003    0.2628834 -48.24 0.0006788521    1.367    0.268
        40  -9.1489     96.2419    144.7674   9.8847068780e+01   3.2995323760e+01    0.2005307    0.1742313 -22.72 0.0005735116    1.342    0.255
        41 -12.7175      8.0491    207.7125   1.2668345135e+02   2.9343352842e+01      1.09056    0.7704535 -85.16  0.005780349    1.214    0.176
        42  -7.9309     73.3288    134.6409   1.0325161694e+02   3.8970393538e+01    0.1516933    0.1058823  76.75 0.0007042703    1.790    0.441
        43  -9.0846    107.3597    132.2617   9.3172569299e+01   3.4083706680e+01    0.3732083    0.2863013  43.98  0.001826304    1.348    0.258
        44 -12.4312     30.9525    187.3244   1.2071965410e+02   3.1490220755e+01      1.52766    0.5937572  81.75  0.005860571    3.704    0.730
        45  -9.2345     33.0000    127.9013   1.1365758589e+02   4.5285273416e+01    0.3836409   0.06355786 -67.65  0.001062529    5.036    0.801
        46  -8.8087     95.1434    128.8435   9.5842756305e+01   3.7030800798e+01    0.2460673    0.2205203   8.07 0.0006352426    1.267    0.211
        47 -11.3722     29.4325    210.3391   1.2279255967e+02   2.6730683859e+01    0.4588469    0.3255402 -51.57  0.001004045    1.879    0.468
        48  -8.0926    115.2959    125.6484   8.9439868198e+01   3.4177303135e+01    0.1575996    0.1228724  89.39  0.000590433    1.685    0.406
        49  -7.9694    105.9326    120.3337   9.0786291135e+01   3.7179249320e+01     0.203555    0.1933232  24.34 0.0003959322    1.105    0.095
        50 -12.8932     39.7134    200.0932   1.1995341286e+02   2.7776235578e+01      1.70295    0.8409299  51.12  0.009260062    1.807    0.447
        51  -8.1357    205.2588    110.5763   6.4434084962e+01   1.7733281707e+01     0.211703    0.1412711  38.32 0.0009533934    1.647    0.393
        52  -8.9353     34.3603    238.9424   1.2373986062e+02   2.0608338093e+01    0.1562048    0.1167518  77.60 0.0004850778    1.100    0.091
        53  -7.7289     24.6845     82.6975   1.0845838081e+02   5.6807666124e+01      0.13493   0.07810834 -38.82 0.0003058826    1.618    0.382
        54  -9.8360      1.8748     60.8086   1.1255396962e+02   6.3067326646e+01    0.5481996    0.1366277 -67.67   0.00205916    3.522    0.716
        55  -9.6049     13.0584     60.1889   1.0783964953e+02   6.2627863577e+01    0.2234869     0.144253 -56.41 0.0006689219    1.235    0.190
        56  -8.2275     35.1682     56.1520   9.7463505247e+01   6.1768748944e+01     0.158049     0.149693 -57.76 0.0005594781    1.307    0.235
        57  -9.6558      1.9829     51.7822   1.1048343791e+02   6.4997436945e+01    0.3701743    0.1036948 -60.30  0.001638552    2.470    0.595
        58  -9.8262      1.8779     38.7950   1.0712917723e+02   6.7671994826e+01     0.427993   0.04446497 -60.51   0.00125069    6.061    0.835
        59  -7.9943    136.3064     42.6886   5.8661259929e+01   4.5901842439e+01     0.144885    0.1143442 -69.96 0.0004844742    1.617    0.382
        60 -11.4170    204.2383     36.4248   4.5053230989e+01   2.9825253656e+01     0.763199    0.4869675  17.20  0.003317422    2.677    0.626
        61 -10.1799     82.2831    247.7854   1.1574446005e+02   1.3099373148e+01    0.3099274    0.2802376  89.54  0.002353078    1.265    0.209
        62 -10.1171    114.2313    246.5951   1.0961393328e+02   8.7713884416e+00    0.2637088    0.1903476 -43.85  0.001668432    1.821    0.451
        63  -8.6249     24.6799    246.7381   1.2583021484e+02   2.0233046902e+01    0.1695718    0.1168242  36.12  0.001228835    1.657    0.397
        64 -10.4903    126.7795    243.6886   1.0686680513e+02   7.3723784911e+00    0.4342611    0.2812168  -7.30  0.001996866    3.505    0.715
