#   1 NUMBER                 Running object number                                     
#   2 MAG_AUTO               Kron-like elliptical aperture magnitude                    [mag]
#   3 X_IMAGE                Object position along x                                    [pixel]
#   4 Y_IMAGE                Object position along y                                    [pixel]
#   5 X_WORLD                Barycenter position along world x axis                     [deg]
#   6 Y_WORLD                Barycenter position along world y axis                     [deg]
#   7 A_WORLD                Profile RMS along major axis (world units)                 [deg]
#   8 B_WORLD                Profile RMS along minor axis (world units)                 [deg]
#   9 THETA_WORLD            Position angle (CCW/world-x)                               [deg]
#  10 FWHM_WORLD             FWHM assuming a gaussian core                              [deg]
#  11 ELONGATION             A_IMAGE/B_IMAGE                                           
#  12 ELLIPTICITY            1 - B_IMAGE/A_IMAGE                                       
         1 -10.9416      2.0525     24.6027   1.0348176783e+02   7.2399208470e+01     1.095387   0.06803619 -56.82  0.002910691    7.413    0.865
         2 -11.7956    211.1360     35.1526   4.2687139332e+01   2.8479906072e+01     0.795334    0.6330248 -46.04  0.004048291    1.161    0.139
         3 -11.6535    228.8912     17.6203   3.7393005681e+01   2.6804475108e+01    0.6511004     0.477229 -57.73  0.002747027    1.117    0.105
         4  -9.8714      2.0635      3.8046   9.3442178323e+01   7.6078681366e+01    0.3555694    0.1450402 -46.38  0.001803005    2.378    0.580
         5  -8.0675    124.5667      4.8271   4.4778495034e+01   5.1929798046e+01    0.1692085    0.1154864 -42.46 0.0004597766    1.642    0.391
         6  -8.7625    249.4380      1.4325   3.3020076473e+01   2.4547718619e+01    0.2362114   0.09238014  83.55  0.001286504    2.581    0.613
         7  -9.7089     44.9752    230.5621   1.2067655273e+02   1.9930288606e+01    0.2351496    0.1504616  75.21  0.001361571    1.647    0.393
         8 -12.4415     85.5950    229.5742   1.1127050396e+02   1.5283207919e+01     1.158707     1.100304   4.45  0.005554873    1.167    0.143
         9 -10.0108     32.9409    226.9185   1.2311032346e+02   2.1933419935e+01    0.3178239    0.1593024 -73.97  0.001438059    2.072    0.517
        10  -8.8052     48.6175    225.2370   1.1944308230e+02   2.0626661562e+01    0.1538824     0.111848 -63.23 0.0004068431    1.528    0.346
        11 -12.1769      4.1376    184.6011   1.2726836928e+02   3.3831478244e+01     1.355508    0.6415374  88.34  0.006692726    2.014    0.504
        12 -13.9620      2.9491    129.0539   1.2354129041e+02   4.7609086639e+01      7.73225     1.278714 -79.08   0.01865121    7.018    0.858
        13 -10.2160     73.0307    219.3822   1.1316020887e+02   1.8966606150e+01    0.4508058    0.1368416  33.16   0.00174519    2.658    0.624
        14 -10.7070     44.3826    218.5359   1.1989179815e+02   2.2501261251e+01    0.5521876    0.2288751 -79.82  0.001838846    2.836    0.647
        15 -10.2524     47.7946    218.4001   1.1907958749e+02   2.2157940383e+01    0.3824309     0.213453  20.96   0.00194781    1.922    0.480
        16  -9.3842     29.6866    217.3517   1.2321388748e+02   2.4268830894e+01    0.2815188    0.1689292  66.04  0.001556671    1.601    0.376
        17 -13.9196     59.5028    247.3877   1.1875446402e+02   1.5024643636e+01     6.205928     1.714862  23.44   0.01506389    5.200    0.808
        18 -11.5455     18.0254    218.5225   1.2592427723e+02   2.5116610656e+01    0.5948745    0.4847113 -52.48  0.002107542    1.497    0.332
        19  -8.4741    183.5058    216.4992   8.7208180905e+01   3.8199247828e+00    0.1330954    0.1077482   4.50 0.0008106218    1.015    0.015
        20  -8.7547     32.6494    220.3167   1.2273615530e+02   2.3343475261e+01     0.254523    0.1574676 -79.82  0.001280889    1.654    0.395
        21 -11.3782     20.6555    194.3874   1.2379421273e+02   3.0228818303e+01     0.503002    0.3208326  84.40   0.00283137    1.510    0.338
        22 -13.5089      6.5025    241.5749   1.2943549820e+02   2.1475965293e+01     2.008864       1.3224 -80.11   0.01379447    1.561    0.359
        23 -10.0926     59.2115    179.2988   1.1214939230e+02   2.9799912158e+01    0.4703315    0.2809359 -34.82  0.001745579    2.179    0.541
        24 -10.0956     64.7727    173.5836   1.0983356309e+02   3.0504431158e+01    0.3572285    0.2586399 -35.38 0.0007284837    1.596    0.373
        25 -10.8132     31.6405    167.3363   1.1856597523e+02   3.5744737091e+01    0.6945336    0.3360464  49.90   0.00308822    2.131    0.531
        26  -9.9802     74.7878    163.9057   1.0548988457e+02   3.1562333749e+01    0.3085492    0.2844967 -26.32 0.0004389388    1.142    0.124
        27 -11.0134     82.0145    157.8402   1.0232516291e+02   3.2030787113e+01    0.7391182    0.5743517 -20.02  0.001927317    1.500    0.333
        28 -11.6312     61.8821    160.0290   1.0873605770e+02   3.4256698805e+01    0.5529614    0.3135197 -41.32  0.001477461    1.995    0.499
        29 -11.5028     58.7680    133.1356   1.0525865265e+02   4.1561287487e+01     1.851915    0.8463432 -85.71  0.004382859    6.973    0.857
        30 -11.6391     73.3468    154.2260   1.0432053899e+02   3.4191349330e+01     1.652065     0.911434  76.49  0.005440432    3.721    0.731
        31 -10.2162     70.4785    145.4778   1.0367723342e+02   3.6815977678e+01    0.3676946    0.3176828  23.10  0.001077529    1.179    0.152
        32 -10.3009     67.6922    142.3615   1.0400405091e+02   3.7999410554e+01    0.4529209    0.3005328  58.89  0.001514898    1.840    0.456
        33  -8.4341    125.0204    154.0238   8.9222323578e+01   2.5758199642e+01    0.2231354    0.2165894 -11.60 0.0003912598    1.063    0.059
        34  -8.5805     32.3092    144.4200   1.1574598409e+02   4.1523362168e+01     0.245192    0.1592012  78.99  0.001175416    1.743    0.426
        35  -8.7804     96.7630    143.0214   9.5005595418e+01   3.3357629255e+01    0.2167416    0.2118174 -21.85  0.001163246    1.030    0.029
        36 -10.4630     85.0488    141.5765   9.8324348147e+01   3.5632911822e+01    0.3364956    0.2778282 -38.46 0.0003997571    1.225    0.184
        37  -9.7531     75.5394    136.6496   1.0037091765e+02   3.8335920151e+01    0.3028561    0.2767654 -47.51 0.0003344011    1.075    0.069
        38  -9.2840    107.2923    131.5320   8.9257093451e+01   3.4273066362e+01    0.4978224    0.2960972  32.62  0.002059755    1.694    0.410
        39  -9.6827     18.0272    130.3369   1.1867690813e+02   4.6345414124e+01     0.259431    0.2349907  22.80 0.0009861581    1.226    0.184
        40  -8.9533     96.0044    127.6674   9.1827355750e+01   3.7243093534e+01    0.3008024    0.2459226 -13.07 0.0006439096    1.351    0.260
        41 -11.7602     31.2031    206.1700   1.2206942479e+02   2.6566433603e+01    0.7837938    0.3845038 -50.48  0.003767946    2.434    0.589
        42  -7.8284    106.0047    119.9681   8.6829309143e+01   3.7247669361e+01    0.1842799    0.1764031  -2.16 0.0003120548    1.001    0.001
        43  -7.9042    205.4974    110.5065   6.1112712345e+01   1.8650895404e+01    0.1385281    0.1243804 -32.55  0.000810642    1.009    0.009
        44  -7.9901    134.5061    103.4966   7.4260350767e+01   3.5008019246e+01    0.1562422    0.1494651   2.80 0.0008106038    1.016    0.016
        45 -13.7708     40.5461    195.8082   1.1890210090e+02   2.7978747403e+01     4.346707     1.645313  64.52   0.01418472    4.466    0.776
        46  -7.8505     41.5158     92.4289   1.0318151156e+02   5.4003501485e+01    0.1457302    0.1286763 -31.54  0.000269181    1.036    0.035
        47  -7.8714    161.3263     81.6780   6.1916513745e+01   3.3046923244e+01    0.1518194    0.1146207 -73.57 0.0002826215    1.686    0.407
        48  -8.4490     41.4863    231.5122   1.2152251119e+02   2.0110761371e+01     0.121399    0.1011049  51.80 0.0002090922    1.003    0.003
        49  -9.5684     53.6560    231.2260   1.1877440917e+02   1.8836082615e+01    0.2845696    0.1958372  77.41  0.001103785    1.563    0.360
        50  -9.8765     13.3397     59.9108   1.0808226510e+02   6.4232930606e+01    0.2355677    0.1860017 -38.87 0.0006309104    1.047    0.045
        51  -8.4437     40.3723     58.6738   9.3956877522e+01   6.1937210292e+01    0.2398679    0.1567196  37.25   0.00120053    1.710    0.415
        52  -8.7463     33.0000     52.4173   9.5463316396e+01   6.4126305301e+01    0.2976439   0.07183704 -52.93 0.0009392721    3.971    0.748
        53 -10.1219      2.0203     36.9110   1.0787541581e+02   6.9921936881e+01    0.5673121    0.1220341 -59.27  0.002085067    3.540    0.718
        54 -12.9235      8.8018    207.2042   1.2739255691e+02   2.8351546240e+01     1.098147    0.9341114  25.44  0.004166176    1.320    0.242
        55 -11.4852    202.7027     40.3433   4.4768131612e+01   2.9662850029e+01    0.6644332    0.3864821  68.82  0.002641353    1.721    0.419
        56 -10.0979    114.7762    243.9637   1.0625947272e+02   8.7372957930e+00    0.2656336    0.1738481 -52.27  0.001233417    1.835    0.455
        57 -10.8540    218.6344     27.5734   4.0306536108e+01   2.7789507573e+01    0.4008268    0.3179891  37.33  0.001183381    1.741    0.426
        58  -8.4072    134.8527     41.2228   5.5138039884e+01   4.5578333985e+01    0.2172041    0.1835034 -80.97  0.000700229    1.305    0.234
        59  -7.6402    134.7215     33.6891   5.2702220201e+01   4.6551944081e+01    0.1392614    0.1010475  31.94 0.0002651969    1.561    0.360
        60 -11.3418    113.6216    239.7841   1.0601928614e+02   9.6337629028e+00     0.399671    0.2558222  26.10  0.002178679    1.333    0.250
        61 -12.0267    127.3240    233.0741   1.0207536278e+02   8.9590622949e+00    0.5937061    0.5799889  73.57  0.004022232    1.302    0.232
        62 -11.6196    135.7481    231.1840   9.9914969389e+01   8.1150345324e+00     0.523115    0.3368503  27.52  0.002878393    1.308    0.235
