#   1 NUMBER                 Running object number                                     
#   2 MAG_AUTO               Kron-like elliptical aperture magnitude                    [mag]
#   3 X_IMAGE                Object position along x                                    [pixel]
#   4 Y_IMAGE                Object position along y                                    [pixel]
#   5 X_WORLD                Barycenter position along world x axis                     [deg]
#   6 Y_WORLD                Barycenter position along world y axis                     [deg]
#   7 A_WORLD                Profile RMS along major axis (world units)                 [deg]
#   8 B_WORLD                Profile RMS along minor axis (world units)                 [deg]
#   9 THETA_WORLD            Position angle (CCW/world-x)                               [deg]
#  10 FWHM_WORLD             FWHM assuming a gaussian core                              [deg]
#  11 ELONGATION             A_IMAGE/B_IMAGE                                           
#  12 ELLIPTICITY            1 - B_IMAGE/A_IMAGE                                       
         1 -11.0263    215.5495     38.2632   3.6095639028e+01   2.7655873573e+01    0.8957464    0.5432255 -75.33  0.004932834    1.665    0.399
         2  -9.0723     14.3082     26.1619   8.5194555233e+01   6.9716857129e+01    0.1959119    0.1566755  -3.23 0.0003896704    1.111    0.100
         3 -11.0619    235.0918     19.2656   3.0493163598e+01   2.5986752143e+01    0.6349204    0.4475311 -60.77  0.002874544    1.140    0.123
         4  -8.0390    163.1266     12.4986   3.5863565088e+01   4.2374623163e+01    0.1736313    0.1526096 -85.64 0.0003494676    1.069    0.065
         5  -8.8184     93.2019    240.7889   1.0332399179e+02   1.1034596258e+01    0.2937724    0.1632505   7.56   0.00106317    4.211    0.763
         6 -13.9702     32.3807    197.0753   1.1274805363e+02   2.8617120763e+01     5.846762     3.145505 -73.03   0.02950563    1.698    0.411
         7  -9.0357     83.3116    232.5077   1.0458334630e+02   1.4135411578e+01    0.2706294    0.2067942 -10.55 0.0009004293    1.922    0.480
         8  -8.2757     43.4225    232.7633   1.1335184850e+02   1.9245064698e+01    0.2424918    0.1703318  21.43  0.001408513    1.752    0.429
         9  -8.5870    121.5033    232.5105   9.6002333222e+01   8.5105494499e+00    0.1346911    0.1196359  37.91 -6.346253e-05    1.018    0.018
        10  -8.8565    113.0586    230.4839   9.7628394782e+01   1.0202163796e+01    0.2102797    0.1210929  34.48 0.0007785966    1.565    0.361
        11  -8.3732    128.9825    230.0000   9.3973668251e+01   7.8592456053e+00    0.2321209   0.07005036  34.76 0.0008066845    2.972    0.664
        12  -7.5072    244.5343    228.4848   7.0383509513e+01  -8.3942920100e+00    0.1194523   0.09213279 -10.18 0.0004605865    1.020    0.020
        13  -8.1944    175.8142    226.1799   8.3155885227e+01   1.3379723391e+00    0.1848011    0.1703868  18.34 0.0004635178    1.148    0.129
        14  -9.1926    111.3835    224.3435   9.7178798182e+01   1.1725093594e+01    0.2670697    0.2205377  55.21  0.001161035    1.199    0.166
        15  -9.9120    118.4085    223.5903   9.5457954753e+01   1.0797069680e+01    0.4402101    0.2647524  12.27  0.001672587    2.432    0.589
        16  -7.4748     93.4866    222.5117   1.0107472263e+02   1.4809815409e+01     0.135675    0.1223994  51.91 0.0008104283    1.001    0.001
        17 -12.7180     29.2221    248.2823   1.1737222952e+02   1.7634532428e+01      1.44523    0.6229835  34.83   0.00730215    2.090    0.522
        18 -11.3385     19.9253    232.3333   1.1821883683e+02   2.1929913676e+01    0.4777468    0.2355317 -79.35  0.002194014    1.893    0.472
        19  -9.3705    142.6935    219.2147   8.9251747935e+01   7.8441863760e+00    0.2968307    0.2376477 -56.98 0.0004679376    1.422    0.297
        20  -8.5233     54.6747    217.3494   1.0947523376e+02   2.1280050554e+01    0.3574837    0.1181821  30.57  0.001043068    3.038    0.671
        21  -7.8465     97.5696    215.2052   9.9160336266e+01   1.5801563427e+01    0.2953323    0.1860807   0.80  0.001204422    2.893    0.654
        22  -8.6424     95.2431    212.5364   9.9352612905e+01   1.6747804389e+01    0.3836213    0.1807028 -55.52  0.001497483    2.198    0.545
        23 -12.1984      2.0691    208.6158   1.2048200779e+02   2.8832651767e+01    0.8983679    0.4260297 -75.85  0.004812326    1.818    0.450
        24  -8.1770    153.2316    213.4119   8.5927504097e+01   7.2982394029e+00    0.1974398    0.1227577  42.68 0.0007052735    1.600    0.375
        25  -7.8168     75.7673    212.3091   1.0397972501e+02   1.9633794717e+01     0.300904    0.1812134 -59.78  0.001495381    1.705    0.413
        26  -7.5412     84.8504    211.1663   1.0166298030e+02   1.8598780959e+01    0.1752207    0.1607026 -18.29            0    1.309    0.236
        27 -12.8284     20.6637    248.8425   1.1906664444e+02   1.8441963202e+01    0.8959445    0.4736325  80.61  0.005176364    1.788    0.441
        28  -8.1222    189.0206    210.2340   7.7651994001e+01   2.1771199705e+00    0.1837873    0.1569358  18.24            0    1.111    0.100
        29  -8.2128    118.2127    208.7119   9.3294154955e+01   1.4001681022e+01    0.2152716     0.190363 -77.08 0.0004770717    1.248    0.199
        30  -8.3124     64.0041    208.7850   1.0637645961e+02   2.2048378659e+01    0.2578776    0.1990671 -27.05  0.001388352    1.786    0.440
        31  -8.3206     63.5244    204.9699   1.0605341619e+02   2.3005532176e+01    0.2698116    0.1961153 -56.71 0.0005667508    1.448    0.309
        32  -9.7412     46.9126    207.0903   1.1025921503e+02   2.4596662943e+01     0.362613    0.2773964 -28.28  0.001204209    1.846    0.458
        33  -7.8212    165.9947    205.9747   8.1798942694e+01   6.6780752338e+00    0.2045548    0.1884507  -9.67 0.0005476491    1.050    0.048
        34  -8.5448    115.8466    203.1186   9.2987750300e+01   1.5625372164e+01       0.2084    0.1849844  75.90 0.0004151994    1.223    0.183
        35  -7.2725     73.7274    203.6996   1.0340968998e+02   2.1918135384e+01    0.1298387    0.1061892 -31.68 0.0001734241    1.531    0.347
        36  -7.5231     79.2728    201.3281   1.0173449568e+02   2.1691360380e+01    0.1896407    0.1679938 -17.39 0.0003252686    1.388    0.280
        37  -8.4665     82.2502    197.9868   1.0053834082e+02   2.2051480801e+01    0.5700994    0.2503972  27.80  0.002201058    2.566    0.610
        38  -9.1885     47.5457    199.8376   1.0936330316e+02   2.6238835406e+01     0.377654    0.2795005  10.96  0.001402037    1.792    0.442
        39 -12.0740      1.9254    230.2207   1.2169405061e+02   2.4123287022e+01    0.2958334    0.1809041  85.38 0.0007906264    1.371    0.271
        40  -8.3702    194.1584    198.2767   7.4404866727e+01   3.5617964412e+00    0.3398354    0.2633082 -89.18  0.001653386    2.442    0.590
        41  -8.4547    109.1174    198.2588   9.3867388241e+01   1.7824105999e+01    0.2463059    0.2045486 -73.25 0.0002831846    1.301    0.231
        42  -8.5763     88.7277    197.3430   9.8820898523e+01   2.1239954848e+01    0.3558503    0.2396724   3.53 0.0008608228    2.279    0.561
        43  -7.5213     97.5552    196.0311   9.6406639012e+01   2.0189760697e+01    0.2027561    0.1414233 -64.45 0.0003491295    1.495    0.331
        44  -8.0763     57.0399    193.8241   1.0634034551e+02   2.6518528395e+01    0.2530959    0.1611289 -51.54  0.001258867    1.683    0.406
        45  -7.3246     71.5023    191.5334   1.0237810572e+02   2.5146414309e+01    0.1428556    0.1281894  72.23 0.0008093065    1.046    0.044
        46  -7.6633     60.4770    190.5185   1.0506446537e+02   2.6883213254e+01    0.1842303    0.1388347  16.18 0.0007327904    1.623    0.384
        47  -7.9428     64.4672    191.4718   1.0416757423e+02   2.6122782031e+01    0.3126671    0.2214373 -83.77  0.001094676    1.444    0.307
        48  -8.1854     66.3023    189.0615   1.0338224158e+02   2.6466684784e+01    0.3614146    0.1807541  53.60  0.001504443    2.195    0.544
        49 -13.7402      2.9291    222.0371   1.2106408673e+02   2.5785541543e+01    0.8265603    0.5790099  58.92  0.005521647    1.198    0.166
        50 -12.8656      3.5945    247.9051   1.2223377170e+02   2.0339802663e+01    0.6234611    0.3454359  40.69  0.003970946    1.594    0.373
        51  -7.7428     91.7945    190.0402   9.6951860835e+01   2.2515871220e+01    0.3368669    0.1569892  55.07    0.0012088    2.811    0.644
        52  -7.5667     74.7311    189.9663   1.0133388876e+02   2.5073928210e+01    0.1874471    0.1202794 -64.42  0.000894883    1.537    0.349
        53  -8.0331    120.9223    188.3560   8.9270551578e+01   1.8141130689e+01    0.2227378      0.19921 -76.60 0.0003138875    1.212    0.175
        54 -13.0835     12.5641    231.8828   1.1967710136e+02   2.2765211168e+01    0.6196931    0.3401627  89.83  0.002543141    1.640    0.390
        55  -7.8919     80.8896    187.9120   9.9447200041e+01   2.4683469575e+01    0.2082605    0.1890087 -31.84 0.0003442572    1.259    0.206
        56  -7.3120    187.8358    184.8094   7.3121199310e+01   7.1728715875e+00    0.1763675     0.167761 -65.61 0.0004613021    1.282    0.220
        57  -9.4380     11.2438    183.4314   1.1665338117e+02   3.3942414208e+01    0.2928547    0.2587587 -65.28  0.001351758    1.231    0.188
        58  -9.4978      7.5755    180.7404   1.1732807160e+02   3.4899801584e+01    0.3747148    0.2221655  11.50  0.001977792    2.330    0.571
        59 -10.4085     48.9288    181.3563   1.0691192865e+02   3.0599494240e+01    0.4811968    0.3702368  46.63  0.002679715    1.288    0.223
        60  -7.9563     78.2989    182.2781   9.9287708412e+01   2.6451728132e+01    0.2266207    0.1999024  21.25 0.0001894889    1.256    0.204
        61  -9.4045     81.0221    179.2587   9.8100890716e+01   2.6799053181e+01     0.254033    0.2143769 -67.67 0.0003200467    1.162    0.139
        62  -9.6593     61.5864    173.1002   1.0242726761e+02   3.1087559282e+01    0.3382813    0.2652991 -39.01 0.0008238752    1.455    0.313
        63 -10.1667     55.8290    178.6519   1.0474590937e+02   3.0428748653e+01    0.4672919    0.3312999  10.96  0.001665504    1.844    0.458
        64 -13.9123      3.4290    238.2187   1.2180266561e+02   2.2315951478e+01     0.837886    0.3739843  74.07  0.004473803    2.060    0.514
        65 -13.9807      9.0147    235.4637   1.2058019696e+02   2.2356603838e+01     1.505703    0.4637126  81.54  0.004321954    4.840    0.793
        66  -7.6675     76.6473    176.6755   9.8873329372e+01   2.8090209487e+01     0.200673    0.1340576 -73.76 0.0005456996    1.563    0.360
        67  -9.7857      2.3933    175.5329   1.1818802536e+02   3.6567271246e+01    0.3756511    0.2170882 -74.93  0.002081156    1.442    0.306
        68  -7.8035    125.3960    173.5017   8.5399850157e+01   2.0826174033e+01    0.3181836    0.2041411  65.21 0.0007275691    2.251    0.556
        69  -9.2086     23.8846    156.6205   1.1073445035e+02   3.9504505597e+01    0.3536475    0.2991872  31.59  0.002148655    1.339    0.253
        70  -9.3978     15.6053    152.0683   1.1254677495e+02   4.1364532562e+01    0.5370188    0.2688379  24.70  0.002596882    2.262    0.558
        71  -7.3239    185.2831    240.6767   8.3551319981e+01  -2.5117940863e+00    0.1121623     0.100303  57.81 0.0002024129    1.595    0.373
        72 -10.1705     24.8240    169.9647   1.1196181170e+02   3.6045488764e+01    0.4584989    0.2593419 -42.33  0.002196629    2.135    0.532
        73  -8.7340     24.7117    165.6806   1.1153107120e+02   3.7134009002e+01    0.3330337    0.2009486 -44.52  0.001668107    1.866    0.464
        74  -7.9777    241.5134    173.4999   6.0896159460e+01   6.6864650029e-01    0.1303182    0.1068355 -25.61 7.140256e-05    1.000    0.000
        75  -9.2983    175.4006    172.3562   7.3272127904e+01   1.1879230333e+01    0.2839668    0.2627869  -4.56 0.0007605653    1.041    0.039
        76  -7.0302    117.6805    173.2996   8.7349290162e+01   2.2250174327e+01    0.1544379    0.1180514  71.36 0.0002955602    1.620    0.383
        77  -8.8867     46.8244    171.2826   1.0620309958e+02   3.3387771102e+01    0.3024627    0.1866529  54.83 0.0008108674    1.702    0.412
        78  -9.1900      7.0078    170.2318   1.1661106682e+02   3.7508684549e+01     0.227203    0.1479108  54.58 0.0004571918    1.526    0.345
        79  -9.3565      3.8092    166.6061   1.1712088435e+02   3.8641236869e+01    0.4120952    0.2294421 -38.35  0.002068899    2.329    0.571
        80  -8.0844    125.3770    238.8134   9.5999271944e+01   6.6946666768e+00    0.1782482    0.1196326 -41.06 0.0007829846    1.723    0.420
        81  -8.3954     63.2933    238.1118   1.0955719595e+02   1.5655012430e+01    0.2626896    0.1575461  57.80 0.0007978812    1.560    0.359
        82  -7.8019    110.1654    166.8320   8.8096065978e+01   2.5136622278e+01    0.3937088    0.1992344 -72.39  0.001256383    3.433    0.709
        83  -8.5495     72.3674    163.4943   9.7942105761e+01   3.2049341110e+01    0.2439267    0.2350319 -84.36   0.00050054    1.029    0.028
        84  -9.5326    206.0940    235.8352   7.8651717105e+01  -4.6169023717e+00     0.223753    0.1905539 -17.88 0.0004286012    1.184    0.155
        85  -8.6846    153.2297    163.0022   7.6373797848e+01   1.8048391553e+01    0.2301188    0.2132708  32.94 0.0003575286    1.091    0.084
        86  -8.4039     89.7315    164.8773   9.3310035323e+01   2.9056355654e+01    0.4203167    0.2191471  20.40  0.001536781    2.701    0.630
        87  -8.0715     96.9834    163.3235   9.1014721521e+01   2.8260312819e+01    0.3985679    0.1923345  26.07  0.001046289    2.576    0.612
        88  -9.9408     57.7458    160.7220   1.0165878595e+02   3.4750918517e+01    0.5417135    0.3716188 -28.10 0.0007002122    1.913    0.477
        89  -9.1724     35.7918    161.5498   1.0799720156e+02   3.7089773734e+01    0.4811624     0.256474 -87.59  0.001310322    2.116    0.527
        90  -9.4256     98.1812    234.6901   1.0151005262e+02   1.1555122526e+01     0.227899    0.1625599  26.70 0.0007240019    1.417    0.294
        91  -8.8835     12.7940    161.5397   1.1430683846e+02   3.9208435823e+01    0.2412556    0.1656162  80.16 0.0004375979    1.386    0.279
        92  -9.6005     16.0098    160.0031   1.1328345936e+02   3.9331359520e+01    0.4476635    0.1259414 -61.11  0.001713167    2.749    0.636
        93  -7.7329    171.8773    158.8945   7.1214319513e+01   1.5365905567e+01    0.1903114    0.1755419 -82.45 0.0003779474    1.268    0.212
        94  -9.8223     80.1003    156.7916   9.4570262642e+01   3.2615034871e+01    0.5715986    0.3971653 -15.70  0.001714512    2.089    0.521
        95  -9.1298    122.4579    157.9564   8.3040067050e+01   2.5066059829e+01     0.262487     0.235324  45.68  0.001347829    1.130    0.115
        96  -8.9059     51.7455    156.6606   1.0276620949e+02   3.6546582504e+01    0.2668712    0.2102715 -52.84 0.0004750474    1.240    0.193
        97  -8.6078      8.8558    155.0035   1.1472926999e+02   4.1147805379e+01    0.1907398    0.1741583  78.45 0.0003771503    1.131    0.116
        98  -7.9629    248.8033    154.3948   5.6035395159e+01   2.8211200742e+00    0.1653823     0.117979  24.27 0.0004907117    1.726    0.421
        99  -8.2446    173.3475    152.9559   6.9598842437e+01   1.6340822568e+01    0.2079067    0.1755893 -40.39 0.0003240197    1.131    0.116
       100  -7.6668    128.4519    153.4722   8.0511919187e+01   2.5005094355e+01    0.1532385    0.1514652 -57.01  1.99404e-05    1.021    0.020
       101  -7.6829     56.8198    151.4375   1.0045361053e+02   3.7262574456e+01    0.1883307    0.1437286   7.27 0.0004554711    1.624    0.384
       102  -7.9113     50.8267    150.8297   1.0213397416e+02   3.8162251375e+01    0.2148375    0.1790069 -44.42 0.0004998466    1.239    0.193
       103  -8.5553    116.0723    148.7099   8.2788176463e+01   2.8491169432e+01     0.253705    0.2174324 -54.02 0.0006289601    1.156    0.135
       104 -10.6371     68.3707    144.7111   9.5810217326e+01   3.7442023237e+01    0.7717017    0.4646311  58.02   0.00269782    2.083    0.520
       105  -8.3617     27.6021    161.0423   1.1021557703e+02   3.8035806408e+01     0.300028    0.1922161  49.06 0.0009772981    1.621    0.383
       106 -10.4809     17.0220    171.7198   1.1417939623e+02   3.6315921838e+01    0.4568517    0.3656195 -41.71  0.002771205    1.467    0.319
       107  -7.8033     88.5567    146.8230   9.0198422265e+01   3.3810363749e+01     0.296485    0.1375138 -51.57 0.0007375571    2.048    0.512
       108  -8.0769    248.0387    144.3254   5.4171127303e+01   4.6472137056e+00    0.1940461   0.09787106  23.76 0.0007039478    4.510    0.778
       109  -8.3074     22.9399    148.3574   1.1000946289e+02   4.1691717173e+01      0.23864    0.1524141 -56.15 0.0002653536    1.422    0.297
       110  -8.9656     96.8204    142.9805   8.6984954068e+01   3.3381372719e+01    0.3785237    0.3056874   2.16  0.001020306    1.510    0.338
       111  -8.5291     82.4435    142.3279   9.1099245132e+01   3.5935965359e+01    0.2606786    0.2406257  23.13 0.0005717872    1.150    0.131
       112  -7.8073     27.7509    142.8193   1.0786136606e+02   4.2675288460e+01    0.2022615    0.1651148 -51.72 0.0006311094    1.189    0.159
       113  -7.4058     56.3385    140.2929   9.8690500290e+01   4.0199199369e+01    0.1494918    0.1065067 -30.25  0.000702693    1.648    0.393
       114  -7.7956     16.1507    137.6308   1.1068253898e+02   4.4975891973e+01    0.1653683    0.1231887 -11.62 0.0004486582    1.684    0.406
       115  -8.0845     28.8617    133.8348   1.0622976556e+02   4.4869966688e+01    0.2001927    0.1661043 -49.25 0.0002874828    1.160    0.138
       116  -9.4778      9.6951    131.8329   1.1193002544e+02   4.6905862420e+01    0.3205754    0.2021988  86.23  0.001212368    1.643    0.391
       117  -7.9108    108.0471    131.9151   8.1248546407e+01   3.4072539288e+01    0.2525018    0.1911209 -14.90  0.001120845    1.698    0.411
       118  -8.1677     72.4994    131.5574   9.1929838226e+01   4.0199273266e+01    0.1484305    0.1419122 -61.92 9.109695e-05    1.022    0.021
       119  -8.6294    245.5898    130.2805   5.1726269704e+01   7.4361516668e+00    0.1888114    0.1069379 -33.32  0.000950478    1.635    0.388
       120  -8.0242     67.2660    130.2261   9.3311180772e+01   4.1300152327e+01    0.2335147    0.1048479  42.06 0.0008552691    2.388    0.581
       121  -7.5058     15.3829    128.8282   1.0976759148e+02   4.7257008381e+01    0.2068711   0.09374115 -58.38 0.0009424774    1.791    0.442
       122  -9.1628     65.9200    124.8522   9.2614754283e+01   4.2847958178e+01    0.2319999    0.2171791 -45.37 0.0003144417    1.023    0.023
       123  -7.4078      1.3622    125.2727   1.1372402402e+02   4.9060976563e+01    0.1325387   0.07948745 -42.81 0.0003118959    1.658    0.397
       124  -8.3781    244.4871    123.5185   5.0518083708e+01   8.7727692975e+00    0.1312318    0.1088581 -42.39 0.0003465224    1.006    0.006
       125  -8.4811     22.5597    122.0440   1.0645394858e+02   4.8405352059e+01    0.2734947    0.1790012 -15.45 0.0006797538    1.919    0.479
       126  -8.3215      5.7232    119.7600   1.1165223703e+02   5.0170417977e+01    0.2282446    0.1316931 -67.21  0.000525676    1.409    0.290
       127  -7.1434    121.7135    119.2923   7.4303196976e+01   3.4358386557e+01    0.1525579     0.124718  87.53 0.0001884136    1.541    0.351
       128  -7.2247    109.2526    119.3008   7.7829531670e+01   3.6843083038e+01    0.1517528    0.1200757 -17.86 0.0002428228    1.500    0.333
       129  -9.0670    249.3797    117.2465   4.8588453655e+01   9.0053315316e+00    0.2472689    0.1376993 -47.10  0.001293934    1.516    0.340
       130  -7.5974     66.0166    116.6426   9.0769177975e+01   4.4878475551e+01    0.1928694     0.188734 -40.73  0.001095862    1.049    0.047
       131  -8.8713     32.9780    115.2972   1.0177765890e+02   4.9171516590e+01    0.2362385    0.1721165 -54.11 0.0002964838    1.195    0.163
       132  -8.3294    130.6078    114.4339   7.0662190957e+01   3.3598072424e+01    0.2526862    0.2280088  55.66 0.0002858386    1.147    0.128
       133  -8.5395     59.2419    110.3616   9.1627271292e+01   4.7363165746e+01    0.2991594    0.1979799 -64.67 0.0002847085    1.570    0.363
       134  -7.1123     42.6742    111.2584   9.7606919997e+01   4.9176088942e+01     0.134269    0.1055428  64.08 0.0001888704    1.555    0.357
       135  -9.7582    249.0817    107.1156   4.6596943804e+01   1.0733291138e+01    0.2933403     0.250864  -3.47  0.001864966    1.542    0.352
       136  -7.9041     13.0373    107.4712   1.0737674678e+02   5.2730148660e+01     0.176653    0.1306999  12.66  0.000856698    1.574    0.365
       137  -8.1143      8.9837    106.2803   1.0861451283e+02   5.3281915627e+01    0.1826079    0.1594532 -47.17  0.001175228    1.095    0.087
       138  -8.2464     58.5687    102.5224   8.9989717502e+01   4.9340773828e+01    0.2347044    0.2254737 -13.48 0.0002779937    1.067    0.063
       139  -8.0468     80.7962    101.7458   8.2118083575e+01   4.6125917277e+01    0.2114977     0.190956 -17.45 0.0003918252    1.107    0.097
       140  -8.9796     85.0125     98.6897   7.9892200625e+01   4.6093884421e+01    0.2579783    0.2253936 -41.84 0.0003671028    1.110    0.099
       141  -7.7749     99.9933     96.7953   7.4592375954e+01   4.3733405781e+01    0.1992255    0.1924503  11.40  0.001084227    1.025    0.025
       142  -7.0837     73.4678     96.4223   8.3167107160e+01   4.8548452464e+01    0.1439456    0.1385639 -24.07 6.191878e-05    1.044    0.042
       143  -8.4514     41.6733     96.0247   9.4592101696e+01   5.2965438289e+01    0.1990006    0.1582824 -47.77 0.0003357121    1.118    0.106
       144  -7.4900     50.9308     89.0000   8.9331967550e+01   5.3486532130e+01    0.2181825   0.07938896  28.96 0.0007984597    2.915    0.657
       145  -8.2116    130.4048    234.1864   9.4251587229e+01   6.8225068786e+00    0.1682185    0.1309989 -73.38 0.0005879557    1.633    0.388
       146  -7.5580      9.7765     82.6841   1.0409065823e+02   5.8813957714e+01    0.1943268   0.09772645 -75.90 0.0008833816    2.310    0.567
       147  -7.1655    122.6872     77.7531   6.2523497145e+01   4.2805132263e+01    0.1447815     0.113231  20.25 0.0002087867    1.513    0.339
       148  -7.5344     13.4529     70.4936   9.9828360074e+01   6.1295928850e+01    0.1274217     0.104727 -39.98 -0.000125119    1.015    0.014
       149  -7.2964     22.5190     69.5718   9.5656800967e+01   6.0795880856e+01     0.126901    0.1103684 -33.60 5.916749e-05    1.059    0.056
       150  -7.7803     89.5185    233.5236   1.0330989707e+02   1.3045082757e+01    0.1321195    0.1157848  51.30 0.0001647823    1.002    0.002
       151  -9.4520    199.9747     51.7910   4.0915963030e+01   2.9193542154e+01    0.4406525    0.1830369  45.59  0.001665532    3.610    0.723
       152 -10.7759    207.2395     42.4794   3.7915279262e+01   2.8881319321e+01    0.6095069    0.4021089 -62.93  0.003398955    1.411    0.291
       153  -9.1697     80.7466    243.0506   1.0627656817e+02   1.2316689485e+01    0.2680525    0.1672756  18.74  0.001360946    2.044    0.511
       154 -10.8658    222.2093     30.9292   3.3898468700e+01   2.7192389449e+01     0.622796    0.3791231  59.04  0.001609377    1.819    0.450
       155  -8.2728      2.8147     45.6432   9.8148156788e+01   6.7095263748e+01    0.1517675    0.1004743  21.41 0.0008691376    1.692    0.409
       156  -7.4129     66.3945     31.5478   6.3819776376e+01   6.1663814480e+01    0.1268656    0.1106463  15.16  0.000115741    1.038    0.037
       157  -8.6580     76.7835    248.0530   1.0762261463e+02   1.1853058654e+01    0.2425618    0.1572153 -71.35 0.0007121409    1.705    0.414
       158  -9.9071     71.4706    245.0770   1.0846308847e+02   1.3155540453e+01     0.457642    0.2982867  15.50  0.001978418    2.100    0.524
