#   1 NUMBER                 Running object number                                     
#   2 MAG_AUTO               Kron-like elliptical aperture magnitude                    [mag]
#   3 X_IMAGE                Object position along x                                    [pixel]
#   4 Y_IMAGE                Object position along y                                    [pixel]
#   5 X_WORLD                Barycenter position along world x axis                     [deg]
#   6 Y_WORLD                Barycenter position along world y axis                     [deg]
#   7 A_WORLD                Profile RMS along major axis (world units)                 [deg]
#   8 B_WORLD                Profile RMS along minor axis (world units)                 [deg]
#   9 THETA_WORLD            Position angle (CCW/world-x)                               [deg]
#  10 FWHM_WORLD             FWHM assuming a gaussian core                              [deg]
#  11 ELONGATION             A_IMAGE/B_IMAGE                                           
#  12 ELLIPTICITY            1 - B_IMAGE/A_IMAGE                                       
         1 -13.5211    246.4814    159.6379   9.8847940030e+01   4.7741327623e+00     4.389332    0.6545407 -32.62   0.01370128    5.925    0.831
         2 -14.7523    228.1224     93.5479   8.7273001160e+01   1.6325727862e+01     6.246157     2.380087 -20.64   0.02215329    3.205    0.688
         3 -11.9833    200.6455    111.4642   9.6136552896e+01   1.9505705757e+01      2.48275     1.428523 -56.12   0.01000064    2.894    0.654
         4 -12.1630    205.3194    130.2181   9.9611174270e+01   1.5793059182e+01     1.622165    0.6157218 -43.53  0.006048596    3.272    0.694
         5 -12.7335    247.4299     85.3025   8.2626072423e+01   1.3497990566e+01     2.329609    0.6678257 -26.08   0.00829776    3.225    0.690
         6 -11.1737     25.6266      6.9876   1.1504439564e+02   7.3139779277e+01    0.4922817    0.3488398 -33.18  0.001160472    1.193    0.162
         7 -12.0768      9.5798     29.0580   1.3368196996e+02   6.9914055534e+01    0.8416467    0.3682295 -70.88  0.001445479    2.147    0.534
         8 -11.8798      3.0240     27.8176   1.3703750307e+02   7.0526697045e+01    0.6668118    0.2706879 -69.48 0.0009886249    2.041    0.510
         9 -11.9032     14.8495     21.0395   1.2806596139e+02   7.1313871590e+01    0.6004465    0.3136131 -62.53  0.002426852    1.709    0.415
        10 -12.7175     17.8943     12.9784   1.2293238334e+02   7.2742254220e+01    0.9002708    0.4787148  12.70  0.001142651    2.292    0.564
        11 -11.8695    118.0644     24.2892   8.6208513085e+01   5.2875457403e+01    0.6076576    0.3473171 -24.73  0.002639271    1.795    0.443
        12 -11.2126    102.9820     19.6249   8.8149565671e+01   5.7159133327e+01    0.6543256    0.2411063 -27.74  0.002336398    2.753    0.637
        13 -10.3471    128.9965     21.5586   8.2547448083e+01   5.0469244670e+01    0.2305605    0.1417052  60.01 0.0003768947    1.589    0.371
        14  -9.6218    147.0000     17.9926   7.7628324696e+01   4.6179197475e+01    0.2417715   0.08423578 -23.37  0.000801686    2.937    0.660
        15  -9.7669    228.2309     14.2488   6.6543871358e+01   2.5731537436e+01    0.3124005    0.1922319 -36.29  0.001625821    1.442    0.306
        16 -10.6350     87.5818     12.0928   8.9165324389e+01   6.1695086175e+01    0.4003056    0.2805084  33.72  0.000722096    1.427    0.299
        17 -10.0148     29.6037     13.1415   1.1582195432e+02   7.1544352583e+01      0.21953    0.1873301 -22.68 0.0001727573    1.056    0.053
        18 -11.1575    246.7709      9.8288   6.4007285151e+01   2.1968253383e+01    0.4565949    0.2906331  16.91  0.002347563    2.171    0.539
        19  -9.6741     96.9073     10.9539   8.5793694482e+01   5.9707176955e+01    0.2142929    0.1951513  14.69 0.0003566201    1.029    0.028
        20  -9.5735    125.4468     14.6111   8.0441237320e+01   5.2216977044e+01    0.2669214    0.1427002  -6.12  0.001033008    2.430    0.588
        21  -9.9298    111.2913      4.9222   7.9267614400e+01   5.6877884510e+01    0.2589973    0.1897861  48.05 0.0002796609    1.277    0.217
        22 -10.6805     69.2873      3.9769   9.1197042688e+01   6.6634569435e+01    0.2438426     0.215847 -24.07 0.0002877972    1.164    0.141
        23  -9.6708     50.9176      3.7820   9.8996241748e+01   7.0094480548e+01     0.206748    0.1635499 -18.84 0.0003045131    1.128    0.114
        24  -8.8824    206.0133    225.8306   1.1638085399e+02   3.6061656744e+00    0.1574635    0.1389982 -33.33  0.001145999    1.657    0.396
        25  -9.0178    219.8760    240.0787   1.1606951030e+02   3.4900750174e-01     0.210454    0.1330003 -25.77  0.001211565    1.877    0.467
        26 -10.4101    218.6877    247.9805   1.1727524505e+02  -2.0735953081e-01    0.3113581    0.3045811 -49.14  0.002772663    1.963    0.491
        27 -10.3042    225.2433    241.9061   1.1547440562e+02  -5.0833689136e-01    0.5275406    0.2211014 -38.56  0.003088744    3.475    0.712
        28 -10.5373    234.7813    249.0589   1.1495600567e+02  -2.3130527202e+00    0.3741614    0.3635693 -41.76  0.003322114    2.162    0.538
        29  -9.7842    230.0761    249.7074   1.1574938894e+02  -1.7862868333e+00    0.3177969    0.1639121  43.81  0.002075514    2.133    0.531
        30  -9.6953    224.7727    249.3475   1.1651095847e+02  -1.0950617446e+00    0.1982783    0.1855055  38.48  0.001747314    1.869    0.465
        31  -9.5611    202.2291    249.7607   1.2008143113e+02   1.7498894188e+00    0.2781295    0.1377204  19.05   0.00167164    2.167    0.539
        32 -10.8303    209.3690    247.6142   1.1868752389e+02   1.0229680331e+00    0.4259461     0.329924   6.40  0.003572945    1.265    0.209
        33  -9.9981    202.1318    242.4519   1.1919807706e+02   2.4624719481e+00    0.3347047    0.2547358 -50.72   0.00251075    2.334    0.571
        34  -9.2826    190.4018    226.6741   1.1910859144e+02   5.7134136481e+00    0.2452584    0.1356065 -43.92  0.001523519    2.541    0.606
        35 -10.6066    193.3765    247.4809   1.2122809605e+02   3.1308342687e+00    0.4227721    0.2784751 -36.87  0.003193523    2.070    0.517
        36 -11.0163    191.0606    236.2901   1.2023758244e+02   4.5840637359e+00    0.4503036    0.3525152  86.62  0.002883132    3.127    0.680
        37  -8.7749    239.7617    221.0064   1.1030373895e+02  -5.2039193812e-01    0.1972398    0.1092101 -14.40  0.001298242    1.866    0.464
        38  -9.7180    239.6704    215.4529   1.0948452416e+02   5.0143270514e-03    0.2597578     0.242744 -51.45  0.001920001    2.121    0.529
        39  -9.9939    193.2202    219.1485   1.1760926352e+02   6.1509104924e+00    0.2401368    0.2048247 -67.01  0.001721466    2.087    0.521
        40  -9.5779    193.9801    215.2461   1.1693171644e+02   6.4848148088e+00    0.2212774    0.1517789  12.96 0.0009058391    1.408    0.290
        41  -9.8718    192.8767    209.8679   1.1635048065e+02   7.2747992198e+00    0.2592416     0.193173 -51.84   0.00170141    2.101    0.524
        42  -9.0554    219.1036    216.6094   1.1292020667e+02   2.7219068930e+00    0.2764094    0.1964258 -42.12  0.001636988    2.149    0.535
        43  -9.5895    216.5259    212.0378   1.1266169065e+02   3.5623142231e+00    0.2293545    0.1522214 -28.86  0.001567994    1.744    0.427
        44  -9.4775    205.3944    217.1897   1.1526879512e+02   4.6099028832e+00      0.22167    0.1324371 -26.23  0.001436812    1.928    0.481
        45  -9.8266    170.5862    217.2691   1.2132302520e+02   9.6939422869e+00    0.2172284    0.1105059 -41.48  0.001258626    2.487    0.598
        46  -9.2226    200.9019    215.4055   1.1577038012e+02   5.4552937725e+00     0.174501    0.1584654 -41.48  0.001116838    1.652    0.395
        47  -8.7784    225.6626    212.8524   1.1129818385e+02   2.1822312122e+00    0.1818053   0.09658652 -23.40  0.001118665    2.047    0.511
        48  -9.3962    224.5484    207.8712   1.1071535221e+02   2.8491631456e+00     0.239478    0.1632904 -42.29  0.001558841    2.234    0.552
        49  -9.6309    210.9821    217.7636   1.1442099496e+02   3.7500792115e+00    0.3592787    0.1641762 -23.07  0.001950143    2.792    0.642
        50 -10.3146    177.1383    210.1340   1.1917782887e+02   9.6110478917e+00    0.2789412    0.1794964 -45.68  0.001761387    2.063    0.515
        51  -9.5564    149.6128    210.0274   1.2423461153e+02   1.3783150950e+01    0.3498749    0.1057968 -43.77  0.001496896    4.258    0.765
        52  -8.7428    206.0986    207.0583   1.1365510347e+02   5.6277313945e+00    0.2382569    0.1385795 -10.76  0.001375975    2.142    0.533
        53  -8.1120    202.2714    204.6587   1.1394545503e+02   6.4746821990e+00   0.09868473   0.08876319  54.28 0.0004358657    1.610    0.379
        54 -11.0877    184.6337    195.2549   1.1562638278e+02   1.0359819885e+01    0.5593281    0.2142529 -39.21  0.002644426    3.080    0.675
        55  -9.2081    193.1053    202.6503   1.1523882845e+02   8.1065033478e+00    0.1743971    0.1564262 -28.19 0.0007941797    1.431    0.301
        56  -9.3874    165.6671    199.6505   1.1980107993e+02   1.2762255621e+01    0.1596416    0.1179395 -12.40 0.0008402318    1.667    0.400
        57  -9.0778    223.5354    201.4465   1.0987110221e+02   3.6719972244e+00    0.1929555    0.1043429 -27.37 0.0008293721    1.993    0.498
        58  -9.8109    197.1175    204.2495   1.1477671211e+02   7.3018807269e+00    0.2654985    0.1605633 -22.61  0.001613179    1.926    0.481
        59  -9.4114    176.4207    197.6086   1.1749421020e+02   1.1347910830e+01    0.2929144    0.1750935 -41.86   0.00171998    2.046    0.511
        60  -9.3742    202.0170    197.4035   1.1286317917e+02   7.3693381664e+00     0.227018    0.1598361 -39.84  0.001394257    1.827    0.453
        61  -8.0469    215.3353    197.6779   1.1062760728e+02   5.3042533373e+00    0.1022723   0.09004064  54.16 0.0004111017    1.709    0.415
        62  -8.3246    170.2911    196.3478   1.1844840347e+02   1.2488684380e+01    0.1207654   0.08395351   9.78 0.0006545928    1.665    0.399
        63  -8.2760    209.2865    194.6497   1.1116560031e+02   6.5746405766e+00    0.1005187    0.0933441  60.83  0.000499078    1.660    0.398
        64 -12.3326    247.8918    118.2101   9.0106795646e+01   9.3949457946e+00     2.013591    0.3271429 -32.20  0.006178986    4.836    0.793
        65  -9.6625    198.7507    189.8989   1.1223033086e+02   8.8015858044e+00    0.3580675    0.1303384 -28.87  0.001498631    3.688    0.729
        66  -9.4730    178.9989    188.7515   1.1564702386e+02   1.2134190396e+01    0.2470864    0.1831774 -33.21  0.001405551    1.558    0.358
        67  -8.5828    210.3798    189.1744   1.1007766049e+02   7.0528759444e+00    0.1495689    0.1082552 -39.38 0.0009411763    1.783    0.439
        68  -8.7417    220.3950    187.7465   1.0813854074e+02   5.6620883332e+00    0.1876077     0.106666 -32.34 0.0007189153    1.937    0.484
        69  -8.1018    166.3243    186.3301   1.1767756800e+02   1.4548345072e+01    0.1266735   0.08776075  11.38  0.000705017    1.701    0.412
        70  -9.2516    223.8552    183.7267   1.0687345969e+02   5.5874369115e+00     0.275566    0.1613103 -32.30  0.001629773    1.873    0.466
        71  -9.0962    223.5251    173.3476   1.0508842739e+02   6.8530034406e+00    0.2274276    0.1554865 -35.10  0.001088542    1.704    0.413
        72  -9.8698    226.5873    177.6862   1.0536045349e+02   5.8561621937e+00    0.4470951     0.202881 -19.69  0.002146465    2.620    0.618
        73  -9.1915    227.5362    171.5165   1.0408942528e+02   6.4255783386e+00    0.2201897    0.1681709 -28.70 0.0009082326    1.465    0.317
        74 -10.2791    183.6955    181.5768   1.1359905452e+02   1.2350260454e+01    0.3734079    0.1607688 -37.44  0.001773415    2.655    0.623
        75  -8.8334    217.7106    182.9238   1.0776411412e+02   6.6426600996e+00    0.2102188   0.09924635 -24.39  0.001060897    2.363    0.577
        76  -9.5525    205.2701    162.1458   1.0616417612e+02   1.1329017022e+01    0.4166437    0.2571833 -44.62  0.002211553    2.083    0.520
        77  -9.3755    203.2994    182.1796   1.1013075979e+02   9.0429509007e+00     0.255184    0.1164228 -26.41  0.001218364    2.622    0.619
        78  -9.1886    205.0811    177.1441   1.0894063157e+02   9.3923368472e+00    0.3211576    0.1706151 -37.83  0.001278207    2.149    0.535
        79 -10.0125    205.3951    169.9230   1.0758981737e+02   1.0275137349e+01    0.4467389    0.2223259 -46.99   0.00205156    3.012    0.668
        80 -13.3168    197.0461    179.2874   1.1075226552e+02   1.0442155378e+01     2.213567    0.9393777 -20.78  0.008228518    4.445    0.775
        81 -11.0587    191.5061    176.9308   1.1135631315e+02   1.1681737926e+01     0.643794    0.2483212 -28.93  0.002627223    3.508    0.715
        82 -10.5469    198.5075    135.0986   1.0191629899e+02   1.6399054496e+01    0.7061886    0.3844662 -35.70  0.003376606    1.883    0.469
        83 -13.6890    190.6894    145.7299   1.0562183316e+02   1.6303823008e+01     2.693322    0.8929303  47.91  0.009923681    3.056    0.673
        84 -10.3311    240.3951    208.4383   1.0828986938e+02   5.7216925964e-01    0.3332665    0.2358953 -34.83  0.001987197    1.954    0.488
        85  -9.8050    210.3351    175.1445   1.0766305880e+02   8.7805665559e+00    0.2585306     0.169018 -33.49  0.001030986    1.694    0.410
        86  -9.8591    187.1646    246.8172   1.2216028766e+02   4.0224320223e+00    0.2798651    0.1881296 -39.38  0.002110761    2.068    0.516
        87 -10.2443    173.9563    172.6704   1.1394802908e+02   1.5278683571e+01     0.363308    0.2146782   9.94  0.001633641    2.696    0.629
        88 -10.0686    187.9813    172.3365   1.1120659559e+02   1.2915121616e+01    0.2517932     0.177229 -42.57  0.001371533    1.715    0.417
        89 -10.8693    183.5665    239.4332   1.2187451204e+02   5.2782338797e+00    0.3365276    0.2557854 -50.48  0.002547507    2.063    0.515
        90  -9.1211    218.2819    167.8234   1.0495849925e+02   8.3827544277e+00    0.3404838    0.2119165 -17.52  0.001479359    1.654    0.396
        91  -9.6895    221.2783    161.8132   1.0331805573e+02   8.6311597710e+00    0.3381571    0.1821893 -28.42  0.001621511    1.874    0.466
        92  -8.9524    169.7113    168.4805   1.1405493201e+02   1.6649689681e+01    0.2149273    0.1164185 -40.15  0.001072939    2.083    0.520
        93 -10.6467    191.6822    164.2581   1.0904806218e+02   1.3413965224e+01    0.6605895    0.2212691 -37.41  0.002655121    3.252    0.692
        94  -9.9725    184.7440    164.4339   1.1039326706e+02   1.4611695109e+01    0.5608074    0.1937991 -43.74  0.002196231    3.503    0.714
        95  -9.3879    212.8917    163.7542   1.0512413471e+02   9.8052142315e+00    0.3243259    0.2476546 -46.41  0.001892365    1.797    0.444
        96 -10.7900    177.6006    157.9570   1.1057280165e+02   1.6863547079e+01    0.6575662    0.2932196 -26.17  0.002532703    3.433    0.709
        97  -8.6907    231.2864    159.0810   1.0113593253e+02   7.2950151466e+00     0.173271    0.1401547  -2.89 0.0006452376    1.097    0.088
        98  -9.7444    187.8015    154.6980   1.0796412096e+02   1.5498717866e+01    0.5319204     0.167951 -35.61  0.001969884    3.505    0.715
        99  -9.2062    226.6141    156.6354   1.0142650948e+02   8.3750326615e+00    0.2437411    0.1371959 -33.23 0.0009703825    1.841    0.457
       100  -9.2899    221.5086    153.8829   1.0173788243e+02   9.5940177132e+00    0.4646771    0.1753709 -37.06  0.002008349    2.814    0.645
       101  -9.2395    216.3084    156.4667   1.0313176056e+02   1.0161915651e+01    0.2722969    0.2139819 -49.01  0.001619704    1.798    0.444
       102  -9.3961    205.8235    154.5911   1.0460465615e+02   1.2257271186e+01    0.2438981    0.2355282  51.36  0.001215521    1.371    0.271
       103  -8.7933    202.3698    152.1665   1.0474775941e+02   1.3213765478e+01    0.2501957    0.1570214 -38.40  0.001090628    1.759    0.432
       104  -8.3867    171.4750    153.9779   1.1103914208e+02   1.8607935863e+01    0.1918558    0.1317538 -36.54  0.001030029    1.585    0.369
       105 -13.0396    247.5069    218.7210   1.0878219261e+02  -1.3302375263e+00     2.761099    0.4773079 -30.49   0.01064405    6.137    0.837
       106  -9.4783    228.9997    148.2506   9.9369060461e+01   9.0111889224e+00    0.2141961    0.1531628 -10.58 0.0009552924    1.306    0.234
       107  -9.0070    181.9946    149.8340   1.0813182550e+02   1.7307785152e+01     0.239749    0.1625173 -18.75  0.001248759    1.687    0.407
       108  -9.3389    142.5434    148.4720   1.1614913692e+02   2.4875130262e+01    0.1358027    0.1235265  37.14 0.0002071717    1.002    0.002
       109 -11.1514    197.2771    157.7671   1.0677852404e+02   1.3341589648e+01    0.6838585    0.4391643 -52.18  0.003467034    2.321    0.569
       110 -10.6261    196.4464    150.1178   1.0542712452e+02   1.4586179679e+01    0.4259965     0.278006 -16.94  0.002032368    1.701    0.412
       111  -9.5670    194.3677    120.6115   9.9446782480e+01   1.9411578282e+01     0.373917    0.3587389  66.61   0.00225105    1.260    0.206
       112 -10.1357    155.2660    143.5167   1.1238997388e+02   2.3391512871e+01    0.3683054    0.1920722 -39.86  0.001667253    2.097    0.523
       113  -9.8083    181.7017    141.8237   1.0656065380e+02   1.8613493374e+01    0.3374487    0.2355536 -44.50  0.001169452    1.638    0.389
       114  -8.6863    166.4392    140.0298   1.0929722471e+02   2.1851395644e+01    0.2031109    0.1353128 -36.34 0.0007383769    1.604    0.376
       115  -9.1460    192.6677    137.0726   1.0343407944e+02   1.7232917138e+01    0.2953709     0.123561 -35.45  0.001218023    2.467    0.595
       116  -9.0597    172.4799    137.4285   1.0749827372e+02   2.1111192877e+01    0.2669534      0.13612 -38.78  0.001010477    2.078    0.519
       117 -10.1912    146.0316    137.9933   1.1332344675e+02   2.6135748274e+01    0.2208219    0.1688202   2.67 0.0009819586    1.674    0.402
       118  -9.9443    179.5670    132.0448   1.0489993254e+02   2.0594401448e+01    0.5036286     0.252442 -25.34  0.002052251    2.546    0.607
       119 -10.4677    179.9608    124.1575   1.0305748259e+02   2.1798831366e+01    0.4942307     0.306718 -29.62  0.001563667    1.694    0.410
       120  -8.6874    163.2800    135.1530   1.0894306969e+02   2.3299853700e+01    0.2208491    0.1705913 -12.15 0.0009193108    1.497    0.332
       121  -9.6384    192.7331    129.2308   1.0171106575e+02   1.8416427818e+01    0.3392247    0.1787802 -33.84  0.001284942    1.931    0.482
       122 -10.5104    195.1156    114.1695   9.7794058727e+01   2.0248422843e+01    0.6274793    0.5227695  14.43  0.003203429    1.178    0.151
       123  -8.5537    186.0784    128.6939   1.0287104020e+02   1.9829558385e+01    0.1962186    0.1706138  20.05  0.001128504    1.064    0.060
       124  -8.2424    165.3943    127.7650   1.0688583048e+02   2.4156206130e+01    0.1925978    0.1330558 -25.27 0.0009301723    1.621    0.383
       125  -9.3212    188.0778    122.8645   1.0116322258e+02   2.0346259404e+01    0.2917761     0.194291 -29.08  0.001007739    1.528    0.346
       126  -9.3350    158.6756    126.7038   1.0810256751e+02   2.5698805994e+01    0.1449278    0.1082242  11.43 0.0003598803    1.624    0.384
       127  -8.8561    162.3066    120.6341   1.0593196728e+02   2.6034611772e+01    0.1432914    0.1157272 -82.72 0.0003937014    1.747    0.428
       128  -9.8977    134.5162    120.4853   1.1229348027e+02   3.1693181743e+01     0.142551    0.1362446  43.51 5.946769e-05    1.012    0.012
       129  -9.6412    155.5299    135.4963   1.1069310930e+02   2.4756599267e+01    0.2688641    0.1388483 -42.68  0.001181699    2.072    0.517
       130  -8.8661    173.7763    118.9258   1.0310469653e+02   2.3945802714e+01    0.2274426    0.1859102   3.71  0.001209017    1.316    0.240
       131  -9.0923    181.0078    115.5286   1.0083342593e+02   2.2993606859e+01    0.2218422    0.1854496 -26.55 0.0006263775    1.201    0.167
       132 -10.3404    176.3239    247.9365   1.2407265624e+02   5.3546935157e+00     0.317021    0.1843864  46.79  0.002150476    1.676    0.403
       133  -9.1672    185.8053    114.5091   9.9644976276e+01   2.2148002454e+01    0.2862858    0.1819421 -14.92  0.001294745    1.914    0.477
       134  -9.7036    152.6321    114.7718   1.0670490441e+02   2.9102941517e+01    0.2035884    0.1357104 -50.13 0.0009476247    1.666    0.400
       135  -8.0180    173.2836    114.3355   1.0211587767e+02   2.4825321016e+01    0.1473932    0.1093365   7.24 0.0007011187    1.622    0.383
       136  -8.7713    176.4946    110.0406   1.0041286667e+02   2.4862468056e+01    0.2202074    0.1407465 -35.50  0.001023328    1.583    0.368
       137  -9.8353    149.9691    109.9961   1.0616114853e+02   3.0547229649e+01    0.1762658    0.1708743  11.66 0.0005561982    1.022    0.021
       138  -8.8100    189.9717    108.5462   9.7399124677e+01   2.2211453720e+01     0.228589    0.1796283 -27.32 0.0009347643    1.257    0.204
       139  -8.8121    182.9840    108.2631   9.8677643618e+01   2.3757973466e+01    0.2633372    0.1759186 -19.23  0.001236884    1.663    0.399
       140  -8.3070    171.3763    106.7376   1.0064664781e+02   2.6527751568e+01    0.1998463     0.136841 -23.88 0.0006397361    1.586    0.369
       141 -10.2842    177.4474    243.0025   1.2332058451e+02   5.7293434282e+00    0.2131835    0.2017867 -50.74  0.001353461    1.612    0.380
       142 -11.0457    201.7646    124.0360   9.8868739292e+01   1.7399256691e+01    0.7693251    0.4546334  -4.61  0.003302851    2.425    0.588
       143 -12.8270    223.0151    138.4439   9.8331328286e+01   1.1329776622e+01     1.953734     1.615336  -7.83   0.01222044    1.099    0.090
       144  -8.2897    166.5243     99.5242   9.9824718857e+01   2.8837770265e+01    0.1484285    0.1394295  13.57 0.0001986741    1.030    0.029
       145  -8.9994    202.9758     97.5649   9.2301540526e+01   2.1085100827e+01    0.2677756    0.1863996 -11.65 0.0009625111    1.550    0.355
       146  -9.4509    195.1006     96.7836   9.3495897590e+01   2.2925682127e+01    0.3125058     0.199967 -23.53  0.001151458    1.596    0.373
       147  -9.8491    176.9898    181.2954   1.1481896740e+02   1.3507580211e+01    0.2732633    0.1244811 -39.75  0.001321045    2.531    0.605
       148  -8.9604    196.5496     91.4069   9.1845322152e+01   2.3422108584e+01    0.2416986    0.1369189 -18.02  0.001007927    2.059    0.514
       149  -8.8741    188.6530     91.7478   9.3366789616e+01   2.5144508202e+01    0.2660004    0.1715829 -17.29  0.001200204    1.738    0.424
       150 -10.1551    210.3239     89.4210   8.8996816485e+01   2.0666577507e+01    0.5286161    0.2732786 -15.42  0.002114811    2.419    0.587
       151  -8.7529    197.7032     86.4595   9.0340989383e+01   2.3905818485e+01    0.3235455     0.164682 -19.71  0.001077876    2.334    0.571
       152  -8.9175    200.4994     82.5127   8.8812084523e+01   2.3854588516e+01    0.2614375    0.1744577 -28.75 0.0008744017    1.437    0.304
       153  -9.7397    201.0956     77.5370   8.7373262013e+01   2.4441032780e+01    0.4792057    0.2370003 -27.06  0.001550543    1.996    0.499
       154  -8.7255    188.3558     86.6898   9.2071835293e+01   2.6000652030e+01    0.1998276    0.1348569 -19.37 0.0007185494    1.574    0.365
       155  -9.1237    168.0370    249.9978   1.2567448630e+02   6.2411363033e+00    0.1598118    0.1092145  30.94 0.0003883127    1.073    0.068
       156  -8.2632      9.7119     84.0018   1.4347127905e+02   5.7187309853e+01    0.1479493   0.09029698 -77.23 0.0006450556    1.348    0.258
       157  -8.5976    193.1080     82.3493   9.0041418895e+01   2.5572065521e+01    0.2593379    0.1868402 -16.36 0.0008536237    1.451    0.311
       158  -8.3459    185.4499     82.4820   9.1461073919e+01   2.7326477378e+01    0.1484317    0.1379192   5.53 0.0001663287    1.048    0.045
       159  -8.0609     33.3310    246.3323   1.4830582431e+02   2.3065925664e+01   0.07748185   0.07268588  10.07 0.0007052087    1.723    0.420
       160  -8.6410    183.4552     77.2759   9.0378600184e+01   2.8603175517e+01    0.2102529    0.1332511 -42.52 0.0009397357    1.621    0.383
       161  -8.7935    211.4208     75.7465   8.5253066105e+01   2.2338991539e+01    0.2033076    0.1313041 -13.87 0.0009460052    1.664    0.399
       162  -9.5672    210.9991    181.2265   1.0861864885e+02   7.9166656416e+00    0.3247525    0.1665947 -27.13  0.001730034    2.117    0.528
       163  -8.8530    206.3778     73.6674   8.5476076506e+01   2.3775734713e+01    0.2634615    0.1782478 -14.17  0.001175052    1.567    0.362
       164 -11.4587    230.6148    191.3083   1.0705945578e+02   3.7165951498e+00     1.713591    0.6216966 -26.90  0.008144395    3.030    0.670
       165  -8.6089     70.8474     71.4026   1.1862850556e+02   5.3766799401e+01    0.1739397    0.1357897  18.00  0.000342478    1.519    0.342
       166 -11.7742    244.2608    188.1884   1.0436970734e+02   2.0412579857e+00     2.065651     0.663607 -42.46  0.005983356    9.909    0.899
       167  -9.0910    203.3736     66.1050   8.3868297021e+01   2.5524648565e+01    0.3283014    0.1730436 -25.37  0.001394861    1.867    0.464
       168  -8.9765    194.6492     66.8830   8.5477364331e+01   2.7485273384e+01    0.2311236    0.1760559  -6.52 0.0008102257    1.427    0.299
       169  -8.1956    208.4978     63.4849   8.2370631100e+01   2.4679129518e+01    0.1432597    0.1330787  -2.04 7.298463e-05    1.054    0.051
       170  -8.8828    206.7710     58.5441   8.1249073339e+01   2.5743594583e+01    0.3098999    0.1655244 -14.24  0.001254408    2.231    0.552
       171  -8.8080     19.8406     59.1794   1.3576926353e+02   6.2370772701e+01    0.1769193    0.1223583 -50.36 0.0004553728    1.306    0.234
       172  -9.1221      8.6627     57.7238   1.4029656040e+02   6.3410177329e+01    0.1239934   0.07502925 -44.28 0.0001808423    1.611    0.379
       173  -8.9085    214.4935    241.1240   1.1705388865e+02   9.5593775292e-01    0.1558378    0.1168924  32.81 0.0007932389    1.301    0.231
       174  -9.0951    212.6290     47.4468   7.7336976728e+01   2.5769202631e+01    0.2520483    0.1704436   3.14 0.0008677032    1.816    0.449
       175 -10.7962    249.6534     42.8758   7.2006558353e+01   1.7988550957e+01    0.5370563    0.3131557 -24.40  0.002793231    1.521    0.342
       176  -9.6908    170.6425    239.2282   1.2402900301e+02   7.0756553225e+00    0.1228885   0.09434874 -12.70 0.0004862162    1.608    0.378
       177  -8.6109    149.4709     34.4944   8.3258521787e+01   4.3474656652e+01    0.1488878     0.145822  27.02 7.891295e-05    1.004    0.004
       178  -8.5535     26.7404     33.9895   1.2596960680e+02   6.7550767304e+01    0.1602724   0.09450269 -56.97 0.0002975579    1.444    0.308
       179 -11.2912    235.7291    196.7018   1.0713718629e+02   2.3980552008e+00     2.499418    0.4608721 -28.47   0.00777782    7.528    0.867
       180  -8.0668    207.6737    231.6923   1.1690477019e+02   2.7791498630e+00    0.1171644   0.09827078 -17.14  0.000525347    1.480    0.324
       181  -9.4843    230.1196    236.1984   1.1395423282e+02  -6.2964135461e-01    0.2301875    0.1713268 -34.23  0.001786589    1.994    0.498
       182  -9.4313    217.0537    223.8681   1.1430250756e+02   2.2744273791e+00    0.2960959    0.1761774 -40.51  0.001919893    2.431    0.589
       183  -9.8083    215.8680    234.0025   1.1589409522e+02   1.4455192263e+00    0.2550689     0.216866 -24.54  0.001740652    1.630    0.386
       184  -9.0574    109.8257     31.8642   9.1539549152e+01   5.3775563379e+01    0.2072584     0.179434 -66.20   0.00108196    1.367    0.268
       185  -9.8663    206.3772    236.5924   1.1776307534e+02   2.4682377753e+00    0.2566805    0.2442912 -25.06  0.002053314    1.667    0.400
       186 -11.2735    242.9807     23.7617   6.7799576999e+01   2.1442186222e+01    0.3855557    0.1883318 -16.90  0.001722536    2.116    0.528
       187 -10.4377    225.9096     27.3888   7.0294264445e+01   2.4934697054e+01    0.5541254    0.1241427 -31.47   0.00187054    3.261    0.693
       188 -10.4573    102.8689     29.4296   9.2509959953e+01   5.5765670438e+01    0.2906465    0.2502077 -32.58 0.0008053033    1.160    0.138
       189  -8.9392     42.1875     27.9523   1.1579063547e+02   6.7134299176e+01    0.1806779    0.1616056 -53.98 0.0003021951    1.195    0.163
       190  -8.9283    250.4666     26.2120   6.7799697475e+01   1.9575105240e+01    0.2382776     0.117844 -18.67   0.00111635    1.987    0.497
       191  -8.9436    216.8670    228.8575   1.1503168442e+02   1.8078605807e+00    0.1595764    0.1089257  13.27  0.001023212    1.234    0.190
       192  -8.9062     68.1047     23.4421   1.0189964867e+02   6.3942120118e+01    0.2045853     0.167933 -28.64 0.0004451943    1.131    0.116
       193 -12.3310    240.6573    123.1957   9.2258043702e+01   1.0082388189e+01     1.221431    0.7088883 -25.46  0.006497176    1.572    0.364
       194  -9.3480     84.9920     22.0114   9.4867288618e+01   6.0845251173e+01     0.219713    0.1719785 -62.02 0.0006678373    1.687    0.407
       195  -8.3676    225.4542    231.9487   1.1409629951e+02   3.6460164316e-01    0.1060907   0.09427956 -56.25 0.0005628815    2.301    0.565
       196  -8.8784    201.8648    232.0579   1.1790432791e+02   3.5382813050e+00     0.170652    0.1243386 -23.77  0.001285996    1.638    0.389
       197  -9.1281     78.3342     16.1929   9.4381000264e+01   6.3106600568e+01    0.2418536    0.1558902 -25.68  0.000719415    1.516    0.340
       198  -8.9607    235.2376    229.0829   1.1217278633e+02  -6.5788646960e-01    0.2033374   0.08037599 -31.83  0.001169764    2.937    0.660
       199  -8.1739     75.6518     20.2630   9.7393139913e+01   6.3027945008e+01    0.1297403    0.1117323 -81.31  0.000465234    1.608    0.378
       200  -9.2367    109.0000     25.9540   8.9273901676e+01   5.4848103277e+01    0.2436962   0.08234315 -29.98 0.0008040895    2.954    0.661
       201  -8.1387    145.7247    230.6268   1.2739756340e+02   1.1583351922e+01    0.1045804   0.07589053  10.30 0.0007004496    1.688    0.408
       202  -8.7172    229.2267    228.2604   1.1298911087e+02   2.0690687567e-01    0.1322505   0.07967058 -37.89  0.000875161    2.392    0.582
       203  -8.9187    211.9517    227.7348   1.1567063076e+02   2.5898223552e+00    0.1534417    0.1380397 -21.47  0.001093066    1.578    0.366
       204 -10.6973    110.0382     13.4762   8.3488477866e+01   5.6240532462e+01     0.465053    0.1158344  50.36  0.001445206    3.429    0.708
       205  -9.5569    199.0313    226.8370   1.1767724428e+02   4.4777575146e+00    0.2773885     0.207117 -26.37  0.002081769    1.623    0.384
       206  -8.6496    201.4874    221.0919   1.1647727585e+02   4.7468092291e+00    0.2048665    0.1025205 -26.52  0.001194457    2.455    0.593
       207  -8.9595    228.1832    222.0969   1.1226863369e+02   9.2665072645e-01    0.1860841    0.1289921  50.03  0.001234054    2.141    0.533
       208  -8.5721    223.1808    227.1516   1.1378513198e+02   1.1189616644e+00     0.131654    0.1110904  22.97  0.001037937    1.356    0.263
