#   1 NUMBER                 Running object number                                     
#   2 MAG_AUTO               Kron-like elliptical aperture magnitude                    [mag]
#   3 X_IMAGE                Object position along x                                    [pixel]
#   4 Y_IMAGE                Object position along y                                    [pixel]
#   5 X_WORLD                Barycenter position along world x axis                     [deg]
#   6 Y_WORLD                Barycenter position along world y axis                     [deg]
#   7 A_WORLD                Profile RMS along major axis (world units)                 [deg]
#   8 B_WORLD                Profile RMS along minor axis (world units)                 [deg]
#   9 THETA_WORLD            Position angle (CCW/world-x)                               [deg]
#  10 FWHM_WORLD             FWHM assuming a gaussian core                              [deg]
#  11 ELONGATION             A_IMAGE/B_IMAGE                                           
#  12 ELLIPTICITY            1 - B_IMAGE/A_IMAGE                                       
         1  -9.1361     12.8426     30.0988   1.1871301748e+02   6.7106933540e+01    0.2901768    0.1402934 -53.77  0.001428259    2.220    0.549
         2  -8.2282     29.9741     16.1958   1.0612884515e+02   6.7614609394e+01    0.1551442    0.1332143 -14.04 0.0008955673    1.317    0.241
         3  -8.7571    233.0831     12.6510   6.0569502932e+01   2.6050532451e+01    0.2201672     0.181569 -33.89 0.0007317109    1.448    0.309
         4  -7.6268     83.4297     11.1977   8.5118978162e+01   6.0327364184e+01    0.1530664      0.10766 -32.81 0.0005578353    1.630    0.386
         5  -8.6119     55.6997     10.2402   9.3595097731e+01   6.5039908283e+01    0.1782057    0.1559151  -1.18 0.0005434155    1.251    0.201
         6  -8.0258     47.7018     10.3720   9.6575660350e+01   6.6165844675e+01    0.1449043     0.137414 -39.30 0.0007962894    1.714    0.416
         7  -8.3783     90.8114      9.1152   8.2266643144e+01   5.9137225875e+01    0.1683994    0.1659442 -16.11 0.0007027173    1.315    0.240
         8  -7.6671      5.6740      8.3235   1.1363593201e+02   7.0879916658e+01   0.08520696   0.07920078 -26.47 0.0004406557    1.689    0.408
         9  -7.5155    101.3204      7.7510   7.9084225956e+01   5.7178627641e+01    0.1096002   0.09553554  87.85 0.0002924069    1.530    0.346
        10  -8.5017     33.5292      5.4405   9.9975585720e+01   6.8537597116e+01    0.2296927    0.1329669 -47.17  0.001250292    3.150    0.683
        11  -8.5063     79.0236      3.5947   8.3333240134e+01   6.1834399223e+01     0.211528    0.1512419 -35.20  0.001172146    1.725    0.420
        12  -7.4731     44.6969      3.3292   9.4597468522e+01   6.7336216849e+01     0.094469   0.08638468 -28.16 0.0005404727    1.649    0.394
        13  -7.7751    115.4827      2.4751   7.4028118265e+01   5.4646344416e+01    0.1233776     0.107604  48.48 0.0001806698    1.068    0.064
        14  -8.3175     62.2224      1.5917   8.7634053082e+01   6.4888785072e+01    0.1544766    0.1272148  38.71 0.0003808828    1.341    0.254
        15  -7.6014     39.2925      1.6158   9.5908659237e+01   6.8233927410e+01   0.09559163    0.0832419 -34.65 0.0007015856    1.758    0.431
        16  -7.9320     67.5325    245.0746   1.4112844166e+02   1.5828069795e+01    0.1644783    0.1020548 -75.95 0.0008921042    1.571    0.363
        17  -9.3068    211.1844    247.1347   1.1483309988e+02  -7.9005197754e+00    0.3768409    0.2476906 -62.15  0.001708827    2.920    0.658
        18  -8.5288     94.0350    249.7482   1.3689540397e+02   1.1097460639e+01    0.2638472    0.1345256  69.94  0.001291031    2.310    0.567
        19  -8.8935      9.9459    244.3749   1.5052243507e+02   2.2971945697e+01    0.2712365   0.09511805  85.47  0.001321094    2.993    0.666
        20  -8.7033    169.1472    243.5256   1.2213855348e+02  -2.9744541522e-01    0.2252119    0.1847782  73.77 0.0006543395    1.473    0.321
        21  -9.4055    160.2350    240.5812   1.2341076068e+02   1.7256802018e+00    0.3612632    0.2495579 -82.99  0.001477753    2.262    0.558
        22  -7.8898     77.3920    243.1375   1.3921614529e+02   1.4790725600e+01    0.1660389   0.09648647 -88.42 0.0009346402    1.801    0.445
        23  -9.0874    194.5386    240.3517   1.1684511860e+02  -4.1696881785e+00    0.2945185    0.2240655 -69.03  0.001277292    2.041    0.510
        24  -9.3549    183.0504    240.0988   1.1897997041e+02  -2.1618215600e+00     0.399217    0.2740889  66.59  0.002003394    2.065    0.516
        25  -8.4879    153.2240    242.1471   1.2497381522e+02   2.6826474652e+00    0.1754466    0.1376113  68.56 0.0007811252    1.379    0.275
        26  -8.3494    146.9891    240.6352   1.2595633628e+02   4.0167411462e+00    0.3755504    0.2030243  72.10  0.001422105    3.930    0.746
        27  -7.9856     88.3636    242.2271   1.3715253866e+02   1.3337073290e+01    0.1601995    0.1016107 -85.11 0.0005164743    1.640    0.390
        28  -8.7115    240.6584    240.5232   1.0842244600e+02  -1.1632811519e+01     0.190547    0.1056074 -32.51 0.0009802649    1.894    0.472
        29  -8.8436    218.6506    247.6149   1.1354929013e+02  -9.1584296569e+00     0.358161    0.1399265 -39.13  0.001677141    2.920    0.658
        30  -7.9070    214.3575    241.2381   1.1329547664e+02  -7.6003423640e+00    0.1550321    0.1155062 -45.21 0.0007190936    1.689    0.408
        31  -9.5557    136.0877    239.2466   1.2785763286e+02   6.1351546301e+00    0.3013797    0.1877225  72.59  0.001513939    2.106    0.525
        32  -8.2384    208.9847    238.6903   1.1387074669e+02  -6.3555771815e+00    0.1987467    0.1616526 -52.41 0.0006752273    1.638    0.390
        33  -8.7711    129.1981    238.7495   1.2911199128e+02   7.3981342730e+00    0.2618608    0.1772802  79.34  0.001428002    1.796    0.443
        34  -9.4774    231.2883    236.9680   1.0949009452e+02  -9.7237815830e+00    0.2984256    0.2402594 -59.86  0.001416007    2.018    0.505
        35  -8.4057     25.6136    236.8099   1.4758297794e+02   2.2690641241e+01    0.2470491   0.09609101  79.83  0.001157623    2.947    0.661
        36  -8.7458    217.3130    235.6916   1.1182609472e+02  -7.3021456075e+00    0.2298079    0.1956384  40.47 0.0007841627    1.254    0.203
        37  -9.5097    214.0335    232.1450   1.1183329048e+02  -6.2473064080e+00    0.3106825    0.2557559 -86.31  0.001408292    2.081    0.519
        38  -8.9494    203.2523    234.8815   1.1431539797e+02  -4.8336356952e+00    0.2712604    0.2097053 -72.74  0.001222615    2.143    0.533
        39  -9.7417    175.7272    233.4412   1.1934918611e+02   1.7998922111e-01     0.468222    0.2669798 -61.72  0.002187587    2.697    0.629
        40  -8.2795    170.1273    235.7063   1.2078307276e+02   7.9659913355e-01    0.2048685    0.1744123 -68.28 0.0007414458    1.446    0.309
        41  -9.3306    109.3194    234.7583   1.3241575332e+02   1.1445423227e+01    0.5391133    0.2107794  55.51  0.002076145    2.689    0.628
        42  -8.3634     99.5835    234.7098   1.3426005319e+02   1.3020159429e+01    0.2427429    0.1557686  75.41  0.001211782    1.622    0.383
        43  -8.8496     78.8153    234.3301   1.3809627576e+02   1.6263906575e+01    0.2718079    0.1555158 -81.07 0.0009226057    1.812    0.448
        44  -8.1016     53.8312    234.7640   1.4263505595e+02   1.9648326835e+01    0.1660223    0.1043094  72.46 0.0004619282    1.327    0.246
        45  -8.9023    202.0523    243.3835   1.1592069683e+02  -5.8778890019e+00    0.2105903    0.1837104 -51.88 0.0008676614    1.491    0.329
        46  -9.1003     68.4799    232.6389   1.3982249770e+02   1.8077504461e+01    0.4078968    0.1805528  72.15  0.001721864    3.077    0.675
        47  -8.5065    194.6816    232.8514   1.1560652841e+02  -3.0519321096e+00    0.2087023    0.1778204 -66.79 0.0008328402    1.587    0.370
        48  -9.2774    141.6129    231.1543   1.2567517418e+02   6.6211408353e+00    0.6282501     0.253478  59.11  0.002057739    4.310    0.768
        49  -8.3869    132.8728    233.1648   1.2766396651e+02   7.7789098621e+00    0.2047345    0.1560621  67.75 0.0008662473    1.292    0.226
        50  -8.2319     92.6505    232.1849   1.3528631971e+02   1.4592611985e+01     0.300281    0.1357018  70.69  0.001122653    3.753    0.734
        51  -7.9036     37.5389    233.5070   1.4535626004e+02   2.1938613723e+01    0.1163991   0.08371503  76.37 0.0001005625    1.023    0.023
        52  -9.3680    186.5285    230.7807   1.1683375279e+02  -1.2974976665e+00    0.3226261    0.2443855 -81.98  0.001570047    2.126    0.530
        53  -9.1212    236.1326    230.5414   1.0750182904e+02  -9.6102588156e+00    0.2518471    0.1898409 -32.65 0.0007641545    1.442    0.307
        54  -8.7580      1.6103    230.8764   1.5108002053e+02   2.6344923191e+01    0.2077022   0.09147462  84.86 0.0007982071    1.873    0.466
        55  -9.9038    149.9726    226.5812   1.2335567639e+02   5.9645925709e+00    0.6256281    0.3699956 -84.52  0.002482037    3.585    0.721
        56  -8.0447    229.8241    229.0218   1.0837767252e+02  -8.3940200745e+00    0.1723723    0.1450422 -65.90 0.0005878644    1.914    0.478
        57  -8.8406    162.2988    227.7928   1.2109649143e+02   3.5337423264e+00    0.2992897    0.1993147  66.20  0.001089767    1.894    0.472
        58  -8.8336    128.1191    227.4828   1.2782347427e+02   9.6555048647e+00    0.2792129    0.1846983  73.03  0.001045891    1.770    0.435
        59  -8.3503    119.9584    227.7893   1.2947491091e+02   1.0996857762e+01    0.2246418    0.1281669  64.78  0.001075387    1.979    0.495
        60  -9.4580    225.4934    221.7321   1.0787727121e+02  -6.6290934916e+00     0.332978    0.2139238 -20.80  0.001248878    1.703    0.413
        61  -8.7718    206.0303    226.0231   1.1229110642e+02  -3.9635209565e+00     0.266585    0.1875764 -49.53   0.00091936    1.765    0.434
        62  -8.3042     49.2874    226.9121   1.4277150057e+02   2.1785968272e+01    0.2513988    0.1323323  73.24   0.00138456    1.817    0.450
        63  -8.2765    122.8246    234.1659   1.2974666029e+02   9.3120569321e+00    0.2032151     0.149056  69.11 0.0006397867    1.333    0.250
        64  -8.5684    200.3332    225.5665   1.1330157818e+02  -2.8984772076e+00    0.4079691    0.2112885 -23.91  0.001371088    2.946    0.661
        65  -8.2100    202.8811    220.1351   1.1186778903e+02  -2.4835088673e+00    0.1900295    0.1761057  49.70 0.0005793308    1.224    0.183
        66  -7.4757     78.6556    226.3198   1.3729685486e+02   1.7866995559e+01    0.1353397   0.07800621  69.78 0.0007049559    1.726    0.420
        67  -8.8468    180.6335    224.4084   1.1693633460e+02   8.0415627376e-01     0.285642    0.2058795  73.71 0.0009865022    2.049    0.512
        68  -8.6191     94.1282    224.3199   1.3410167715e+02   1.5910709600e+01    0.3670274    0.1889019  71.58  0.001624086    2.563    0.610
        69  -8.1602     38.4401    224.9328   1.4453626374e+02   2.3524561195e+01     0.167866   0.07526395  81.04 0.0008065994    2.458    0.593
        70  -9.0054    216.3859    223.2152   1.0984087281e+02  -5.3145169414e+00    0.2752062    0.2184528 -48.02  0.001082682    1.566    0.361
        71  -8.8160    172.9680    223.1124   1.1823750202e+02   2.4160985456e+00    0.2822563    0.1906842 -62.56 0.0008158284    1.958    0.489
        72  -8.0479    114.1405    224.1630   1.3014768723e+02   1.2681611296e+01    0.1855399    0.1367237  73.42 0.0005956574    1.339    0.253
        73  -8.7076    104.5600    223.4551   1.3195214419e+02   1.4410211992e+01    0.2993315    0.1870702  88.05  0.001528815    1.921    0.479
        74  -8.0042     59.7471    224.1394   1.4061704562e+02   2.0973212757e+01    0.2158456   0.09517266  69.84 0.0009171245    2.795    0.642
        75  -7.8869    233.3018    223.3254   1.0673056995e+02  -8.1458537873e+00    0.1303436   0.08751013   5.24 0.0003345513    1.638    0.390
        76  -9.4109    192.5544    221.5023   1.1410940254e+02  -8.6101243056e-01    0.3420279     0.263136 -87.43  0.001055448    2.115    0.527
        77  -9.1945    160.3285    221.2573   1.2046202270e+02   5.0522842267e+00    0.5571694    0.2545669  59.14  0.001973444    3.446    0.710
        78  -8.1965    140.3178    223.0204   1.2475596145e+02   8.3498784429e+00    0.1839071    0.1625805  78.29 0.0008511713    1.145    0.127
        79  -8.8092    239.0941    221.6271   1.0537496856e+02  -8.8352578783e+00    0.2199058    0.1955428 -61.76 0.0008650291    1.703    0.413
        80  -9.0730    120.5973    219.4673   1.2822174698e+02   1.2504605567e+01    0.4642676     0.226526  64.82  0.001811724    3.003    0.667
        81  -8.5956     83.0057    220.8395   1.3586296949e+02   1.8326540815e+01    0.2830644    0.1487823  71.52  0.001328758    2.250    0.556
        82  -8.3919     72.9118    220.8035   1.3780570135e+02   1.9819983902e+01    0.2484829    0.1347265  80.95 0.0008935038    2.121    0.529
        83  -7.8902     27.6130    221.1780   1.4614563579e+02   2.5534367213e+01    0.1571012   0.08486511 -68.27 0.0009511223    1.725    0.420
        84  -8.7414      7.1663    221.7849   1.4965912155e+02   2.7563349561e+01    0.2218293   0.04836309  43.34  0.001039778    3.439    0.709
        85  -8.5769    248.9278    218.3417   1.0302183471e+02  -9.9212148765e+00    0.3275732    0.1926533  57.98  0.001472861    3.333    0.700
        86  -8.4645    209.9477    218.9622   1.1030378541e+02  -3.5433278379e+00    0.2181198    0.1765914 -42.75 0.0008352545    1.418    0.295
        87  -9.2265    132.7826    215.9173   1.2523087574e+02   1.1061765945e+01    0.4699693    0.2816392  82.03   0.00197508    2.786    0.641
        88  -8.0001    112.4386    217.9461   1.2966211154e+02   1.4201521735e+01    0.1812833    0.1068012  89.44 0.0007162297    2.412    0.585
        89  -8.4946     62.6529    217.5666   1.3942987044e+02   2.1924740783e+01    0.4176305    0.1426722  58.74  0.001587491    3.565    0.719
        90  -9.0241     51.4732    217.3250   1.4151412373e+02   2.3455866837e+01    0.2880127    0.1566125  84.64  0.001120393    1.824    0.452
        91  -8.7674    169.3186    216.2636   1.1783488491e+02   4.2976250165e+00     0.291256    0.2039129 -67.87  0.000854623    1.923    0.480
        92  -8.5513    142.8132    216.4982   1.2326596180e+02   9.1390019300e+00    0.2544681    0.1751294 -79.14 0.0009554176    1.906    0.475
        93  -8.1280     18.4124    216.2770   1.4739088848e+02   2.7520837587e+01    0.1598168   0.08223159  89.89 0.0009453377    1.616    0.381
        94  -8.7426    232.2973    214.5234   1.0530673437e+02  -6.6901603634e+00     0.244605    0.2028237 -45.31 0.0009600182    1.490    0.329
        95  -8.8134    185.8064    213.7958   1.1410061180e+02   1.6753664302e+00    0.3572972     0.178352 -40.22  0.001557793    2.230    0.552
        96  -8.3442    154.2473    215.2088   1.2072431579e+02   7.2862478685e+00    0.1857841    0.1524572  77.31 0.0006033012    1.370    0.270
        97  -9.0034     93.4689    214.2987   1.3301592769e+02   1.8056189720e+01    0.4067995    0.1888052  63.03  0.001672189    2.672    0.626
        98  -9.3250     72.8085    211.7605   1.3684058665e+02   2.1714227081e+01    0.6042554     0.231847  63.34  0.002115852    4.076    0.755
        99  -8.5547    224.9041    212.1942   1.0624260882e+02  -5.0833416218e+00    0.3018667    0.1729463 -37.86  0.001128275    1.816    0.449
       100  -9.4467    213.9285    212.1089   1.0829964305e+02  -3.1538545546e+00    0.3268982      0.28054  68.10  0.001474982    1.568    0.362
       101  -8.7663    161.7760    212.4800   1.1873533706e+02   6.3975580623e+00    0.2551476    0.2037116  79.54 0.0006827777    1.521    0.342
       102  -7.9487    106.4918    212.9426   1.3019605263e+02   1.6218847759e+01    0.1865601    0.1258236 -69.78 0.0006695239    1.533    0.348
       103  -8.9668    204.4105    210.7799   1.0989046703e+02  -1.2285076050e+00    0.2654806    0.2211064 -62.51 0.0006984188    1.576    0.366
       104  -9.4450    175.3357    210.1757   1.1557354609e+02   4.2756430959e+00    0.4450265    0.2942271  76.20  0.001606474    2.622    0.619
       105  -9.0941    172.7679    205.7252   1.1531376811e+02   5.5817538125e+00    0.2555705    0.2442685  74.15 0.0007718579    1.125    0.111
       106  -8.9605      8.0246    211.8413   1.4888284828e+02   2.9465032125e+01    0.1922376   0.08427962  63.96  0.001078646    2.036    0.509
       107  -8.3169    192.4884    210.6256   1.1220649212e+02   9.8674290404e-01    0.2438993    0.1858453 -83.03 0.0007223521    2.095    0.523
       108  -8.7861    147.9404    210.6012   1.2127730758e+02   9.3363657042e+00    0.2959339    0.2077117  74.35  0.001055025    1.797    0.444
       109  -9.0133    116.1466    210.3300   1.2784290479e+02   1.5116636811e+01    0.3220686     0.212707  87.83 0.0009493817    1.864    0.464
       110  -9.3956    236.7794    207.8581   1.0323743613e+02  -6.4332215762e+00    0.4816839    0.2497918 -39.27  0.001696791    1.985    0.496
       111  -8.4770     85.6750    209.7217   1.3402298212e+02   2.0231307882e+01    0.2764342    0.1554514  75.18  0.001300195    2.131    0.531
       112  -7.9582     32.2974    210.6154   1.4447395077e+02   2.7169842371e+01    0.1287466   0.06772821  73.96 0.0007017989    1.772    0.436
       113  -8.0723     46.2180    209.2334   1.4174681619e+02   2.5809447811e+01    0.1781279    0.1119593  74.73 0.0008928828    1.403    0.287
       114  -9.4155    246.4132    207.3014   1.0139913829e+02  -7.9359463396e+00    0.2699009    0.2105896 -23.43 0.0006130488    1.213    0.175
       115  -8.0428    156.4030    208.1930   1.1912340605e+02   8.2193019765e+00    0.1832398    0.1327806 -67.00 0.0005463726    1.659    0.397
       116  -8.3720    139.2136    207.9707   1.2267199535e+02   1.1469153956e+01    0.2744989    0.1925948  78.16  0.001157777    1.786    0.440
       117  -8.0362    126.4073    208.2635   1.2539905364e+02   1.3735301363e+01    0.1845957    0.1279999 -73.40 0.0006953054    1.627    0.386
       118  -9.2700     99.4531    206.2298   1.3073942184e+02   1.8787155734e+01    0.4298577     0.249692  87.50  0.001470269    2.314    0.568
       119  -8.4130     56.5607    205.3734   1.3935828049e+02   2.5312902454e+01    0.3290808    0.1394169  64.14  0.001180094    2.868    0.651
       120  -9.2084    194.9542    203.7867   1.1046185763e+02   1.7195515196e+00    0.4041379    0.2754361  62.31  0.001878924    1.941    0.485
       121  -9.3992    192.5112    197.5261   1.0977262350e+02   3.3051157951e+00    0.5216911    0.3683245 -76.51   0.00173731    2.399    0.583
       122  -9.1935    183.9485    204.0475   1.1272631872e+02   3.7587012589e+00    0.3578788    0.2600078  70.17  0.001178725    1.891    0.471
       123  -8.6431    131.3929    204.1395   1.2370902348e+02   1.3679938666e+01     0.300638    0.1893205  71.38  0.001088896    2.049    0.512
       124  -8.2479    109.0090    205.0128   1.2857028015e+02   1.7450443190e+01    0.2232162    0.1491963  77.98 0.0008399899    1.700    0.412
       125  -7.7753    218.3829    204.2876   1.0598455653e+02  -2.6796002511e+00    0.1423601   0.09705434  10.86 0.0007013439    1.742    0.426
       126  -9.6238    163.9278    203.1825   1.1669392386e+02   7.7540595305e+00    0.4379985    0.2697712  61.97  0.001218952    2.022    0.505
       127  -9.4469    250.1131    201.9339   9.9716123096e+01  -7.7374861088e+00    0.3572421    0.1738131 -34.43  0.001296442    1.969    0.492
       128  -9.3065    243.1426    200.5363   1.0068243393e+02  -6.3792122003e+00    0.3615052     0.205824 -36.07  0.001145599    1.719    0.418
       129  -8.4145    210.9880    202.0229   1.0697344151e+02  -9.6150320387e-01    0.1989315      0.17082  87.65 0.0005392599    1.665    0.399
       130  -8.9712    140.4475    201.2091   1.2130892629e+02   1.2606687731e+01     0.361618     0.245037  89.64   0.00111971    2.081    0.519
       131  -8.5144     48.1715    201.5495   1.4061908015e+02   2.7208634830e+01    0.2455236    0.1200237  84.99  0.001147046    2.356    0.576
       132  -7.8761     10.5290    202.5052   1.4779936363e+02   3.1138444823e+01      0.11439    0.0825734  85.62 0.0008099499    1.005    0.005
       133  -8.3041    228.5058    201.0165   1.0344993907e+02  -3.9456039268e+00    0.1877735    0.1087428 -13.17  0.000738746    2.453    0.592
       134  -7.9463    221.8572    201.3482   1.0476201594e+02  -2.8207433463e+00    0.1808842    0.1668911 -30.12 0.0007279399    1.192    0.161
       135  -8.3638     79.6786    201.0873   1.3418037252e+02   2.2994958784e+01    0.2147649    0.1420791  87.26 0.0008934336    1.526    0.345
       136  -8.8985    236.9987    198.5693   1.0140965589e+02  -5.0319891827e+00    0.3033359     0.180443 -50.24  0.001146518    2.199    0.545
       137  -8.7095    177.1849    199.3004   1.1323929118e+02   5.9378030250e+00    0.2803919    0.2236817 -68.72 0.0007382132    1.549    0.355
       138  -9.5869    149.4856    198.5592   1.1893120914e+02   1.1435206723e+01    0.4744139    0.3104652  87.96  0.001581808    2.493    0.599
       139  -9.0130    123.8101    199.2672   1.2455441767e+02   1.6071772913e+01    0.3263627     0.220432  82.82  0.001127682    1.871    0.466
       140  -9.2850    112.6052    198.5154   1.2684671746e+02   1.8217136448e+01     0.486872    0.2774987  67.85  0.001881333    2.235    0.553
       141  -9.0308     88.5543    198.4692   1.3197826503e+02   2.2207930323e+01    0.3539302     0.216352  83.40  0.001712824    1.923    0.480
       142  -8.4751    202.2591    197.8067   1.0787579581e+02   1.3943999998e+00    0.2428472    0.2102994 -81.64 0.0008020198    1.548    0.354
       143  -8.6731    133.0099    196.3919   1.2210290252e+02   1.4993461739e+01    0.3280832    0.1906226 -61.74  0.001053367    1.910    0.476
       144  -9.1021     61.5180    197.0493   1.3744834156e+02   2.6462277064e+01     0.404823    0.2038853  76.28  0.001502966    2.534    0.605
       145  -7.9848     29.4821    197.9631   1.4391465467e+02   3.0159610341e+01      0.17612   0.07888103  82.50 0.0008097585    2.525    0.604
       146  -8.9603     12.5816    197.3863   1.4704679445e+02   3.2012371804e+01    0.2863316    0.1076376  89.14   0.00117065    2.869    0.651
       147  -8.7663    215.8485    195.4791   1.0476792428e+02  -7.4680354167e-01    0.3272543    0.2102211 -58.34   0.00110703    2.279    0.561
       148  -8.1332    209.4523    195.5192   1.0601652365e+02   4.3855055514e-01    0.2402503    0.1286218 -51.46 0.0009375853    2.357    0.576
       149  -9.0551    185.2783    194.9108   1.1074703523e+02   5.1890345352e+00    0.2836462    0.2363003 -75.69 0.0007461098    1.527    0.345
       150  -9.5129    245.8554    193.8388   9.8886822674e+01  -5.7978205726e+00    0.3218445    0.2481288 -62.62  0.001288885    2.015    0.504
       151  -8.7332    161.0880    194.4855   1.1573137566e+02   1.0010403347e+01    0.2723698    0.2172801  82.04 0.0008393488    1.528    0.346
       152  -8.9941     44.1489    193.5439   1.4060377302e+02   2.9443951651e+01    0.4152567    0.1890903  71.68  0.001817899    2.787    0.641
       153  -8.4199    231.1350    193.7557   1.0154036860e+02  -3.2339071572e+00    0.2781731    0.1740954 -25.07   0.00105687    1.670    0.401
       154  -8.6538     77.1304    193.9604   1.3380660196e+02   2.4941710071e+01    0.2441406    0.1798111  82.51 0.0005744622    1.264    0.209
       155  -8.7969    224.4717    194.1548   1.0286426610e+02  -2.1032334855e+00     0.273297    0.2108509 -47.94 0.0008751896    1.493    0.330
       156  -8.4405    199.0422    191.6751   1.0732462178e+02   3.1085638464e+00    0.2324787    0.1940424 -52.12 0.0006548738    1.349    0.259
       157  -8.3317    179.1138    191.8368   1.1143450369e+02   6.9829235107e+00    0.2173739    0.1945631  79.33 0.0007254861    1.280    0.219
       158  -8.6235    172.3249    191.6939   1.1283031167e+02   8.3524715592e+00    0.2884265    0.2277111  84.36 0.0009240215    1.657    0.397
       159  -9.1293    139.6077    190.8769   1.1972281702e+02   1.4913588979e+01    0.3861907    0.2464874  75.23  0.001085724    2.267    0.559
       160  -8.7472     21.6571    191.2095   1.4482997860e+02   3.2435812311e+01    0.3817956    0.1376912  59.81   0.00168508    3.118    0.679
       161 -10.4411     92.3849    188.8538   1.2980289380e+02   2.3731356888e+01    0.9622523    0.2914886  52.08  0.003050151    4.078    0.755
       162  -8.5304    148.5279    189.4934   1.1752724350e+02   1.3483574218e+01    0.3102286    0.2076341  81.62 0.0008845105    2.246    0.555
       163  -9.0887    129.4267    188.6787   1.2158040345e+02   1.7306955450e+01    0.3608702    0.2402752 -77.04  0.001216797    1.858    0.462
       164  -8.4133      6.3282    189.9972   1.4764698194e+02   3.4154252791e+01    0.1843071   0.04332935 -57.87 0.0007050069    4.313    0.768
       165  -8.3082    237.3907    188.6371   9.9371346542e+01  -3.5063626938e+00    0.2394383    0.1209738 -41.53 0.0007235283    2.000    0.500
       166  -8.9570    191.5732    187.5518   1.0802381053e+02   5.3344731000e+00    0.3528946    0.2695869 -77.94  0.001375806    1.904    0.475
       167  -9.4303    156.0076    187.5268   1.1553713457e+02   1.2423432789e+01    0.4259268    0.2551014 -63.40  0.001010365    2.106    0.525
       168  -9.9107    121.0350    186.8318   1.2312917659e+02   1.9258591678e+01    0.6108384    0.3171079 -74.61  0.002240063    3.076    0.675
       169  -8.8214     33.9984    187.8493   1.4207694477e+02   3.1865390146e+01    0.2870651    0.1336154  89.40   0.00116087    2.325    0.570
       170  -8.1619    230.5148    187.5332   1.0041174876e+02  -2.0929955286e+00      0.23591    0.1227061 -48.26  0.001022902    2.284    0.562
       171  -9.1482    216.7222    187.2679   1.0296653709e+02   5.0798832469e-01    0.3962306    0.2434171 -31.92  0.001591999    1.677    0.404
       172  -8.8878    164.8419    187.0088   1.1353083101e+02   1.0773625958e+01      0.32527    0.2439004 -77.14 0.0008578338    1.740    0.425
       173  -9.0997     54.6805    186.9606   1.3770354441e+02   2.9603158575e+01    0.3919475    0.1991301  76.53  0.001411383    2.484    0.597
       174  -9.0135    109.5321    186.1500   1.2558405047e+02   2.1462414307e+01    0.3912877    0.2435425  76.02  0.001224522    2.104    0.525
       175  -8.6714    249.3353    185.6924   9.6647935648e+01  -5.1044766715e+00    0.2484273    0.2064088 -58.64 0.0009396044    1.632    0.387
       176  -8.8686    183.0684    184.9900   1.0927344700e+02   7.5203149061e+00    0.3437122    0.1997983 -48.05  0.001132367    1.833    0.454
       177  -9.2918    210.3659    183.5428   1.0344717649e+02   2.3865055144e+00    0.4641906    0.2004258 -35.17  0.001354744    2.513    0.602
       178  -8.9957    202.7529    184.4163   1.0513276420e+02   3.7132880669e+00    0.3629051    0.1915357 -47.42  0.001057198    2.060    0.515
       179  -9.1532    174.2801    183.5459   1.1083976220e+02   9.5749320371e+00    0.3596337    0.2509335 -69.62   0.00109194    1.951    0.487
       180  -9.0128     66.6239    184.4853   1.3483778893e+02   2.8573405792e+01    0.3705841    0.2248439  81.95  0.001504631    1.806    0.446
       181  -7.7809     12.7167    185.7502   1.4609684178e+02   3.4481219075e+01    0.1677898   0.06819423  48.36 0.0008826476    2.365    0.577
       182  -8.3624    224.1241    183.3604   1.0076064799e+02  -2.0489220344e-01    0.2329159    0.1779369 -24.45 0.0005967691    1.298    0.229
       183  -8.6925    197.1153    183.6967   1.0612230326e+02   4.9603968741e+00    0.2479239    0.1938988 -54.24 0.0006927029    1.447    0.309
       184  -8.0421      1.7910    183.7930   1.4803278208e+02   3.5866361021e+01    0.1583242   0.09960014  72.55  0.001053728    1.363    0.266
       185  -9.1197    240.7464    181.8238   9.7384952924e+01  -2.9826592578e+00    0.3282862    0.1711963 -46.88  0.001468856    2.172    0.540
       186  -8.9144     44.5097    182.4142   1.3933120523e+02   3.1876327590e+01    0.3533986     0.191748  72.73  0.001142869    2.015    0.504
       187  -9.2745    147.5397    180.7628   1.1612377016e+02   1.5522771483e+01     0.359493      0.26282  89.57 0.0009864545    1.803    0.445
       188  -8.0138     90.3523    182.2655   1.2927531337e+02   2.5546061061e+01    0.1257215    0.1107852 -15.64 0.0005007762    1.622    0.383
       189  -7.7565    235.2863    181.6568   9.8338919890e+01  -1.9733895224e+00    0.1291411    0.1091001 -68.58 0.0004511084    1.644    0.392
       190  -9.3567     25.7682    179.2269   1.4290368106e+02   3.4644126548e+01    0.5791227    0.2298464  81.54  0.002133809    4.124    0.758
       191  -8.5972    137.7577    179.5509   1.1808564622e+02   1.7705059831e+01    0.3521708    0.2309198  78.36  0.001482222    2.210    0.548
       192  -9.4080    191.5361    178.3613   1.0617503772e+02   7.0966506572e+00    0.3556519    0.2531308  59.32 0.0005465996    1.629    0.386
       193  -8.1148    169.7329    178.9802   1.1090670364e+02   1.1421272051e+01    0.2357632    0.1710822 -82.13  0.001051114    1.990    0.498
       194  -9.0764     35.7304    176.5519   1.4054336135e+02   3.4194840600e+01    0.4785758    0.2037203  85.77  0.001840049    3.547    0.718
       195  -9.4858    248.6444    176.5833   9.4914060818e+01  -3.5160413070e+00    0.4689885    0.2643145 -46.11  0.001926662    1.928    0.481
       196  -8.5284    250.5173    172.9076   9.3831000359e+01  -3.2417505854e+00    0.2799222    0.1474276 -37.12 0.0005296014    1.752    0.429
       197  -8.6328    231.2223    177.0796   9.8140751081e+01  -4.4657985518e-01    0.2902902     0.169084 -44.15 0.0007709828    1.768    0.434
       198  -8.4005    217.4185    177.3458   1.0079886471e+02   2.1341482932e+00    0.2370915    0.2179597 -51.45 0.0007113069    1.222    0.181
       199  -8.4291    205.0946    177.6725   1.0328197181e+02   4.4990044325e+00    0.2498693    0.1920828 -50.14 0.0007111219    1.417    0.294
       200  -8.5864    129.1646    177.5626   1.1966533173e+02   1.9795673272e+01    0.3100384    0.2196158 -88.26  0.001077725    1.784    0.440
       201  -9.0143    183.0965    176.1443   1.0747851246e+02   9.2550490812e+00    0.3474275     0.236554 -54.59 0.0006951035    1.642    0.391
       202  -9.3472    104.6689    174.9779   1.2484016711e+02   2.4836256007e+01    0.5991454    0.2886228  62.95  0.001968095    3.185    0.686
       203  -7.8843     97.7784    177.5643   1.2685530301e+02   2.5411083320e+01    0.1934594    0.1238885  53.95   0.00062497    1.547    0.354
       204  -8.8403     88.9858    176.9021   1.2876318060e+02   2.6992314239e+01    0.2889467       0.1962  85.06 0.0009182277    1.640    0.390
       205  -9.9339     57.1762    173.0969   1.3543761368e+02   3.2440556642e+01    0.7749184    0.3537918  84.05  0.002593936    4.391    0.772
       206  -9.3018    158.9215    175.1079   1.1249466986e+02   1.4435701437e+01     0.418723    0.2900502  82.19  0.001384418    2.165    0.538
       207 -10.7942     75.8940    170.4339   1.3078681649e+02   3.0489586347e+01     1.227033    0.4583839 -74.03  0.003729589    4.529    0.779
       208  -7.6671    241.4774    174.4904   9.5743137038e+01  -1.8914346897e+00    0.1370706    0.1227444 -10.87 3.796381e-05    1.002    0.002
       209  -8.4391    224.4006    174.2867   9.8829560809e+01   1.3325943070e+00    0.1927814    0.1289311 -46.73 0.0006351479    1.590    0.371
       210  -9.3521    175.7572    172.3322   1.0825247124e+02   1.1540756479e+01    0.3996585    0.2469191 -42.10 0.0007587785    1.674    0.403
       211  -8.2553    143.1077    172.9017   1.1560607918e+02   1.8107617088e+01    0.2328765    0.1941979  83.04 0.0006063681    1.315    0.239
       212  -9.0079    230.8488    170.8043   9.6895461679e+01   7.1516123583e-01    0.3430254    0.1916561 -45.82  0.001251162    1.872    0.466
       213  -8.2013    194.0575    172.5092   1.0443750014e+02   7.7174711767e+00    0.2253514    0.1424036  44.48  0.001022291    1.559    0.359
       214  -8.5220    134.6885    171.8552   1.1732849335e+02   2.0001725285e+01     0.270716    0.1987258 -74.04 0.0007680466    1.554    0.356
       215  -9.6185    121.3260    170.4317   1.2015619309e+02   2.2879124754e+01    0.4493141    0.2780379 -72.37  0.001063788    1.973    0.493
       216  -9.3611     44.9350    171.0376   1.3790691182e+02   3.4411582667e+01    0.3777347    0.1994953  85.69  0.001280961    2.213    0.548
       217  -8.5529    205.7564    170.3800   1.0161684728e+02   5.7352724136e+00    0.2564833    0.1737568 -51.82 0.0005582187    1.643    0.391
       218  -8.5086    198.5616    170.3641   1.0306211114e+02   7.2079657120e+00    0.3012612    0.2299441 -80.17 0.0009639783    1.914    0.478
       219  -7.6391     68.6748    171.2995   1.3258004972e+02   3.1318828218e+01    0.1397777   0.09206587  74.69 0.0003653288    1.633    0.388
       220  -8.2741    237.1368    169.8497   9.5549092033e+01  -3.0269083912e-01    0.1977625    0.1849023 -58.46 0.0005485219    1.270    0.213
       221  -9.2722    167.3805    168.7773   1.0933338704e+02   1.4023630414e+01    0.4031056    0.2754231  78.02  0.001090212    2.232    0.552
       222  -8.4732    149.8905    169.8049   1.1345109154e+02   1.7417369011e+01    0.2678871    0.2165789 -77.58 0.0008279572    1.403    0.287
       223  -8.3275    244.4590    169.0343   9.4076478331e+01  -1.5125452810e+00    0.2045923    0.1246715 -37.92 0.0004261155    1.534    0.348
       224  -8.3970    218.7974    168.3480   9.8635711960e+01   3.4954713453e+00    0.2345812    0.1865575 -46.73 0.0004796757    1.314    0.239
       225  -8.7258     88.4651    168.7014   1.2757547255e+02   2.8977439990e+01    0.2566114    0.1305686 -66.66 0.0008644537    1.989    0.497
       226  -8.7019    212.8981    163.6115   9.8753999921e+01   5.5591557855e+00    0.2770914    0.2052828 -46.30 0.0006033604    1.381    0.276
       227  -8.8095    111.6510    167.5753   1.2190200234e+02   2.5309693026e+01    0.3571206     0.211193  72.64  0.001106929    2.530    0.605
       228  -8.7230     13.0330    167.7175   1.4443236525e+02   3.8400752542e+01    0.2490829    0.1111215  81.03    0.0010105    2.615    0.618
       229  -9.1684    191.8366    166.3298   1.0358101680e+02   9.3928432857e+00    0.3976868    0.2054382 -45.66  0.001036592    1.976    0.494
       230  -8.9958    184.9894    166.5458   1.0506157501e+02   1.0786632506e+01    0.2743447    0.2090455 -62.65 0.0006240962    1.541    0.351
       231 -10.0990     94.9432    162.5058   1.2497982931e+02   2.9379333174e+01    0.8968384     0.531507 -88.69  0.003183059    2.485    0.598
       232  -9.1526     20.7537    166.2752   1.4265206148e+02   3.8025546230e+01    0.3498261    0.1683465  68.14  0.001527366    2.411    0.585
       233  -9.9333    136.6845    164.4257   1.1540322994e+02   2.1271524607e+01     0.646879    0.3235239  60.73  0.002250802    2.896    0.655
       234  -7.8347    250.6335    165.2195   9.2207084970e+01  -1.9865628532e+00    0.1931605    0.1169871 -28.23 0.0006357366    1.599    0.375
       235  -8.4615    233.8704    165.0922   9.5129777314e+01   1.1433251171e+00     0.210764    0.1866595 -54.06 0.0006899294    1.281    0.219
       236  -8.8333    159.5755    164.4208   1.1015396723e+02   1.6583417385e+01    0.3142878    0.2463826  78.82 0.0008077482    1.555    0.357
       237  -8.7377     13.0239    176.8232   1.4527069959e+02   3.6394089186e+01    0.2541898    0.1213775  69.96  0.001322606    2.212    0.548
       238  -9.4953     33.6449    163.5437   1.3952104455e+02   3.7373639720e+01    0.5274124    0.2168782  58.95  0.002237784    3.135    0.681
       239  -8.9236    246.0035    163.1639   9.2568658950e+01  -7.9816003939e-01    0.2392767    0.1812629 -32.90   0.00040835    1.210    0.174
       240  -8.1661    239.9230    164.1752   9.3848791645e+01   1.5733315390e-01    0.2013881    0.1836684 -52.06 0.0005543435    1.241    0.194
       241  -8.6377    205.0495    162.8725   1.0014063603e+02   7.3130989355e+00    0.2214349    0.1995769 -83.06 0.0004911632    1.320    0.242
       242  -9.2140      3.4155    162.3800   1.4594884445e+02   4.0373384056e+01    0.3626969    0.1645017  58.15  0.001888175    2.375    0.579
       243  -9.0817    177.4448    160.7897   1.0543034391e+02   1.3566003636e+01    0.3377002    0.2542479 -62.11 0.0008112747    1.521    0.342
       244  -8.8203    151.7528    160.9209   1.1119028835e+02   1.8978731800e+01    0.3296915    0.2327424 -71.42 0.0008894401    1.761    0.432
       245  -7.7971    222.2332    161.6386   9.6536976913e+01   4.0407821978e+00    0.1402949    0.1094348 -61.90  0.000214058    1.585    0.369
       246  -8.4698     60.5216    160.1807   1.3286119901e+02   3.5016004725e+01    0.3096306     0.183264  88.55  0.001044771    1.993    0.498
       247  -9.6290    250.2180    158.0017   9.0750197023e+01  -6.9263873099e-01     0.358702    0.1783942 -37.72  0.000826396    1.828    0.453
       248  -8.6610    227.3840    159.0619   9.5015634106e+01   3.4851342247e+00    0.2947024    0.2039138 -56.21 0.0009778996    1.743    0.426
       249  -8.1370    236.9994    159.0057   9.3259733160e+01   1.6168030922e+00    0.2109122    0.1699768 -65.82 0.0006143683    1.599    0.375
       250  -8.5741    196.6611    158.1926   1.0080867297e+02   9.9894728871e+00    0.2523547    0.2244285 -70.91   0.00071253    1.275    0.216
       251  -8.6352    128.1394    158.9168   1.1630601346e+02   2.4207722608e+01      0.28459    0.2331327 -86.18 0.0008535136    1.329    0.247
       252  -9.6456    105.9887    157.5639   1.2139385079e+02   2.8649988523e+01    0.5783103    0.4009516 -69.38  0.001146751    1.484    0.326
       253  -8.5023    188.0053    157.5550   1.0246442045e+02   1.1967308930e+01    0.2907909    0.2082976 -57.45 0.0007414503    1.573    0.364
       254  -9.1755    167.5490    157.3639   1.0685176108e+02   1.6407232036e+01    0.3540752      0.27819 -86.76  0.001074864    1.626    0.385
       255  -8.3789     79.2679    158.5717   1.2809771095e+02   3.2776216922e+01    0.1757889    0.1386107  25.94 0.0009473626    1.595    0.373
       256  -8.4974    217.9269    156.4871   9.6224708293e+01   5.8681855875e+00    0.2827246    0.1919384 -53.75 0.0008659752    1.669    0.401
       257  -9.0961    157.5856    155.8647   1.0876812064e+02   1.8859488530e+01    0.4042842    0.2399207 -55.25  0.001345829    1.817    0.450
       258  -9.3610    119.4703    155.2268   1.1764716570e+02   2.6726224668e+01    0.4375782    0.2833095 -80.37  0.001562284    2.119    0.528
       259  -8.3215    204.8027    155.3472   9.8530307051e+01   8.8215780914e+00    0.2518828    0.1951184 -50.02 0.0005846129    1.338    0.253
       260  -9.4357     81.6379    154.5432   1.2682881064e+02   3.3372007663e+01    0.4939341    0.2958274  86.49  0.001584534    2.386    0.581
       261  -9.3718     49.5157    155.2480   1.3476694637e+02   3.7536252473e+01    0.3539306    0.2094875  73.45  0.001515664    2.025    0.506
       262  -9.5567    242.7283    155.0150   9.1390795159e+01   1.2219072045e+00    0.2574705    0.1950392 -58.85 0.0003841303    1.608    0.378
       263  -8.7916    144.7135    154.5006   1.1145142563e+02   2.1867191928e+01    0.3815783    0.2443636 -46.07  0.001037295    1.580    0.367
       264  -9.7190    132.8449    153.0347   1.1395699071e+02   2.4621709965e+01    0.5251332    0.3504451  77.32  0.001568073    2.164    0.538
       265  -9.3342    133.4937    148.4948   1.1282424919e+02   2.5527885175e+01    0.3487981    0.3015178 -38.89  0.001300624    1.232    0.188
       266  -9.4758     67.9362    153.8102   1.3008107728e+02   3.5527254166e+01     0.413087    0.2593828  78.36  0.001301648    1.980    0.495
       267  -8.0762    232.6286    153.7632   9.2901333859e+01   3.4048207424e+00    0.2015115     0.125277 -46.37 0.0003452212    1.621    0.383
       268  -8.5830    151.7045    152.9762   1.0948775177e+02   2.0741813700e+01    0.2218549    0.1979465 -59.37  0.001139017    1.125    0.111
       269  -8.9581     19.8790    152.5679   1.4135548303e+02   4.1201708852e+01    0.2238481    0.1207433  73.83 0.0007706901    2.116    0.527
       270  -9.6450     29.0958    150.6041   1.3898566233e+02   4.0799464265e+01    0.4585004    0.2275095  76.17   0.00205394    2.772    0.639
       271  -9.4573    248.9014    149.4855   8.9143135273e+01   1.0141949363e+00    0.3510425    0.1795536 -40.69 0.0007990102    1.785    0.440
       272  -9.2066    243.2213    150.3984   9.0303923049e+01   1.9366989536e+00    0.2669728    0.1805003 -36.69 0.0009388781    1.356    0.263
       273  -8.9185    189.3043    150.2205   1.0054364671e+02   1.3178568620e+01     0.355329     0.243872 -60.33 0.0007992503    1.739    0.425
       274  -8.0741    182.4115    151.2332   1.0223434600e+02   1.4476158130e+01    0.2175288     0.143385 -55.03 0.0008072219    1.668    0.400
       275  -8.6727    162.6047    150.8444   1.0651382355e+02   1.8875409533e+01    0.3023601    0.1884369 -60.61 0.0008287131    1.910    0.476
       276  -8.6895     98.2265    150.6504   1.2198562166e+02   3.1623132474e+01    0.3088559    0.2120849 -85.73  0.001127226    1.778    0.438
       277  -9.1027    238.0136    150.1755   9.1158138982e+01   2.9874692939e+00    0.3547893    0.1559906  38.98  0.001377091    2.650    0.623
       278  -8.3352    212.9523    149.9363   9.5717604106e+01   8.1441097222e+00    0.2235787    0.1800836 -75.02 0.0005460031    1.596    0.374
       279  -9.9127     39.9644    147.9871   1.3604027251e+02   4.0303030950e+01    0.5322472    0.2664603  71.10  0.002258426    2.997    0.666
       280  -8.6864      2.8422    150.0723   1.4491327526e+02   4.3133680919e+01    0.2015019    0.1015761  78.10  0.001070694    2.138    0.532
       281  -8.6269    198.8806    149.0844   9.8309726738e+01   1.1323048986e+01    0.2316438    0.2021067 -73.78 0.0005782394    1.316    0.240
       282 -10.2028     89.0833    146.0801   1.2341329959e+02   3.4215956038e+01    0.7433752       0.3995 -81.06  0.002476024    3.159    0.683
       283  -8.9295    233.3039    147.7435   9.1453017888e+01   4.3587753133e+00    0.2661591    0.2166796 -29.53   0.00057577    1.163    0.140
       284 -10.1691    106.6291    144.6916   1.1867731570e+02   3.1560034121e+01    0.6946302    0.4198391  80.64  0.002163903    2.978    0.664
       285  -8.4766    104.5218    139.4691   1.1812004753e+02   3.3164117320e+01     0.263287    0.1969921 -17.00  0.000944062    1.948    0.487
       286  -8.9258     78.1681    147.1030   1.2637684635e+02   3.5657846644e+01    0.3480284    0.2205349  89.17  0.001014783    2.058    0.514
       287 -10.3896     54.7699    144.5032   1.3185251042e+02   3.9431245581e+01    0.7905664    0.4034558  79.05  0.002896594    3.732    0.732
       288  -9.7736     56.0193    136.0049   1.3011719581e+02   4.1280578128e+01    0.4641734     0.257032   5.74  0.001741144    4.307    0.768
       289  -8.2552    223.2036    146.9161   9.3100275700e+01   6.5706034644e+00    0.2151181    0.1920384 -60.07 0.0004284507    1.219    0.180
       290  -8.2200    206.9230    146.5333   9.6120585385e+01   1.0087399205e+01    0.2299818    0.1945978 -42.64 0.0005663277    1.155    0.134
       291 -10.2508    148.9217    144.8138   1.0831297200e+02   2.3146619127e+01    0.6185801    0.3920334 -75.78  0.001489864    2.509    0.601
       292  -9.0263    150.7328    136.3985   1.0593040704e+02   2.4625573440e+01    0.4882989    0.3034047  16.34  0.001672462    3.152    0.683
       293  -9.9007    139.0981    145.0701   1.1071343566e+02   2.5157984405e+01    0.5317578    0.3358961 -70.67  0.001391904    2.151    0.535
       294  -9.5918    139.6323    137.7263   1.0890726955e+02   2.6706837927e+01    0.4394419    0.3049571 -10.95   0.00172893    2.453    0.592
       295  -9.2571     13.5403    146.4424   1.4211387623e+02   4.3123983326e+01    0.3235913    0.1656926  64.16  0.001388522    2.313    0.568
       296  -9.7997    242.1713    138.0138   8.7756317135e+01   4.3357126352e+00    0.5055568    0.2642217 -53.75  0.002058483    2.355    0.575
       297  -9.1986    240.2343    145.2506   8.9688872248e+01   3.4292317627e+00    0.2659285    0.1765147 -38.16 0.0005826085    1.385    0.278
       298  -8.2357    175.4354    146.2588   1.0260849169e+02   1.7049444694e+01    0.2562997    0.1925403  75.44 0.0006881603    1.701    0.412
       299  -9.9051    125.0570    142.6719   1.1361681634e+02   2.8553235551e+01    0.5916891    0.3701828 -78.49  0.001533222    2.471    0.595
       300 -10.9418     68.9092    140.3403   1.2752849119e+02   3.8584642171e+01    0.9529682    0.4309807 -59.47  0.003603647    1.947    0.486
       301  -9.2864    246.9818    143.9686   8.8263640796e+01   2.3408339967e+00    0.2128563    0.1879769 -37.48 0.0004764207    1.060    0.057
       302  -8.0149    194.3914    144.1243   9.8087479455e+01   1.3298735288e+01    0.2194267    0.1389838 -53.47  0.000516525    1.726    0.421
       303  -8.8170    165.6517    144.1077   1.0428732136e+02   1.9667400836e+01    0.3160211    0.2190259  64.17 0.0009020616    1.706    0.414
       304  -9.2026      2.8119    141.8813   1.4408510795e+02   4.4953583980e+01    0.3630924    0.1715872  79.41  0.001297345    2.539    0.606
       305  -8.3950    181.9818    141.9453   1.0018667493e+02   1.6500091853e+01    0.2455497    0.1906449 -82.95 0.0005187444    1.683    0.406
       306  -8.3482    250.4617    140.9890   8.7037958414e+01   2.1923524334e+00    0.2141168     0.125159 -37.25 0.0004459991    1.540    0.351
       307  -9.8345     23.8657    138.3919   1.3866288341e+02   4.4084601698e+01    0.5172661    0.2496509  67.22  0.002255744    3.037    0.671
       308  -7.7837    218.5897    138.7803   9.2107414259e+01   9.0739529715e+00    0.2044948    0.1341426 -48.91  0.000430895    1.543    0.352
       309  -8.6087    172.3339    138.5589   1.0149198790e+02   1.9370486098e+01     0.318532    0.2424531 -79.24 0.0007199203    1.704    0.413
       310  -7.5479    235.2492    138.6217   8.9074885464e+01   5.6209979871e+00    0.1462055    0.1060861 -60.82 0.0004073184    1.646    0.392
       311 -10.0958    230.6713    135.4679   8.9162055936e+01   7.1407520193e+00    0.3288617    0.2688275 -27.77 0.0005553947    1.202    0.168
       312  -8.3074    207.4966    138.1311   9.4069668277e+01   1.1603699745e+01    0.2359898     0.205254 -81.59 0.0006055429    1.338    0.252
       313  -8.7225    197.5476    137.4195   9.5877225965e+01   1.3946773835e+01    0.3424419    0.2177436 -54.69  0.001014128    1.748    0.428
       314 -10.5141     83.4355    132.9122   1.2227646928e+02   3.8222568424e+01    0.5893563      0.33681 -68.71  0.001315132    1.931    0.482
       315  -8.9260     84.7562    122.9037   1.1979118509e+02   4.0361742281e+01    0.4598678    0.2785708  10.02  0.001778847    3.180    0.686
       316  -9.0079    162.6669    136.5426   1.0318782683e+02   2.1963718123e+01    0.2584233    0.1884363 -68.15 0.0006894903    1.658    0.397
       317  -9.5018     39.1773    136.0866   1.3448904007e+02   4.3155960698e+01    0.2847692     0.193671 -88.12 0.0008937085    1.497    0.332
       318  -8.7808    250.7194    130.1964   8.4626019643e+01   4.0247439124e+00    0.4142931    0.1183812 -35.43  0.001306028    3.526    0.716
       319  -9.0084    248.4185    135.3059   8.6123460299e+01   3.5810140946e+00    0.3018942    0.2072524 -42.68 0.0006798794    1.332    0.249
       320  -8.5843    246.8911    130.3308   8.5268893677e+01   4.7582811577e+00    0.2820856    0.1838139 -43.92 0.0006584309    1.409    0.290
       321  -7.9620    187.9724    135.9244   9.7494227407e+01   1.6398814079e+01      0.24577    0.1888093 -77.36 0.0006508159    1.676    0.403
       322 -10.0584    130.9707    118.6111   1.0642824274e+02   3.2812717301e+01    0.6330472    0.4290793 -83.89  0.002167217    2.371    0.578
       323 -10.0345    132.1310    131.3732   1.0926293530e+02   2.9709131939e+01    0.6896593    0.4362072 -81.68  0.002504914    2.797    0.642
       324  -9.6412    133.9825    125.2293   1.0731594752e+02   3.0706691471e+01     0.479311    0.2526441  29.11  0.001662502    2.851    0.649
       325  -8.9271    179.4131    134.1115   9.8881240227e+01   1.8710441712e+01    0.3897137    0.2445205 -60.63 0.0009680761    1.972    0.493
       326  -9.1066    112.8488    133.4280   1.1464663998e+02   3.3050660301e+01     0.389959    0.2778188  81.57  0.001023864    1.912    0.477
       327  -8.0063    237.5638    133.7509   8.7581291422e+01   6.0308462680e+00    0.2030131    0.1255899 -48.24  0.000932938    1.601    0.375
       328  -9.3396    143.1125    131.6746   1.0662997267e+02   2.7324305053e+01    0.4059454    0.2586377 -63.51  0.000707944    1.896    0.472
       329 -10.4241     98.2162    130.1319   1.1774733545e+02   3.6458592085e+01    0.7173916    0.3017431 -55.71  0.001904977    2.310    0.567
       330  -8.7585     99.7355    120.1474   1.1505699518e+02   3.8507880922e+01    0.4447019    0.2625632  12.43  0.001536421    3.641    0.725
       331 -10.4130     59.8461    124.9981   1.2708349414e+02   4.3388046033e+01     0.811132    0.4552642  87.53  0.003090894    3.278    0.695
       332  -9.0533     59.4734    115.0882   1.2520485004e+02   4.5729659769e+01    0.4359888    0.2303498 -30.52  0.001784195    2.893    0.654
       333  -8.4035    204.6760    130.4223   9.2803588788e+01   1.3739470251e+01    0.2719432    0.1753503 -49.75 0.0005989205    1.577    0.366
       334  -9.9995     73.1887    128.4349   1.2412150032e+02   4.0797115769e+01    0.6311777    0.2869037 -61.91  0.001564248    2.128    0.530
       335  -7.7660    220.5033    130.0246   8.9728091026e+01   1.0319283175e+01    0.2233521    0.1398529 -41.02 0.0005434297    1.507    0.337
       336  -8.0914    192.8256    130.1593   9.5107558151e+01   1.6471080212e+01    0.2094873     0.182833  -9.29  0.000483456    1.303    0.233
       337  -9.2444    168.4141    129.6113   1.0021087977e+02   2.2157508445e+01    0.3242896    0.2550706 -77.92 0.0007600299    1.558    0.358
       338  -9.7133    152.8701    128.1313   1.0342940391e+02   2.5973703094e+01    0.6694025    0.3012105 -45.79  0.001910283    2.199    0.545
       339  -8.0909      1.9686    130.4725   1.4302664895e+02   4.7544158026e+01    0.1524228   0.07515606  56.01 0.0008094055    2.493    0.599
       340  -7.9553    211.4202    129.2008   9.1219159583e+01   1.2471802907e+01     0.219848    0.1347191 -51.07 0.0005646077    1.703    0.413
       341 -10.8094     44.8579    123.5841   1.3092317650e+02   4.5461377964e+01       1.0433    0.5508372  84.65  0.003993676    3.664    0.727
       342 -10.0394    118.0508    125.5256   1.1145897195e+02   3.3873687702e+01    0.5491232    0.3668284  86.61  0.001462966    2.464    0.594
       343  -9.9071     12.8284    128.7482   1.4013619757e+02   4.7171039804e+01    0.5935124    0.2680837 -85.21  0.002388448    2.517    0.603
       344  -9.0766    179.1474    124.9402   9.6701885344e+01   2.0676499078e+01    0.3505004    0.2905654 -79.66 0.0008160924    1.406    0.289
       345  -8.4398    228.3790    125.2180   8.7210156541e+01   9.5160568319e+00    0.2163869    0.1265891 -47.87 0.0009429445    1.678    0.404
       346 -10.5596     28.3227    121.3512   1.3503119013e+02   4.7590024276e+01    0.9190457    0.4424854 -83.21  0.004031748    2.706    0.630
       347  -7.9217    188.6142    123.8690   9.4441474827e+01   1.8708116431e+01    0.2233115    0.1402985 -52.39 0.0004283101    1.681    0.405
       348  -7.8706    186.4696    129.5214   9.6269740394e+01   1.8051227621e+01    0.1545401    0.1507235 -62.36 0.0001978257    1.013    0.013
       349  -9.5171    158.7149    121.5896   1.0043054355e+02   2.6073999412e+01    0.4146103    0.2969002 -75.37  0.001071874    1.885    0.469
       350  -7.7468    203.1627    122.1278   9.1104262353e+01   1.5707194039e+01    0.2164061    0.1754009 -66.55  0.000581388    1.369    0.269
       351  -8.0247    194.8609    122.0477   9.2721355882e+01   1.7630566610e+01    0.2557442    0.1655412 -62.50 0.0005412063    1.947    0.486
       352  -8.9967    171.9645    121.6241   9.7440237916e+01   2.3025319048e+01    0.2936424    0.2223442 -53.90 0.0003728168    1.356    0.263
       353  -9.5145     70.9657    119.4347   1.2286914489e+02   4.3210017205e+01    0.4136704      0.23213 -68.54  0.001135382    1.982    0.495
       354 -10.0299    141.5165    118.3063   1.0371035813e+02   3.0622018314e+01    0.6440604    0.3171606 -51.61  0.001482824    2.135    0.532
       355  -9.7313      2.9713    117.4679   1.4117984665e+02   5.0357517859e+01    0.4449084     0.236816  78.26   0.00234154    2.426    0.588
       356  -9.6006    249.2052    116.2548   8.1762088580e+01   6.7651566611e+00     0.344186    0.2513392 -13.24 0.0009753188    1.746    0.427
       357  -7.7756    231.4872    117.5382   8.4897008245e+01   1.0255733107e+01    0.1469583    0.1343526 -53.19 0.0001709043    1.047    0.045
       358  -8.1079    219.3475    116.2120   8.6678546407e+01   1.3171859282e+01    0.2259289     0.127846 -47.16 0.0009510157    1.720    0.419
       359  -8.1894    185.7136    116.1824   9.3129125959e+01   2.0932762351e+01     0.245386    0.1871873 -59.93 0.0005990059    1.417    0.294
       360 -10.0922    109.2746    114.1904   1.1101365582e+02   3.8124565900e+01    0.6074505    0.3504005 -63.67  0.001524891    2.173    0.540
       361  -8.7877    109.0221    107.5086   1.0937647039e+02   3.9656168099e+01    0.3007205    0.1997746  25.09  0.001327968    1.900    0.474
       362  -8.4211    192.9336    115.0322   9.1370528641e+01   1.9469500750e+01    0.2780297    0.2049294 -48.73 0.0006478802    1.340    0.254
       363 -10.2257     92.8492    111.0875   1.1478143938e+02   4.1754059189e+01     0.981375    0.3970183 -50.75  0.002628324    2.290    0.563
       364 -10.1866     78.9244    112.4803   1.1906720429e+02   4.3656724447e+01    0.7808374     0.441568 -77.96  0.002903964    3.198    0.687
       365  -8.7095     78.2400    105.7407   1.1766508190e+02   4.5280316584e+01    0.3091999    0.2109877 -21.32 0.0009352335    1.935    0.483
       366  -8.2066    167.3874    114.3096   9.6597249211e+01   2.5608091862e+01    0.2202629    0.1453537 -51.78 0.0009348407    1.568    0.362
       367 -10.2201    133.6680    109.8942   1.0349262247e+02   3.4144983178e+01    0.7410603    0.3256212 -53.91  0.002298509    2.690    0.628
       368 -10.3328    121.8942    111.9340   1.0706888835e+02   3.6158580699e+01    0.5257868    0.3822658 -55.15  0.001229588    1.394    0.283
       369  -7.9528    153.3022    115.6548   1.0018418649e+02   2.8568316148e+01    0.1625728    0.1243151 -80.89 0.0007039198    1.684    0.406
       370  -8.7263    174.8755    112.0564   9.4371367350e+01   2.4314639761e+01    0.2482664    0.2046652 -74.56 0.0006531618    1.379    0.275
       371  -8.8096    159.1574    111.7333   9.7798283186e+01   2.8053427132e+01     0.271597    0.2085262 -56.71 0.0006234566    1.367    0.268
       372 -10.0825     66.4114    110.2412   1.2216201756e+02   4.5941380226e+01    0.5225028    0.3443842 -70.77  0.001887833    1.678    0.404
       373  -9.9236     14.1770    111.3800   1.3731783515e+02   5.0960480849e+01    0.3457391    0.2148644  60.75  0.002007823    2.078    0.519
       374  -8.3087    149.6401    109.8485   9.9540614584e+01   3.0626618629e+01    0.2248515    0.1423616 -52.88 0.0004567317    1.666    0.400
       375 -10.6559    248.7502    106.6115   7.9667044764e+01   8.5353627574e+00    0.6567336    0.2529216 -42.00  0.002555422    2.282    0.562
       376  -7.8001    182.7353    109.3749   9.2017003223e+01   2.2994622461e+01    0.1623723    0.1190736 -69.60  0.000355598    1.669    0.401
       377  -8.9175     43.2543    109.5201   1.2874447689e+02   4.8850265695e+01    0.2808304    0.1354971  22.50  0.001306253    2.728    0.633
       378  -8.1667    189.4078    108.2384   9.0363704776e+01   2.1635571110e+01    0.2203381    0.1409058 -50.90 0.0005023543    1.605    0.377
       379  -9.8762    150.6543    103.0416   9.7481465867e+01   3.1809092874e+01    0.7235932    0.3467778 -55.56  0.001735137    2.732    0.634
       380  -8.3674    151.4745     95.4481   9.5212027074e+01   3.3151434661e+01     0.294939    0.1463378  45.27 0.0009645607    2.048    0.512
       381  -9.2502    139.9656    104.8719   1.0057251493e+02   3.3839477270e+01    0.3671539    0.2799658 -80.44 0.0008230217    1.728    0.421
       382 -10.4716     45.6644    102.5666   1.2661038146e+02   5.0157396703e+01    0.6786211    0.4094273  77.64  0.002954772    3.133    0.681
       383 -10.5854     22.8934    102.7941   1.3341069616e+02   5.2209101152e+01      0.64292    0.3718112  81.40  0.002902218    2.745    0.636
       384  -8.7386    166.7095    104.4814   9.4179849144e+01   2.7772763666e+01    0.3066759    0.2434516 -62.97 0.0007224116    1.376    0.274
       385 -10.0723    128.5486    102.2126   1.0274873868e+02   3.6873075528e+01    0.3931046    0.2872733 -67.16 0.0007747495    1.681    0.405
       386 -10.5718    108.7757     98.8209   1.0713045989e+02   4.1581883526e+01    0.9040608    0.5350696  70.52  0.001096334    3.522    0.716
       387  -9.2134    107.6406     92.8584   1.0579661970e+02   4.3050082144e+01    0.4699874    0.3175209  20.43  0.002009796    1.930    0.482
       388  -7.7903     17.3095    104.3070   1.3529391926e+02   5.2299256512e+01     0.123748   0.07230617 -43.17 0.0003488947    1.615    0.381
       389  -9.1896      6.8928    103.2351   1.3808981738e+02   5.3235587228e+01    0.2498107    0.1414022 -82.29 0.0009654525    1.814    0.449
       390  -8.0802    175.6220    102.3448   9.1681867403e+01   2.6078507612e+01    0.2360566    0.1810743 -77.49  0.000776267    1.608    0.378
       391  -8.5495    159.7533    100.9061   9.4787220536e+01   3.0129545201e+01      0.28969    0.2041202 -58.62 0.0006573557    1.592    0.372
       392  -9.1963     82.0639     99.9558   1.1509977827e+02   4.5975603381e+01    0.3860638    0.2471902 -70.68  0.001085848    2.113    0.527
       393  -9.1278     94.9636     97.1044   1.1057867445e+02   4.4467770953e+01     0.303723    0.2363703 -63.54 0.0005498581    1.421    0.296
       394 -10.0411     63.9342     95.9036   1.1953343083e+02   4.9460445101e+01    0.4986797    0.3293273 -85.30  0.001650299    2.526    0.604
       395 -10.2666    123.7686     91.2728   1.0095269849e+02   4.0137723871e+01    0.5418537    0.4343565  22.33  0.001051576    1.413    0.292
       396  -7.9487    188.5953     93.7942   8.6795111684e+01   2.4593254781e+01    0.2200242    0.1381675 -50.03 0.0005949752    1.626    0.385
       397  -8.0614    164.8864     94.1209   9.1795930568e+01   3.0250390111e+01    0.2379736    0.2053791 -74.56 0.0004703858    1.267    0.211
       398  -9.4637    138.9167     92.1238   9.7314361556e+01   3.6676992242e+01    0.4999613    0.3354681 -63.47  0.001408527    1.925    0.481
       399  -8.1539    176.4550     93.3246   8.9109913991e+01   2.7620613125e+01    0.2525183    0.1885919  84.59 0.0006656172    1.666    0.400
       400  -8.8821     45.9745     92.5572   1.2429444821e+02   5.2320995359e+01    0.3421925    0.2002071  -0.88  0.001596996    2.736    0.634
       401  -9.5831      5.2299     92.3997   1.3681631170e+02   5.5668767086e+01    0.2936953    0.1893993  60.36  0.001255018    2.147    0.534
       402  -7.9846    158.1265     92.0926   9.2747719879e+01   3.2249692164e+01    0.2111034    0.1802774 -69.84 0.0003728392    1.285    0.222
       403  -9.6392     34.6419     89.5641   1.2718027887e+02   5.4090062897e+01    0.4138492     0.237574 -76.26  0.001755167    2.315    0.568
       404  -9.0546     23.0415     90.3267   1.3098621946e+02   5.4908772341e+01    0.2697229    0.1835465 -39.21  0.001548408    1.357    0.263
       405  -8.2948    151.1484     89.4251   9.3607890847e+01   3.4404759251e+01    0.2487357    0.2062095 -63.92 0.0005767868    1.328    0.247
       406 -10.0902     86.3525     86.3035   1.1013963743e+02   4.8186993607e+01     0.592627    0.3594794 -60.00   0.00185302    2.004    0.501
       407  -8.7255     64.8181     87.8736   1.1721314480e+02   5.1063317446e+01      0.31103    0.1762266   9.13  0.001303208    2.971    0.663
       408  -7.6088    164.0204     86.9938   9.0024000066e+01   3.1814000669e+01    0.1844695    0.1731168 -46.24 0.0003689438    1.070    0.065
       409  -9.7262     48.6343     84.6491   1.2154004335e+02   5.3715934188e+01    0.4428181    0.3025706  82.40   0.00179094    2.667    0.625
       410  -7.6698    179.4587     85.9532   8.6516187417e+01   2.8262301016e+01    0.2197947    0.1225185 -59.50 0.0008070261    2.391    0.582
       411  -9.6975    104.7769     83.2575   1.0384403158e+02   4.5538049283e+01    0.3929776    0.2946685 -66.26 0.0009436822    1.715    0.417
       412  -8.6742    105.2956     77.2492   1.0190002958e+02   4.6603572717e+01    0.3853611    0.2479852  22.00  0.001488975    1.990    0.498
       413  -9.7063     10.1029     81.3009   1.3327119142e+02   5.7713227835e+01     0.368583    0.2212302  70.43  0.001928554    2.943    0.660
       414  -8.6400    157.9285     83.9210   9.0506546053e+01   3.3844845770e+01    0.2709531    0.2027855 -49.69 0.0004829144    1.378    0.274
       415  -9.3027    140.7501     82.9038   9.4220585904e+01   3.8046375250e+01    0.3675904     0.243774 -50.96  0.001135139    1.624    0.384
       416  -7.4434    170.3414     83.6748   8.7757343783e+01   3.0899108200e+01    0.1615832    0.1192377 -77.65  0.000705111    1.732    0.423
       417  -9.7391     24.5286     80.1436   1.2833452061e+02   5.6939523878e+01    0.4190844    0.2536463 -80.17  0.001517147    2.336    0.572
       418  -8.5066    150.2385     80.6772   9.1326372554e+01   3.6264096434e+01    0.2648966    0.1984889 -49.83 0.0006583814    1.392    0.282
       419  -8.9775    119.2672     80.1790   9.8913867372e+01   4.3252408579e+01    0.3575036    0.2435519 -58.51 0.0009368496    1.801    0.445
       420  -8.9179     74.4991     80.3485   1.1209631578e+02   5.1250721439e+01    0.3315847    0.2121742 -63.66  0.001155749    2.046    0.511
       421  -8.4045    166.6999     79.8081   8.7446524487e+01   3.2482975127e+01    0.2507422    0.1869975 -33.92 0.0006070891    1.395    0.283
       422  -9.1589     65.3169     77.9984   1.1435516178e+02   5.3028115727e+01    0.2879706    0.2210798 -68.88  0.001356148    1.659    0.397
       423  -9.9949     63.4889     73.9919   1.1380014506e+02   5.4070552369e+01    0.5015589    0.2666539 -58.75  0.001924614    2.305    0.566
       424  -8.2825    184.3377     78.2296   8.3484638987e+01   2.8445593415e+01    0.2159099     0.132961 -46.18 0.0006745217    1.629    0.386
       425  -9.5787    128.3270     75.3924   9.5096644152e+01   4.2211882642e+01    0.4705121    0.2653152 -52.80 0.0009272632    2.143    0.533
       426  -8.0456    157.1579     76.2544   8.8492847657e+01   3.5419506932e+01    0.2087694    0.1738171 -68.66 0.0006388889    1.348    0.258
       427  -8.8567    140.4843     75.1788   9.2014646148e+01   3.9526888490e+01    0.3003588    0.1974224 -50.12 0.0009082197    1.657    0.396
       428  -8.4255    163.2149     73.6340   8.6438091368e+01   3.4417470831e+01    0.2521637    0.1987557 -49.90 0.0006589578    1.309    0.236
       429  -9.7098     82.2325     72.5503   1.0735828636e+02   5.1579487682e+01    0.4076653    0.2699741 -58.21  0.001140841    1.869    0.465
       430  -8.6547    151.3991     73.2705   8.8910086222e+01   3.7317843170e+01     0.214585    0.1378027 -47.92  0.000875148    1.650    0.394
       431  -8.8335    115.4947     72.5326   9.7611583376e+01   4.5453521109e+01    0.3165456    0.2229351 -48.91  0.001136365    1.524    0.344
       432  -8.0515     42.7078     72.6132   1.2036792417e+02   5.6814952175e+01    0.2066226    0.1439769 -68.54 0.0006682944    1.789    0.441
       433  -9.3717     29.4981     70.1508   1.2425256315e+02   5.8561303620e+01    0.5550498    0.2472764 -22.40  0.002216473    3.896    0.743
       434  -7.8057    175.2712     72.6116   8.3699311239e+01   3.1644347451e+01     0.204308    0.1367272  48.60  0.000393918    1.496    0.332
       435  -8.8608    105.8108     71.7293   1.0005743621e+02   4.7534016080e+01    0.2611149    0.2192419 -52.98 0.0005650704    1.319    0.242
       436  -9.2794     95.1464     71.2905   1.0302671452e+02   4.9609310241e+01    0.3302736    0.2294052 -52.47 0.0009729477    1.615    0.381
       437  -9.3524     51.4650     69.6632   1.1656401397e+02   5.6427348529e+01    0.4005827    0.2335877 -65.01   0.00144238    2.444    0.591
       438  -8.9804     16.8133     70.2468   1.2865470994e+02   5.9529269137e+01    0.2328684    0.1867204  85.53 0.0009012508    1.728    0.421
       439  -7.9210    157.3503     70.0989   8.6672836651e+01   3.6442456046e+01    0.2139305    0.1320027 -47.79 0.0003936685    1.724    0.420
       440  -9.0557    147.1603     68.2505   8.8388473578e+01   3.9183598249e+01    0.3028217    0.2289428 -49.66  0.000570269    1.411    0.291
       441  -8.8667    138.6456     66.3326   8.9793150044e+01   4.1487313319e+01    0.3236176    0.2057353 -53.87 0.0008252364    1.889    0.471
       442  -8.9410    121.6186     66.1425   9.3986959094e+01   4.5298594622e+01    0.3077091    0.2287958 -61.16 0.0008819428    1.719    0.418
       443  -8.4009     84.7523     64.4495   1.0403103252e+02   5.2661769310e+01    0.3591892     0.194188   3.91  0.001031683    5.874    0.830
       444  -8.7985     64.8047     63.3940   1.1015804483e+02   5.5908417916e+01    0.4280674    0.2426097  -5.19  0.001760666    3.148    0.682
       445  -8.8327     37.0849     64.3167   1.2002554960e+02   5.9005553239e+01    0.2636842    0.1848643 -73.03 0.0009787657    2.075    0.518
       446  -9.0875    110.1426     63.6191   9.6276596669e+01   4.8113259655e+01    0.2727613    0.2090337 -60.80 0.0007467112    1.680    0.405
       447  -7.3815    187.3383     63.6823   7.9020493035e+01   3.0135464105e+01    0.1563889    0.1100782 -73.97 0.0003804675    1.705    0.413
       448  -7.9996    158.1237     62.0972   8.4174521794e+01   3.7577901870e+01    0.1992856    0.1715304 -73.02 0.0004214309    1.283    0.220
       449  -8.0821     52.0377     62.0060   1.1409045626e+02   5.7815938858e+01     0.209579    0.1339511 -16.37 0.0008600781    1.775    0.437
       450  -8.9823    242.1505     60.9854   7.0256413297e+01   1.7479893329e+01    0.2157393    0.1849344  84.75 0.0003928457    1.145    0.127
       451  -9.6028     73.2851     59.5948   1.0612438284e+02   5.5358081840e+01    0.3769704    0.2182882 -51.02   0.00118428    1.975    0.494
       452  -8.4066    164.4697     59.9611   8.2258958050e+01   3.6371183243e+01    0.2135595    0.1449011 -37.00  0.000514306    1.523    0.343
       453  -7.8084    147.4583     59.4660   8.5684122415e+01   4.0552783505e+01    0.1443279    0.1395179  63.36 9.277651e-05    1.035    0.034
       454  -7.9731     88.9983     59.2849   1.0103335397e+02   5.2837999486e+01    0.1860691    0.1420459 -54.76 0.0005927039    1.616    0.381
       455  -9.9003     23.3772     56.4377   1.2275742312e+02   6.1715374882e+01     0.382982    0.2631988 -83.26  0.002045631    2.687    0.628
       456  -9.7145      7.4459     57.2985   1.2885528533e+02   6.2658372943e+01    0.3088669    0.1838678 -71.26  0.001120794    2.031    0.508
       457  -8.3763    130.8389     58.0970   8.9121756745e+01   4.4607026553e+01    0.2155987    0.1929159 -73.82 0.0005556517    1.314    0.239
       458  -9.4184     97.5708     60.4347   9.8835088347e+01   5.1093337620e+01    0.3377163    0.2858732 -39.49  0.001227427    1.224    0.183
       459  -9.2233    119.1329     55.6053   9.1270739790e+01   4.7563865771e+01    0.4561512    0.2184474 -44.70  0.001455632    2.336    0.572
       460  -9.6041     54.3184     55.6873   1.1129884141e+02   5.8682874407e+01    0.3252214    0.2053814 -54.01  0.001208742    1.839    0.456
       461  -8.3904    139.8535     56.1858   8.6392424922e+01   4.2848989447e+01    0.2177253    0.1949497 -71.93 0.0005220731    1.270    0.213
       462  -8.9174     44.0967     55.1981   1.1478993595e+02   5.9974468388e+01    0.3244191    0.1797017 -55.90  0.001420402    2.098    0.523
       463  -8.6002    105.8652     53.4199   9.4126759746e+01   5.0643280336e+01    0.2499575    0.1852027 -50.08 0.0006304474    1.596    0.373
       464  -9.5789     92.3263     50.4759   9.7051875420e+01   5.3686341157e+01    0.3868007    0.2249363 -45.00  0.001147615    1.915    0.478
       465  -7.7969    144.6583     49.2270   8.3169307748e+01   4.2766571397e+01    0.1907197    0.1355707 -19.32 0.0005632901    1.614    0.381
       466  -8.0694    129.9181     49.1177   8.6483872269e+01   4.6183402121e+01    0.2058771    0.1925716 -73.54 0.0004341862    1.226    0.184
       467  -8.6876    120.9131     47.5873   8.8189419632e+01   4.8395412824e+01    0.2402499    0.1966213 -37.23 0.0004693603    1.295    0.228
       468  -8.5128    112.0937     46.8657   9.0226578820e+01   5.0371946274e+01    0.2323584    0.1900194 -30.18 0.0006740041    1.254    0.203
       469  -8.8991     81.9865     46.4764   9.8847275665e+01   5.6126683152e+01    0.2272835     0.176044 -45.65  0.000678967    1.500    0.333
       470  -8.6274     45.0177     44.8228   1.1103485820e+02   6.1667146915e+01    0.2089925     0.149006 -38.00 0.0006303795    1.262    0.207
       471  -9.0671     16.6650     44.8404   1.2192522504e+02   6.4337672157e+01    0.1854233    0.1573703 -66.26 0.0005882508    1.577    0.366
       472  -8.6791    133.0303     43.6023   8.3983815412e+01   4.6262069818e+01    0.2555351    0.1876861 -51.75 0.0009554154    1.606    0.377
       473  -8.3846     92.9585     42.9885   9.4253238900e+01   5.4701036853e+01    0.2866157    0.1927651   9.38  0.001466172    1.755    0.430
       474  -9.1875     58.0734     42.3249   1.0540352562e+02   6.0429719566e+01    0.3463128    0.1861885 -51.26   0.00146859    2.507    0.601
       475  -8.3058     32.0093     44.4990   1.1584838911e+02   6.3096110468e+01     0.164069   0.08767325  -5.66 0.0008105873    2.582    0.613
       476  -9.5394      5.3214     42.2160   1.2563392288e+02   6.5553748700e+01    0.2927081    0.1831888 -71.33  0.001419924    2.323    0.570
       477  -9.3723     69.4824     41.6824   1.0121855276e+02   5.8877593707e+01    0.3154665    0.2240054 -48.01  0.001157907    1.734    0.423
       478  -8.8289    106.0227     41.2464   8.9934836788e+01   5.2415993074e+01    0.2725781     0.174381 -39.36 0.0007402637    1.684    0.406
       479  -8.6620     36.8496     40.7349   1.1271198033e+02   6.3241017057e+01    0.2167665    0.1500436 -42.27 0.0006873842    1.361    0.265
       480  -8.5636     95.3299     38.0584   9.1805711083e+01   5.4951388879e+01    0.2070075    0.1861614  83.11 0.0007665798    1.543    0.352
       481 -10.2260    138.5500     35.9449   8.0319075850e+01   4.6002885411e+01    0.3430072    0.2507133 -17.54 0.0004730771    1.541    0.351
       482  -8.5267     80.6480     36.7949   9.5782003210e+01   5.7777903731e+01    0.2144137    0.1528278 -36.20 0.0007215153    1.469    0.319
       483  -9.3971     26.1330     35.6278   1.1515276392e+02   6.5121396343e+01    0.2398695    0.1797263 -46.93 0.0008411938    1.447    0.309
       484  -8.2597    133.4025     36.1994   8.1513611624e+01   4.7159104868e+01    0.1872408    0.1247913 -42.25  0.000459329    1.667    0.400
       485  -8.0375    125.9029     35.8582   8.3098425860e+01   4.8897949047e+01    0.2054327    0.1673407  28.45 0.0003682826    1.203    0.169
       486  -8.5741    111.7156     34.8152   8.6202614969e+01   5.2102319935e+01    0.2340725     0.172502 -45.30 0.0005917964    1.607    0.378
       487  -8.8675    119.2148     33.1040   8.3755040926e+01   5.0716939419e+01    0.3559626    0.1381955 -34.60   0.00144876    2.665    0.625
       488  -8.0240     88.4040     34.2343   9.2454612283e+01   5.6756411129e+01    0.1740706    0.1149845 -39.52 0.0009409078    1.680    0.405
       489  -8.7470     48.5009     33.4800   1.0564693233e+02   6.3034894068e+01    0.2022017    0.1651143 -17.26 0.0005724018    1.084    0.077
       490  -8.6602     60.2945     32.5399   1.0099354295e+02   6.1582216385e+01    0.2050721    0.1819047 -42.94 0.0007042768    1.500    0.333
       491  -8.9401     72.1148     30.8883   9.6321373440e+01   6.0004531758e+01    0.2833187    0.1494718 -40.96  0.001125461    2.118    0.528
       492  -9.9362    248.5910    242.1370   1.0730489994e+02  -1.3011013111e+01    0.3696531    0.2133815 -32.45   0.00106554    1.810    0.448
       493  -8.8587     81.5487     27.6546   9.2076630812e+01   5.8831713352e+01    0.2338507    0.1906055 -60.40 0.0009601606    1.914    0.477
       494  -8.6319      3.6898     27.8260   1.2184807414e+02   6.8092677719e+01    0.1836511    0.1292428 -56.76  0.001086178    1.665    0.399
       495  -8.8952     91.8718     26.3605   8.8524356116e+01   5.7106367519e+01    0.2517585    0.1672627 -42.26 0.0007980677    1.830    0.453
       496  -7.5382    145.5299     26.4794   7.5939972772e+01   4.5501057032e+01    0.1358208    0.1225477  54.72 8.044328e-05    1.005    0.005
       497  -8.0483     34.2362     23.1801   1.0721847010e+02   6.6199210094e+01    0.1390384    0.1252337 -14.08 0.0005043914    1.376    0.273
       498  -7.6985    104.4722     22.5607   8.3718903621e+01   5.5062243178e+01    0.1290699    0.1124671  28.75 0.0001111407    1.015    0.015
       499  -8.9134     63.7078     21.3290   9.5403312495e+01   6.2553582603e+01     0.249595    0.1703728 -38.63 0.0009352168    1.716    0.417
       500  -8.7193     48.4897     21.8261   1.0108942697e+02   6.4665069342e+01    0.1851974    0.1697456 -19.99 0.0006363836    1.423    0.297
       501  -8.2072     19.5150     21.5206   1.1272041134e+02   6.7888999917e+01    0.1099136    0.0833756 -19.62 7.067242e-05    1.050    0.048
       502  -7.7890    120.5024     20.5322   7.9171477757e+01   5.1878694771e+01    0.1303681    0.1167184  42.05 0.0001379073    1.039    0.037
       503  -8.9977     73.9209     19.4825   9.1286233761e+01   6.1123821123e+01    0.2439712    0.1629465 -34.83 0.0007296258    1.661    0.398
       504  -8.5205    101.6541     29.6402   8.7013951476e+01   5.4808407282e+01    0.2319904    0.1820257 -67.61 0.0008329347    1.961    0.490
       505  -8.6026     87.7341     17.4680   8.6335305652e+01   5.8889092818e+01    0.2054361    0.1402225 -33.63 0.0005864748    1.638    0.389
       506  -8.4097     38.6957     18.2079   1.0340402756e+02   6.6364732611e+01    0.1661999    0.1253764 -31.92 0.0007126764    1.402    0.287
       507  -7.8131    112.6461     16.7979   7.9666136337e+01   5.3963534101e+01    0.1619621    0.1148353 -33.80 0.0002463677    1.586    0.369
       508  -9.1880    247.7906    234.9131   1.0619702374e+02  -1.1977333910e+01    0.2751678    0.1845413 -33.21 0.0008126354    1.591    0.372
       509  -7.9701     17.1930     14.4071   1.1089485155e+02   6.9105407251e+01    0.1256214   0.09210861  24.41 0.0004674209    1.604    0.376
       510  -9.5097    246.5861    229.5461   1.0546296097e+02  -1.1091362757e+01    0.4622572    0.2205365 -28.89  0.002347908    2.168    0.539
       511  -8.1121    191.7411    249.6177   1.1880437639e+02  -5.0577907236e+00    0.1769218   0.09945405  47.06 0.0006372278    1.640    0.390
       512  -9.1209    175.7448    247.6571   1.2149727678e+02  -2.0722550959e+00    0.3085355    0.2478738  89.08   0.00122278    1.760    0.432
       513  -8.8323    156.1684    248.4124   1.2528150007e+02   1.1502780349e+00    0.2467678    0.1715602  73.06 0.0007799637    1.884    0.469
       514  -8.3226      7.5829     15.7425   1.1575004401e+02   6.9692489740e+01     0.133626   0.08545885 -44.77 0.0004962684    1.567    0.362
       515  -8.0876    113.3267    248.8570   1.3330881615e+02   8.2279918980e+00    0.2146286    0.1093281 -71.67  0.001058709    2.541    0.606
       516  -9.0992    103.8975    247.0410   1.3483144202e+02   1.0053920689e+01     0.402898    0.2077806 -86.64  0.001828208    3.047    0.672
       517  -8.9720    243.0230    246.9626   1.0909278709e+02  -1.2794846723e+01    0.3217921     0.159032 -29.79   0.00165734    2.139    0.532
       518  -9.0287    232.9350    247.4066   1.1094802841e+02  -1.1345387288e+01    0.2432046    0.2102545  42.04  0.001099424    1.423    0.297
       519  -8.6817    132.2214    247.9437   1.2970582381e+02   5.2816472278e+00    0.2257779    0.1436625  62.15 0.0005343594    1.566    0.361
       520 -10.1414    224.1611    244.4148   1.1202914595e+02  -9.6016838886e+00    0.4251099    0.2458331 -46.03  0.001458042    2.294    0.564
       521  -9.0570    147.1961    246.0053   1.2664522733e+02   3.0757517382e+00    0.3009743    0.1954368  84.10  0.001515918    2.423    0.587
       522  -9.2146    120.1762    245.4132   1.3164332722e+02   7.7199262441e+00    0.3849109    0.2219248  78.40  0.001616126    2.515    0.602
